timestamp,excitement,frustration,meditation,engagementBoredom,blink,clench,laugh,smile,eyebrow,furrowBrow,lookLeft,lookRight,smirkLeft,smirkRight,winkLeft,winkRight,eeg0,eeg1,eeg2,eeg3,eeg4,eeg5,eeg6,eeg7,eeg8,eeg9,eeg10,eeg11,eeg12,eeg13,eeg14,eeg15,eeg16
597.3962,0.7300583,0.71438897,0.33333334,0.5522388,0,0.0,0.0,0.0,0.0,0.545896,0,0,0.0,0.0,0,0,96.0,0.0,0.0,4605.128205128206,3964.615384615385,4443.589743589744,4564.102564102564,4212.307692307693,4508.205128205129,4461.538461538462,4484.615384615385,4412.820512820514,4694.358974358975,4397.435897435898,4295.8974358974365,4228.717948717949,4574.358974358975
597.6464,0.8290816,0.7143953,0.33333334,0.5522388,0,0.0,0.0,0.0,0.0,0.2672995,0,0,0.0,0.0,0,0,128.0,0.0,0.0,4637.435897435898,3963.589743589744,4460.000000000001,4523.589743589744,4223.589743589744,4528.205128205129,4448.205128205129,4448.205128205129,4407.6923076923085,4703.076923076924,4399.48717948718,4296.923076923077,4213.333333333334,4548.717948717949
597.8966,0.8290816,0.7143953,0.33333334,0.5522388,0,0.0,0.0,0.0,0.0,0.08880427,0,0,0.0,0.0,0,0,31.0,0.0,0.0,4668.205128205129,3962.564102564103,4458.974358974359,4492.307692307693,4239.48717948718,4553.846153846154,4446.153846153847,4433.333333333334,4412.307692307693,4705.128205128206,4389.2307692307695,4298.461538461539,4221.025641025642,4544.615384615385
598.14685,0.75816846,0.8305356,0.33333334,0.5522388,0,0.0,0.0,0.0,0.0,1.0,0,0,0.0,0.0,0,0,63.0,0.0,0.0,4732.307692307693,3958.9743589743593,4471.794871794872,4458.461538461539,4225.641025641026,4543.076923076924,4469.743589743591,4466.666666666667,4421.538461538462,4711.794871794872,4402.564102564103,4279.48717948718,4223.589743589744,4553.333333333334
598.272,0.75816846,0.8305356,0.33333334,0.5522388,0,0.0,0.0,0.0,0.0,0.0,0,0,0.0,0.0,0,0,79.0,0.0,366.0,4721.025641025642,3964.615384615385,4473.846153846154,4460.512820512821,4232.307692307693,4546.666666666667,4487.179487179488,4465.128205128206,4403.076923076924,4723.076923076924,4397.435897435898,4283.076923076924,4208.717948717949,4555.8974358974365
598.55347,0.7393559,0.8745515,0.33333334,0.5522388,0,0.0,0.0,0.0,0.0,0.0,0,0,0.0,0.0,0,0,115.0,0.0,366.0,4680.512820512821,3960.0000000000005,4476.923076923077,4473.846153846154,4235.384615384616,4549.2307692307695,4479.48717948718,4490.256410256411,4416.923076923077,4736.923076923077,4397.435897435898,4287.6923076923085,4230.256410256411,4556.410256410257
598.8975,0.7393559,0.8745515,0.33333334,0.5522388,0,0.0,0.0,0.0,0.0,0.15902212,0,0,0.0,0.0,0,0,30.0,0.0,0.0,4679.48717948718,3970.2564102564106,4502.564102564103,4474.358974358975,4250.256410256411,4563.076923076924,4488.205128205129,4485.641025641026,4426.666666666667,4748.205128205129,4396.923076923077,4292.820512820514,4241.025641025642,4554.871794871796
599.1477,0.6999825,0.85499203,0.33333334,0.5522388,0,0.0,0.0,0.0,0.0,0.073383875,0,0,0.0,0.0,0,0,62.0,0.0,0.0,4651.282051282052,3956.410256410257,4495.384615384616,4458.974358974359,4247.6923076923085,4554.871794871796,4489.2307692307695,4477.948717948719,4425.641025641026,4753.333333333334,4394.358974358975,4268.205128205129,4243.076923076924,4552.820512820514
599.39795,0.6999825,0.85499203,0.33333334,0.5522388,0,0.0,0.0,0.0,0.0,0.036040276,0,0,0.0,0.0,0,0,94.0,0.0,586.0,4673.333333333334,3966.1538461538466,4506.153846153847,4461.538461538462,4253.846153846154,4560.512820512821,4503.076923076924,4500.512820512821,4444.615384615385,4771.794871794872,4401.025641025642,4281.025641025642,4250.769230769231,4556.923076923077
599.5543,0.66762364,0.8384507,0.33333334,0.5522388,0,0.0,0.0,0.0,0.0,0.0,0,0,0.0,0.0,0,0,114.0,0.0,586.0,4640.512820512821,3958.461538461539,4498.461538461539,4456.923076923077,4251.282051282052,4553.846153846154,4481.538461538462,4467.6923076923085,4413.333333333334,4742.051282051282,4400.000000000001,4280.000000000001,4224.615384615385,4548.717948717949
599.5543,0.66762364,0.8384507,0.33333334,0.5522388,0,0.0,0.0,0.0,0.0,0.0,0,0,0.0,0.0,0,0,114.0,0.0,586.0,4640.512820512821,3958.461538461539,4498.461538461539,4456.923076923077,4251.282051282052,4553.846153846154,4481.538461538462,4467.6923076923085,4413.333333333334,4742.051282051282,4400.000000000001,4280.000000000001,4224.615384615385,4548.717948717949
600.14856,0.67257476,0.768935,0.33333334,0.5522388,0,0.0,0.0,0.0,0.0,0.13064367,0,0,0.0,0.0,0,0,61.0,0.0,0.0,4666.153846153847,3983.076923076924,4513.333333333334,4472.820512820514,4251.282051282052,4554.358974358975,4474.358974358975,4437.948717948719,4404.615384615385,4732.820512820514,4400.512820512821,4278.461538461539,4226.666666666667,4568.717948717949
600.3988,0.67257476,0.768935,0.33333334,0.5522388,0,0.0,0.0,0.0,0.0,0.09150738,0,0,0.0,0.0,0,0,93.0,0.0,251.0,4628.717948717949,3961.0256410256416,4495.8974358974365,4447.6923076923085,4237.948717948719,4540.000000000001,4467.179487179487,4431.794871794872,4387.179487179487,4693.333333333334,4389.743589743591,4252.820512820514,4158.461538461539,4526.666666666667
600.649,0.64642334,0.7180664,0.33333334,0.5522388,0,0.0,0.0,0.0,0.0,0.021838425,0,0,0.0,0.0,0,0,125.0,0.0,251.0,4643.589743589744,3979.48717948718,4503.076923076924,4461.025641025642,4251.282051282052,4549.2307692307695,4469.743589743591,4405.128205128206,4375.8974358974365,4698.461538461539,4389.743589743591,4276.410256410257,4166.153846153847,4530.769230769231
600.89923,0.64642334,0.7180664,0.33333334,0.5522388,0,0.0,0.0,0.0,0.0,0.6162838,0,0,0.0,0.0,0,0,28.0,0.0,0.0,4615.384615384616,3965.1282051282055,4495.384615384616,4431.282051282052,4240.512820512821,4543.589743589744,4453.333333333334,4398.974358974359,4381.538461538462,4686.153846153847,4388.205128205129,4262.051282051282,4160.000000000001,4512.820512820514
601.1494,0.6122862,0.69482,0.33333334,0.5522388,0,0.0,0.0,0.0,0.0,0.281477,0,0,0.0,0.0,0,0,60.0,0.0,0.0,4585.641025641026,3926.666666666667,4486.153846153847,4417.435897435898,4250.256410256411,4547.6923076923085,4471.794871794872,4429.2307692307695,4405.641025641026,4715.8974358974365,4392.307692307693,4263.589743589744,4178.974358974359,4489.743589743591
601.39966,0.6122862,0.69482,0.33333334,0.5522388,0,0.0,0.0,0.0,0.0,0.14197262,0,0,0.0,0.0,0,0,92.0,0.0,0.0,4643.076923076924,3967.1794871794878,4497.435897435898,4443.589743589744,4240.512820512821,4545.128205128206,4462.564102564103,4420.000000000001,4394.871794871796,4711.794871794872,4390.769230769231,4266.666666666667,4184.615384615385,4516.410256410257
601.64984,0.5833589,0.70637965,0.33333334,0.5522388,0,0.0,0.0,0.0,0.0,0.23861624,0,0,0.0,0.0,0,0,124.0,0.0,0.0,4642.051282051282,3961.538461538462,4502.564102564103,4436.923076923077,4252.307692307693,4553.846153846154,4474.358974358975,4446.153846153847,4401.538461538462,4734.358974358975,4394.358974358975,4277.948717948719,4190.769230769231,4532.820512820514
601.9001,0.5833589,0.70637965,0.33333334,0.5522388,0,0.0,0.0,0.0,0.0,0.032383557,0,0,0.0,0.0,0,0,27.0,0.0,0.0,4642.564102564103,3965.6410256410263,4504.102564102564,4415.8974358974365,4243.076923076924,4547.179487179488,4467.179487179487,4364.615384615385,4395.384615384616,4721.538461538462,4396.923076923077,4277.948717948719,4176.410256410257,4525.641025641026
602.15027,0.527844,0.7465347,0.33333334,0.5522388,0,0.0,0.0,0.0,0.0,0.0,0,0,0.065466315,0.0,0,0,59.0,0.0,0.0,4654.358974358975,3954.358974358975,4482.564102564103,4411.794871794872,4232.820512820514,4532.820512820514,4469.2307692307695,4423.076923076924,4411.794871794872,4737.948717948719,4394.871794871796,4275.384615384616,4216.923076923077,4534.871794871796
602.4631,0.527844,0.7465347,0.33333334,0.5522388,0,0.0,0.0,0.0,0.0,0.0,0,0,0.13924484,0.0,1,0,99.0,0.0,366.0,4667.6923076923085,4009.7435897435903,4498.974358974359,4313.333333333334,4245.128205128206,4538.974358974359,4480.000000000001,4428.717948717949,4408.205128205129,4708.205128205129,4406.666666666667,4277.435897435898,4278.461538461539,4560.512820512821
602.6507,0.5472167,0.83595616,0.33333334,0.5522388,0,0.0,0.0,0.0,0.0,0.0,0,0,0.5540426,0.0,1,0,123.0,0.0,366.0,4616.923076923077,3914.358974358975,4465.128205128206,4377.435897435898,4245.128205128206,4515.384615384616,4426.666666666667,4461.538461538462,4360.000000000001,4636.923076923077,4384.615384615385,4258.974358974359,4145.128205128206,4512.307692307693
602.90094,0.5472167,0.83595616,0.33333334,0.5522388,0,0.0,0.0,0.0,0.0,0.0,0,0,0.15877455,0.0,0,0,26.0,0.0,0.0,4654.358974358975,3942.564102564103,4475.384615384616,4246.153846153847,4287.6923076923085,4564.615384615385,4467.6923076923085,4493.333333333334,4386.666666666667,4676.923076923077,4388.717948717949,4264.102564102564,4175.384615384616,4526.666666666667
603.1511,0.5554796,0.9216808,0.33333334,0.5522388,0,0.0,0.0,0.0,0.0,0.0,0,0,0.0,0.0,0,0,58.0,0.0,0.0,4646.666666666667,3987.692307692308,4479.48717948718,4218.974358974359,4297.435897435898,4572.820512820514,4427.179487179487,4413.333333333334,4335.8974358974365,4604.102564102564,4383.076923076924,4248.205128205129,4079.48717948718,4483.589743589744
603.4639,0.5554796,0.9216808,0.33333334,0.5522388,0,0.0,0.0,0.0,0.0,0.0,0,0,0.0,0.0,1,0,98.0,0.0,588.0,4731.282051282052,4180.000000000001,4482.051282051282,3540.512820512821,4373.333333333334,4645.641025641026,4536.410256410257,4530.256410256411,4444.102564102564,4739.48717948718,4392.307692307693,4275.384615384616,4206.666666666667,4514.871794871796
603.65155,0.6473395,1.0,0.33333334,0.5522388,0,0.0,0.27967224,0.0,0.0,0.0,0,0,0.0,0.0,1,0,122.0,0.0,588.0,4734.871794871796,4149.74358974359,4481.538461538462,3605.1282051282055,4371.282051282052,4649.743589743591,4542.051282051282,4532.820512820514,4458.461538461539,4767.179487179488,4397.435897435898,4282.564102564103,4237.435897435898,4526.666666666667
603.9018,0.6473395,1.0,0.33333334,0.5522388,0,0.0,0.11428821,0.0,0.0,0.0,0,0,0.0,0.0,0,0,25.0,0.0,0.0,4737.435897435898,4130.256410256411,4500.000000000001,3729.7435897435903,4363.076923076924,4646.153846153847,4530.256410256411,4515.384615384616,4454.358974358975,4772.820512820514,4399.48717948718,4282.051282051282,4245.128205128206,4536.923076923077
604.15204,0.65443647,1.0,0.33333334,0.5522388,0,0.0,0.15343596,0.0,0.0,0.0,0,0,0.0,0.0,0,0,57.0,0.0,0.0,4810.769230769231,4131.794871794872,4513.846153846154,3847.692307692308,4362.564102564103,4649.2307692307695,4524.615384615385,4503.589743589744,4445.128205128206,4795.384615384616,4410.769230769231,4309.743589743591,4322.564102564103,4600.512820512821
604.4022,0.65443647,1.0,0.33333334,0.5522388,0,0.0,0.27902138,0.0,0.0,0.0,0,0,0.0,0.0,0,0,89.0,0.0,251.0,4760.512820512821,4047.692307692308,4491.794871794872,3896.9230769230776,4324.615384615385,4616.410256410257,4502.564102564103,4489.743589743591,4433.333333333334,4777.435897435898,4410.256410256411,4302.564102564103,4273.333333333334,4594.871794871796
604.65247,0.6813397,1.0,0.33333334,0.5522388,0,0.0,0.0,0.0,0.0,0.15613411,0,0,0.0,0.0,0,0,121.0,0.0,251.0,4748.205128205129,4047.1794871794878,4495.8974358974365,3973.8461538461543,4320.000000000001,4609.743589743591,4494.871794871796,4470.769230769231,4413.846153846154,4736.923076923077,4402.564102564103,4308.717948717949,4208.205128205129,4569.743589743591
604.90265,0.6813397,1.0,0.33333334,0.5522388,0,0.0,0.0,0.0,0.0,0.115497686,0,0,0.0,0.0,0,0,24.0,0.0,0.0,4732.307692307693,4024.1025641025644,4485.641025641026,4020.5128205128212,4297.948717948719,4592.820512820514,4483.076923076924,4464.102564102564,4400.000000000001,4714.358974358975,4400.512820512821,4306.153846153847,4194.358974358975,4549.2307692307695
605.18414,0.6882261,1.0,0.33333334,0.5522388,0,0.0,0.16189161,0.0,0.0,0.0,0,0,0.0,0.0,1,0,60.0,0.0,0.0,4872.307692307693,4326.153846153847,4503.076923076924,3117.435897435898,4408.205128205129,4704.102564102564,4664.615384615386,4665.128205128206,4583.076923076924,4933.333333333334,4432.307692307693,4407.179487179487,4429.2307692307695,4682.051282051282
605.4031,0.6882261,1.0,0.33333334,0.5522388,0,0.0,0.1625006,0.0,0.0,0.0,0,0,0.0,0.0,1,0,88.0,0.0,0.0,4812.820512820514,4213.846153846154,4495.8974358974365,3354.8717948717954,4377.948717948719,4676.410256410257,4628.205128205129,4640.000000000001,4561.538461538462,4912.307692307693,4431.794871794872,4400.512820512821,4389.2307692307695,4661.538461538462
605.6533,0.815639,1.0,0.33333334,0.5522388,0,0.0,0.13784349,0.0,0.0,0.0,0,0,0.0,0.0,0,0,120.0,0.0,0.0,4789.743589743591,4162.564102564103,4501.538461538462,3595.3846153846157,4362.051282051282,4656.410256410257,4615.384615384616,4618.974358974359,4544.102564102564,4890.256410256411,4434.871794871796,4414.358974358975,4367.6923076923085,4658.461538461539
605.9035,0.815639,1.0,0.33333334,0.5522388,0,0.0,0.10208374,0.0,0.0,0.0,0,0,0.0,0.0,0,0,23.0,0.0,0.0,4763.589743589744,4116.923076923077,4501.538461538462,3771.2820512820517,4330.256410256411,4634.871794871796,4579.48717948718,4582.564102564103,4532.307692307693,4881.538461538462,4436.923076923077,4409.2307692307695,4348.205128205129,4635.384615384616
606.15375,0.9277623,1.0,0.33333334,0.5522388,0,0.0,0.36563635,0.0,0.0,0.0,0,0,0.0,0.0,0,0,55.0,0.0,0.0,4742.564102564103,4069.7435897435903,4500.000000000001,3909.2307692307695,4315.8974358974365,4615.8974358974365,4561.025641025642,4559.48717948718,4503.589743589744,4843.589743589744,4436.923076923077,4395.8974358974365,4300.512820512821,4633.846153846154
606.40393,0.9277623,1.0,0.33333334,0.5522388,0,0.0,0.2612103,0.0,0.0,0.0,0,0,0.0,0.0,0,0,87.0,0.0,367.0,4728.717948717949,4052.307692307693,4513.333333333334,4023.076923076924,4304.102564102564,4604.102564102564,4555.384615384616,4549.2307692307695,4496.410256410257,4833.333333333334,4438.974358974359,4395.8974358974365,4297.948717948719,4638.974358974359
606.6542,0.98748523,1.0,0.33333334,0.5522388,0,0.0,0.38537863,0.0,0.0,0.0,0,0,0.0,0.0,0,0,119.0,0.0,367.0,4721.025641025642,4032.307692307693,4515.384615384616,4118.461538461539,4295.8974358974365,4600.000000000001,4552.307692307693,4520.512820512821,4473.846153846154,4820.000000000001,4437.948717948719,4369.2307692307695,4293.846153846154,4648.205128205129
606.90436,0.98748523,1.0,0.33333334,0.5522388,0,0.0,0.0,0.0,0.0,0.0,0,0,0.0,0.0,0,0,22.0,0.0,0.0,4718.461538461539,4030.7692307692314,4518.461538461539,4189.74358974359,4289.2307692307695,4590.769230769231,4549.2307692307695,4532.820512820514,4473.846153846154,4783.589743589744,4434.358974358975,4362.564102564103,4244.615384615385,4643.589743589744
607.0607,0.98755777,1.0,0.33333334,0.5522388,0,0.0,0.0,0.0,0.0,0.0,0,0,0.0,0.0,0,0,42.0,0.0,0.0,4678.461538461539,4005.6410256410263,4511.794871794872,4217.948717948719,4283.076923076924,4580.000000000001,4544.102564102564,4527.6923076923085,4456.923076923077,4760.512820512821,4429.2307692307695,4350.256410256411,4204.615384615385,4625.641025641026
607.0607,0.98755777,1.0,0.33333334,0.5522388,0,0.0,0.0,0.0,0.0,0.0,0,0,0.0,0.0,0,0,42.0,0.0,0.0,4678.461538461539,4005.6410256410263,4511.794871794872,4217.948717948719,4283.076923076924,4580.000000000001,4544.102564102564,4527.6923076923085,4456.923076923077,4760.512820512821,4429.2307692307695,4350.256410256411,4204.615384615385,4625.641025641026
607.655,0.9523202,1.0,0.33333334,0.5522388,0,0.0,0.0,0.0,0.0,0.0,0,0,0.18327075,0.0,0,0,118.0,0.0,588.0,4701.025641025642,4008.717948717949,4517.435897435898,4319.48717948718,4258.461538461539,4558.461538461539,4522.051282051282,4513.333333333334,4442.564102564103,4774.871794871796,4433.846153846154,4365.128205128206,4216.923076923077,4625.641025641026
607.9052,0.9523202,1.0,0.33333334,0.5522388,0,0.0,0.0,0.0,0.0,0.0,0,0,0.27897894,0.0,0,0,21.0,0.0,0.0,4681.538461538462,3984.1025641025644,4518.974358974359,4352.820512820514,4269.2307692307695,4568.205128205129,4529.2307692307695,4524.615384615385,4453.846153846154,4786.666666666667,4435.8974358974365,4356.923076923077,4226.153846153847,4610.769230769231
608.15546,0.85049164,1.0,0.33333334,0.5522388,0,0.0,0.0,0.0,0.0,0.10183516,0,0,0.0,0.0,0,0,53.0,0.0,0.0,4664.102564102564,3961.0256410256416,4515.384615384616,4362.564102564103,4259.48717948718,4562.564102564103,4522.051282051282,4529.743589743591,4453.333333333334,4772.307692307693,4435.8974358974365,4345.641025641026,4224.102564102564,4611.794871794872
608.40564,0.85049164,1.0,0.33333334,0.5522388,0,0.0,0.0,0.0,0.0,0.14873785,0,0,0.0,0.0,0,0,85.0,0.0,246.0,4634.358974358975,3959.48717948718,4507.6923076923085,4381.025641025642,4260.000000000001,4563.589743589744,4518.461538461539,4501.538461538462,4429.743589743591,4739.48717948718,4427.179487179487,4323.589743589744,4175.8974358974365,4578.974358974359
608.6559,0.8297772,1.0,0.33333334,0.5522388,0,0.0,0.0,0.0,0.0,0.09171538,0,0,0.0,0.0,0,0,117.0,0.0,246.0,4614.358974358975,3958.461538461539,4498.461538461539,4384.615384615385,4246.666666666667,4544.102564102564,4489.2307692307695,4470.256410256411,4410.256410256411,4711.282051282052,4423.076923076924,4311.282051282052,4148.205128205129,4551.794871794872
608.781,0.8297772,1.0,0.33333334,0.5522388,0,0.0,0.0,0.0,0.0,0.0,0,0,0.0,0.0,0,0,4.0,0.0,582.0,4609.743589743591,3962.0512820512827,4497.948717948719,4397.948717948719,4246.666666666667,4548.717948717949,4489.743589743591,4473.846153846154,4396.410256410257,4695.8974358974365,4421.538461538462,4311.794871794872,4132.307692307693,4538.461538461539
609.1563,0.9225884,1.0,0.33333334,0.5522388,0,0.0,0.0,0.0,0.0,0.0,0,0,0.7568294,0.0,0,0,52.0,0.0,0.0,4622.051282051282,3960.0000000000005,4500.512820512821,4412.307692307693,4250.256410256411,4549.743589743591,4486.153846153847,4469.2307692307695,4398.461538461539,4711.282051282052,4420.000000000001,4310.769230769231,4158.461538461539,4534.358974358975
609.4065,0.9225884,1.0,0.33333334,0.5522388,0,0.0,0.0,0.0,0.0,0.0,0,0,0.0,0.0,0,0,84.0,0.0,0.0,4662.051282051282,3944.1025641025644,4508.717948717949,4413.846153846154,4254.871794871796,4553.333333333334,4510.769230769231,4515.8974358974365,4454.871794871796,4786.153846153847,4430.769230769231,4334.358974358975,4262.051282051282,4580.000000000001
609.5629,0.97883993,0.9994391,0.33333334,0.5522388,0,0.0,0.0,0.0,0.0,0.0,0,0,0.0,0.0,0,0,104.0,0.0,0.0,4646.666666666667,3945.6410256410263,4511.794871794872,4421.538461538462,4257.435897435898,4562.051282051282,4515.384615384616,4526.153846153847,4459.48717948718,4789.743589743591,4431.794871794872,4323.589743589744,4257.948717948719,4565.128205128206
609.907,0.97883993,0.9994391,0.33333334,0.5522388,0,0.0,0.0,0.0,0.0,0.049478836,0,0,0.0,0.0,0,0,19.0,0.0,0.0,4649.743589743591,3933.8461538461543,4510.256410256411,4423.589743589744,4255.384615384616,4556.923076923077,4519.48717948718,4517.435897435898,4454.358974358975,4794.871794871796,4431.794871794872,4330.256410256411,4264.102564102564,4570.256410256411
610.15717,0.9576581,0.9484368,0.33333334,0.5522388,0,0.0,0.0,0.0,0.0,0.041477416,0,0,0.0,0.0,0,0,51.0,0.0,0.0,4644.102564102564,3928.717948717949,4501.538461538462,4424.102564102564,4249.2307692307695,4548.717948717949,4498.974358974359,4494.358974358975,4435.8974358974365,4772.307692307693,4426.666666666667,4327.6923076923085,4250.769230769231,4558.974358974359
610.4074,0.9576581,0.9484368,0.33333334,0.5522388,0,0.0,0.0,0.0,0.0,0.08941476,0,0,0.0,0.0,0,0,83.0,0.0,367.0,4645.128205128206,3944.615384615385,4502.564102564103,4434.871794871796,4253.846153846154,4552.307692307693,4486.153846153847,4475.384615384616,4405.128205128206,4728.205128205129,4424.615384615385,4318.974358974359,4205.641025641026,4549.2307692307695
610.6576,0.932096,0.8915161,0.33333334,0.5522388,0,0.0,0.0,0.0,0.0,0.07031804,0,0,0.0,0.0,0,0,115.0,0.0,367.0,4629.743589743591,3947.692307692308,4502.564102564103,4434.358974358975,4250.256410256411,4545.128205128206,4470.769230769231,4468.717948717949,4400.000000000001,4699.48717948718,4413.846153846154,4311.794871794872,4152.307692307693,4506.666666666667
610.90784,0.932096,0.8915161,0.33333334,0.5522388,0,0.0,0.0,0.0,0.0,0.07379877,0,0,0.0,0.0,0,0,18.0,0.0,0.0,4631.794871794872,3961.0256410256416,4502.564102564103,4444.102564102564,4254.358974358975,4549.2307692307695,4468.717948717949,4443.076923076924,4387.6923076923085,4696.923076923077,4411.282051282052,4299.48717948718,4152.307692307693,4512.307692307693
611.158,0.96978825,0.83822227,0.33333334,0.5522388,0,0.0,0.0,0.0,0.0,1.0,0,0,0.0,0.0,0,0,50.0,0.0,0.0,4605.128205128206,3933.8461538461543,4497.435897435898,4432.307692307693,4245.641025641026,4546.153846153847,4469.2307692307695,4449.2307692307695,4396.410256410257,4692.820512820514,4408.717948717949,4287.179487179487,4136.923076923077,4512.307692307693
611.158,0.96978825,0.83822227,0.33333334,0.5522388,0,0.0,0.0,0.0,0.0,1.0,0,0,0.0,0.0,0,0,50.0,0.0,0.0,4605.128205128206,3933.8461538461543,4497.435897435898,4432.307692307693,4245.641025641026,4546.153846153847,4469.2307692307695,4449.2307692307695,4396.410256410257,4692.820512820514,4408.717948717949,4287.179487179487,4136.923076923077,4512.307692307693
611.65845,0.99129605,0.7739544,0.33333334,0.5522388,0,0.0,0.0,0.0,0.0,0.10045854,0,0,0.0,0.0,0,0,114.0,0.0,588.0,4643.589743589744,3933.333333333334,4500.000000000001,4442.564102564103,4249.74358974359,4546.666666666667,4482.564102564103,4472.820512820514,4418.974358974359,4742.051282051282,4415.8974358974365,4304.615384615385,4229.2307692307695,4551.282051282052
611.9087,0.99129605,0.7739544,0.33333334,0.5522388,0,0.0,0.0,0.0,0.0,0.16691527,0,0,0.0,0.0,0,0,17.0,0.0,0.0,4596.410256410257,3932.307692307693,4496.410256410257,4442.564102564103,4246.153846153847,4546.666666666667,4465.641025641026,4449.2307692307695,4400.000000000001,4705.641025641026,4406.666666666667,4296.923076923077,4158.974358974359,4520.000000000001
612.1589,0.9456717,0.74310166,0.33333334,0.5522388,0,0.0,0.0,0.0,0.0,0.23799285,0,0,0.0,0.0,0,0,49.0,0.0,0.0,4583.589743589744,3942.564102564103,4501.025641025642,4455.8974358974365,4257.948717948719,4552.820512820514,4471.794871794872,4458.461538461539,4416.923076923077,4720.000000000001,4405.641025641026,4280.000000000001,4172.820512820514,4521.025641025642
612.4091,0.9456717,0.74310166,0.33333334,0.5522388,1,0.0,0.0,0.0,0.0,0.0921099,0,0,0.0,0.0,0,0,81.0,0.0,246.0,4630.769230769231,3944.1025641025644,4511.794871794872,4457.948717948719,4261.538461538462,4558.461538461539,4482.564102564103,4462.564102564103,4419.48717948718,4738.974358974359,4411.282051282052,4307.179487179487,4227.6923076923085,4552.307692307693
612.6593,0.9319226,0.75909734,0.33333334,0.5522388,0,0.0,0.0,0.0,0.0,0.10271458,0,0,0.0,0.0,0,0,113.0,0.0,246.0,4636.923076923077,3931.7948717948725,4514.871794871796,4460.512820512821,4265.641025641026,4561.538461538462,4504.615384615385,4496.410256410257,4446.666666666667,4784.102564102564,4416.923076923077,4303.076923076924,4270.256410256411,4561.538461538462
612.90955,0.9319226,0.75909734,0.33333334,0.5522388,0,0.0,0.0,0.0,0.0,0.049565177,0,0,0.0,0.0,0,0,16.0,0.0,0.0,4618.974358974359,3923.076923076924,4505.128205128206,4444.102564102564,4262.564102564103,4555.384615384616,4489.2307692307695,4467.6923076923085,4426.666666666667,4755.384615384616,4410.769230769231,4294.871794871796,4238.974358974359,4553.333333333334
613.1597,0.8911542,0.77293986,0.33333334,0.5522388,0,0.0,0.0,0.0,0.0,0.16341484,0,0,0.0,0.0,0,0,48.0,0.0,0.0,4610.769230769231,3921.0256410256416,4506.153846153847,4446.153846153847,4261.538461538462,4556.410256410257,4498.974358974359,4484.102564102564,4437.435897435898,4764.102564102564,4414.871794871796,4294.358974358975,4244.102564102564,4565.641025641026
613.28485,0.8911542,0.77293986,0.33333334,0.5522388,0,0.0,0.0,0.0,0.0,0.0,0,0,0.0,0.0,0,0,64.0,0.0,414.0,4627.179487179488,3936.9230769230776,4510.769230769231,4454.358974358975,4261.025641025642,4558.461538461539,4496.410256410257,4484.615384615385,4437.948717948719,4772.820512820514,4416.410256410257,4295.384615384616,4259.48717948718,4575.384615384616
613.56635,0.83876973,0.77440125,0.33333334,0.5522388,0,0.0,0.0,0.0,0.0,0.0,0,0,0.0,0.0,0,0,100.0,0.0,0.0,4619.48717948718,3929.2307692307695,4512.307692307693,4451.794871794872,4269.2307692307695,4562.564102564103,4493.846153846154,4464.102564102564,4426.153846153847,4760.000000000001,4414.358974358975,4294.871794871796,4244.102564102564,4569.2307692307695
613.56635,0.83876973,0.77440125,0.33333334,0.5522388,0,0.0,0.0,0.0,0.0,0.0,0,0,0.0,0.0,0,0,100.0,0.0,0.0,4619.48717948718,3929.2307692307695,4512.307692307693,4451.794871794872,4269.2307692307695,4562.564102564103,4493.846153846154,4464.102564102564,4426.153846153847,4760.000000000001,4414.358974358975,4294.871794871796,4244.102564102564,4569.2307692307695
614.1606,0.7607631,0.7640867,0.33333334,0.5522388,0,0.0,0.0,0.0,0.0,0.092827484,0,0,0.0,0.0,0,0,47.0,0.0,0.0,4619.48717948718,3931.7948717948725,4498.974358974359,4445.128205128206,4260.000000000001,4549.743589743591,4474.871794871796,4469.2307692307695,4416.923076923077,4743.589743589744,4410.769230769231,4288.717948717949,4232.820512820514,4560.000000000001
614.4108,0.7607631,0.7640867,0.33333334,0.5522388,0,0.0,0.0,0.0,0.0,0.0,0,0,0.0,0.0,0,0,79.0,0.0,367.0,4629.2307692307695,3927.1794871794878,4500.000000000001,4441.025641025642,4264.102564102564,4551.794871794872,4472.307692307693,4470.256410256411,4420.512820512821,4745.641025641026,4414.871794871796,4281.538461538462,4227.6923076923085,4561.025641025642
614.5672,0.72055966,0.7315252,0.33333334,0.5522388,0,0.0,0.0,0.0,0.0,0.0,0,0,0.0,0.0,0,0,99.0,0.0,367.0,4635.384615384616,3944.1025641025644,4508.205128205129,4451.794871794872,4264.102564102564,4557.435897435898,4473.333333333334,4472.307692307693,4424.615384615385,4748.717948717949,4412.307692307693,4295.384615384616,4242.051282051282,4564.615384615385
614.5672,0.72055966,0.7315252,0.33333334,0.5522388,0,0.0,0.0,0.0,0.0,0.0,0,0,0.0,0.0,0,0,99.0,0.0,367.0,4635.384615384616,3944.1025641025644,4508.205128205129,4451.794871794872,4264.102564102564,4557.435897435898,4473.333333333334,4472.307692307693,4424.615384615385,4748.717948717949,4412.307692307693,4295.384615384616,4242.051282051282,4564.615384615385
615.1615,0.6828479,0.7014044,0.33333334,0.5522388,0,0.0,0.0,0.0,0.0,0.1115028,0,0,0.0,0.0,0,0,46.0,0.0,0.0,4603.076923076924,3938.461538461539,4500.512820512821,4445.128205128206,4260.512820512821,4558.461538461539,4478.974358974359,4464.615384615385,4414.358974358975,4729.743589743591,4408.205128205129,4263.076923076924,4214.358974358975,4545.128205128206
615.4117,0.6828479,0.7014044,0.33333334,0.5522388,0,0.0,0.0,0.0,0.0,0.0,0,0,0.0,0.0,0,0,78.0,0.0,588.0,4601.025641025642,3931.7948717948725,4496.923076923077,4441.025641025642,4258.461538461539,4550.769230769231,4470.769230769231,4447.6923076923085,4399.48717948718,4710.769230769231,4403.589743589744,4255.384615384616,4184.102564102564,4535.8974358974365
615.6619,0.64673305,0.65984523,0.33333334,0.5522388,0,0.0,0.0,0.0,0.0,0.14880583,0,0,0.0,0.0,0,0,110.0,0.0,588.0,4616.923076923077,3960.5128205128212,4504.102564102564,4451.282051282052,4258.974358974359,4553.846153846154,4467.179487179487,4443.076923076924,4390.769230769231,4689.2307692307695,4403.076923076924,4248.205128205129,4150.256410256411,4531.794871794872
615.9121,0.64673305,0.65984523,0.33333334,0.5522388,0,0.0,0.0,0.0,0.0,0.10963058,0,0,0.0,0.0,0,0,13.0,0.0,246.0,4586.153846153847,3945.1282051282055,4496.410256410257,4445.641025641026,4253.333333333334,4550.769230769231,4456.923076923077,4422.051282051282,4379.48717948718,4673.846153846154,4399.48717948718,4247.6923076923085,4132.820512820514,4508.717948717949
616.16235,0.67153317,0.648229,0.33333334,0.5522388,0,0.0,0.0,0.0,0.0,0.108165555,0,0,0.0,0.0,0,0,45.0,0.0,0.0,4601.025641025642,3935.8974358974365,4500.000000000001,4443.589743589744,4257.435897435898,4549.743589743591,4469.743589743591,4437.435897435898,4390.256410256411,4698.461538461539,4397.948717948719,4246.153846153847,4156.923076923077,4535.8974358974365
616.41254,0.67153317,0.648229,0.33333334,0.5522388,0,0.0,0.0,0.0,0.0,0.0,0,0,0.0,0.0,0,0,77.0,0.0,246.0,4585.128205128206,3935.3846153846157,4498.461538461539,4445.128205128206,4256.410256410257,4545.641025641026,4455.384615384616,4415.384615384616,4378.461538461539,4690.256410256411,4390.769230769231,4236.923076923077,4132.307692307693,4524.615384615385
616.5689,0.6848204,0.64285004,0.33333334,0.5522388,0,0.0,0.0,0.0,0.0,0.0,0,0,0.0,0.0,0,0,97.0,0.0,246.0,4614.358974358975,3936.9230769230776,4504.102564102564,4447.6923076923085,4257.435897435898,4552.820512820514,4466.666666666667,4439.48717948718,4398.974358974359,4704.615384615386,4395.384615384616,4249.74358974359,4159.48717948718,4536.410256410257
616.5689,0.6848204,0.64285004,0.33333334,0.5522388,0,0.0,0.0,0.0,0.0,0.0,0,0,0.0,0.0,0,0,97.0,0.0,246.0,4614.358974358975,3936.9230769230776,4504.102564102564,4447.6923076923085,4257.435897435898,4552.820512820514,4466.666666666667,4439.48717948718,4398.974358974359,4704.615384615386,4395.384615384616,4249.74358974359,4159.48717948718,4536.410256410257
617.1632,0.6341938,0.6407799,0.33333334,0.5522388,0,0.0,0.0,0.0,0.0,0.06686207,0,0,0.0,0.0,0,0,44.0,0.0,0.0,4648.205128205129,3948.717948717949,4511.282051282052,4454.871794871796,4257.948717948719,4547.6923076923085,4467.6923076923085,4428.717948717949,4394.358974358975,4716.410256410257,4398.461538461539,4260.000000000001,4195.8974358974365,4546.666666666667
617.4134,0.6341938,0.6407799,0.33333334,0.5522388,0,0.0,0.0,0.0,0.0,0.031568006,0,0,0.0,0.0,0,0,76.0,0.0,0.0,4629.743589743591,3933.333333333334,4497.435897435898,4444.615384615385,4247.6923076923085,4541.538461538462,4460.512820512821,4423.076923076924,4394.871794871796,4705.128205128206,4397.435897435898,4243.076923076924,4195.8974358974365,4544.102564102564
617.66364,0.6061495,0.6358623,0.33333334,0.5522388,0,0.0,0.0,0.0,0.0,1.0,0,0,0.0,0.0,0,0,108.0,0.0,0.0,4607.6923076923085,3930.7692307692314,4500.000000000001,4450.256410256411,4258.461538461539,4552.307692307693,4471.794871794872,4426.666666666667,4396.923076923077,4706.666666666667,4397.948717948719,4231.794871794872,4187.179487179487,4523.076923076924
617.9138,0.6061495,0.6358623,0.33333334,0.5522388,0,0.0,0.0,0.0,0.0,0.47227773,0,0,0.0,0.0,0,0,11.0,0.0,367.0,4584.615384615385,3920.5128205128212,4500.000000000001,4450.769230769231,4264.102564102564,4558.974358974359,4483.076923076924,4452.307692307693,4417.435897435898,4723.589743589744,4396.923076923077,4248.717948717949,4194.871794871796,4508.717948717949
618.16406,0.53962654,0.6174776,0.33333334,0.5522388,0,0.0,0.0,0.0,0.0,0.10912638,0,0,0.0,0.0,0,0,43.0,0.0,0.0,4611.794871794872,3929.2307692307695,4503.589743589744,4453.846153846154,4265.641025641026,4556.923076923077,4471.282051282052,4436.923076923077,4417.948717948719,4731.794871794872,4394.871794871796,4248.205128205129,4215.8974358974365,4520.512820512821
618.41425,0.53962654,0.6174776,0.33333334,0.5522388,0,0.0,0.0,0.0,0.0,0.03084829,0,0,0.0,0.0,0,0,75.0,0.0,368.0,4609.2307692307695,3917.435897435898,4498.974358974359,4442.051282051282,4254.358974358975,4548.205128205129,4453.846153846154,4429.2307692307695,4416.410256410257,4731.282051282052,4398.974358974359,4265.128205128206,4225.128205128206,4514.871794871796
618.6645,0.47240633,0.5839959,0.33333334,0.5522388,0,0.0,0.0,0.0,0.0,0.0,0,0,0.160983,0.0,0,0,107.0,0.0,368.0,4610.256410256411,3914.358974358975,4503.589743589744,4445.128205128206,4256.923076923077,4558.974358974359,4475.8974358974365,4452.820512820514,4430.769230769231,4735.8974358974365,4393.846153846154,4248.717948717949,4228.205128205129,4514.358974358975
618.9147,0.47240633,0.5839959,0.33333334,0.5522388,0,0.0,0.0,0.0,0.0,0.0,0,0,0.21400827,0.0,0,0,10.0,0.0,588.0,4616.923076923077,3936.410256410257,4503.076923076924,4451.794871794872,4248.717948717949,4548.717948717949,4461.025641025642,4422.564102564103,4406.153846153847,4714.358974358975,4393.846153846154,4258.461538461539,4209.74358974359,4520.000000000001
619.1649,0.39731416,0.5448623,0.33333334,0.5522388,0,0.0,0.0,0.0,0.0,0.05445819,0,0,0.0,0.0,0,0,42.0,0.0,0.0,4601.538461538462,3918.9743589743593,4499.48717948718,4443.076923076924,4248.205128205129,4551.794871794872,4468.205128205129,4435.8974358974365,4401.025641025642,4695.384615384616,4391.794871794872,4241.025641025642,4197.435897435898,4500.512820512821
619.4151,0.39731416,0.5448623,0.33333334,0.5522388,0,0.0,0.0,0.0,0.0,0.03243448,0,0,0.0,0.0,0,0,74.0,0.0,588.0,4611.794871794872,3914.358974358975,4501.538461538462,4443.589743589744,4257.435897435898,4556.410256410257,4472.307692307693,4452.820512820514,4417.435897435898,4704.615384615386,4391.282051282052,4248.717948717949,4196.410256410257,4510.256410256411
619.66534,0.37448093,0.5102578,0.33333334,0.5522388,0,0.0,0.0,0.0,0.0,0.32593805,0,0,0.0,0.0,0,0,106.0,0.0,588.0,4673.846153846154,3967.692307692308,4511.794871794872,4459.48717948718,4253.846153846154,4539.48717948718,4455.384615384616,4432.307692307693,4384.102564102564,4668.205128205129,4391.282051282052,4255.8974358974365,4197.948717948719,4537.948717948719
619.9155,0.37448093,0.5102578,0.33333334,0.5522388,0,0.0,0.0,0.0,0.0,0.11620564,0,0,0.0,0.0,0,0,9.0,0.0,515.0,4648.205128205129,3951.7948717948725,4506.153846153847,4451.794871794872,4257.435897435898,4544.102564102564,4453.846153846154,4431.794871794872,4380.512820512821,4672.820512820514,4385.641025641026,4249.2307692307695,4174.871794871796,4527.179487179488
620.1658,0.34380546,0.5134737,0.33333334,0.5522388,0,0.0,0.0,0.0,0.0,0.17413181,0,0,0.0,0.0,0,0,41.0,0.0,0.0,4622.564102564103,3935.3846153846157,4507.6923076923085,4449.743589743591,4269.2307692307695,4551.282051282052,4466.666666666667,4452.307692307693,4386.153846153847,4668.205128205129,4382.564102564103,4248.205128205129,4150.769230769231,4514.871794871796
620.416,0.34380546,0.5134737,0.33333334,0.5522388,0,0.0,0.0,0.0,0.0,0.15625791,0,0,0.0,0.0,0,0,73.0,0.0,515.0,4619.48717948718,3942.564102564103,4502.051282051282,4449.743589743591,4255.384615384616,4547.6923076923085,4471.282051282052,4442.051282051282,4372.307692307693,4675.8974358974365,4385.641025641026,4251.282051282052,4160.512820512821,4527.6923076923085
620.6662,0.30321327,0.51559013,0.33333334,0.5522388,0,0.0,0.0,0.0,0.0,0.11190074,0,0,0.0,0.0,0,0,105.0,0.0,246.0,4585.641025641026,3941.0256410256416,4497.948717948719,4445.641025641026,4253.846153846154,4544.615384615385,4468.717948717949,4434.358974358975,4353.846153846154,4632.307692307693,4377.435897435898,4236.410256410257,4102.051282051282,4514.358974358975
620.91644,0.30321327,0.51559013,0.33333334,0.5522388,0,0.0,0.0,0.0,0.0,0.11798264,0,0,0.0,0.0,0,0,8.0,0.0,468.0,4637.948717948719,3953.333333333334,4509.743589743591,4456.923076923077,4266.666666666667,4554.358974358975,4474.358974358975,4454.871794871796,4395.384615384616,4709.2307692307695,4387.179487179487,4254.871794871796,4187.6923076923085,4562.051282051282
621.1666,0.3360444,0.5317256,0.33333334,0.5522388,0,0.0,0.0,0.0,0.0,0.14644594,0,0,0.0,0.0,0,0,40.0,0.0,0.0,4634.358974358975,3921.0256410256416,4509.743589743591,4445.128205128206,4260.512820512821,4553.846153846154,4487.179487179488,4468.205128205129,4410.769230769231,4735.8974358974365,4393.333333333334,4257.948717948719,4222.564102564103,4581.538461538462
621.4169,0.3360444,0.5317256,0.33333334,0.5522388,0,0.0,0.0,0.0,0.0,0.09395748,0,0,0.0,0.0,0,0,72.0,0.0,468.0,4633.846153846154,3921.538461538462,4509.743589743591,4448.717948717949,4263.589743589744,4558.974358974359,4489.743589743591,4469.2307692307695,4412.820512820514,4750.769230769231,4392.307692307693,4252.307692307693,4241.025641025642,4588.205128205129
621.66705,0.33916652,0.5365155,0.33333334,0.5522388,0,0.0,0.0,0.0,0.0,0.0,0,0,0.0,0.0,0,0,104.0,0.0,0.0,4648.717948717949,3921.538461538462,4505.641025641026,4445.641025641026,4256.923076923077,4552.307692307693,4482.564102564103,4448.717948717949,4406.153846153847,4732.307692307693,4390.769230769231,4255.8974358974365,4222.051282051282,4581.025641025642
621.9173,0.33916652,0.5365155,0.33333334,0.5522388,0,0.0,0.0,0.0,0.0,0.043738622,0,0,0.0,0.0,0,0,7.0,0.0,494.0,4644.102564102564,3941.0256410256416,4505.128205128206,4454.358974358975,4253.846153846154,4550.256410256411,4476.923076923077,4430.256410256411,4382.051282051282,4705.641025641026,4389.743589743591,4256.410256410257,4189.2307692307695,4572.307692307693
622.1675,0.35533392,0.5273056,0.33333334,0.5522388,0,0.0,0.0,0.0,0.0,0.06311897,0,0,0.0,0.0,0,0,39.0,0.0,0.0,4677.948717948719,3946.666666666667,4496.923076923077,4446.153846153847,4230.256410256411,4525.128205128206,4436.923076923077,4398.461538461539,4373.846153846154,4717.435897435898,4392.307692307693,4263.589743589744,4227.6923076923085,4587.179487179488
622.4177,0.35533392,0.5273056,0.33333334,0.5522388,0,0.0,0.0,0.0,0.0,0.0,0,0,0.39541295,0.0,0,0,71.0,0.0,494.0,4661.538461538462,3936.9230769230776,4502.564102564103,4456.923076923077,4253.846153846154,4550.769230769231,4467.179487179487,4425.128205128206,4388.717948717949,4725.128205128206,4389.2307692307695,4260.512820512821,4221.025641025642,4567.6923076923085
622.6679,0.31144938,0.52962923,0.33333334,0.5522388,0,0.0,0.0,0.0,0.0,0.32303655,0,0,0.0,0.0,0,0,103.0,0.0,368.0,4674.871794871796,3941.0256410256416,4505.641025641026,4450.256410256411,4243.589743589744,4544.615384615385,4456.410256410257,4428.205128205129,4407.6923076923085,4726.666666666667,4395.8974358974365,4262.051282051282,4224.615384615385,4586.153846153847
622.91815,0.31144938,0.52962923,0.33333334,0.5522388,0,0.0,0.0,0.0,0.0,0.4056297,0,0,0.0,0.0,0,0,6.0,0.0,574.0,4660.000000000001,3928.717948717949,4501.538461538462,4444.102564102564,4248.205128205129,4543.589743589744,4467.6923076923085,4441.025641025642,4402.051282051282,4729.2307692307695,4390.256410256411,4278.461538461539,4202.564102564103,4572.307692307693
623.16833,0.33821693,0.51594967,0.33333334,0.5522388,0,0.0,0.0,0.0,0.0,0.042848043,0,0,0.0,0.0,0,0,38.0,0.0,0.0,4648.205128205129,3931.7948717948725,4502.564102564103,4446.153846153847,4251.282051282052,4544.102564102564,4466.153846153847,4435.8974358974365,4396.410256410257,4725.641025641026,4393.333333333334,4272.307692307693,4207.6923076923085,4577.435897435898
623.4186,0.33821693,0.51594967,0.33333334,0.5522388,0,0.0,0.0,0.0,0.0,0.28698933,0,0,0.0,0.0,0,0,70.0,0.0,574.0,4639.48717948718,3939.48717948718,4503.076923076924,4455.8974358974365,4249.74358974359,4550.769230769231,4467.179487179487,4442.051282051282,4405.641025641026,4736.923076923077,4391.282051282052,4278.974358974359,4200.000000000001,4564.102564102564
623.66876,0.33949804,0.4920937,0.33333334,0.5522388,0,0.0,0.0,0.0,0.0,0.07810264,0,0,0.0,0.0,0,0,102.0,0.0,588.0,4636.923076923077,3957.435897435898,4504.102564102564,4463.589743589744,4246.153846153847,4544.615384615385,4464.615384615385,4414.871794871796,4380.000000000001,4690.256410256411,4390.769230769231,4254.871794871796,4140.512820512821,4546.666666666667
623.919,0.33949804,0.4920937,0.33333334,0.5522388,0,0.0,0.0,0.0,0.0,0.11669242,0,0,0.0,0.0,0,0,5.0,0.0,579.0,4646.666666666667,3938.461538461539,4504.102564102564,4458.974358974359,4251.282051282052,4549.2307692307695,4469.743589743591,4412.820512820514,4379.48717948718,4693.333333333334,4389.743589743591,4246.153846153847,4150.256410256411,4544.102564102564
624.1692,0.32969204,0.46157125,0.33333334,0.5522388,0,0.0,0.0,0.0,0.0,0.0,0,0,0.0,0.0,0,0,37.0,0.0,0.0,4650.769230769231,3953.8461538461543,4498.974358974359,4461.538461538462,4242.051282051282,4540.512820512821,4455.8974358974365,4397.435897435898,4358.974358974359,4671.794871794872,4388.717948717949,4238.974358974359,4106.666666666667,4529.2307692307695
624.1692,0.32969204,0.46157125,0.33333334,0.5522388,0,0.0,0.0,0.0,0.0,0.0,0,0,0.0,0.0,0,0,37.0,0.0,0.0,4650.769230769231,3953.8461538461543,4498.974358974359,4461.538461538462,4242.051282051282,4540.512820512821,4455.8974358974365,4397.435897435898,4358.974358974359,4671.794871794872,4388.717948717949,4238.974358974359,4106.666666666667,4529.2307692307695
624.6696,0.34393945,0.42891756,0.33333334,0.5522388,0,0.0,0.0,0.0,0.0,0.05741631,0,0,0.0,0.0,0,0,101.0,0.0,246.0,4651.282051282052,3967.692307692308,4512.307692307693,4473.846153846154,4249.74358974359,4549.2307692307695,4457.435897435898,4409.2307692307695,4371.794871794872,4692.307692307693,4386.666666666667,4241.025641025642,4137.948717948719,4519.48717948718
624.91986,0.34393945,0.42891756,0.33333334,0.5522388,0,0.0,0.0,0.0,0.0,0.06397037,0,0,0.0,0.0,0,0,4.0,0.0,583.0,4670.769230769231,3954.358974358975,4513.333333333334,4468.717948717949,4255.8974358974365,4556.923076923077,4469.743589743591,4431.282051282052,4383.076923076924,4706.666666666667,4384.615384615385,4246.153846153847,4160.000000000001,4536.410256410257
625.17004,0.36735988,0.40552473,0.33333334,0.5522388,0,0.0,0.0,0.0,0.0,0.0870259,0,0,0.0,0.0,0,0,36.0,0.0,0.0,4634.358974358975,3921.538461538462,4496.923076923077,4457.435897435898,4254.358974358975,4555.384615384616,4468.205128205129,4437.435897435898,4380.000000000001,4702.051282051282,4385.641025641026,4229.74358974359,4151.282051282052,4527.179487179488
625.4203,0.36735988,0.40552473,0.33333334,0.5522388,0,0.0,0.0,0.0,0.0,0.086043134,0,0,0.0,0.0,0,0,68.0,0.0,583.0,4653.333333333334,3940.0000000000005,4501.025641025642,4457.435897435898,4248.205128205129,4547.179487179488,4460.000000000001,4428.717948717949,4380.512820512821,4702.564102564103,4385.641025641026,4229.2307692307695,4157.435897435898,4522.564102564103
625.57666,0.3201985,0.413751,0.33333334,0.5522388,0,0.0,0.0,0.0,0.0,0.0,0,0,0.0,0.0,0,0,88.0,0.0,0.0,4656.923076923077,3938.9743589743593,4498.461538461539,4452.307692307693,4238.461538461539,4540.000000000001,4462.564102564103,4430.256410256411,4384.102564102564,4694.871794871796,4387.179487179487,4222.051282051282,4149.2307692307695,4529.743589743591
625.57666,0.3201985,0.413751,0.33333334,0.5522388,0,0.0,0.0,0.0,0.0,0.0,0,0,0.0,0.0,0,0,88.0,0.0,0.0,4656.923076923077,3938.9743589743593,4498.461538461539,4452.307692307693,4238.461538461539,4540.000000000001,4462.564102564103,4430.256410256411,4384.102564102564,4694.871794871796,4387.179487179487,4222.051282051282,4149.2307692307695,4529.743589743591
626.17096,0.29655972,0.42097425,0.33333334,0.5522388,0,0.0,0.0,0.0,0.0,0.050083056,0,0,0.0,0.0,0,0,35.0,0.0,0.0,4649.743589743591,3922.0512820512827,4499.48717948718,4445.641025641026,4247.179487179487,4545.128205128206,4479.48717948718,4457.948717948719,4408.205128205129,4730.769230769231,4388.717948717949,4217.948717948719,4176.923076923077,4524.615384615385
626.42114,0.29655972,0.42097425,0.33333334,0.5522388,0,0.0,0.0,0.0,0.0,0.1148386,0,0,0.0,0.0,0,0,67.0,0.0,566.0,4618.974358974359,3927.1794871794878,4492.307692307693,4439.48717948718,4242.051282051282,4541.538461538462,4461.025641025642,4428.205128205129,4387.6923076923085,4712.307692307693,4387.6923076923085,4214.358974358975,4171.282051282052,4515.8974358974365
626.6714,0.24502167,0.4236835,0.33333334,0.5522388,0,0.0,0.0,0.0,0.0,0.03409686,0,0,0.0,0.0,0,0,99.0,0.0,368.0,4626.666666666667,3934.8717948717954,4495.384615384616,4445.641025641026,4246.153846153847,4542.051282051282,4464.102564102564,4422.564102564103,4389.2307692307695,4708.717948717949,4384.102564102564,4219.48717948718,4146.153846153847,4522.564102564103
626.9216,0.24502167,0.4236835,0.33333334,0.5522388,0,0.0,0.0,0.0,0.0,0.03370251,0,0,0.0,0.0,0,0,2.0,0.0,520.0,4639.48717948718,3947.692307692308,4497.948717948719,4449.743589743591,4248.205128205129,4546.666666666667,4466.666666666667,4429.743589743591,4381.538461538462,4696.410256410257,4384.102564102564,4232.820512820514,4145.128205128206,4520.000000000001
627.1718,0.2551545,0.42138928,0.33333334,0.5522388,0,0.0,0.0,0.0,0.0,0.08945016,0,0,0.0,0.0,0,0,34.0,0.0,0.0,4648.205128205129,3943.076923076924,4500.000000000001,4443.589743589744,4239.48717948718,4544.615384615385,4469.743589743591,4438.461538461539,4396.410256410257,4720.512820512821,4388.205128205129,4238.461538461539,4181.025641025642,4534.871794871796
627.2969,0.2551545,0.42138928,0.33333334,0.5522388,0,0.0,0.0,0.0,0.0,0.0,0,0,0.0,0.0,0,0,50.0,0.0,0.0,4653.333333333334,3926.1538461538466,4500.000000000001,4438.974358974359,4243.589743589744,4547.179487179488,4479.48717948718,4467.179487179487,4411.794871794872,4727.6923076923085,4389.743589743591,4246.666666666667,4198.461538461539,4542.051282051282
627.67224,0.26004988,0.4115065,0.33333334,0.5522388,0,0.0,0.0,0.0,0.0,0.035391238,0,0,0.0,0.0,0,0,98.0,0.0,589.0,4662.051282051282,3913.333333333334,4497.435897435898,4427.179487179487,4251.282051282052,4548.717948717949,4478.461538461539,4474.358974358975,4418.974358974359,4756.923076923077,4392.820512820514,4275.384615384616,4236.410256410257,4549.743589743591
627.9224,0.26004988,0.4115065,0.33333334,0.5522388,0,0.0,0.0,0.0,0.0,0.044429414,0,0,0.0,0.0,0,0,1.0,0.0,457.0,4643.076923076924,3916.9230769230776,4498.974358974359,4438.461538461539,4254.358974358975,4553.333333333334,4476.410256410257,4465.641025641026,4392.820512820514,4724.615384615386,4392.307692307693,4279.48717948718,4208.205128205129,4534.871794871796
628.17267,0.30276287,0.40501863,0.33333334,0.5522388,0,0.0,0.0,0.0,0.0,0.0,0,0,0.0,0.0,0,0,33.0,0.0,0.0,4657.435897435898,3929.2307692307695,4500.512820512821,4443.589743589744,4250.769230769231,4547.6923076923085,4468.717948717949,4466.666666666667,4402.564102564103,4733.333333333334,4390.256410256411,4280.000000000001,4205.641025641026,4536.923076923077
628.42285,0.30276287,0.40501863,0.33333334,0.5522388,0,0.0,0.0,0.0,0.0,1.0,0,0,0.0,0.0,0,0,65.0,0.0,457.0,4664.102564102564,3916.9230769230776,4501.025641025642,4445.128205128206,4252.820512820514,4552.820512820514,4487.6923076923085,4486.153846153847,4426.666666666667,4754.358974358975,4394.871794871796,4295.8974358974365,4237.948717948719,4542.051282051282
628.5792,0.31883025,0.39993313,0.33333334,0.5522388,0,0.0,0.0,0.0,0.0,1.0,0,0,0.0,0.0,0,0,85.0,0.0,246.0,4670.256410256411,3931.2820512820517,4509.743589743591,4444.102564102564,4256.923076923077,4555.384615384616,4497.435897435898,4488.205128205129,4418.974358974359,4756.923076923077,4392.820512820514,4294.358974358975,4238.461538461539,4546.666666666667
628.9233,0.31883025,0.39993313,0.33333334,0.5522388,0,0.0,0.0,0.0,0.0,0.0,0,0,0.0,0.0,0,0,0.0,0.0,414.0,4664.102564102564,3914.358974358975,4500.000000000001,4440.512820512821,4249.2307692307695,4547.6923076923085,4484.615384615385,4483.076923076924,4412.307692307693,4737.948717948719,4395.384615384616,4287.6923076923085,4227.179487179487,4542.564102564103
629.07965,0.3622804,0.40544358,0.33333334,0.5522388,0,0.0,0.0,0.0,0.0,0.0,0,0,0.0,0.0,0,0,20.0,0.0,0.0,4651.794871794872,3919.48717948718,4501.025641025642,4442.051282051282,4249.2307692307695,4546.666666666667,4479.48717948718,4465.128205128206,4404.615384615385,4729.743589743591,4392.307692307693,4286.666666666667,4221.025641025642,4534.358974358975
629.07965,0.3622804,0.40544358,0.33333334,0.5522388,0,0.0,0.0,0.0,0.0,0.0,0,0,0.0,0.0,0,0,20.0,0.0,0.0,4651.794871794872,3919.48717948718,4501.025641025642,4442.051282051282,4249.2307692307695,4546.666666666667,4479.48717948718,4465.128205128206,4404.615384615385,4729.743589743591,4392.307692307693,4286.666666666667,4221.025641025642,4534.358974358975
629.58014,0.37102196,0.4086274,0.33333334,0.5522388,0,0.0,0.0,0.0,0.0,0.0,0,0,0.0,0.0,0,0,84.0,0.0,0.0,4667.179487179488,3933.333333333334,4503.589743589744,4445.128205128206,4245.641025641026,4547.179487179488,4473.333333333334,4465.128205128206,4414.871794871796,4727.179487179488,4392.820512820514,4279.48717948718,4217.435897435898,4529.743589743591
629.92413,0.37102196,0.4086274,0.33333334,0.5522388,0,0.0,0.0,0.0,0.0,0.06290225,0,0,0.0,0.0,0,0,128.0,0.0,0.0,4650.769230769231,3943.076923076924,4505.641025641026,4447.179487179487,4252.820512820514,4550.769230769231,4475.384615384616,4455.384615384616,4414.871794871796,4706.666666666667,4388.717948717949,4278.974358974359,4181.025641025642,4516.410256410257
630.1744,0.33211926,0.4061493,0.33333334,0.5522388,0,0.0,0.0,0.0,0.0,0.11333366,0,0,0.0,0.0,0,0,31.0,0.0,0.0,4671.282051282052,3961.538461538462,4512.307692307693,4453.333333333334,4247.179487179487,4548.717948717949,4480.000000000001,4456.410256410257,4400.000000000001,4695.384615384616,4387.179487179487,4269.74358974359,4169.2307692307695,4518.974358974359
630.42456,0.33211926,0.4061493,0.33333334,0.5522388,0,0.0,0.0,0.0,0.0,0.0,0,0,0.17916352,0.0,0,0,63.0,0.0,0.0,4664.615384615386,3975.3846153846157,4500.512820512821,4449.2307692307695,4227.6923076923085,4529.743589743591,4438.974358974359,4399.48717948718,4362.564102564103,4656.923076923077,4381.538461538462,4270.769230769231,4130.256410256411,4516.923076923077
630.6748,0.3264717,0.40350822,0.33333334,0.5522388,0,0.0,0.0,0.0,0.0,0.03488609,0,0,0.0,0.0,0,0,95.0,0.0,368.0,4657.435897435898,3961.538461538462,4495.8974358974365,4443.589743589744,4228.205128205129,4530.256410256411,4443.589743589744,4408.717948717949,4368.205128205129,4657.435897435898,4382.051282051282,4267.179487179487,4128.717948717949,4511.794871794872
630.925,0.3264717,0.40350822,0.33333334,0.5522388,0,0.0,0.0,0.0,0.0,0.10524027,0,0,0.0,0.0,0,0,127.0,0.0,368.0,4623.589743589744,3949.2307692307695,4493.333333333334,4438.974358974359,4227.6923076923085,4529.2307692307695,4439.48717948718,4407.6923076923085,4364.615384615385,4663.076923076924,4382.051282051282,4261.025641025642,4129.2307692307695,4488.205128205129
631.17523,0.3279436,0.4025557,0.33333334,0.5522388,0,0.0,0.0,0.0,0.0,0.07130858,0,0,0.0,0.0,0,0,30.0,0.0,0.0,4650.769230769231,3949.7435897435903,4498.974358974359,4443.589743589744,4233.333333333334,4530.256410256411,4437.948717948719,4404.102564102564,4366.153846153847,4678.974358974359,4384.102564102564,4275.8974358974365,4154.871794871796,4507.6923076923085
631.4255,0.3279436,0.4025557,0.33333334,0.5522388,0,0.0,0.0,0.0,0.0,0.0481438,0,0,0.0,0.0,0,0,62.0,0.0,0.0,4647.6923076923085,3955.8974358974365,4502.051282051282,4447.179487179487,4244.102564102564,4539.48717948718,4453.333333333334,4432.820512820514,4390.769230769231,4703.589743589744,4385.641025641026,4280.512820512821,4186.666666666667,4506.666666666667
631.67566,0.38477165,0.40111506,0.33333334,0.5522388,0,0.0,0.0,0.0,0.0,0.06949515,0,0,0.0,0.0,0,0,94.0,0.0,589.0,4654.871794871796,3950.7692307692314,4497.435897435898,4442.051282051282,4236.410256410257,4533.846153846154,4449.2307692307695,4420.512820512821,4385.641025641026,4706.666666666667,4385.641025641026,4286.666666666667,4178.461538461539,4510.769230769231
631.9259,0.38477165,0.40111506,0.33333334,0.5522388,0,0.0,0.0,0.0,0.0,0.06788574,0,0,0.0,0.0,0,0,126.0,0.0,589.0,4663.076923076924,3946.1538461538466,4498.974358974359,4445.128205128206,4239.48717948718,4536.410256410257,4455.8974358974365,4421.025641025642,4385.641025641026,4709.743589743591,4385.128205128206,4294.871794871796,4177.948717948719,4503.076923076924
632.1761,0.33976638,0.39544833,0.33333334,0.5522388,0,0.0,0.0,0.0,0.0,0.060164943,0,0,0.0,0.0,0,0,29.0,0.0,0.0,4663.076923076924,3933.333333333334,4500.000000000001,4442.051282051282,4242.051282051282,4542.051282051282,4468.205128205129,4449.2307692307695,4406.666666666667,4719.48717948718,4386.153846153847,4311.282051282052,4194.358974358975,4505.128205128206
632.42633,0.33976638,0.39544833,0.33333334,0.5522388,0,0.0,0.0,0.0,0.0,0.05945281,0,0,0.0,0.0,0,0,61.0,0.0,0.0,4641.538461538462,3946.1538461538466,4505.641025641026,4447.179487179487,4249.2307692307695,4550.256410256411,4472.307692307693,4428.717948717949,4373.333333333334,4687.6923076923085,4381.025641025642,4304.615384615385,4162.564102564103,4491.794871794872
632.6765,0.3035604,0.3769699,0.33333334,0.5522388,0,0.0,0.0,0.0,0.0,0.067826875,0,0,0.0,0.0,0,0,93.0,0.0,246.0,4630.256410256411,3947.1794871794878,4501.025641025642,4444.102564102564,4238.974358974359,4540.000000000001,4465.128205128206,4448.717948717949,4394.871794871796,4698.974358974359,4376.923076923077,4297.435897435898,4159.48717948718,4480.512820512821
632.80164,0.3035604,0.3769699,0.33333334,0.5522388,0,0.0,0.0,0.0,0.0,0.0,0,0,0.0,0.0,0,0,109.0,0.0,246.0,4639.48717948718,3955.3846153846157,4500.512820512821,4446.666666666667,4246.153846153847,4548.205128205129,4456.410256410257,4427.6923076923085,4386.666666666667,4698.974358974359,4382.564102564103,4294.871794871796,4171.282051282052,4497.435897435898
633.0831,0.27537695,0.34989223,0.33333334,0.5522388,0,0.0,0.0,0.0,0.0,0.0,0,0,0.0,0.0,0,0,16.0,0.0,0.0,4629.2307692307695,3935.8974358974365,4497.435897435898,4444.102564102564,4246.153846153847,4548.205128205129,4452.820512820514,4423.076923076924,4374.358974358975,4693.333333333334,4378.974358974359,4280.000000000001,4153.846153846154,4487.6923076923085
633.4272,0.27537695,0.34989223,0.33333334,0.5522388,0,0.0,0.0,0.0,0.0,0.91079336,0,0,0.0,0.0,0,0,60.0,0.0,0.0,4621.538461538462,3937.9487179487182,4494.358974358975,4443.076923076924,4243.076923076924,4549.743589743591,4430.256410256411,4384.615384615385,4344.615384615385,4657.435897435898,4370.256410256411,4249.74358974359,4124.615384615385,4461.025641025642
633.67737,0.3163047,0.31784275,0.33333334,0.5522388,0,0.0,0.0,0.0,0.0,0.26444644,0,0,0.0,0.0,0,0,92.0,0.0,0.0,4634.358974358975,3938.461538461539,4499.48717948718,4444.615384615385,4242.564102564103,4545.641025641026,4424.102564102564,4375.8974358974365,4342.051282051282,4661.025641025642,4370.256410256411,4249.74358974359,4147.179487179487,4472.820512820514
633.9276,0.3163047,0.31784275,0.33333334,0.5522388,0,0.0,0.0,0.0,0.0,0.0,0,0,0.0,0.0,0,0,124.0,0.0,0.0,4686.666666666667,3932.820512820513,4496.923076923077,4441.538461538462,4238.461538461539,4539.48717948718,4434.358974358975,4402.051282051282,4368.205128205129,4712.307692307693,4377.435897435898,4265.128205128206,4213.846153846154,4518.974358974359
634.084,0.3649516,0.29760996,0.33333334,0.5522388,1,0.0,0.0,0.0,0.0,0.0,0,0,0.0,0.0,0,0,15.0,0.0,369.0,4703.076923076924,3921.0256410256416,4502.051282051282,4438.461538461539,4241.538461538462,4544.102564102564,4453.846153846154,4440.512820512821,4395.8974358974365,4742.051282051282,4382.051282051282,4273.333333333334,4243.589743589744,4535.8974358974365
634.42804,0.3649516,0.29760996,0.33333334,0.5522388,0,0.0,0.0,0.0,0.0,0.055510953,0,0,0.0,0.0,0,0,59.0,0.0,0.0,4658.974358974359,3915.3846153846157,4495.8974358974365,4428.717948717949,4240.000000000001,4540.512820512821,4465.128205128206,4435.384615384616,4387.179487179487,4720.000000000001,4377.948717948719,4262.564102564103,4181.025641025642,4509.743589743591
634.5844,0.35037583,0.30148292,0.33333334,0.5522388,0,0.0,0.0,0.0,0.0,0.0,0,0,0.0,0.0,0,0,79.0,0.0,369.0,4671.282051282052,3906.666666666667,4496.410256410257,4429.743589743591,4243.076923076924,4545.128205128206,4473.846153846154,4464.615384615385,4404.615384615385,4726.666666666667,4382.564102564103,4282.051282051282,4157.948717948719,4523.589743589744
634.92847,0.35037583,0.30148292,0.33333334,0.5522388,0,0.0,0.0,0.0,0.0,0.053370964,0,0,0.0,0.0,0,0,123.0,0.0,369.0,4667.6923076923085,3927.692307692308,4504.102564102564,4444.102564102564,4250.256410256411,4551.794871794872,4466.153846153847,4455.8974358974365,4408.717948717949,4748.717948717949,4385.128205128206,4292.307692307693,4182.051282051282,4533.333333333334
635.17865,0.38171956,0.30881703,0.33333334,0.5522388,0,0.0,0.0,0.0,0.0,0.17060865,0,0,0.0,0.0,0,0,26.0,0.0,0.0,4650.769230769231,3935.8974358974365,4501.538461538462,4438.974358974359,4238.974358974359,4544.102564102564,4472.307692307693,4452.820512820514,4400.000000000001,4731.282051282052,4383.076923076924,4264.102564102564,4173.333333333334,4522.051282051282
635.4289,0.38171956,0.30881703,0.33333334,0.5522388,0,0.0,0.0,0.0,0.0,0.02086248,0,0,0.0,0.0,0,0,58.0,0.0,0.0,4650.256410256411,3932.307692307693,4498.974358974359,4440.512820512821,4248.205128205129,4547.6923076923085,4487.179487179488,4462.051282051282,4406.666666666667,4737.435897435898,4384.102564102564,4278.461538461539,4181.025641025642,4522.564102564103
635.6791,0.35429746,0.3163276,0.33333334,0.5522388,0,0.0,0.0,0.0,0.0,0.0,0,0,0.19480985,0.0,0,0,90.0,0.0,589.0,4654.871794871796,3941.0256410256416,4504.615384615385,4444.615384615385,4252.307692307693,4550.769230769231,4483.076923076924,4453.846153846154,4405.128205128206,4737.435897435898,4387.179487179487,4297.948717948719,4189.2307692307695,4525.128205128206
635.9293,0.35429746,0.3163276,0.33333334,0.5522388,0,0.0,0.0,0.0,0.0,0.28881425,0,0,0.0,0.0,0,0,122.0,0.0,589.0,4610.769230769231,3933.333333333334,4502.564102564103,4446.666666666667,4256.923076923077,4560.000000000001,4488.205128205129,4467.6923076923085,4418.974358974359,4742.564102564103,4384.102564102564,4292.820512820514,4181.025641025642,4509.743589743591
636.1795,0.34614393,0.29996496,0.33333334,0.5522388,0,0.0,0.0,0.0,0.0,0.13804208,0,0,0.0,0.0,0,0,25.0,0.0,0.0,4632.820512820514,3935.3846153846157,4503.076923076924,4443.589743589744,4247.6923076923085,4546.153846153847,4471.794871794872,4451.282051282052,4409.743589743591,4733.333333333334,4382.564102564103,4281.025641025642,4196.410256410257,4516.923076923077
636.42975,0.34614393,0.29996496,0.33333334,0.5522388,0,0.0,0.0,0.0,0.0,0.0,0,0,0.0,0.0,0,0,57.0,0.0,0.0,4644.102564102564,3937.435897435898,4501.538461538462,4443.589743589744,4248.205128205129,4545.641025641026,4480.000000000001,4455.384615384616,4403.589743589744,4721.538461538462,4384.615384615385,4265.641025641026,4184.615384615385,4521.025641025642
636.68,0.29556543,0.2914062,0.33333334,0.5522388,0,0.0,0.0,0.0,0.0,0.083460316,0,0,0.0,0.0,0,0,89.0,0.0,246.0,4635.8974358974365,3935.3846153846157,4495.8974358974365,4442.051282051282,4236.410256410257,4537.435897435898,4466.666666666667,4442.051282051282,4395.384615384616,4709.743589743591,4381.538461538462,4259.48717948718,4174.871794871796,4513.333333333334
636.9302,0.29556543,0.2914062,0.33333334,0.5522388,0,0.0,0.0,0.0,0.0,0.04109978,0,0,0.0,0.0,0,0,121.0,0.0,246.0,4642.051282051282,3955.3846153846157,4504.102564102564,4453.846153846154,4243.076923076924,4545.641025641026,4453.333333333334,4448.717948717949,4399.48717948718,4722.051282051282,4382.564102564103,4260.000000000001,4191.282051282052,4521.025641025642
637.08655,0.28277633,0.29216737,0.33333334,0.5522388,0,0.0,0.0,0.0,0.0,0.0,0,0,0.0,0.0,0,0,12.0,0.0,0.0,4648.205128205129,3966.1538461538466,4513.333333333334,4461.538461538462,4250.769230769231,4550.769230769231,4470.256410256411,4438.974358974359,4389.2307692307695,4711.282051282052,4380.512820512821,4260.512820512821,4189.74358974359,4517.948717948719
637.4306,0.28277633,0.29216737,0.33333334,0.5522388,0,0.0,0.0,0.0,0.0,0.57465965,0,0,0.0,0.0,0,0,56.0,0.0,0.0,4672.307692307693,3961.538461538462,4514.871794871796,4460.512820512821,4249.74358974359,4546.153846153847,4466.153846153847,4432.820512820514,4382.564102564103,4712.307692307693,4383.076923076924,4264.102564102564,4189.74358974359,4532.820512820514
637.68085,0.23762059,0.29666406,0.33333334,0.5522388,0,0.0,0.0,0.0,0.0,0.14345858,0,0,0.0,0.0,0,0,88.0,0.0,0.0,4671.282051282052,3954.8717948717954,4510.769230769231,4457.948717948719,4247.179487179487,4544.615384615385,4472.307692307693,4442.564102564103,4391.282051282052,4723.076923076924,4377.435897435898,4269.2307692307695,4198.461538461539,4535.8974358974365
637.931,0.23762059,0.29666406,0.33333334,0.5522388,0,0.0,0.0,0.0,0.0,0.0,0,0,0.0,0.0,0,0,120.0,0.0,0.0,4644.102564102564,3944.1025641025644,4499.48717948718,4453.333333333334,4241.025641025642,4541.538461538462,4457.435897435898,4420.512820512821,4367.179487179487,4684.615384615386,4374.871794871796,4259.48717948718,4151.794871794872,4517.435897435898
638.0874,0.22270882,0.30560786,0.33333334,0.5522388,0,0.0,0.0,0.0,0.0,0.0,0,0,0.0,0.0,0,0,11.0,0.0,369.0,4665.641025641026,3952.307692307693,4513.333333333334,4460.000000000001,4255.384615384616,4552.820512820514,4474.358974358975,4442.051282051282,4388.205128205129,4716.923076923077,4377.435897435898,4267.6923076923085,4189.74358974359,4534.358974358975
638.0874,0.22270882,0.30560786,0.33333334,0.5522388,0,0.0,0.0,0.0,0.0,0.0,0,0,0.0,0.0,0,0,11.0,0.0,369.0,4665.641025641026,3952.307692307693,4513.333333333334,4460.000000000001,4255.384615384616,4552.820512820514,4474.358974358975,4442.051282051282,4388.205128205129,4716.923076923077,4377.435897435898,4267.6923076923085,4189.74358974359,4534.358974358975
638.5878,0.25431284,0.35724577,0.33333334,0.5522388,0,0.0,0.0,0.0,0.0,0.0,0,0,0.0,0.0,0,0,75.0,0.0,369.0,4687.6923076923085,3960.5128205128212,4508.717948717949,4464.102564102564,4240.000000000001,4541.025641025642,4457.948717948719,4444.615384615385,4378.974358974359,4706.666666666667,4378.461538461539,4278.974358974359,4182.564102564103,4542.051282051282
638.5878,0.25431284,0.35724577,0.33333334,0.5522388,0,0.0,0.0,0.0,0.0,0.0,0,0,0.0,0.0,0,0,75.0,0.0,369.0,4687.6923076923085,3960.5128205128212,4508.717948717949,4464.102564102564,4240.000000000001,4541.025641025642,4457.948717948719,4444.615384615385,4378.974358974359,4706.666666666667,4378.461538461539,4278.974358974359,4182.564102564103,4542.051282051282
639.08826,0.2836941,0.40438452,0.33333334,0.5522388,0,0.0,0.0,0.0,0.0,0.0,0,0,0.0,0.0,0,0,10.0,0.0,589.0,4590.256410256411,3824.1025641025644,4493.846153846154,4976.410256410257,4177.948717948719,4480.512820512821,4376.410256410257,4366.153846153847,4299.48717948718,4594.871794871796,4362.051282051282,4227.179487179487,4060.5128205128212,4478.974358974359
639.4323,0.2836941,0.40438452,0.33333334,0.5522388,0,0.0,0.15647726,0.0,0.0,0.0,0,0,0.0,0.0,0,0,54.0,0.0,0.0,4492.820512820514,3564.615384615385,4497.948717948719,5881.025641025642,4096.410256410257,4394.358974358975,4234.871794871796,4193.333333333334,4160.512820512821,4438.461538461539,4334.358974358975,4170.769230769231,3916.410256410257,4382.564102564103
639.68256,0.45965078,0.4467824,0.33333334,0.5522388,0,0.0,0.06200383,0.0,0.0,0.0,0,0,0.0,0.0,0,0,86.0,0.0,589.0,4540.000000000001,3624.615384615385,4501.538461538462,5794.871794871796,4100.000000000001,4395.8974358974365,4241.025641025642,4194.871794871796,4168.717948717949,4465.641025641026,4331.794871794872,4177.435897435898,3980.0000000000005,4404.102564102564
639.93274,0.45965078,0.4467824,0.33333334,0.5522388,0,0.0,0.5263166,0.0,0.0,0.0,0,0,0.0,0.0,0,0,118.0,0.0,589.0,4526.666666666667,3771.794871794872,4509.743589743591,5650.256410256411,4092.820512820513,4388.205128205129,4211.282051282052,4158.974358974359,4146.666666666667,4452.307692307693,4324.102564102564,4171.282051282052,3970.2564102564106,4378.974358974359
640.183,0.6144927,0.48494047,0.33333334,0.5522388,0,0.0,0.0,0.0,0.0,0.06480453,0,0,0.0,0.0,0,0,21.0,0.0,0.0,3974.8717948717954,4923.589743589744,4398.461538461539,5766.153846153847,3812.307692307693,4101.025641025642,3714.8717948717954,3657.9487179487182,3691.794871794872,3892.307692307693,4228.717948717949,3930.2564102564106,3385.641025641026,4025.1282051282055
640.43317,0.6144927,0.48494047,0.33333334,0.5522388,0,0.0,0.0,0.0,0.0,0.082730666,1,0,0.0,0.0,0,0,53.0,0.0,0.0,4047.692307692308,4781.025641025642,4407.179487179487,5524.615384615386,3876.9230769230776,4165.641025641026,3818.9743589743593,3747.692307692308,3772.820512820513,4015.3846153846157,4225.641025641026,3944.615384615385,3501.538461538462,4057.435897435898
640.6834,0.7594625,0.51928276,0.33333334,0.5522388,0,0.0,0.0,0.0,0.0,0.09263963,0,0,0.0,0.0,0,0,85.0,0.0,242.0,3799.48717948718,6403.076923076924,4438.461538461539,3547.1794871794878,3844.1025641025644,4161.025641025642,3705.6410256410263,3624.1025641025644,3657.9487179487182,3903.076923076924,4187.179487179487,3868.205128205129,3575.3846153846157,3955.3846153846157
640.9336,0.7594625,0.51928276,0.33333334,0.5522388,0,0.0,0.0,0.0,0.0,0.0,0,0,0.8331192,0.0,0,0,117.0,0.0,242.0,4053.333333333334,5651.282051282052,4455.384615384616,3680.0000000000005,3984.1025641025644,4283.589743589744,3937.435897435898,3878.461538461539,3913.333333333334,4305.641025641026,4209.2307692307695,3951.2820512820517,4222.564102564103,4092.307692307693
641.18384,0.7594625,0.5501908,0.33333334,0.5522388,0,0.0,0.0,0.0,0.0,0.0,0,0,0.42206413,0.0,0,0,20.0,0.0,0.0,4322.564102564103,5052.820512820514,4469.743589743591,3783.589743589744,4103.589743589744,4391.794871794872,4182.051282051282,4132.307692307693,4128.717948717949,4561.538461538462,4231.282051282052,4016.410256410257,4443.076923076924,4213.333333333334
641.434,0.7594625,0.5501908,0.33333334,0.5522388,0,0.0,0.0,0.0,0.0,0.0,0,1,0.10881571,0.0,0,0,52.0,0.0,0.0,4491.282051282052,4644.615384615385,4468.717948717949,3876.410256410257,4158.974358974359,4451.282051282052,4311.282051282052,4270.769230769231,4238.461538461539,4635.8974358974365,4253.333333333334,4069.7435897435903,4261.538461538462,4303.589743589744
641.68427,0.87832695,0.57800806,0.33333334,0.5522388,0,0.0,0.0,0.0,0.0,0.0,0,1,0.09834938,0.0,0,0,84.0,0.0,0.0,4806.153846153847,3917.435897435898,4487.6923076923085,3862.0512820512827,4344.615384615385,4633.846153846154,4626.666666666667,4600.512820512821,4520.000000000001,4933.333333333334,4301.538461538462,4185.128205128206,4513.846153846154,4496.410256410257
641.93445,0.87832695,0.57800806,0.33333334,0.5522388,0,0.0,0.0,0.0,0.0,0.053055175,0,1,0.0,0.0,0,0,116.0,0.0,0.0,4925.128205128206,3888.717948717949,4516.923076923077,3990.7692307692314,4344.102564102564,4642.051282051282,4659.48717948718,4633.846153846154,4541.025641025642,4932.307692307693,4314.871794871796,4216.410256410257,4549.743589743591,4583.589743589744
642.1847,0.9829277,0.60304356,0.33333334,0.5522388,0,0.0,0.0,0.0,0.0,0.15380386,0,0,0.0,0.0,0,0,19.0,0.0,0.0,4869.743589743591,3854.8717948717954,4498.974358974359,4066.666666666667,4314.871794871796,4614.358974358975,4611.794871794872,4589.743589743591,4500.000000000001,4867.179487179488,4314.871794871796,4211.282051282052,4478.974358974359,4550.256410256411
642.43494,0.9829277,0.60304356,0.33333334,0.5522388,0,0.0,0.0,0.0,0.0,0.0,0,0,0.54022974,0.0,0,0,51.0,0.0,0.0,4860.000000000001,3818.9743589743593,4502.051282051282,4140.000000000001,4327.179487179487,4631.282051282052,4616.923076923077,4597.948717948719,4530.769230769231,4868.717948717949,4323.589743589744,4216.410256410257,4451.794871794872,4555.384615384616
642.6851,1.0,0.62557554,0.33333334,0.5522388,0,0.0,0.0,0.0,0.0,0.0,0,0,0.23322861,0.0,0,0,83.0,0.0,373.0,4611.794871794872,3082.564102564103,4496.410256410257,6436.410256410257,4105.641025641026,4407.179487179487,4310.769230769231,4298.461538461539,4258.974358974359,4543.589743589744,4287.6923076923085,4109.74358974359,4117.948717948719,4381.538461538462
642.9666,1.0,0.62557554,0.33333334,0.5522388,0,0.0,0.0,0.08887375,0.0,0.0,0,0,0.0,0.0,0,0,119.0,0.0,373.0,4723.076923076924,3110.2564102564106,4506.153846153847,5886.153846153847,4212.307692307693,4503.076923076924,4455.8974358974365,4421.025641025642,4381.538461538462,4707.6923076923085,4304.615384615385,4184.102564102564,4288.717948717949,4473.333333333334
643.18555,1.0,0.6458543,0.33333334,0.5522388,0,0.0,0.0,0.11550615,0.0,0.0,0,0,0.0,0.0,0,0,18.0,0.0,0.0,4801.025641025642,3121.538461538462,4509.2307692307695,5549.2307692307695,4268.205128205129,4557.948717948719,4557.948717948719,4530.769230769231,4481.538461538462,4824.615384615386,4322.051282051282,4232.820512820514,4402.051282051282,4547.179487179488
643.4358,1.0,0.6458543,0.33333334,0.5522388,0,0.0,0.17282791,0.0,0.0,0.0,0,0,0.0,0.0,0,0,50.0,0.0,0.0,4811.794871794872,3270.7692307692314,4514.358974358975,5286.153846153847,4285.641025641026,4575.384615384616,4564.615384615385,4543.589743589744,4496.923076923077,4850.256410256411,4332.820512820514,4233.333333333334,4408.717948717949,4564.102564102564
643.686,1.0,0.6641052,0.33333334,0.5522388,0,0.0,0.29350752,0.0,0.0,0.0,0,0,0.0,0.0,0,0,82.0,0.0,581.0,4794.358974358975,3420.512820512821,4507.179487179488,5036.410256410257,4281.538461538462,4575.8974358974365,4553.846153846154,4526.153846153847,4484.102564102564,4841.538461538462,4332.820512820514,4230.256410256411,4395.384615384616,4569.743589743591
643.9362,1.0,0.6641052,0.33333334,0.5522388,0,0.0,0.2009976,0.0,0.0,0.0,0,0,0.0,0.0,0,0,114.0,0.0,581.0,4787.6923076923085,3544.1025641025644,4502.564102564103,4890.769230769231,4271.282051282052,4571.794871794872,4527.6923076923085,4480.512820512821,4457.948717948719,4804.615384615386,4333.333333333334,4233.333333333334,4339.48717948718,4564.102564102564
644.1864,1.0,0.680531,0.33333334,0.5522388,0,0.0,0.0,0.0,0.0,0.054665174,0,0,0.0,0.0,0,0,17.0,0.0,0.0,4766.666666666667,3619.48717948718,4500.512820512821,4798.461538461539,4267.6923076923085,4564.615384615385,4514.358974358975,4470.256410256411,4438.461538461539,4772.307692307693,4334.871794871796,4235.8974358974365,4280.512820512821,4563.076923076924
644.43665,1.0,0.680531,0.33333334,0.5522388,0,0.0,0.0,0.0,0.0,0.2627142,0,0,0.0,0.0,0,0,49.0,0.0,0.0,4717.948717948719,3674.8717948717954,4497.435897435898,4706.153846153847,4269.2307692307695,4572.307692307693,4516.410256410257,4489.743589743591,4456.923076923077,4773.846153846154,4337.435897435898,4235.384615384616,4271.282051282052,4555.384615384616
644.6868,1.0,0.6953142,0.33333334,0.5522388,0,0.0,0.0,0.0,0.0,0.15812366,0,0,0.0,0.0,0,0,81.0,0.0,242.0,4715.384615384616,3731.2820512820517,4499.48717948718,4678.461538461539,4258.974358974359,4561.538461538462,4498.461538461539,4448.205128205129,4424.615384615385,4753.846153846154,4337.948717948719,4247.6923076923085,4222.564102564103,4558.461538461539
644.9371,1.0,0.6953142,0.33333334,0.5522388,0,0.0,0.0,0.0,0.0,0.15051505,0,0,0.0,0.0,0,0,113.0,0.0,242.0,4696.923076923077,3767.692307692308,4503.589743589744,4656.923076923077,4262.051282051282,4562.564102564103,4494.871794871796,4444.102564102564,4429.743589743591,4765.641025641026,4342.564102564103,4251.794871794872,4224.615384615385,4560.512820512821
645.18726,1.0,0.7086191,0.33333334,0.5522388,0,0.0,0.0,0.0,0.0,0.099433936,0,0,0.0,0.0,0,0,16.0,0.0,0.0,4664.102564102564,3785.1282051282055,4494.358974358975,4601.025641025642,4251.794871794872,4554.871794871796,4475.8974358974365,4441.538461538462,4416.410256410257,4725.128205128206,4341.538461538462,4240.000000000001,4167.6923076923085,4548.205128205129
645.4375,1.0,0.7086191,0.33333334,0.5522388,0,0.0,0.0,0.0,0.0,0.05683121,0,0,0.0,0.0,0,0,48.0,0.0,0.0,4645.641025641026,3797.435897435898,4490.256410256411,4555.384615384616,4255.384615384616,4557.435897435898,4486.153846153847,4443.589743589744,4416.410256410257,4716.410256410257,4341.538461538462,4246.153846153847,4170.769230769231,4545.641025641026
645.5939,0.9906128,0.7205935,0.33333334,0.5522388,0,0.0,0.0,0.0,0.0,0.0,0,0,0.0,0.0,0,0,68.0,0.0,583.0,4650.769230769231,3811.2820512820517,4497.435897435898,4544.102564102564,4261.538461538462,4562.564102564103,4495.384615384616,4434.871794871796,4423.076923076924,4742.051282051282,4343.076923076924,4252.307692307693,4182.051282051282,4555.384615384616
645.5939,0.9906128,0.7205935,0.33333334,0.5522388,0,0.0,0.0,0.0,0.0,0.0,0,0,0.0,0.0,0,0,68.0,0.0,583.0,4650.769230769231,3811.2820512820517,4497.435897435898,4544.102564102564,4261.538461538462,4562.564102564103,4495.384615384616,4434.871794871796,4423.076923076924,4742.051282051282,4343.076923076924,4252.307692307693,4182.051282051282,4555.384615384616
646.1881,1.0,0.67437255,0.33333334,0.5522388,0,0.0,0.0,0.0,0.0,0.08620805,0,0,0.0,0.0,0,0,15.0,0.0,373.0,4668.717948717949,3863.076923076924,4502.051282051282,4489.2307692307695,4261.538461538462,4559.48717948718,4485.641025641026,4458.461538461539,4427.179487179487,4734.871794871796,4347.179487179487,4250.256410256411,4180.000000000001,4565.128205128206
646.43835,1.0,0.67437255,0.33333334,0.5522388,0,0.0,0.0,0.0,0.0,0.07615798,0,0,0.0,0.0,0,0,47.0,0.0,0.0,4672.307692307693,3878.461538461539,4512.307692307693,4482.564102564103,4265.641025641026,4562.051282051282,4482.564102564103,4451.794871794872,4420.512820512821,4736.410256410257,4351.282051282052,4257.435897435898,4176.410256410257,4576.410256410257
646.68854,1.0,0.62827617,0.33333334,0.5522388,0,0.0,0.0,0.0,0.0,0.0,0,0,0.0,0.0,0,0,79.0,0.0,373.0,4662.051282051282,3863.589743589744,4502.051282051282,4457.435897435898,4258.461538461539,4553.333333333334,4478.461538461539,4436.410256410257,4395.8974358974365,4710.256410256411,4351.282051282052,4249.2307692307695,4146.666666666667,4566.153846153847
646.68854,1.0,0.62827617,0.33333334,0.5522388,0,0.0,0.0,0.0,0.0,0.0,0,0,0.0,0.0,0,0,79.0,0.0,373.0,4662.051282051282,3863.589743589744,4502.051282051282,4457.435897435898,4258.461538461539,4553.333333333334,4478.461538461539,4436.410256410257,4395.8974358974365,4710.256410256411,4351.282051282052,4249.2307692307695,4146.666666666667,4566.153846153847
647.09515,1.0,0.58004564,0.33333334,0.5522388,0,0.0,0.0,0.0,0.0,0.0,0,0,0.0,0.0,0,0,2.0,0.0,514.0,4558.974358974359,3874.358974358975,4503.589743589744,4444.615384615385,4271.794871794872,4563.589743589744,4489.743589743591,4463.589743589744,4424.102564102564,4725.641025641026,4355.384615384616,4273.846153846154,4154.358974358975,4566.153846153847
647.09515,1.0,0.58004564,0.33333334,0.5522388,0,0.0,0.0,0.0,0.0,0.0,0,0,0.0,0.0,0,0,2.0,0.0,514.0,4558.974358974359,3874.358974358975,4503.589743589744,4444.615384615385,4271.794871794872,4563.589743589744,4489.743589743591,4463.589743589744,4424.102564102564,4725.641025641026,4355.384615384616,4273.846153846154,4154.358974358975,4566.153846153847
647.5956,1.0,0.5515759,0.33333334,0.5522388,0,0.0,0.0,0.0,0.0,0.0,0,0,0.0,0.0,0,0,66.0,0.0,516.0,4600.000000000001,3885.6410256410263,4505.641025641026,4443.589743589744,4269.74358974359,4560.512820512821,4485.641025641026,4475.8974358974365,4436.410256410257,4739.48717948718,4357.948717948719,4280.000000000001,4165.128205128206,4576.923076923077
647.93964,1.0,0.5515759,0.33333334,0.5522388,0,0.0,0.0,0.0,0.0,0.0,0,0,0.44179288,0.0,0,0,110.0,0.0,588.0,4629.743589743591,3892.307692307693,4502.564102564103,4443.589743589744,4257.948717948719,4551.794871794872,4477.948717948719,4467.6923076923085,4415.8974358974365,4696.923076923077,4355.8974358974365,4270.256410256411,4121.025641025642,4566.153846153847
648.1899,1.0,0.53911644,0.33333334,0.5522388,0,0.0,0.0,0.0,0.0,0.5011122,0,0,0.0,0.0,0,0,13.0,0.0,242.0,4629.2307692307695,3906.1538461538466,4512.307692307693,4450.256410256411,4271.282051282052,4568.205128205129,4484.102564102564,4471.794871794872,4426.153846153847,4717.435897435898,4353.333333333334,4258.974358974359,4122.564102564103,4522.051282051282
648.44006,1.0,0.53911644,0.33333334,0.5522388,0,0.0,0.0,0.0,0.0,0.47171825,0,0,0.0,0.0,0,0,45.0,0.0,0.0,4604.615384615385,3903.076923076924,4498.461538461539,4443.589743589744,4257.948717948719,4562.051282051282,4476.410256410257,4450.769230769231,4404.102564102564,4688.717948717949,4353.333333333334,4247.6923076923085,4102.051282051282,4545.641025641026
648.6903,1.0,0.5431937,0.33333334,0.5522388,0,0.0,0.0,0.0,0.0,0.058166932,0,0,0.0,0.0,0,0,77.0,0.0,242.0,4619.48717948718,3915.3846153846157,4511.794871794872,4458.974358974359,4272.307692307693,4571.282051282052,4487.179487179488,4454.358974358975,4397.948717948719,4671.282051282052,4349.743589743591,4240.512820512821,4074.358974358975,4536.923076923077
648.9405,1.0,0.5431937,0.33333334,0.5522388,0,0.0,0.0,0.0,0.0,0.0,0,0,0.0,0.0,0,0,109.0,0.0,242.0,4621.538461538462,3917.435897435898,4508.205128205129,4458.974358974359,4263.076923076924,4563.076923076924,4472.820512820514,4456.410256410257,4393.333333333334,4680.000000000001,4351.794871794872,4231.282051282052,4087.1794871794878,4527.179487179488
649.09686,0.97821033,0.5632694,0.33333334,0.5522388,0,0.0,0.0,0.0,0.0,0.0,0,0,0.0,0.0,0,0,0.0,0.0,419.0,4625.641025641026,3916.410256410257,4505.641025641026,4456.923076923077,4266.666666666667,4565.128205128206,4469.743589743591,4459.48717948718,4397.948717948719,4698.461538461539,4356.410256410257,4234.871794871796,4125.128205128206,4536.923076923077
649.09686,0.97821033,0.5632694,0.33333334,0.5522388,0,0.0,0.0,0.0,0.0,0.0,0,0,0.0,0.0,0,0,0.0,0.0,419.0,4625.641025641026,3916.410256410257,4505.641025641026,4456.923076923077,4266.666666666667,4565.128205128206,4469.743589743591,4459.48717948718,4397.948717948719,4698.461538461539,4356.410256410257,4234.871794871796,4125.128205128206,4536.923076923077
649.7224,1.0,0.59141284,0.33333334,0.5522388,0,0.0,0.0,0.0,0.0,0.0,0,0,0.0,0.0,0,0,80.0,0.0,0.0,4676.410256410257,3892.307692307693,4507.6923076923085,4438.974358974359,4260.512820512821,4564.615384615385,4496.410256410257,4503.076923076924,4434.871794871796,4763.076923076924,4363.076923076924,4279.48717948718,4205.641025641026,4572.820512820514
649.94135,1.0,0.59141284,0.33333334,0.5522388,0,0.0,0.0,0.0,0.0,0.043438442,0,0,0.0,0.0,0,0,108.0,0.0,0.0,4668.717948717949,3891.2820512820517,4502.051282051282,4427.179487179487,4260.000000000001,4560.512820512821,4489.2307692307695,4497.435897435898,4425.128205128206,4756.923076923077,4366.153846153847,4296.923076923077,4185.641025641026,4562.564102564103
650.1916,1.0,0.60275304,0.33333334,0.5522388,0,0.0,0.0,0.0,0.0,0.04438672,0,0,0.0,0.0,0,0,11.0,0.0,372.0,4662.051282051282,3896.9230769230776,4502.051282051282,4429.743589743591,4263.076923076924,4557.948717948719,4482.051282051282,4494.358974358975,4426.666666666667,4761.025641025642,4366.153846153847,4315.8974358974365,4197.435897435898,4569.743589743591
650.3167,1.0,0.60275304,0.33333334,0.5522388,0,0.0,0.0,0.0,0.0,0.0,0,0,0.0,0.0,0,0,27.0,0.0,0.0,4654.871794871796,3887.1794871794878,4495.8974358974365,4430.769230769231,4259.48717948718,4558.461538461539,4483.076923076924,4466.153846153847,4405.641025641026,4744.615384615386,4362.051282051282,4318.461538461539,4181.025641025642,4564.102564102564
650.59814,0.96626836,0.61481315,0.33333334,0.5522388,0,0.0,0.0,0.0,0.0,0.0,0,0,0.0,0.0,0,0,63.0,0.0,0.0,4667.6923076923085,3900.0000000000005,4502.051282051282,4442.564102564103,4256.923076923077,4558.461538461539,4482.051282051282,4460.512820512821,4417.435897435898,4747.6923076923085,4368.205128205129,4331.282051282052,4179.48717948718,4567.179487179488
650.9422,0.96626836,0.61481315,0.33333334,0.5522388,0,0.0,0.0,0.0,0.0,0.0774618,0,0,0.0,0.0,0,0,107.0,0.0,372.0,4682.051282051282,3907.1794871794878,4503.076923076924,4446.666666666667,4258.461538461539,4554.871794871796,4484.615384615385,4467.179487179487,4423.589743589744,4759.48717948718,4368.717948717949,4317.435897435898,4184.102564102564,4569.743589743591
651.19244,0.9345893,0.6094997,0.33333334,0.5522388,0,0.0,0.0,0.0,0.0,0.0,0,0,0.0,0.0,0,0,10.0,0.0,588.0,4674.871794871796,3906.1538461538466,4500.000000000001,4457.435897435898,4246.153846153847,4548.205128205129,4466.666666666667,4442.564102564103,4403.076923076924,4717.435897435898,4362.564102564103,4287.6923076923085,4156.410256410257,4554.358974358975
651.19244,0.9345893,0.6094997,0.33333334,0.5522388,0,0.0,0.0,0.0,0.0,0.0,0,0,0.0,0.0,0,0,10.0,0.0,588.0,4674.871794871796,3906.1538461538466,4500.000000000001,4457.435897435898,4246.153846153847,4548.205128205129,4466.666666666667,4442.564102564103,4403.076923076924,4717.435897435898,4362.564102564103,4287.6923076923085,4156.410256410257,4554.358974358975
651.59906,0.88908523,0.5786482,0.33333334,0.5522388,0,0.0,0.0,0.0,0.0,0.0,0,0,0.0,0.0,0,0,62.0,0.0,0.0,4654.358974358975,3907.1794871794878,4493.846153846154,4460.000000000001,4238.461538461539,4542.051282051282,4466.153846153847,4450.256410256411,4400.512820512821,4708.717948717949,4361.025641025642,4250.256410256411,4147.6923076923085,4528.717948717949
651.94305,0.88908523,0.5786482,0.33333334,0.5522388,0,0.0,0.0,0.0,0.0,0.18658389,0,0,0.0,0.0,0,0,106.0,0.0,588.0,4641.538461538462,3907.1794871794878,4497.435897435898,4464.102564102564,4243.589743589744,4549.2307692307695,4472.307692307693,4455.384615384616,4403.076923076924,4711.794871794872,4359.48717948718,4264.102564102564,4144.102564102564,4519.48717948718
652.1933,0.816042,0.5405592,0.33333334,0.5522388,0,0.0,0.0,0.0,0.0,0.1186963,0,0,0.0,0.0,0,0,9.0,0.0,514.0,4655.8974358974365,3915.8974358974365,4500.000000000001,4475.384615384616,4248.205128205129,4547.6923076923085,4477.948717948719,4452.820512820514,4397.948717948719,4718.461538461539,4357.435897435898,4270.256410256411,4161.538461538462,4526.666666666667
652.4435,0.816042,0.5405592,0.33333334,0.5522388,0,0.0,0.0,0.0,0.0,0.07652732,0,0,0.0,0.0,0,0,41.0,0.0,0.0,4639.48717948718,3907.1794871794878,4492.307692307693,4474.871794871796,4243.589743589744,4544.615384615385,4480.000000000001,4470.256410256411,4407.179487179487,4720.000000000001,4360.000000000001,4280.512820512821,4166.153846153847,4519.48717948718
652.5999,0.83900046,0.5126838,0.33333334,0.5522388,0,0.0,0.0,0.0,0.0,0.0,0,0,0.0,0.0,0,0,61.0,0.0,0.0,4655.384615384616,3914.358974358975,4497.948717948719,4475.384615384616,4249.2307692307695,4547.179487179488,4484.102564102564,4468.205128205129,4413.846153846154,4741.025641025642,4362.564102564103,4288.717948717949,4193.846153846154,4526.666666666667
652.5999,0.83900046,0.5126838,0.33333334,0.5522388,0,0.0,0.0,0.0,0.0,0.0,0,0,0.0,0.0,0,0,61.0,0.0,0.0,4655.384615384616,3914.358974358975,4497.948717948719,4475.384615384616,4249.2307692307695,4547.179487179488,4484.102564102564,4468.205128205129,4413.846153846154,4741.025641025642,4362.564102564103,4288.717948717949,4193.846153846154,4526.666666666667
653.10034,0.80769885,0.4854067,0.33333334,0.5522388,0,0.0,0.0,0.0,0.0,0.0,0,0,0.0,0.0,0,0,125.0,0.0,242.0,4626.153846153847,3941.538461538462,4494.358974358975,4344.102564102564,4263.589743589744,4564.102564102564,4522.564102564103,4510.256410256411,4429.743589743591,4756.923076923077,4367.179487179487,4296.410256410257,4197.435897435898,4537.435897435898
653.10034,0.80769885,0.4854067,0.33333334,0.5522388,0,0.0,0.0,0.0,0.0,0.0,0,0,0.0,0.0,0,0,125.0,0.0,242.0,4626.153846153847,3941.538461538462,4494.358974358975,4344.102564102564,4263.589743589744,4564.102564102564,4522.564102564103,4510.256410256411,4429.743589743591,4756.923076923077,4367.179487179487,4296.410256410257,4197.435897435898,4537.435897435898
653.60077,0.79802436,0.44830728,0.33333334,0.5522388,0,0.0,0.0,0.0,0.0,0.0,0,0,0.0,0.0,0,0,60.0,0.0,0.0,4626.666666666667,3928.205128205129,4496.923076923077,4449.2307692307695,4246.153846153847,4549.2307692307695,4481.538461538462,4464.102564102564,4395.384615384616,4725.128205128206,4363.076923076924,4280.000000000001,4180.512820512821,4520.512820512821
653.60077,0.79802436,0.44830728,0.33333334,0.5522388,0,0.0,0.0,0.0,0.0,0.0,0,0,0.0,0.0,0,0,60.0,0.0,0.0,4626.666666666667,3928.205128205129,4496.923076923077,4449.2307692307695,4246.153846153847,4549.2307692307695,4481.538461538462,4464.102564102564,4395.384615384616,4725.128205128206,4363.076923076924,4280.000000000001,4180.512820512821,4520.512820512821
654.195,0.7309342,0.4362696,0.33333334,0.5522388,0,0.0,0.0,0.0,0.0,0.08200765,0,0,0.0,0.0,0,0,7.0,0.0,491.0,4613.333333333334,3925.1282051282055,4500.512820512821,4432.820512820514,4250.769230769231,4555.8974358974365,4467.6923076923085,4444.615384615385,4378.461538461539,4696.923076923077,4359.48717948718,4270.256410256411,4153.846153846154,4509.743589743591
654.44525,0.7309342,0.4362696,0.33333334,0.5522388,0,0.0,0.0,0.0,0.0,0.1952094,0,0,0.0,0.0,0,0,39.0,0.0,0.0,4612.307692307693,3930.7692307692314,4500.000000000001,4429.2307692307695,4247.6923076923085,4552.307692307693,4466.153846153847,4445.128205128206,4381.538461538462,4710.769230769231,4360.512820512821,4248.205128205129,4164.102564102564,4514.358974358975
654.69543,0.6934297,0.41713673,0.33333334,0.5522388,0,0.0,0.0,0.0,0.0,0.78626007,0,0,0.0,0.0,0,0,71.0,0.0,491.0,4663.076923076924,3954.8717948717954,4503.589743589744,4393.333333333334,4249.74358974359,4549.2307692307695,4483.589743589744,4454.871794871796,4391.282051282052,4714.358974358975,4365.128205128206,4269.74358974359,4202.564102564103,4453.846153846154
654.9457,0.6934297,0.41713673,0.33333334,0.5522388,0,0.0,0.0,0.0,0.0,0.7338796,0,0,0.0,0.0,0,0,103.0,0.0,372.0,4663.076923076924,3950.7692307692314,4511.794871794872,4429.743589743591,4250.769230769231,4551.794871794872,4470.256410256411,4450.256410256411,4391.794871794872,4729.743589743591,4366.666666666667,4281.025641025642,4207.6923076923085,4545.641025641026
655.19586,0.66397655,0.42722306,0.33333334,0.5522388,0,0.0,0.0,0.0,0.0,0.2695567,0,0,0.0,0.0,0,0,6.0,0.0,571.0,4662.564102564103,3944.615384615385,4504.615384615385,4463.076923076924,4239.48717948718,4544.615384615385,4474.358974358975,4451.794871794872,4390.256410256411,4742.051282051282,4365.128205128206,4276.410256410257,4220.512820512821,4548.205128205129
655.4461,0.66397655,0.42722306,0.33333334,0.5522388,0,0.0,0.0,0.0,0.0,0.0,0,0,0.0,0.0,0,0,38.0,0.0,0.0,4659.48717948718,3941.0256410256416,4510.256410256411,4474.358974358975,4244.615384615385,4549.2307692307695,4470.256410256411,4439.48717948718,4388.205128205129,4719.48717948718,4365.128205128206,4268.205128205129,4204.102564102564,4555.384615384616
655.6025,0.6047488,0.4387424,0.33333334,0.5522388,0,0.0,0.0,0.0,0.0,0.0,0,0,0.0,0.0,0,0,58.0,0.0,0.0,4653.846153846154,3947.1794871794878,4507.179487179488,4433.846153846154,4244.615384615385,4550.256410256411,4480.000000000001,4433.333333333334,4388.717948717949,4714.871794871796,4364.615384615385,4267.179487179487,4205.641025641026,4556.410256410257
655.6025,0.6047488,0.4387424,0.33333334,0.5522388,0,0.0,0.0,0.0,0.0,0.0,0,0,0.0,0.0,0,0,58.0,0.0,0.0,4653.846153846154,3947.1794871794878,4507.179487179488,4433.846153846154,4244.615384615385,4550.256410256411,4480.000000000001,4433.333333333334,4388.717948717949,4714.871794871796,4364.615384615385,4267.179487179487,4205.641025641026,4556.410256410257
656.1029,0.61158216,0.44353342,0.33333334,0.5522388,0,0.0,0.0,0.0,0.0,0.0,0,0,0.0,0.0,0,0,122.0,0.0,588.0,4629.743589743591,3938.461538461539,4500.000000000001,4448.717948717949,4245.128205128206,4542.051282051282,4455.8974358974365,4427.179487179487,4377.435897435898,4713.846153846154,4364.615384615385,4258.461538461539,4191.794871794872,4545.641025641026
656.1029,0.61158216,0.44353342,0.33333334,0.5522388,0,0.0,0.0,0.0,0.0,0.0,0,0,0.0,0.0,0,0,122.0,0.0,588.0,4629.743589743591,3938.461538461539,4500.000000000001,4448.717948717949,4245.128205128206,4542.051282051282,4455.8974358974365,4427.179487179487,4377.435897435898,4713.846153846154,4364.615384615385,4258.461538461539,4191.794871794872,4545.641025641026
656.69714,0.5349528,0.4628402,0.33333334,0.5522388,0,0.0,0.0,0.0,0.0,0.05803747,0,0,0.0,0.0,0,0,69.0,0.0,581.0,4641.025641025642,3988.717948717949,4508.717948717949,4370.769230769231,4258.461538461539,4556.923076923077,4468.717948717949,4426.666666666667,4373.333333333334,4704.615384615386,4363.076923076924,4252.307692307693,4180.000000000001,4557.435897435898
656.9474,0.5349528,0.4628402,0.33333334,0.5522388,0,0.0,0.0,0.0,0.0,0.0,0,0,0.0,0.0,0,0,101.0,0.0,242.0,4648.717948717949,3988.717948717949,4505.641025641026,4359.48717948718,4250.769230769231,4553.846153846154,4469.743589743591,4423.076923076924,4368.717948717949,4695.384615384616,4357.948717948719,4248.205128205129,4169.74358974359,4552.307692307693
657.10376,0.5371788,0.46634495,0.33333334,0.5522388,0,0.0,0.0,0.0,0.0,0.0,0,0,0.0,0.0,0,0,121.0,0.0,242.0,4656.923076923077,3998.9743589743593,4514.358974358975,4360.000000000001,4260.000000000001,4564.615384615385,4482.564102564103,4445.641025641026,4387.6923076923085,4723.076923076924,4367.179487179487,4260.000000000001,4191.794871794872,4563.589743589744
657.10376,0.5371788,0.46634495,0.33333334,0.5522388,0,0.0,0.0,0.0,0.0,0.0,0,0,0.0,0.0,0,0,121.0,0.0,242.0,4656.923076923077,3998.9743589743593,4514.358974358975,4360.000000000001,4260.000000000001,4564.615384615385,4482.564102564103,4445.641025641026,4387.6923076923085,4723.076923076924,4367.179487179487,4260.000000000001,4191.794871794872,4563.589743589744
657.6042,0.48068348,0.47735262,0.33333334,0.5522388,0,0.0,0.0,0.0,0.0,0.0,0,0,0.0,0.0,0,0,56.0,0.0,0.0,4706.666666666667,3983.589743589744,4509.2307692307695,4326.666666666667,4244.615384615385,4548.717948717949,4486.666666666667,4464.615384615385,4420.000000000001,4767.6923076923085,4369.2307692307695,4261.538461538462,4290.769230769231,4592.820512820514
657.6042,0.48068348,0.47735262,0.33333334,0.5522388,0,0.0,0.0,0.0,0.0,0.0,0,0,0.0,0.0,0,0,56.0,0.0,0.0,4706.666666666667,3983.589743589744,4509.2307692307695,4326.666666666667,4244.615384615385,4548.717948717949,4486.666666666667,4464.615384615385,4420.000000000001,4767.6923076923085,4369.2307692307695,4261.538461538462,4290.769230769231,4592.820512820514
658.1046,0.5386241,0.48697627,0.33333334,0.5522388,0,0.0,0.0,0.0,0.0,0.0,0,0,0.0,0.0,0,0,120.0,0.0,0.0,4661.025641025642,3938.461538461539,4500.000000000001,4326.153846153847,4264.615384615385,4563.076923076924,4496.923076923077,4487.6923076923085,4444.615384615385,4783.076923076924,4379.48717948718,4274.871794871796,4285.128205128206,4578.974358974359
658.1046,0.5386241,0.48697627,0.33333334,0.5522388,0,0.0,0.0,0.0,0.0,0.0,0,0,0.0,0.0,0,0,120.0,0.0,0.0,4661.025641025642,3938.461538461539,4500.000000000001,4326.153846153847,4264.615384615385,4563.076923076924,4496.923076923077,4487.6923076923085,4444.615384615385,4783.076923076924,4379.48717948718,4274.871794871796,4285.128205128206,4578.974358974359
658.6989,0.6230972,0.52004147,0.33333334,0.5522388,0,0.0,0.2578559,0.0,0.0,0.0,0,0,0.0,0.0,0,0,67.0,0.0,564.0,4691.794871794872,4013.333333333334,4495.8974358974365,4062.564102564103,4252.307692307693,4586.153846153847,4521.538461538462,4491.282051282052,4454.358974358975,4788.205128205129,4382.564102564103,4280.000000000001,4265.641025641026,4589.2307692307695
658.9491,0.6230972,0.52004147,0.33333334,0.5522388,0,0.0,0.938607,0.0,0.0,0.0,0,0,0.0,0.0,0,0,99.0,0.0,372.0,4679.48717948718,4004.615384615385,4499.48717948718,4105.641025641026,4267.6923076923085,4590.769230769231,4528.205128205129,4497.435897435898,4455.8974358974365,4767.179487179488,4381.538461538462,4281.538461538462,4234.871794871796,4566.666666666667
659.10547,0.68044585,0.55524206,0.33333334,0.5522388,0,0.0,0.0,0.0,0.0,0.0,0,0,0.0,0.0,0,0,119.0,0.0,372.0,4688.205128205129,4006.666666666667,4504.102564102564,4143.589743589744,4272.820512820514,4590.769230769231,4517.948717948719,4485.128205128206,4448.205128205129,4768.717948717949,4382.564102564103,4277.435897435898,4236.923076923077,4574.871794871796
659.10547,0.68044585,0.55524206,0.33333334,0.5522388,0,0.0,0.0,0.0,0.0,0.0,0,0,0.0,0.0,0,0,119.0,0.0,372.0,4688.205128205129,4006.666666666667,4504.102564102564,4143.589743589744,4272.820512820514,4590.769230769231,4517.948717948719,4485.128205128206,4448.205128205129,4768.717948717949,4382.564102564103,4277.435897435898,4236.923076923077,4574.871794871796
659.6059,0.6357735,0.56409395,0.33333334,0.5522388,0,0.0,0.0,0.0,0.0,0.0,0,0,0.0,0.0,0,0,54.0,0.0,0.0,4703.589743589744,3993.8461538461543,4502.564102564103,4173.333333333334,4264.102564102564,4574.871794871796,4515.384615384616,4469.2307692307695,4437.435897435898,4755.8974358974365,4385.641025641026,4281.025641025642,4205.128205128206,4577.435897435898
659.6059,0.6357735,0.56409395,0.33333334,0.5522388,0,0.0,0.0,0.0,0.0,0.0,0,0,0.0,0.0,0,0,54.0,0.0,0.0,4703.589743589744,3993.8461538461543,4502.564102564103,4173.333333333334,4264.102564102564,4574.871794871796,4515.384615384616,4469.2307692307695,4437.435897435898,4755.8974358974365,4385.641025641026,4281.025641025642,4205.128205128206,4577.435897435898
660.1063,0.59884757,0.5403754,0.33333334,0.5522388,0,0.0,0.0,0.0,0.0,0.0,0,0,0.0,0.0,0,0,118.0,0.0,588.0,4702.051282051282,3999.48717948718,4504.102564102564,4232.307692307693,4258.461538461539,4568.717948717949,4510.769230769231,4452.307692307693,4425.128205128206,4742.564102564103,4387.179487179487,4262.051282051282,4207.179487179487,4574.871794871796
660.32526,0.59884757,0.5403754,0.33333334,0.5522388,0,0.0,0.0,0.0,0.0,1.0,0,0,0.0,0.0,0,0,17.0,0.0,0.0,4708.717948717949,3991.2820512820517,4509.2307692307695,4251.794871794872,4260.000000000001,4569.743589743591,4516.923076923077,4469.743589743591,4440.000000000001,4759.48717948718,4388.717948717949,4260.000000000001,4222.564102564103,4584.102564102564
660.7006,0.51531684,0.50741893,0.33333334,0.5522388,0,0.0,0.0,0.0,0.0,0.08710619,0,0,0.0,0.0,0,0,65.0,0.0,474.0,4687.179487179488,3987.1794871794878,4510.256410256411,4275.384615384616,4258.461538461539,4566.666666666667,4515.384615384616,4466.153846153847,4426.666666666667,4733.333333333334,4390.769230769231,4259.48717948718,4194.358974358975,4577.948717948719
660.8257,0.51531684,0.50741893,0.33333334,0.5522388,0,0.0,0.0,0.0,0.0,0.0,0,0,0.0,0.0,0,0,81.0,0.0,242.0,4691.282051282052,3989.7435897435903,4510.769230769231,4282.051282051282,4257.948717948719,4566.666666666667,4517.435897435898,4480.512820512821,4434.871794871796,4742.051282051282,4390.769230769231,4265.128205128206,4206.666666666667,4581.538461538462
661.1072,0.48315123,0.48361576,0.33333334,0.5522388,0,0.0,0.0,0.0,0.0,0.0,0,0,0.0,0.0,0,0,117.0,0.0,242.0,4695.384615384616,3986.666666666667,4504.102564102564,4278.461538461539,4257.435897435898,4564.102564102564,4514.871794871796,4470.256410256411,4430.769230769231,4735.384615384616,4388.717948717949,4254.871794871796,4208.205128205129,4578.974358974359
661.1072,0.48315123,0.48361576,0.33333334,0.5522388,0,0.0,0.0,0.0,0.0,0.0,0,0,0.0,0.0,0,0,117.0,0.0,242.0,4695.384615384616,3986.666666666667,4504.102564102564,4278.461538461539,4257.435897435898,4564.102564102564,4514.871794871796,4470.256410256411,4430.769230769231,4735.384615384616,4388.717948717949,4254.871794871796,4208.205128205129,4578.974358974359
661.6076,0.4583588,0.46042937,0.33333334,0.5522388,0,0.0,0.0,0.0,0.0,0.0,0,0,0.0,0.0,0,0,52.0,0.0,0.0,4673.846153846154,3987.692307692308,4508.205128205129,4297.948717948719,4257.948717948719,4569.2307692307695,4510.769230769231,4473.333333333334,4418.461538461539,4727.179487179488,4390.769230769231,4278.974358974359,4206.153846153847,4561.538461538462
661.6076,0.4583588,0.46042937,0.33333334,0.5522388,0,0.0,0.0,0.0,0.0,0.0,0,0,0.0,0.0,0,0,52.0,0.0,0.0,4673.846153846154,3987.692307692308,4508.205128205129,4297.948717948719,4257.948717948719,4569.2307692307695,4510.769230769231,4473.333333333334,4418.461538461539,4727.179487179488,4390.769230769231,4278.974358974359,4206.153846153847,4561.538461538462
662.1081,0.4203845,0.43985826,0.33333334,0.5522388,0,0.0,0.0,0.0,0.0,0.0,0,0,0.0,0.0,0,0,116.0,0.0,0.0,4686.666666666667,3985.6410256410263,4513.333333333334,4298.461538461539,4260.000000000001,4565.128205128206,4508.205128205129,4491.282051282052,4433.846153846154,4741.025641025642,4392.820512820514,4289.2307692307695,4235.8974358974365,4572.820512820514
662.1081,0.4203845,0.43985826,0.33333334,0.5522388,0,0.0,0.0,0.0,0.0,0.0,0,0,0.0,0.0,0,0,116.0,0.0,0.0,4686.666666666667,3985.6410256410263,4513.333333333334,4298.461538461539,4260.000000000001,4565.128205128206,4508.205128205129,4491.282051282052,4433.846153846154,4741.025641025642,4392.820512820514,4289.2307692307695,4235.8974358974365,4572.820512820514
662.6085,0.3550454,0.42047867,0.33333334,0.5522388,0,0.0,0.0,0.0,0.0,0.0,0,0,0.0,0.0,0,0,51.0,0.0,0.0,4666.666666666667,3985.6410256410263,4513.333333333334,4324.102564102564,4270.769230769231,4563.589743589744,4501.025641025642,4480.512820512821,4419.48717948718,4748.205128205129,4392.307692307693,4279.48717948718,4214.871794871796,4567.6923076923085
662.6085,0.3550454,0.42047867,0.33333334,0.5522388,0,0.0,0.0,0.0,0.0,0.0,0,0,0.0,0.0,0,0,51.0,0.0,0.0,4666.666666666667,3985.6410256410263,4513.333333333334,4324.102564102564,4270.769230769231,4563.589743589744,4501.025641025642,4480.512820512821,4419.48717948718,4748.205128205129,4392.307692307693,4279.48717948718,4214.871794871796,4567.6923076923085
663.10895,0.35104182,0.39686874,0.33333334,0.5522388,0,0.0,0.0,0.0,0.0,0.0,0,0,0.0,0.0,0,0,115.0,0.0,372.0,4664.102564102564,3968.717948717949,4511.794871794872,4342.051282051282,4264.102564102564,4566.666666666667,4493.333333333334,4472.307692307693,4407.179487179487,4734.871794871796,4391.282051282052,4277.435897435898,4212.820512820514,4564.615384615385
663.45294,0.35104182,0.39686874,0.33333334,0.5522388,0,0.0,0.0,0.0,0.0,0.077941634,0,0,0.0,0.0,0,0,30.0,0.0,0.0,4666.153846153847,3967.1794871794878,4511.282051282052,4350.256410256411,4261.025641025642,4565.128205128206,4495.8974358974365,4468.205128205129,4409.2307692307695,4729.743589743591,4391.794871794872,4266.666666666667,4204.102564102564,4564.102564102564
663.7032,0.35262245,0.37959915,0.33333334,0.5522388,0,0.0,0.0,0.0,0.0,0.084855504,0,0,0.0,0.0,0,0,62.0,0.0,0.0,4653.846153846154,3964.1025641025644,4508.205128205129,4358.974358974359,4262.051282051282,4565.641025641026,4490.769230769231,4460.512820512821,4409.743589743591,4729.2307692307695,4392.307692307693,4263.589743589744,4195.8974358974365,4555.384615384616
663.9534,0.35262245,0.37959915,0.33333334,0.5522388,0,0.0,0.0,0.0,0.0,0.0,0,0,0.0,0.0,0,0,94.0,0.0,589.0,4658.461538461539,3961.538461538462,4505.128205128206,4364.102564102564,4253.846153846154,4556.923076923077,4484.102564102564,4448.205128205129,4395.8974358974365,4723.589743589744,4391.282051282052,4267.179487179487,4210.256410256411,4565.128205128206
664.1098,0.35439104,0.36106178,0.33333334,0.5522388,0,0.0,0.0,0.0,0.0,0.0,0,0,0.0,0.0,0,0,114.0,0.0,589.0,4660.000000000001,3965.1282051282055,4510.256410256411,4366.153846153847,4256.410256410257,4558.974358974359,4490.769230769231,4465.641025641026,4407.179487179487,4727.179487179488,4392.820512820514,4266.666666666667,4211.282051282052,4567.6923076923085
664.1098,0.35439104,0.36106178,0.33333334,0.5522388,0,0.0,0.0,0.0,0.0,0.0,0,0,0.0,0.0,0,0,114.0,0.0,589.0,4660.000000000001,3965.1282051282055,4510.256410256411,4366.153846153847,4256.410256410257,4558.974358974359,4490.769230769231,4465.641025641026,4407.179487179487,4727.179487179488,4392.820512820514,4266.666666666667,4211.282051282052,4567.6923076923085
664.6102,0.32164416,0.34774396,0.33333334,0.5522388,0,0.0,0.0,0.0,0.0,0.0,0,0,0.0,0.0,0,0,49.0,0.0,0.0,4655.8974358974365,3961.538461538462,4510.256410256411,4373.846153846154,4261.538461538462,4562.051282051282,4489.2307692307695,4453.846153846154,4402.564102564103,4726.666666666667,4392.307692307693,4265.128205128206,4199.48717948718,4562.564102564103
664.6102,0.32164416,0.34774396,0.33333334,0.5522388,0,0.0,0.0,0.0,0.0,0.0,0,0,0.0,0.0,0,0,49.0,0.0,0.0,4655.8974358974365,3961.538461538462,4510.256410256411,4373.846153846154,4261.538461538462,4562.051282051282,4489.2307692307695,4453.846153846154,4402.564102564103,4726.666666666667,4392.307692307693,4265.128205128206,4199.48717948718,4562.564102564103
665.11066,0.34414536,0.34119,0.33333334,0.5522388,0,0.0,0.0,0.0,0.0,0.0,0,0,0.0,0.0,0,0,113.0,0.0,242.0,4640.000000000001,3954.8717948717954,4505.641025641026,4373.846153846154,4257.435897435898,4557.948717948719,4470.256410256411,4447.6923076923085,4400.000000000001,4731.282051282052,4393.846153846154,4271.794871794872,4199.48717948718,4555.8974358974365
665.11066,0.34414536,0.34119,0.33333334,0.5522388,0,0.0,0.0,0.0,0.0,0.0,0,0,0.0,0.0,0,0,113.0,0.0,242.0,4640.000000000001,3954.8717948717954,4505.641025641026,4373.846153846154,4257.435897435898,4557.948717948719,4470.256410256411,4447.6923076923085,4400.000000000001,4731.282051282052,4393.846153846154,4271.794871794872,4199.48717948718,4555.8974358974365
665.6111,0.38473126,0.33457232,0.33333334,0.5522388,0,0.0,0.0,0.0,0.0,0.0,0,0,0.0,0.0,0,0,48.0,0.0,0.0,4648.717948717949,3959.48717948718,4504.615384615385,4380.512820512821,4262.051282051282,4560.512820512821,4466.666666666667,4433.333333333334,4389.743589743591,4717.435897435898,4388.205128205129,4287.6923076923085,4193.333333333334,4561.025641025642
665.6111,0.38473126,0.33457232,0.33333334,0.5522388,0,0.0,0.0,0.0,0.0,0.0,0,0,0.0,0.0,0,0,48.0,0.0,0.0,4648.717948717949,3959.48717948718,4504.615384615385,4380.512820512821,4262.051282051282,4560.512820512821,4466.666666666667,4433.333333333334,4389.743589743591,4717.435897435898,4388.205128205129,4287.6923076923085,4193.333333333334,4561.025641025642
666.1115,0.40838298,0.33243632,0.33333334,0.5522388,0,0.0,0.0,0.0,0.0,0.0,0,0,0.0,0.0,0,0,112.0,0.0,0.0,4652.820512820514,3958.461538461539,4504.102564102564,4365.128205128206,4250.769230769231,4544.615384615385,4463.589743589744,4439.48717948718,4399.48717948718,4733.846153846154,4387.6923076923085,4291.282051282052,4202.051282051282,4554.358974358975
666.1115,0.40838298,0.33243632,0.33333334,0.5522388,0,0.0,0.0,0.0,0.0,0.0,0,0,0.0,0.0,0,0,112.0,0.0,0.0,4652.820512820514,3958.461538461539,4504.102564102564,4365.128205128206,4250.769230769231,4544.615384615385,4463.589743589744,4439.48717948718,4399.48717948718,4733.846153846154,4387.6923076923085,4291.282051282052,4202.051282051282,4554.358974358975
666.61194,0.37054792,0.33260038,0.33333334,0.5522388,0,0.0,0.0,0.0,0.0,0.0,0,0,0.0,0.0,0,0,47.0,0.0,0.0,4660.000000000001,3960.5128205128212,4508.717948717949,4374.871794871796,4255.8974358974365,4560.000000000001,4489.2307692307695,4452.820512820514,4415.8974358974365,4740.512820512821,4389.2307692307695,4280.000000000001,4209.74358974359,4571.282051282052
666.61194,0.37054792,0.33260038,0.33333334,0.5522388,0,0.0,0.0,0.0,0.0,0.0,0,0,0.0,0.0,0,0,47.0,0.0,0.0,4660.000000000001,3960.5128205128212,4508.717948717949,4374.871794871796,4255.8974358974365,4560.000000000001,4489.2307692307695,4452.820512820514,4415.8974358974365,4740.512820512821,4389.2307692307695,4280.000000000001,4209.74358974359,4571.282051282052
667.11237,0.36383972,0.32268152,0.33333334,0.5522388,0,0.0,0.0,0.0,0.0,0.0,0,0,0.0,0.0,0,0,111.0,0.0,372.0,4647.179487179488,3963.589743589744,4504.615384615385,4371.794871794872,4253.333333333334,4553.846153846154,4477.948717948719,4427.179487179487,4400.512820512821,4723.076923076924,4384.615384615385,4279.48717948718,4196.410256410257,4555.8974358974365
667.11237,0.36383972,0.32268152,0.33333334,0.5522388,0,0.0,0.0,0.0,0.0,0.0,0,0,0.0,0.0,0,0,111.0,0.0,372.0,4647.179487179488,3963.589743589744,4504.615384615385,4371.794871794872,4253.333333333334,4553.846153846154,4477.948717948719,4427.179487179487,4400.512820512821,4723.076923076924,4384.615384615385,4279.48717948718,4196.410256410257,4555.8974358974365
667.6128,0.35183045,0.32098874,0.33333334,0.5522388,0,0.0,0.0,0.0,0.0,0.0,0,0,0.0,0.0,0,0,46.0,0.0,0.0,4651.282051282052,3977.9487179487182,4513.846153846154,4382.051282051282,4262.051282051282,4559.48717948718,4492.307692307693,4427.179487179487,4396.923076923077,4723.589743589744,4387.179487179487,4274.871794871796,4198.974358974359,4585.641025641026
667.6128,0.35183045,0.32098874,0.33333334,0.5522388,0,0.0,0.0,0.0,0.0,0.0,0,0,0.0,0.0,0,0,46.0,0.0,0.0,4651.282051282052,3977.9487179487182,4513.846153846154,4382.051282051282,4262.051282051282,4559.48717948718,4492.307692307693,4427.179487179487,4396.923076923077,4723.589743589744,4387.179487179487,4274.871794871796,4198.974358974359,4585.641025641026
668.1132,0.32700768,0.3173624,0.33333334,0.5522388,0,0.0,0.0,0.0,0.0,0.0,0,0,0.0,0.0,0,0,110.0,0.0,589.0,4638.974358974359,3967.692307692308,4510.256410256411,4372.820512820514,4256.410256410257,4555.8974358974365,4493.846153846154,4455.384615384616,4435.384615384616,4749.743589743591,4390.256410256411,4255.8974358974365,4215.384615384616,4596.923076923077
668.1132,0.32700768,0.3173624,0.33333334,0.5522388,0,0.0,0.0,0.0,0.0,0.0,0,0,0.0,0.0,0,0,110.0,0.0,589.0,4638.974358974359,3967.692307692308,4510.256410256411,4372.820512820514,4256.410256410257,4555.8974358974365,4493.846153846154,4455.384615384616,4435.384615384616,4749.743589743591,4390.256410256411,4255.8974358974365,4215.384615384616,4596.923076923077
668.61365,0.30075926,0.31358165,0.33333334,0.5522388,0,0.0,0.0,0.0,0.0,0.0,0,0,0.0,0.0,0,0,45.0,0.0,0.0,4632.307692307693,3972.820512820513,4511.282051282052,4377.435897435898,4252.820512820514,4556.410256410257,4484.102564102564,4452.307692307693,4425.641025641026,4738.974358974359,4389.2307692307695,4265.641025641026,4218.974358974359,4596.923076923077
668.61365,0.30075926,0.31358165,0.33333334,0.5522388,0,0.0,0.0,0.0,0.0,0.0,0,0,0.0,0.0,0,0,45.0,0.0,0.0,4632.307692307693,3972.820512820513,4511.282051282052,4377.435897435898,4252.820512820514,4556.410256410257,4484.102564102564,4452.307692307693,4425.641025641026,4738.974358974359,4389.2307692307695,4265.641025641026,4218.974358974359,4596.923076923077
669.1141,0.25467467,0.32157543,0.33333334,0.5522388,0,0.0,0.0,0.0,0.0,0.0,0,0,0.0,0.0,0,0,109.0,0.0,242.0,4656.923076923077,3980.5128205128212,4513.846153846154,4387.6923076923085,4251.794871794872,4553.846153846154,4481.025641025642,4445.641025641026,4413.846153846154,4728.205128205129,4384.615384615385,4294.871794871796,4208.205128205129,4584.102564102564
669.1141,0.25467467,0.32157543,0.33333334,0.5522388,0,0.0,0.0,0.0,0.0,0.0,0,0,0.0,0.0,0,0,109.0,0.0,242.0,4656.923076923077,3980.5128205128212,4513.846153846154,4387.6923076923085,4251.794871794872,4553.846153846154,4481.025641025642,4445.641025641026,4413.846153846154,4728.205128205129,4384.615384615385,4294.871794871796,4208.205128205129,4584.102564102564
669.6145,0.23350488,0.335092,0.33333334,0.5522388,0,0.0,0.0,0.0,0.0,0.0,0,0,0.0,0.0,0,0,44.0,0.0,0.0,4649.743589743591,3976.9230769230776,4511.282051282052,4381.025641025642,4248.717948717949,4548.205128205129,4478.974358974359,4457.948717948719,4423.589743589744,4726.153846153847,4386.666666666667,4315.384615384616,4208.717948717949,4575.384615384616
669.6145,0.23350488,0.335092,0.33333334,0.5522388,0,0.0,0.0,0.0,0.0,0.0,0,0,0.0,0.0,0,0,44.0,0.0,0.0,4649.743589743591,3976.9230769230776,4511.282051282052,4381.025641025642,4248.717948717949,4548.205128205129,4478.974358974359,4457.948717948719,4423.589743589744,4726.153846153847,4386.666666666667,4315.384615384616,4208.717948717949,4575.384615384616
670.1149,0.21781185,0.35373107,0.33333334,0.5522388,0,0.0,0.0,0.0,0.0,0.0,0,0,0.0,0.0,0,0,108.0,0.0,0.0,4642.051282051282,3978.461538461539,4510.769230769231,4385.128205128206,4254.358974358975,4555.8974358974365,4482.051282051282,4468.205128205129,4437.435897435898,4735.384615384616,4389.743589743591,4317.435897435898,4208.205128205129,4567.6923076923085
670.1149,0.21781185,0.35373107,0.33333334,0.5522388,0,0.0,0.0,0.0,0.0,0.0,0,0,0.0,0.0,0,0,108.0,0.0,0.0,4642.051282051282,3978.461538461539,4510.769230769231,4385.128205128206,4254.358974358975,4555.8974358974365,4482.051282051282,4468.205128205129,4437.435897435898,4735.384615384616,4389.743589743591,4317.435897435898,4208.205128205129,4567.6923076923085
670.61536,0.2055599,0.3841569,0.33333334,0.5522388,0,0.0,0.0,0.0,0.0,0.0,0,0,0.0,0.0,0,0,43.0,0.0,0.0,4647.6923076923085,3971.2820512820517,4509.743589743591,4383.589743589744,4243.589743589744,4560.000000000001,4496.410256410257,4469.743589743591,4429.2307692307695,4743.076923076924,4388.205128205129,4313.333333333334,4216.410256410257,4568.717948717949
670.61536,0.2055599,0.3841569,0.33333334,0.5522388,0,0.0,0.0,0.0,0.0,0.0,0,0,0.0,0.0,0,0,43.0,0.0,0.0,4647.6923076923085,3971.2820512820517,4509.743589743591,4383.589743589744,4243.589743589744,4560.000000000001,4496.410256410257,4469.743589743591,4429.2307692307695,4743.076923076924,4388.205128205129,4313.333333333334,4216.410256410257,4568.717948717949
671.1158,0.20873897,0.3951689,0.33333334,0.5522388,0,0.0,0.0,0.0,0.0,0.0,0,0,0.0,0.0,0,0,107.0,0.0,372.0,4657.435897435898,3980.0000000000005,4511.282051282052,4392.820512820514,4256.923076923077,4560.000000000001,4497.948717948719,4467.179487179487,4427.179487179487,4741.025641025642,4390.769230769231,4312.820512820514,4203.589743589744,4576.923076923077
671.1158,0.20873897,0.3951689,0.33333334,0.5522388,0,0.0,0.0,0.0,0.0,0.0,0,0,0.0,0.0,0,0,107.0,0.0,372.0,4657.435897435898,3980.0000000000005,4511.282051282052,4392.820512820514,4256.923076923077,4560.000000000001,4497.948717948719,4467.179487179487,4427.179487179487,4741.025641025642,4390.769230769231,4312.820512820514,4203.589743589744,4576.923076923077
671.7101,0.17721522,0.39241815,0.33333334,0.5522388,0,0.0,0.0,0.0,0.0,0.0,0,0,0.33452955,0.0,0,0,54.0,0.0,0.0,4653.846153846154,3976.410256410257,4510.769230769231,4387.6923076923085,4254.871794871796,4552.307692307693,4485.641025641026,4465.641025641026,4422.564102564103,4744.102564102564,4391.282051282052,4316.410256410257,4211.794871794872,4567.179487179488
671.83514,0.17721522,0.39241815,0.33333334,0.5522388,0,0.0,0.0,0.0,0.0,0.0,0,0,0.0,0.0,0,0,70.0,0.0,573.0,4668.205128205129,3974.8717948717954,4513.333333333334,4386.666666666667,4254.871794871796,4548.205128205129,4482.564102564103,4453.846153846154,4413.333333333334,4739.48717948718,4391.794871794872,4332.307692307693,4210.256410256411,4573.846153846154
672.11664,0.16363248,0.3900941,0.33333334,0.5522388,0,0.0,0.0,0.0,0.0,0.0,0,0,0.0,0.0,0,0,106.0,0.0,589.0,4653.846153846154,3959.48717948718,4511.794871794872,4384.102564102564,4242.564102564103,4542.051282051282,4477.948717948719,4442.051282051282,4405.128205128206,4715.384615384616,4386.153846153847,4321.538461538462,4201.538461538462,4535.8974358974365
672.4607,0.16363248,0.3900941,0.33333334,0.5522388,0,0.0,0.20485839,0.0,0.0,0.0,0,0,0.0,0.0,0,0,21.0,0.0,0.0,4708.205128205129,4069.7435897435903,4510.256410256411,4056.410256410257,4281.538461538462,4578.461538461539,4522.051282051282,4501.025641025642,4459.48717948718,4774.358974358975,4396.923076923077,4338.974358974359,4251.794871794872,4573.333333333334
672.71094,0.31545278,0.41351914,0.33333334,0.5522388,0,0.0,0.22595699,0.0,0.0,0.0,0,0,0.0,0.0,0,0,53.0,0.0,0.0,4705.641025641026,4041.538461538462,4512.820512820514,4140.000000000001,4271.794871794872,4566.666666666667,4516.410256410257,4488.717948717949,4452.307692307693,4776.923076923077,4397.435897435898,4342.051282051282,4263.589743589744,4587.179487179488
672.9611,0.31545278,0.41351914,0.33333334,0.5522388,0,0.0,0.0,0.0,0.0,0.0,0,0,0.0,0.0,0,0,85.0,0.0,240.0,4686.153846153847,4027.1794871794878,4507.179487179488,4207.179487179487,4257.435897435898,4557.435897435898,4500.512820512821,4482.564102564103,4441.025641025642,4755.384615384616,4396.923076923077,4314.358974358975,4230.256410256411,4566.666666666667
673.11755,0.3993685,0.45177746,0.33333334,0.5522388,0,0.0,0.0,0.0,0.0,0.0,0,0,0.0,0.0,0,0,105.0,0.0,240.0,4665.128205128206,3996.410256410257,4505.128205128206,4230.769230769231,4258.461538461539,4558.461538461539,4503.589743589744,4486.153846153847,4442.051282051282,4753.846153846154,4393.846153846154,4320.512820512821,4226.153846153847,4558.461538461539
673.11755,0.3993685,0.45177746,0.33333334,0.5522388,0,0.0,0.0,0.0,0.0,0.0,0,0,0.0,0.0,0,0,105.0,0.0,240.0,4665.128205128206,3996.410256410257,4505.128205128206,4230.769230769231,4258.461538461539,4558.461538461539,4503.589743589744,4486.153846153847,4442.051282051282,4753.846153846154,4393.846153846154,4320.512820512821,4226.153846153847,4558.461538461539
673.618,0.37137684,0.48874593,0.33333334,0.5522388,0,0.0,0.0,0.0,0.0,0.0,0,0,0.0,0.0,0,0,40.0,0.0,0.0,4665.128205128206,3983.076923076924,4515.384615384616,4324.102564102564,4254.358974358975,4556.410256410257,4496.923076923077,4468.717948717949,4421.025641025642,4740.000000000001,4392.307692307693,4316.923076923077,4202.564102564103,4552.307692307693
673.618,0.37137684,0.48874593,0.33333334,0.5522388,0,0.0,0.0,0.0,0.0,0.0,0,0,0.0,0.0,0,0,40.0,0.0,0.0,4665.128205128206,3983.076923076924,4515.384615384616,4324.102564102564,4254.358974358975,4556.410256410257,4496.923076923077,4468.717948717949,4421.025641025642,4740.000000000001,4392.307692307693,4316.923076923077,4202.564102564103,4552.307692307693
674.1184,0.3636465,0.49710312,0.33333334,0.5522388,0,0.0,0.0,0.0,0.0,0.0,0,0,0.0,0.0,0,0,104.0,0.0,0.0,4653.333333333334,3965.6410256410263,4516.410256410257,4367.6923076923085,4247.179487179487,4547.6923076923085,4475.8974358974365,4450.769230769231,4414.358974358975,4727.179487179488,4391.794871794872,4315.384615384616,4212.307692307693,4539.48717948718
674.1184,0.3636465,0.49710312,0.33333334,0.5522388,0,0.0,0.0,0.0,0.0,0.0,0,0,0.0,0.0,0,0,104.0,0.0,0.0,4653.333333333334,3965.6410256410263,4516.410256410257,4367.6923076923085,4247.179487179487,4547.6923076923085,4475.8974358974365,4450.769230769231,4414.358974358975,4727.179487179488,4391.794871794872,4315.384615384616,4212.307692307693,4539.48717948718
674.71265,0.5300089,0.50462663,0.33333334,0.5522388,0,0.0,0.0,0.0,0.0,0.0,0,0,0.0,0.47940496,0,0,51.0,0.0,0.0,4602.564102564103,3935.3846153846157,4510.769230769231,4395.384615384616,4237.948717948719,4498.974358974359,4435.384615384616,4400.000000000001,4354.358974358975,4675.8974358974365,4381.025641025642,4287.179487179487,4145.128205128206,4496.923076923077
674.9629,0.5300089,0.50462663,0.33333334,0.5522388,1,0.0,0.0,0.0,0.0,0.0,0,0,0.0,0.3818823,0,0,83.0,0.0,372.0,4686.153846153847,3977.9487179487182,4523.589743589744,4413.846153846154,4302.564102564103,4608.717948717949,4520.512820512821,4484.102564102564,4428.717948717949,4761.538461538462,4385.641025641026,4315.8974358974365,4224.615384615385,4563.076923076924
675.11926,0.6764078,0.5113978,0.33333334,0.5522388,0,0.0,0.0,0.0,0.0,0.0,0,0,0.0,0.0,0,0,103.0,0.0,372.0,4683.589743589744,3967.692307692308,4522.564102564103,4415.384615384616,4290.256410256411,4605.641025641026,4524.615384615385,4484.615384615385,4443.589743589744,4764.615384615386,4389.2307692307695,4314.358974358975,4222.564102564103,4543.589743589744
675.11926,0.6764078,0.5113978,0.33333334,0.5522388,0,0.0,0.0,0.0,0.0,0.0,0,0,0.0,0.0,0,0,103.0,0.0,372.0,4683.589743589744,3967.692307692308,4522.564102564103,4415.384615384616,4290.256410256411,4605.641025641026,4524.615384615385,4484.615384615385,4443.589743589744,4764.615384615386,4389.2307692307695,4314.358974358975,4222.564102564103,4543.589743589744
675.6197,0.71019346,0.5174918,0.33333334,0.5522388,0,0.0,0.0,0.0,0.0,0.0,0,0,0.0,0.0,0,0,38.0,0.0,0.0,4678.461538461539,3968.205128205129,4523.076923076924,4441.538461538462,4275.384615384616,4590.256410256411,4516.923076923077,4485.128205128206,4453.333333333334,4774.358974358975,4394.358974358975,4320.512820512821,4231.282051282052,4549.2307692307695
675.6197,0.71019346,0.5174918,0.33333334,0.5522388,0,0.0,0.0,0.0,0.0,0.0,0,0,0.0,0.0,0,0,38.0,0.0,0.0,4678.461538461539,3968.205128205129,4523.076923076924,4441.538461538462,4275.384615384616,4590.256410256411,4516.923076923077,4485.128205128206,4453.333333333334,4774.358974358975,4394.358974358975,4320.512820512821,4231.282051282052,4549.2307692307695
676.1201,0.69987667,0.52297646,0.33333334,0.5522388,0,0.0,0.0,0.0,0.0,0.0,0,0,0.0,0.0,0,0,102.0,0.0,592.0,4671.282051282052,3945.6410256410263,4512.820512820514,4437.948717948719,4264.615384615385,4575.8974358974365,4513.333333333334,4502.564102564103,4448.205128205129,4755.384615384616,4389.743589743591,4306.666666666667,4189.2307692307695,4538.461538461539
676.1201,0.69987667,0.52297646,0.33333334,0.5522388,0,0.0,0.0,0.0,0.0,0.0,0,0,0.0,0.0,0,0,102.0,0.0,592.0,4671.282051282052,3945.6410256410263,4512.820512820514,4437.948717948719,4264.615384615385,4575.8974358974365,4513.333333333334,4502.564102564103,4448.205128205129,4755.384615384616,4389.743589743591,4306.666666666667,4189.2307692307695,4538.461538461539
676.62054,0.643304,0.58532715,0.33333334,0.5522388,0,0.0,0.0,0.0,0.0,0.0,0,0,0.0,0.0,0,0,37.0,0.0,0.0,4667.179487179488,3952.307692307693,4515.8974358974365,4441.538461538462,4257.948717948719,4563.589743589744,4504.102564102564,4493.846153846154,4430.769230769231,4741.538461538462,4391.282051282052,4326.666666666667,4191.794871794872,4540.512820512821
676.62054,0.643304,0.58532715,0.33333334,0.5522388,0,0.0,0.0,0.0,0.0,0.0,0,0,0.0,0.0,0,0,37.0,0.0,0.0,4667.179487179488,3952.307692307693,4515.8974358974365,4441.538461538462,4257.948717948719,4563.589743589744,4504.102564102564,4493.846153846154,4430.769230769231,4741.538461538462,4391.282051282052,4326.666666666667,4191.794871794872,4540.512820512821
677.2148,0.5893093,0.5375159,0.33333334,0.5522388,0,0.0,0.0,0.0,0.0,0.056647312,0,0,0.0,0.0,0,0,113.0,0.0,240.0,4675.8974358974365,3998.9743589743593,4516.923076923077,4460.000000000001,4237.435897435898,4542.564102564103,4452.820512820514,4433.333333333334,4374.871794871796,4664.102564102564,4384.102564102564,4318.974358974359,4118.974358974359,4535.384615384616
677.465,0.5893093,0.5375159,0.33333334,0.5522388,0,0.0,0.0,0.0,0.0,0.1563288,0,0,0.0,0.0,0,0,16.0,0.0,0.0,4609.2307692307695,3943.589743589744,4488.205128205129,4444.102564102564,4254.871794871796,4557.435897435898,4476.923076923077,4471.282051282052,4398.461538461539,4672.307692307693,4376.923076923077,4308.717948717949,4115.384615384616,4517.435897435898
677.7152,0.5886938,0.5031828,0.33333334,0.5522388,0,0.0,0.0,0.0,0.0,0.071151234,0,0,0.0,0.0,0,0,48.0,0.0,0.0,4604.615384615385,3904.1025641025644,4485.128205128206,4434.871794871796,4255.8974358974365,4559.48717948718,4487.179487179488,4520.512820512821,4422.564102564103,4732.307692307693,4373.846153846154,4332.307692307693,4200.512820512821,4524.615384615385
677.96545,0.5886938,0.5031828,0.33333334,0.5522388,0,0.0,0.0,0.0,0.0,0.045865394,0,0,0.0,0.0,0,0,80.0,0.0,0.0,4542.564102564103,3777.9487179487182,4487.179487179488,4973.333333333334,4171.794871794872,4494.358974358975,4407.179487179487,4434.871794871796,4357.435897435898,4650.256410256411,4373.333333333334,4293.846153846154,4107.179487179487,4480.512820512821
678.21564,0.6632493,0.47227147,0.33333334,0.5522388,0,0.0,0.0,0.0874435,0.0,0.0,0,0,0.0,0.0,0,0,112.0,0.0,0.0,4489.743589743591,4300.000000000001,4473.846153846154,4306.153846153847,4115.384615384616,4457.948717948719,4335.384615384616,4362.051282051282,4280.000000000001,4565.128205128206,4366.153846153847,4262.564102564103,3995.8974358974365,4433.333333333334
678.4659,0.6632493,0.47227147,0.33333334,0.5522388,0,0.0,0.0,0.06389718,0.0,0.0,0,0,0.0,0.0,0,0,15.0,0.0,372.0,4540.000000000001,4284.615384615385,4497.435897435898,4368.717948717949,4116.923076923077,4463.589743589744,4353.846153846154,4364.102564102564,4269.74358974359,4581.538461538462,4370.769230769231,4234.871794871796,4085.6410256410263,4426.666666666667
678.71606,0.7936594,0.4444513,0.33333334,0.5522388,1,0.0,0.0,0.06111812,0.0,0.0,0,0,0.0,0.0,0,0,47.0,0.0,0.0,4743.076923076924,3947.1794871794878,4516.410256410257,4312.307692307693,4153.846153846154,4469.743589743591,4446.666666666667,4447.6923076923085,4362.564102564103,4684.102564102564,4424.615384615385,4273.846153846154,4215.8974358974365,4563.076923076924
678.9663,0.7936594,0.4444513,0.33333334,0.5522388,0,0.0,0.0,0.0,0.0,0.058867086,0,0,0.0,0.0,0,0,79.0,0.0,372.0,4810.769230769231,3823.076923076924,4462.564102564103,4294.358974358975,4205.128205128206,4513.333333333334,4545.641025641026,4530.769230769231,4457.948717948719,4752.820512820514,4380.512820512821,4361.025641025642,4273.846153846154,4575.384615384616
679.2165,0.8988692,0.41941312,0.33333334,0.5522388,0,0.0,0.0,0.0,0.0,0.06886742,0,0,0.0,0.0,0,0,111.0,0.0,372.0,4686.666666666667,3697.9487179487182,4409.743589743591,4271.282051282052,4046.666666666667,4236.923076923077,4384.102564102564,4354.871794871796,4295.384615384616,4504.615384615385,4334.358974358975,4294.358974358975,4090.7692307692314,4495.8974358974365
679.46674,0.8988692,0.41941312,0.33333334,0.5522388,0,0.0,0.0,0.0,0.0,0.030473482,0,0,0.0,0.0,0,1,14.0,0.0,591.0,4942.564102564103,3896.9230769230776,4489.2307692307695,4343.589743589744,4283.076923076924,4587.6923076923085,4621.538461538462,4754.358974358975,4538.461538461539,4828.717948717949,4389.2307692307695,4399.48717948718,4385.641025641026,4680.000000000001
679.7169,1.0,0.39687878,0.33333334,0.5522388,0,0.0,0.0,0.0,0.0,0.0,0,0,0.0,0.070889674,0,0,46.0,0.0,0.0,4908.717948717949,3897.435897435898,4491.794871794872,4365.128205128206,4265.641025641026,4597.948717948719,4590.256410256411,4638.974358974359,4486.666666666667,4794.871794871796,4394.871794871796,4408.205128205129,4294.871794871796,4622.564102564103
679.96716,1.0,0.39687878,0.33333334,0.5522388,0,0.0,0.0,0.0,0.0,0.030036774,0,0,0.0,0.0,0,0,78.0,0.0,590.0,4858.461538461539,3909.2307692307695,4487.6923076923085,4395.384615384616,4263.589743589744,4592.307692307693,4582.051282051282,4670.256410256411,4492.307692307693,4811.282051282052,4399.48717948718,4421.538461538462,4282.564102564103,4604.615384615385
680.2174,1.0,0.37659785,0.33333334,0.5522388,0,0.0,0.0,0.0,0.0,0.20117088,0,0,0.0,0.0,0,0,110.0,0.0,590.0,4649.2307692307695,3878.9743589743593,4443.076923076924,4395.384615384616,4164.102564102564,4544.102564102564,4498.974358974359,4710.769230769231,4445.128205128206,4712.820512820514,4351.794871794872,4366.153846153847,4222.051282051282,4550.769230769231
680.4676,1.0,0.37659785,0.33333334,0.5522388,0,0.0,0.0,0.0,0.0,0.30673733,0,0,0.0,0.0,0,0,13.0,0.0,239.0,4954.358974358975,3928.717948717949,4455.8974358974365,4433.846153846154,4197.948717948719,4552.307692307693,4600.512820512821,4663.589743589744,4473.333333333334,4808.717948717949,4374.358974358975,4383.076923076924,4255.384615384616,4584.615384615385
