timestamp,excitement,frustration,meditation,engagementBoredom,blink,clench,laugh,smile,eyebrow,furrowBrow,lookLeft,lookRight,smirkLeft,smirkRight,winkLeft,winkRight,eeg0,eeg1,eeg2,eeg3,eeg4,eeg5,eeg6,eeg7,eeg8,eeg9,eeg10,eeg11,eeg12,eeg13,eeg14,eeg15,eeg16
109.594185,0.29527718,0.4075175,0.3313528,0.6076741,0,0.0,0.0,0.0,0.0,0.0,0,0,0.0,0.0,0,0,19.0,0.0,0.0,4711.794871794872,3941.0256410256416,4513.846153846154,4483.076923076924,4239.48717948718,4551.282051282052,4514.871794871796,4537.435897435898,4429.2307692307695,4758.461538461539,4460.000000000001,4244.102564102564,4234.358974358975,4633.846153846154
110.09461,0.32579425,0.42902696,0.3315547,0.6020669,0,0.0,0.0,0.0,0.0,0.0,0,0,1.0,0.0,0,0,83.0,0.0,321.0,4662.051282051282,3934.8717948717954,4493.846153846154,4507.6923076923085,4223.076923076924,4524.102564102564,4460.000000000001,4476.410256410257,4343.076923076924,4626.153846153847,4365.128205128206,4200.000000000001,4078.461538461539,4561.025641025642
110.344826,0.32579425,0.42902696,0.3315547,0.6020669,0,0.0,0.0,0.0,0.0,0.552404,0,0,0.0,0.0,0,0,115.0,0.0,321.0,4707.179487179488,3925.6410256410263,4496.923076923077,4491.282051282052,4232.307692307693,4533.846153846154,4478.461538461539,4501.025641025642,4396.923076923077,4725.641025641026,4417.948717948719,4244.615384615385,4200.000000000001,4575.384615384616
110.62632,0.34717003,0.45319363,0.33173388,0.5970638,0,0.0,0.0,0.0,0.0,0.65828824,0,0,0.0,0.0,0,0,22.0,0.0,0.0,4690.256410256411,3914.8717948717954,4503.589743589744,4488.717948717949,4245.641025641026,4538.461538461539,4490.769230769231,4529.2307692307695,4429.743589743591,4769.743589743591,4438.461538461539,4249.2307692307695,4246.153846153847,4607.6923076923085
110.84526,0.34717003,0.45319363,0.33173388,0.5970638,0,0.0,0.0,0.0,0.0,0.1450808,0,0,0.0,0.0,0,0,50.0,0.0,0.0,4730.769230769231,3946.1538461538466,4511.282051282052,4508.205128205129,4246.666666666667,4537.948717948719,4487.6923076923085,4502.564102564103,4409.2307692307695,4745.641025641026,4425.641025641026,4257.948717948719,4245.641025641026,4611.282051282052
111.095474,0.3240872,0.45867395,0.33189625,0.59254134,0,0.0,0.0,0.0,0.0,0.61190754,0,0,0.0,0.0,0,0,82.0,0.0,574.0,4725.641025641026,3950.7692307692314,4515.384615384616,4508.205128205129,4247.6923076923085,4546.666666666667,4491.282051282052,4518.461538461539,4416.410256410257,4751.282051282052,4429.743589743591,4281.025641025642,4235.8974358974365,4592.307692307693
111.34569,0.3240872,0.45867395,0.33189625,0.59254134,0,0.0,0.0,0.0,0.0,0.17233059,0,0,0.0,0.0,0,0,114.0,0.0,574.0,4723.589743589744,3972.820512820513,4515.384615384616,4507.6923076923085,4235.8974358974365,4536.923076923077,4474.871794871796,4490.769230769231,4389.2307692307695,4713.333333333334,4392.307692307693,4266.666666666667,4174.358974358975,4573.333333333334
111.62718,0.33978888,0.47121188,0.33204034,0.5885051,0,0.0,0.0,0.0,0.0,0.15335551,0,0,0.0,0.0,0,0,21.0,0.0,0.0,4676.410256410257,3942.564102564103,4511.794871794872,4489.2307692307695,4243.076923076924,4540.000000000001,4493.333333333334,4508.205128205129,4399.48717948718,4708.205128205129,4384.102564102564,4264.615384615385,4169.74358974359,4561.025641025642
111.846115,0.33978888,0.47121188,0.33204034,0.5885051,0,0.0,0.0,0.0,0.0,0.0,0,0,0.0,0.0,0,0,49.0,0.0,0.0,4650.769230769231,3945.6410256410263,4507.179487179488,4489.2307692307695,4234.871794871796,4536.923076923077,4475.8974358974365,4490.256410256411,4374.358974358975,4676.923076923077,4367.6923076923085,4260.512820512821,4134.358974358975,4525.641025641026
112.09634,0.3538502,0.47657454,0.33217138,0.5848502,0,0.0,0.0,0.0,0.0,0.0,0,0,0.0,0.0,0,0,81.0,0.0,230.0,4653.846153846154,3940.0000000000005,4508.717948717949,4475.8974358974365,4237.948717948719,4538.461538461539,4497.948717948719,4501.538461538462,4386.153846153847,4688.717948717949,4368.205128205129,4258.461538461539,4151.282051282052,4528.717948717949
112.09634,0.3538502,0.47657454,0.33217138,0.5848502,0,0.0,0.0,0.0,0.0,0.0,0,0,0.0,0.0,0,0,81.0,0.0,230.0,4653.846153846154,3940.0000000000005,4508.717948717949,4475.8974358974365,4237.948717948719,4538.461538461539,4497.948717948719,4501.538461538462,4386.153846153847,4688.717948717949,4368.205128205129,4258.461538461539,4151.282051282052,4528.717948717949
112.59676,0.33344135,0.46927428,0.33228928,0.5815617,0,0.0,0.0,0.0,0.0,0.0,0,0,0.0,0.0,0,0,16.0,0.0,0.0,4653.333333333334,3938.461538461539,4509.743589743591,4481.538461538462,4233.846153846154,4536.923076923077,4478.974358974359,4488.717948717949,4370.256410256411,4694.871794871796,4368.205128205129,4248.717948717949,4153.846153846154,4527.6923076923085
112.84698,0.33344135,0.46927428,0.33228928,0.5815617,0,0.0,0.0,0.0,0.0,0.04708761,0,0,0.0,0.0,0,0,48.0,0.0,0.0,4680.000000000001,3943.589743589744,4514.871794871796,4491.282051282052,4238.974358974359,4537.435897435898,4486.666666666667,4481.538461538462,4377.435897435898,4712.820512820514,4383.076923076924,4260.512820512821,4180.512820512821,4535.8974358974365
113.09719,0.3277567,0.4493762,0.33239552,0.5786001,0,0.0,0.0,0.0,0.0,0.0,0,0,0.0,0.0,0,0,80.0,0.0,270.0,4669.743589743591,3934.8717948717954,4509.2307692307695,4491.282051282052,4233.846153846154,4537.948717948719,4490.256410256411,4518.974358974359,4400.512820512821,4727.179487179488,4385.128205128206,4262.564102564103,4200.512820512821,4529.2307692307695
113.09719,0.3277567,0.4493762,0.33239552,0.5786001,0,0.0,0.0,0.0,0.0,0.0,0,0,0.0,0.0,0,0,80.0,0.0,270.0,4669.743589743591,3934.8717948717954,4509.2307692307695,4491.282051282052,4233.846153846154,4537.948717948719,4490.256410256411,4518.974358974359,4400.512820512821,4727.179487179488,4385.128205128206,4262.564102564103,4200.512820512821,4529.2307692307695
113.597626,0.31085154,0.43896204,0.3324911,0.5759354,0,0.0,0.0,0.0,0.0,0.46327177,0,0,0.0,0.0,0,0,15.0,0.0,321.0,4677.435897435898,3948.717948717949,4516.410256410257,4504.615384615385,4250.256410256411,4548.205128205129,4489.743589743591,4490.769230769231,4394.358974358975,4717.948717948719,4384.615384615385,4262.051282051282,4186.153846153847,4520.000000000001
113.84784,0.31085154,0.43896204,0.3324911,0.5759354,0,0.0,0.0,0.0,0.0,0.80118734,0,0,0.0,0.0,0,0,47.0,0.0,0.0,4674.358974358975,3935.8974358974365,4509.2307692307695,4491.794871794872,4242.051282051282,4538.974358974359,4482.564102564103,4486.153846153847,4387.179487179487,4711.282051282052,4382.051282051282,4257.948717948719,4174.871794871796,4519.48717948718
114.12933,0.3018346,0.43445617,0.33257595,0.5735562,0,0.0,0.0,0.0,0.0,0.036647525,0,0,0.0,0.0,0,0,83.0,0.0,321.0,4668.717948717949,3939.48717948718,4503.589743589744,4491.794871794872,4242.564102564103,4538.461538461539,4487.179487179488,4479.48717948718,4382.051282051282,4727.179487179488,4387.6923076923085,4258.974358974359,4184.102564102564,4526.153846153847
114.34827,0.3018346,0.43445617,0.33257595,0.5735562,0,0.0,0.0,0.0,0.0,0.0,0,0,0.30739817,0.0,0,0,111.0,0.0,321.0,4661.025641025642,3936.9230769230776,4505.641025641026,4492.820512820514,4241.025641025642,4536.923076923077,4488.717948717949,4490.256410256411,4398.974358974359,4728.717948717949,4390.256410256411,4260.000000000001,4176.923076923077,4522.564102564103
114.59848,0.2955104,0.42775056,0.3326528,0.5714064,0,0.0,0.0,0.0,0.0,0.0,0,0,0.19198903,0.0,0,0,14.0,0.0,574.0,4672.820512820514,3964.1025641025644,4511.794871794872,4501.025641025642,4235.8974358974365,4538.461538461539,4476.410256410257,4460.512820512821,4382.051282051282,4715.384615384616,4383.589743589744,4252.307692307693,4174.871794871796,4528.205128205129
114.8487,0.2955104,0.42775056,0.3326528,0.5714064,0,0.0,0.0,0.0,0.0,0.0,0,0,0.16180591,0.0,0,0,46.0,0.0,0.0,4680.000000000001,3956.9230769230776,4515.384615384616,4493.333333333334,4241.538461538462,4538.461538461539,4484.102564102564,4476.410256410257,4392.307692307693,4717.948717948719,4384.615384615385,4249.2307692307695,4168.717948717949,4525.128205128206
115.098915,0.2917314,0.41555804,0.33272183,0.569474,0,0.0,0.0,0.0,0.0,0.0,0,0,0.17925256,0.0,0,0,78.0,0.0,574.0,4673.333333333334,3928.717948717949,4506.666666666667,4483.076923076924,4236.410256410257,4540.000000000001,4485.641025641026,4480.000000000001,4401.538461538462,4726.153846153847,4394.871794871796,4264.615384615385,4177.948717948719,4522.564102564103
115.34913,0.2917314,0.41555804,0.33272183,0.569474,0,0.0,0.0,0.0,0.0,0.0,0,0,0.29148108,0.0,0,0,110.0,0.0,574.0,4664.102564102564,3935.8974358974365,4511.282051282052,4475.8974358974365,4247.6923076923085,4548.717948717949,4503.589743589744,4485.641025641026,4416.410256410257,4745.128205128206,4400.000000000001,4278.974358974359,4202.051282051282,4527.6923076923085
115.59934,0.2820536,0.40233523,0.33278397,0.567735,0,0.0,0.0,0.0,0.0,0.0,0,0,0.0,0.0,0,0,13.0,0.0,230.0,4680.000000000001,3942.564102564103,4512.820512820514,4483.076923076924,4241.538461538462,4542.051282051282,4489.743589743591,4467.6923076923085,4411.282051282052,4729.743589743591,4409.2307692307695,4274.358974358975,4192.820512820514,4528.205128205129
115.849556,0.2820536,0.40233523,0.33278397,0.567735,0,0.0,0.0,0.0,0.0,0.0,0,0,0.0,0.0,0,0,45.0,0.0,0.0,4668.205128205129,3942.0512820512827,4515.384615384616,4490.256410256411,4247.179487179487,4554.871794871796,4504.102564102564,4475.384615384616,4414.358974358975,4746.153846153847,4414.358974358975,4280.512820512821,4203.076923076924,4533.846153846154
116.09978,0.26883337,0.40202242,0.33283976,0.5661715,0,0.0,0.0,0.0,0.0,0.0,0,0,0.0,0.0,0,0,77.0,0.0,230.0,4662.564102564103,3946.1538461538466,4509.2307692307695,4486.153846153847,4237.435897435898,4538.461538461539,4480.000000000001,4464.102564102564,4413.333333333334,4737.948717948719,4401.025641025642,4278.461538461539,4183.589743589744,4528.717948717949
116.34999,0.26883337,0.40202242,0.33283976,0.5661715,0,0.0,0.0,0.0,0.0,1.0,0,0,0.0,0.0,0,0,109.0,0.0,230.0,4665.641025641026,3935.3846153846157,4507.6923076923085,4484.615384615385,4243.589743589744,4546.153846153847,4488.717948717949,4480.000000000001,4428.717948717949,4744.102564102564,4411.282051282052,4264.615384615385,4194.871794871796,4531.794871794872
116.63148,0.25921082,0.4027413,0.3328895,0.56477267,0,0.0,0.0,0.0,0.0,0.5287497,0,0,0.0,0.0,0,0,16.0,0.0,0.0,4680.000000000001,3933.333333333334,4508.205128205129,4479.48717948718,4241.538461538462,4539.48717948718,4472.307692307693,4462.051282051282,4413.846153846154,4731.794871794872,4403.076923076924,4271.794871794872,4192.820512820514,4534.871794871796
116.85042,0.25921082,0.4027413,0.3328895,0.56477267,0,0.0,0.0,0.0,0.0,0.03110587,0,0,0.0,0.0,0,0,44.0,0.0,0.0,4665.641025641026,3923.589743589744,4500.000000000001,4476.410256410257,4238.461538461539,4540.512820512821,4477.435897435898,4460.000000000001,4412.307692307693,4726.666666666667,4402.564102564103,4277.435897435898,4181.025641025642,4528.717948717949
117.10063,0.2261964,0.3990007,0.33293453,0.5635088,0,0.0,0.0,0.0,0.0,0.0,0,0,0.32738343,0.0,0,0,76.0,0.0,266.0,4676.410256410257,3946.1538461538466,4505.641025641026,4478.974358974359,4233.846153846154,4538.974358974359,4479.48717948718,4460.512820512821,4403.076923076924,4709.2307692307695,4390.769230769231,4264.615384615385,4156.923076923077,4538.974358974359
117.350845,0.2261964,0.3990007,0.33293453,0.5635088,0,0.0,0.0,0.0,0.0,0.0,0,0,0.4645166,0.0,0,0,108.0,0.0,266.0,4681.538461538462,3923.589743589744,4498.974358974359,4467.179487179487,4238.974358974359,4537.948717948719,4494.358974358975,4472.307692307693,4423.076923076924,4742.564102564103,4402.051282051282,4265.641025641026,4202.051282051282,4547.6923076923085
117.60107,0.23102555,0.38974175,0.33297497,0.56237274,0,0.0,0.0,0.0,0.0,0.0,0,0,0.52916336,0.0,0,0,11.0,0.0,323.0,4686.153846153847,3933.8461538461543,4504.102564102564,4475.384615384616,4234.871794871796,4536.923076923077,4486.153846153847,4460.512820512821,4412.307692307693,4724.102564102564,4399.48717948718,4258.974358974359,4176.410256410257,4546.153846153847
117.85128,0.23102555,0.38974175,0.33297497,0.56237274,0,0.0,0.0,0.0,0.0,0.0,0,0,0.34010425,0.0,0,0,43.0,0.0,0.0,4702.564102564103,3940.0000000000005,4509.2307692307695,4475.384615384616,4245.128205128206,4539.48717948718,4492.820512820514,4477.948717948719,4413.846153846154,4741.025641025642,4408.717948717949,4279.48717948718,4185.641025641026,4548.717948717949
118.101494,0.22331654,0.38300985,0.3330114,0.56135035,0,0.0,0.0,0.0,0.0,1.0,0,0,0.0,0.0,0,0,75.0,0.0,323.0,4684.615384615386,3946.1538461538466,4509.743589743591,4484.102564102564,4238.974358974359,4538.461538461539,4491.794871794872,4480.512820512821,4410.256410256411,4718.461538461539,4384.102564102564,4264.102564102564,4160.512820512821,4534.358974358975
118.35171,0.22331654,0.38300985,0.3330114,0.56135035,0,0.0,0.0,0.0,0.0,0.9574814,0,0,0.0,0.0,0,0,107.0,0.0,323.0,4681.538461538462,3947.692307692308,4512.307692307693,4484.102564102564,4245.128205128206,4536.923076923077,4499.48717948718,4488.205128205129,4410.256410256411,4708.205128205129,4379.48717948718,4263.589743589744,4155.384615384616,4534.358974358975
118.6332,0.19853291,0.37880298,0.3330437,0.56043714,0,0.0,0.0,0.0,0.0,0.050672963,0,0,0.0,0.0,0,0,14.0,0.0,575.0,4680.512820512821,3957.9487179487182,4514.871794871796,4491.282051282052,4248.205128205129,4550.256410256411,4492.307692307693,4510.769230769231,4428.717948717949,4754.358974358975,4401.025641025642,4265.128205128206,4197.435897435898,4544.615384615385
118.85214,0.19853291,0.37880298,0.3330437,0.56043714,0,0.0,0.0,0.0,0.0,0.062088873,0,0,0.0,0.0,0,0,42.0,0.0,0.0,4667.6923076923085,3927.692307692308,4514.871794871796,4478.974358974359,4249.74358974359,4553.846153846154,4510.769230769231,4522.564102564103,4441.538461538462,4748.205128205129,4396.923076923077,4264.615384615385,4194.871794871796,4539.48717948718
119.102356,0.20280498,0.38197604,0.33307314,0.55960983,0,0.0,0.0,0.0,0.0,0.037865374,0,0,0.0,0.0,0,0,74.0,0.0,575.0,4663.076923076924,3936.410256410257,4506.666666666667,4475.8974358974365,4244.615384615385,4542.051282051282,4502.051282051282,4508.717948717949,4429.743589743591,4750.256410256411,4392.820512820514,4252.307692307693,4199.48717948718,4537.435897435898
119.35257,0.20280498,0.38197604,0.33307314,0.55960983,0,0.0,0.0,0.0,0.0,0.11032384,0,0,0.0,0.0,0,0,106.0,0.0,575.0,4678.461538461539,3954.8717948717954,4513.333333333334,4489.743589743591,4245.128205128206,4543.076923076924,4491.794871794872,4520.000000000001,4425.641025641026,4746.666666666667,4397.435897435898,4247.6923076923085,4196.410256410257,4547.179487179488
119.60278,0.21119621,0.39282143,0.33309957,0.55886614,0,0.0,0.0,0.0,0.0,0.07075716,0,0,0.0,0.0,0,0,9.0,0.0,522.0,4663.589743589744,3953.8461538461543,4515.8974358974365,4491.282051282052,4247.179487179487,4547.6923076923085,4495.384615384616,4521.538461538462,4408.205128205129,4713.846153846154,4388.717948717949,4233.846153846154,4172.307692307693,4542.564102564103
119.853,0.21119621,0.39282143,0.33309957,0.55886614,0,0.0,0.0,0.0,0.0,0.0,0,0,0.0,0.0,0,0,41.0,0.0,0.0,4667.179487179488,3957.435897435898,4510.769230769231,4492.307692307693,4240.512820512821,4538.461538461539,4501.538461538462,4550.769230769231,4410.769230769231,4722.564102564103,4384.615384615385,4224.102564102564,4174.871794871796,4543.589743589744
120.10322,0.21699302,0.4013233,0.33312333,0.558197,0,0.0,0.0,0.0,0.0,0.0,0,0,0.0,0.0,0,0,73.0,0.0,522.0,4645.128205128206,3942.564102564103,4507.179487179488,4492.307692307693,4239.48717948718,4540.000000000001,4505.641025641026,4528.717948717949,4389.743589743591,4697.948717948719,4374.871794871796,4229.2307692307695,4154.358974358975,4541.538461538462
120.10322,0.21699302,0.4013233,0.33312333,0.558197,0,0.0,0.0,0.0,0.0,0.0,0,0,0.0,0.0,0,0,73.0,0.0,522.0,4645.128205128206,3942.564102564103,4507.179487179488,4492.307692307693,4239.48717948718,4540.000000000001,4505.641025641026,4528.717948717949,4389.743589743591,4697.948717948719,4374.871794871796,4229.2307692307695,4154.358974358975,4541.538461538462
120.63492,0.22977294,0.40937564,0.3331445,0.5575988,0,0.0,0.0,0.0,0.0,0.2805148,0,0,0.0,0.0,0,0,12.0,0.0,265.0,4627.179487179488,3948.717948717949,4507.179487179488,4506.666666666667,4245.641025641026,4536.923076923077,4493.333333333334,4503.076923076924,4377.948717948719,4674.358974358975,4350.256410256411,4223.076923076924,4115.384615384616,4525.641025641026
120.85386,0.22977294,0.40937564,0.3331445,0.5575988,0,0.0,0.0,0.0,0.0,0.04328098,0,0,0.0,0.0,0,0,40.0,0.0,0.0,4635.384615384616,3957.435897435898,4506.666666666667,4505.641025641026,4241.025641025642,4535.384615384616,4488.717948717949,4512.820512820514,4391.282051282052,4691.282051282052,4352.307692307693,4216.410256410257,4131.794871794872,4517.435897435898
121.10407,0.21568078,0.4121484,0.33316368,0.557058,0,0.0,0.0,0.0,0.0,0.0,0,0,0.52353585,0.0,0,0,72.0,0.0,471.0,4661.025641025642,3943.076923076924,4506.153846153847,4505.641025641026,4248.205128205129,4538.461538461539,4510.256410256411,4514.871794871796,4391.794871794872,4725.641025641026,4380.000000000001,4246.666666666667,4184.615384615385,4544.615384615385
121.35429,0.21568078,0.4121484,0.33316368,0.557058,0,0.0,0.0,0.0,0.0,0.0,0,0,0.0,0.0,0,0,104.0,0.0,265.0,4694.358974358975,3936.9230769230776,4512.820512820514,4507.179487179488,4245.128205128206,4540.512820512821,4506.666666666667,4521.025641025642,4411.282051282052,4748.717948717949,4397.435897435898,4264.102564102564,4216.923076923077,4568.205128205129
121.60451,0.2360689,0.4194144,0.3331809,0.5565718,0,0.0,0.0,0.0,0.0,0.0,0,0,0.38414153,0.0,0,0,7.0,0.0,489.0,4681.538461538462,3926.1538461538466,4504.102564102564,4492.820512820514,4240.512820512821,4536.923076923077,4504.102564102564,4521.025641025642,4415.384615384616,4747.6923076923085,4396.410256410257,4252.307692307693,4216.410256410257,4561.025641025642
121.85472,0.2360689,0.4194144,0.3331809,0.5565718,0,0.0,0.0,0.0,0.0,0.0,0,0,0.34723133,0.0,0,0,39.0,0.0,0.0,4710.256410256411,3943.076923076924,4507.6923076923085,4504.615384615385,4232.307692307693,4530.256410256411,4489.2307692307695,4503.076923076924,4393.333333333334,4719.48717948718,4395.384615384616,4264.102564102564,4186.153846153847,4564.615384615385
122.104935,0.24643813,0.430661,0.3331964,0.55613434,0,0.0,0.0,0.0,0.0,0.0,0,0,0.5205839,0.0,0,0,71.0,0.0,489.0,4706.153846153847,3945.1282051282055,4510.256410256411,4502.564102564103,4235.8974358974365,4538.461538461539,4490.769230769231,4508.205128205129,4398.974358974359,4724.615384615386,4392.820512820514,4262.564102564103,4188.205128205129,4561.025641025642
122.35515,0.24643813,0.430661,0.3331964,0.55613434,0,0.0,0.0,0.0,0.0,0.0,0,0,0.31152457,0.0,0,0,103.0,0.0,323.0,4683.589743589744,3926.666666666667,4498.461538461539,4488.717948717949,4233.846153846154,4525.128205128206,4488.717948717949,4504.615384615385,4404.102564102564,4729.743589743591,4391.282051282052,4261.025641025642,4186.666666666667,4552.820512820514
122.60536,0.23193505,0.4359372,0.33321038,0.5557407,0,0.0,0.0,0.0,0.0,0.0,0,0,0.11692425,0.0,0,0,6.0,0.0,560.0,4670.256410256411,3917.9487179487182,4502.564102564103,4483.076923076924,4240.000000000001,4536.923076923077,4490.769230769231,4491.794871794872,4397.948717948719,4715.384615384616,4382.051282051282,4261.538461538462,4174.871794871796,4546.666666666667
122.73047,0.23193505,0.4359372,0.33321038,0.5557407,0,0.0,0.0,0.0,0.0,0.0,0,0,0.0,0.0,0,0,22.0,0.0,0.0,4667.179487179488,3916.9230769230776,4500.512820512821,4477.948717948719,4243.076923076924,4538.974358974359,4489.2307692307695,4498.974358974359,4405.128205128206,4727.179487179488,4396.923076923077,4263.589743589744,4187.179487179487,4545.641025641026
123.1058,0.22214496,0.4292484,0.33322293,0.55538684,0,0.0,0.0,0.0,0.0,0.0,0,0,0.7961495,0.0,0,0,70.0,0.0,560.0,4667.6923076923085,3929.7435897435903,4505.128205128206,4477.435897435898,4236.923076923077,4540.512820512821,4507.6923076923085,4526.153846153847,4429.2307692307695,4753.846153846154,4404.102564102564,4277.435897435898,4208.205128205129,4547.6923076923085
123.35601,0.22214496,0.4292484,0.33322293,0.55538684,0,0.0,0.0,0.0,0.0,0.0,0,0,0.28695056,0.0,0,0,102.0,0.0,575.0,4680.512820512821,3910.7692307692314,4506.153846153847,4473.333333333334,4244.615384615385,4539.48717948718,4512.820512820514,4511.794871794872,4424.102564102564,4746.666666666667,4407.6923076923085,4276.410256410257,4200.000000000001,4537.948717948719
123.606224,0.22235902,0.4227102,0.33323422,0.5799698,0,0.0,0.0,0.0,0.0,0.5705587,0,0,0.0,0.0,0,0,5.0,0.0,573.0,4694.871794871796,3951.2820512820517,4507.6923076923085,4489.2307692307695,4234.358974358975,4539.48717948718,4493.846153846154,4479.48717948718,4400.512820512821,4714.871794871796,4393.333333333334,4246.666666666667,4170.769230769231,4550.256410256411
123.85644,0.22235902,0.4227102,0.33323422,0.5799698,0,0.0,0.0,0.0,0.0,0.6153034,0,0,0.0,0.0,0,0,37.0,0.0,0.0,4700.000000000001,3965.6410256410263,4513.846153846154,4493.846153846154,4231.794871794872,4537.948717948719,4487.179487179488,4477.948717948719,4395.8974358974365,4703.589743589744,4386.666666666667,4271.794871794872,4162.564102564103,4555.384615384616
124.13793,0.23871653,0.42028713,0.3332442,0.6021313,0,0.0,0.0,0.0,0.0,0.051456515,0,0,0.0,0.0,0,0,73.0,0.0,522.0,4694.871794871796,3956.410256410257,4514.358974358975,4494.871794871796,4230.256410256411,4535.384615384616,4490.769230769231,4489.2307692307695,4394.358974358975,4706.153846153847,4387.6923076923085,4264.615384615385,4162.564102564103,4560.512820512821
124.35687,0.23871653,0.42028713,0.3332442,0.6021313,0,0.0,0.0,0.0,0.0,0.0,0,0,0.13415378,0.0,0,0,101.0,0.0,233.0,4721.538461538462,3979.48717948718,4523.076923076924,4508.717948717949,4233.333333333334,4537.948717948719,4486.153846153847,4504.615384615385,4405.641025641026,4722.564102564103,4398.461538461539,4267.179487179487,4183.589743589744,4572.820512820514
124.607086,0.24664357,0.42240846,0.3332532,0.6220154,0,0.0,0.0,0.0,0.0,0.0,0,0,0.19307087,0.0,0,0,4.0,0.0,577.0,4710.769230769231,3958.461538461539,4522.051282051282,4505.128205128206,4249.74358974359,4549.743589743591,4491.794871794872,4504.615384615385,4413.333333333334,4735.8974358974365,4407.179487179487,4268.717948717949,4206.153846153847,4574.358974358975
124.8573,0.24664357,0.42240846,0.3332532,0.6220154,0,0.0,0.0,0.0,0.0,0.06088489,0,0,0.0,0.0,0,0,36.0,0.0,0.0,4714.871794871796,3957.435897435898,4521.538461538462,4501.025641025642,4246.153846153847,4550.769230769231,4488.717948717949,4498.461538461539,4396.923076923077,4730.769230769231,4400.000000000001,4270.769230769231,4200.000000000001,4568.205128205129
125.10751,0.25524133,0.42001805,0.3332613,0.63989663,0,0.0,0.0,0.0,0.0,0.0,0,0,0.0,0.0,0,0,68.0,0.0,577.0,4707.179487179488,3958.461538461539,4515.384615384616,4490.769230769231,4241.025641025642,4539.48717948718,4491.282051282052,4496.410256410257,4406.153846153847,4727.6923076923085,4398.461538461539,4273.846153846154,4204.102564102564,4556.410256410257
125.10751,0.25524133,0.42001805,0.3332613,0.63989663,0,0.0,0.0,0.0,0.0,0.0,0,0,0.0,0.0,0,0,68.0,0.0,577.0,4707.179487179488,3958.461538461539,4515.384615384616,4490.769230769231,4241.025641025642,4539.48717948718,4491.282051282052,4496.410256410257,4406.153846153847,4727.6923076923085,4398.461538461539,4273.846153846154,4204.102564102564,4556.410256410257
125.60795,0.23242266,0.41326016,0.3332686,0.6310522,0,0.0,0.0,0.0,0.0,0.7446525,0,0,0.0,0.0,0,0,3.0,0.0,561.0,4665.128205128206,3954.8717948717954,4506.153846153847,4487.179487179488,4237.435897435898,4541.025641025642,4487.6923076923085,4480.512820512821,4384.615384615385,4695.384615384616,4380.512820512821,4266.666666666667,4151.794871794872,4534.871794871796
125.85816,0.23242266,0.41326016,0.3332686,0.6310522,0,0.0,0.0,0.0,0.0,0.6862525,0,0,0.0,0.0,0,0,35.0,0.0,0.0,4704.615384615386,3987.692307692308,4525.641025641026,4507.179487179488,4262.051282051282,4555.8974358974365,4499.48717948718,4507.6923076923085,4410.769230769231,4730.769230769231,4391.282051282052,4284.615384615385,4178.461538461539,4555.8974358974365
126.13965,0.24232095,0.4093588,0.3332751,0.6231532,0,0.0,0.0,0.0,0.0,0.0747468,0,0,0.0,0.0,0,0,71.0,0.0,489.0,4672.820512820514,3963.589743589744,4511.282051282052,4492.820512820514,4247.179487179487,4540.512820512821,4475.384615384616,4475.384615384616,4380.000000000001,4687.179487179488,4380.512820512821,4277.948717948719,4137.948717948719,4543.589743589744
126.35859,0.24232095,0.4093588,0.3332751,0.6231532,0,0.0,0.0,0.0,0.0,0.0,0,0,0.0,0.0,0,0,99.0,0.0,323.0,4728.205128205129,3954.8717948717954,4511.794871794872,4493.333333333334,4243.076923076924,4540.000000000001,4488.717948717949,4502.051282051282,4411.282051282052,4753.846153846154,4413.333333333334,4293.333333333334,4238.974358974359,4578.461538461539
126.6088,0.25227615,0.42496037,0.333281,0.6159901,0,0.0,0.0,0.0,0.0,0.0,0,0,0.0,0.0,0,0,2.0,0.0,509.0,4701.538461538462,3940.0000000000005,4508.205128205129,4490.256410256411,4245.128205128206,4540.512820512821,4490.769230769231,4506.666666666667,4408.717948717949,4740.512820512821,4401.538461538462,4282.564102564103,4198.974358974359,4560.512820512821
126.85902,0.25227615,0.42496037,0.333281,0.6159901,0,0.0,0.0,0.0,0.0,1.0,0,0,0.0,0.0,0,0,34.0,0.0,0.0,4691.282051282052,3942.0512820512827,4506.153846153847,4505.128205128206,4242.051282051282,4541.025641025642,4490.256410256411,4494.358974358975,4410.256410256411,4735.8974358974365,4374.871794871796,4273.846153846154,4186.153846153847,4535.8974358974365
127.14051,0.2493951,0.4381358,0.3332863,0.6096002,0,0.0,0.0,0.0,0.0,1.0,0,0,0.0,0.0,0,0,70.0,0.0,560.0,4685.128205128206,3942.0512820512827,4506.153846153847,4496.410256410257,4236.923076923077,4537.948717948719,4478.974358974359,4472.307692307693,4388.205128205129,4705.641025641026,4365.641025641026,4277.948717948719,4158.461538461539,4559.48717948718
127.35945,0.2493951,0.4381358,0.3332863,0.6096002,0,0.0,0.0,0.0,0.0,0.08116856,0,0,0.0,0.0,0,0,98.0,0.0,576.0,4686.153846153847,3946.1538461538466,4506.153846153847,4502.564102564103,4242.564102564103,4540.000000000001,4483.589743589744,4456.410256410257,4380.512820512821,4691.794871794872,4364.615384615385,4256.410256410257,4142.051282051282,4556.410256410257
127.609665,0.23604222,0.44327998,0.33329105,0.6038136,0,0.0,0.0,0.0,0.0,0.041218087,0,0,0.0,0.0,0,0,1.0,0.0,466.0,4686.666666666667,3955.3846153846157,4506.666666666667,4497.948717948719,4239.48717948718,4541.025641025642,4490.256410256411,4459.48717948718,4384.102564102564,4701.538461538462,4370.256410256411,4264.102564102564,4157.435897435898,4561.538461538462
127.85988,0.23604222,0.44327998,0.33329105,0.6038136,0,0.0,0.0,0.0,0.0,0.0,0,0,0.0,0.0,0,0,33.0,0.0,0.0,4715.384615384616,3945.1282051282055,4506.153846153847,4487.179487179488,4237.948717948719,4537.948717948719,4475.8974358974365,4465.128205128206,4406.153846153847,4749.2307692307695,4398.974358974359,4275.8974358974365,4236.410256410257,4586.666666666667
128.11009,0.25527856,0.45681074,0.33329535,0.59860784,0,0.0,0.0,0.0,0.0,0.0,0,0,0.0,0.0,0,0,65.0,0.0,466.0,4715.384615384616,3956.410256410257,4521.538461538462,4494.358974358975,4254.358974358975,4555.384615384616,4493.333333333334,4476.410256410257,4415.384615384616,4764.615384615386,4403.589743589744,4281.025641025642,4228.717948717949,4577.435897435898
128.11009,0.25527856,0.45681074,0.33329535,0.59860784,0,0.0,0.0,0.0,0.0,0.0,0,0,0.0,0.0,0,0,65.0,0.0,466.0,4715.384615384616,3956.410256410257,4521.538461538462,4494.358974358975,4254.358974358975,4555.384615384616,4493.333333333334,4476.410256410257,4415.384615384616,4764.615384615386,4403.589743589744,4281.025641025642,4228.717948717949,4577.435897435898
128.61052,0.2728625,0.457514,0.3332992,0.5939249,0,0.0,0.0,0.0,0.0,0.07332062,0,0,0.0,0.0,0,0,0.0,0.0,422.0,4693.333333333334,3941.538461538462,4510.256410256411,4489.743589743591,4241.538461538462,4541.025641025642,4485.128205128206,4484.615384615385,4400.512820512821,4745.641025641026,4403.076923076924,4284.102564102564,4204.102564102564,4569.2307692307695
128.86073,0.2728625,0.457514,0.3332992,0.5939249,0,0.0,0.0,0.0,0.0,0.05672568,0,0,0.0,0.0,0,0,32.0,0.0,0.0,4671.794871794872,3933.333333333334,4508.205128205129,4487.6923076923085,4247.6923076923085,4543.589743589744,4474.871794871796,4474.358974358975,4395.8974358974365,4733.333333333334,4395.8974358974365,4283.076923076924,4192.307692307693,4565.641025641026
129.11096,0.26727238,0.45997706,0.33330268,0.5897116,0,0.0,0.0,0.0,0.0,0.0,0,0,0.0,0.0,0,0,64.0,0.0,422.0,4654.358974358975,3938.9743589743593,4504.615384615385,4489.2307692307695,4242.051282051282,4542.564102564103,4494.871794871796,4508.717948717949,4408.205128205129,4736.410256410257,4396.410256410257,4282.051282051282,4183.589743589744,4558.974358974359
129.11096,0.26727238,0.45997706,0.33330268,0.5897116,0,0.0,0.0,0.0,0.0,0.0,0,0,0.0,0.0,0,0,64.0,0.0,422.0,4654.358974358975,3938.9743589743593,4504.615384615385,4489.2307692307695,4242.051282051282,4542.564102564103,4494.871794871796,4508.717948717949,4408.205128205129,4736.410256410257,4396.410256410257,4282.051282051282,4183.589743589744,4558.974358974359
129.61139,0.24843878,0.45906574,0.3333058,0.5859245,0,0.0,0.0,0.0,0.0,0.0,0,0,0.2011021,0.0,0,0,128.0,0.0,254.0,4649.743589743591,3938.9743589743593,4505.128205128206,4489.743589743591,4236.410256410257,4540.000000000001,4491.794871794872,4492.820512820514,4398.974358974359,4717.435897435898,4384.102564102564,4276.923076923077,4169.74358974359,4556.923076923077
129.8616,0.24843878,0.45906574,0.3333058,0.5859245,0,0.0,0.0,0.0,0.0,0.0,0,0,0.0,0.0,0,0,31.0,0.0,0.0,4669.743589743591,3932.820512820513,4512.307692307693,4489.743589743591,4248.717948717949,4553.333333333334,4489.743589743591,4475.384615384616,4394.871794871796,4731.282051282052,4400.000000000001,4289.2307692307695,4192.820512820514,4570.769230769231
130.11182,0.23622425,0.43647152,0.33330864,0.5857045,0,0.0,0.0,0.0,0.0,0.0,0,0,0.0,0.0,0,0,63.0,0.0,0.0,4651.282051282052,3926.1538461538466,4506.666666666667,4483.589743589744,4246.666666666667,4552.307692307693,4488.205128205129,4467.6923076923085,4405.641025641026,4746.666666666667,4407.6923076923085,4292.307692307693,4206.153846153847,4566.153846153847
130.36203,0.23622425,0.43647152,0.33330864,0.5857045,0,0.0,0.0,0.0,0.0,0.15170969,0,0,0.0,0.0,0,0,95.0,0.0,324.0,4691.282051282052,3960.0000000000005,4513.333333333334,4489.743589743591,4234.871794871796,4534.871794871796,4477.948717948719,4445.128205128206,4391.282051282052,4725.128205128206,4404.102564102564,4287.179487179487,4193.846153846154,4597.948717948719
130.61224,0.20269032,0.41961086,0.33148137,0.5948263,0,0.0,0.0,0.0,0.0,0.09220849,0,0,0.0,0.0,0,0,127.0,0.0,324.0,4696.923076923077,3945.1282051282055,4504.615384615385,4500.512820512821,4222.564102564103,4523.589743589744,4488.205128205129,4563.076923076924,4405.128205128206,4726.153846153847,4386.666666666667,4294.358974358975,4186.153846153847,4596.410256410257
130.86246,0.20269032,0.41961086,0.33148137,0.5948263,0,0.0,0.0,0.0,0.0,0.039097004,0,0,0.0,0.0,0,0,30.0,0.0,0.0,4645.641025641026,3923.076923076924,4489.2307692307695,4523.076923076924,4185.128205128206,4501.025641025642,4446.153846153847,4535.384615384616,4337.435897435898,4622.564102564103,4350.256410256411,4277.948717948719,4071.2820512820517,4580.512820512821
131.14395,0.2779739,0.40325722,0.3298325,0.60307056,0,0.0,0.0,0.0,0.0,0.080668084,0,0,0.0,0.0,0,0,66.0,0.0,509.0,4606.153846153847,3888.717948717949,4510.769230769231,4586.153846153847,4168.205128205129,4491.794871794872,4413.846153846154,4515.384615384616,4293.333333333334,4570.769230769231,4345.641025641026,4248.717948717949,4050.7692307692314,4581.025641025642
131.36288,0.2779739,0.40325722,0.3298325,0.60307056,0,0.0,0.0,0.0,0.0,0.0,0,0,0.27000773,0.0,0,0,94.0,0.0,578.0,4650.769230769231,3905.6410256410263,4502.564102564103,4638.974358974359,4198.974358974359,4526.153846153847,4471.794871794872,4508.205128205129,4342.051282051282,4635.384615384616,4377.948717948719,4277.435897435898,4110.769230769231,4558.974358974359
131.6131,0.3492796,0.4051577,0.32835466,0.610443,0,0.0,0.0,0.0,0.0,0.0,0,0,0.30877557,0.0,0,0,126.0,0.0,578.0,4679.48717948718,3910.7692307692314,4479.48717948718,4632.307692307693,4183.589743589744,4524.102564102564,4472.307692307693,4490.256410256411,4361.538461538462,4652.307692307693,4362.564102564103,4311.794871794872,4152.307692307693,4549.743589743591
131.86333,0.3492796,0.4051577,0.32835466,0.610443,0,0.0,0.0,0.0,0.0,0.5422967,0,0,0.0,0.0,0,0,29.0,0.0,0.0,4721.538461538462,3910.7692307692314,4462.051282051282,4571.282051282052,4181.025641025642,4508.205128205129,4473.846153846154,4536.923076923077,4375.384615384616,4676.923076923077,4372.820512820514,4330.256410256411,4200.512820512821,4656.923076923077
132.1448,0.36337885,0.42043424,0.3270168,0.6078008,0,0.0,0.0,0.0,0.0,0.245937,0,0,0.0,0.0,0,0,65.0,0.0,466.0,4572.820512820514,3902.564102564103,4468.205128205129,4573.333333333334,4178.974358974359,4466.153846153847,4389.743589743591,4422.564102564103,4286.153846153847,4608.205128205129,4310.769230769231,4312.307692307693,4248.717948717949,4577.435897435898
132.36375,0.36337885,0.42043424,0.3270168,0.6078008,0,0.0,0.0,0.0,0.0,0.2839608,0,0,0.0,0.0,0,0,93.0,0.0,235.0,4530.769230769231,3975.3846153846157,4438.461538461539,4486.153846153847,4170.256410256411,4450.256410256411,4429.2307692307695,4362.051282051282,4261.025641025642,4540.000000000001,4234.871794871796,4296.923076923077,4184.102564102564,4395.384615384616
132.61397,0.42987162,0.4476553,0.32765543,0.6022053,0,0.036509726,0.0,0.0,0.0,0.0,0,0,0.0,0.0,0,0,125.0,0.0,235.0,4605.641025641026,4057.435897435898,4458.974358974359,4501.025641025642,4154.871794871796,4443.076923076924,4382.051282051282,4364.102564102564,4290.256410256411,4641.025641025642,4292.820512820514,4324.102564102564,4394.358974358975,4479.48717948718
132.86418,0.42987162,0.4476553,0.32765543,0.6022053,0,0.0,0.0,0.050135512,0.0,0.0,0,0,0.0,0.0,0,0,28.0,0.0,0.0,4614.871794871796,4069.23076923077,4451.282051282052,4496.923076923077,4188.717948717949,4472.307692307693,4377.948717948719,4364.615384615385,4298.461538461539,4645.641025641026,4271.794871794872,4325.128205128206,4367.6923076923085,4443.589743589744
133.14568,0.5229492,0.51734746,0.3282246,0.5972016,0,0.0,0.0,0.0,0.0,0.0,0,0,0.27383825,0.0,0,0,64.0,0.0,427.0,4543.076923076924,4026.666666666667,4417.948717948719,4427.179487179487,4118.974358974359,4410.769230769231,4317.435897435898,4380.000000000001,4266.153846153847,4581.025641025642,4224.615384615385,4296.410256410257,4260.512820512821,4504.615384615385
133.36461,0.5229492,0.51734746,0.3282246,0.5972016,0,0.07314301,0.0,0.0,0.0,0.0,0,0,0.0,0.0,0,0,92.0,0.0,242.0,4585.128205128206,4109.2307692307695,4444.615384615385,4542.051282051282,4072.307692307693,4382.051282051282,4284.102564102564,4435.384615384616,4249.74358974359,4668.717948717949,4242.051282051282,4291.282051282052,4601.025641025642,4558.974358974359
133.6461,0.59544337,0.5802577,0.32873687,0.5926982,0,0.043302618,0.0,0.0,0.0,0.0,0,0,0.0,0.0,0,0,128.0,0.0,242.0,4541.025641025642,4130.769230769231,4439.48717948718,4567.179487179488,4138.461538461539,4439.48717948718,4279.48717948718,4318.461538461539,4221.025641025642,4605.641025641026,4539.48717948718,4266.153846153847,4373.333333333334,4486.153846153847
133.86504,0.59544337,0.5802577,0.32873687,0.5926982,0,0.09531778,0.0,0.0,0.0,0.0,0,0,0.0,0.0,0,0,27.0,0.0,0.0,4521.025641025642,4143.589743589744,4438.974358974359,4551.282051282052,4187.6923076923085,4467.6923076923085,4260.512820512821,4321.538461538462,4242.564102564103,4623.589743589744,4422.051282051282,4252.307692307693,4322.051282051282,4456.923076923077
134.14653,0.5935583,0.63687694,0.32919723,0.58864874,0,0.12345679,0.0,0.0,0.0,0.0,0,0,0.0,0.0,0,0,63.0,0.0,0.0,4560.512820512821,4113.333333333334,4476.410256410257,4524.615384615385,4135.384615384616,4427.6923076923085,4213.333333333334,4226.666666666667,4164.615384615385,4553.333333333334,4436.923076923077,4185.128205128206,4156.410256410257,4563.076923076924
134.36548,0.5935583,0.63687694,0.32919723,0.58864874,0,0.0,0.0,0.0,0.0,0.0,0,0,0.15142901,0.0,0,0,91.0,0.0,338.0,4523.589743589744,4022.564102564103,4446.153846153847,4453.333333333334,4216.410256410257,4500.512820512821,4336.410256410257,4341.538461538462,4269.74358974359,4615.8974358974365,4422.564102564103,4187.6923076923085,4213.846153846154,4443.076923076924
134.61569,0.6441008,0.6878342,0.32961538,0.5849835,1,0.0,0.0,0.0,0.0,0.015664738,0,0,0.0,0.0,0,0,123.0,0.0,338.0,4681.025641025642,3808.717948717949,4459.48717948718,4489.2307692307695,4256.923076923077,4555.8974358974365,4554.871794871796,4542.564102564103,4424.615384615385,4709.2307692307695,4296.923076923077,4251.794871794872,4102.051282051282,4544.615384615385
134.8659,0.6441008,0.6878342,0.32961538,0.5849835,0,0.0,0.0,0.009324856,0.0,0.0,0,0,0.0,0.0,0,0,26.0,0.0,0.0,4723.076923076924,3816.410256410257,4460.000000000001,4463.076923076924,4273.846153846154,4572.307692307693,4603.589743589744,4571.794871794872,4462.564102564103,4770.256410256411,4325.128205128206,4281.025641025642,4091.7948717948725,4597.435897435898
135.1474,0.7272214,0.73369575,0.3299881,0.5817044,0,0.0,0.0,0.09568632,0.0,0.0,0,0,0.0,0.0,0,0,62.0,0.0,0.0,4810.769230769231,3877.435897435898,4487.179487179488,4471.794871794872,4266.666666666667,4570.256410256411,4596.410256410257,4606.153846153847,4481.025641025642,4802.564102564103,4355.8974358974365,4309.2307692307695,4110.769230769231,4596.923076923077
135.36633,0.7272214,0.73369575,0.3299881,0.5817044,0,0.0,0.0,0.0,0.0,0.19067417,0,0,0.0,0.0,0,0,90.0,0.0,578.0,4764.102564102564,3831.7948717948725,4483.076923076924,4440.512820512821,4262.564102564103,4567.179487179488,4616.923076923077,4593.846153846154,4508.717948717949,4802.564102564103,4356.923076923077,4318.461538461539,4032.820512820513,4591.282051282052
135.61655,0.7334245,0.7749712,0.3303272,0.5787339,0,0.0,0.0,0.0,0.0,0.08711977,0,0,0.0,0.0,0,0,122.0,0.0,578.0,4766.153846153847,3849.7435897435903,4482.564102564103,4427.6923076923085,4261.538461538462,4569.743589743591,4605.128205128206,4591.794871794872,4503.589743589744,4817.948717948719,4393.846153846154,4332.307692307693,4047.692307692308,4613.846153846154
135.86676,0.7334245,0.7749712,0.3303272,0.5787339,0,0.0,0.0,0.0,0.0,0.25411698,0,0,0.0,0.0,0,0,25.0,0.0,0.0,4762.051282051282,3874.8717948717954,4490.256410256411,4425.128205128206,4251.794871794872,4567.179487179488,4601.538461538462,4606.666666666667,4511.282051282052,4848.205128205129,4415.384615384616,4334.358974358975,4085.6410256410263,4601.025641025642
136.11697,0.7609414,0.812119,0.3306323,0.5760612,0,0.0,0.0,0.0,0.0,0.19103476,0,0,0.0,0.0,0,0,57.0,0.0,0.0,4781.538461538462,3893.333333333334,4507.6923076923085,4457.948717948719,4269.2307692307695,4580.000000000001,4620.512820512821,4661.025641025642,4530.769230769231,4882.051282051283,4461.025641025642,4349.743589743591,4133.846153846154,4613.846153846154
136.36719,0.7609414,0.812119,0.3306323,0.5760612,0,0.0,0.0,0.0,0.0,0.036906883,0,0,0.0,0.0,0,0,89.0,0.0,239.0,4798.461538461539,3914.358974358975,4518.974358974359,4471.282051282052,4268.205128205129,4583.076923076924,4626.153846153847,4666.666666666667,4548.205128205129,4883.076923076924,4491.794871794872,4352.820512820514,4158.461538461539,4613.846153846154
136.6174,0.7583322,0.7921213,0.33090675,0.57365644,0,0.0,0.0,0.0,0.0,0.08330997,0,0,0.0,0.0,0,0,121.0,0.0,239.0,4854.358974358975,3943.076923076924,4535.384615384616,4476.923076923077,4243.589743589744,4555.8974358974365,4603.589743589744,4629.2307692307695,4534.358974358975,4870.769230769231,4528.205128205129,4356.410256410257,4203.076923076924,4668.717948717949
136.86761,0.7583322,0.7921213,0.33090675,0.57365644,0,0.0,0.0,0.0,0.0,0.14088763,0,0,0.0,0.0,0,0,24.0,0.0,0.0,4793.846153846154,3923.076923076924,4522.051282051282,4470.769230769231,4250.256410256411,4568.717948717949,4616.410256410257,4618.974358974359,4524.102564102564,4842.051282051283,4503.076923076924,4340.512820512821,4152.820512820514,4591.794871794872
137.11784,0.78806263,0.7870007,0.33115405,0.5714927,0,0.0,0.0,0.0,0.0,0.31046855,0,0,0.0,0.0,0,0,56.0,0.0,0.0,4768.717948717949,3917.435897435898,4524.615384615385,4472.307692307693,4230.256410256411,4540.000000000001,4567.179487179488,4568.717948717949,4470.256410256411,4760.512820512821,4488.205128205129,4330.769230769231,4060.5128205128212,4616.923076923077
137.36806,0.78806263,0.7870007,0.33115405,0.5714927,0,0.0,0.0,0.0,0.0,0.26856613,0,0,0.0,0.0,0,0,88.0,0.0,236.0,4775.8974358974365,3936.9230769230776,4518.461538461539,4474.871794871796,4252.820512820514,4562.564102564103,4586.666666666667,4581.538461538462,4489.743589743591,4789.743589743591,4481.538461538462,4350.769230769231,4101.538461538462,4592.307692307693
137.64954,0.7433234,0.7475901,0.33137414,0.5695599,0,0.0,0.0,0.0,0.0,1.0,0,0,0.0,0.0,0,0,124.0,0.0,236.0,4718.461538461539,3937.9487179487182,4507.6923076923085,4474.871794871796,4254.358974358975,4563.076923076924,4568.205128205129,4555.8974358974365,4466.153846153847,4761.538461538462,4464.102564102564,4340.512820512821,4074.8717948717954,4563.076923076924
137.86848,0.7433234,0.7475901,0.33137414,0.5695599,0,0.0,0.0,0.0,0.0,0.27289742,0,0,0.0,0.0,0,0,23.0,0.0,0.0,4719.48717948718,3947.1794871794878,4520.512820512821,4474.871794871796,4252.820512820514,4560.000000000001,4545.641025641026,4532.820512820514,4458.461538461539,4750.769230769231,4458.461538461539,4325.128205128206,4080.5128205128212,4573.846153846154
138.1187,0.67983174,0.731582,0.33157364,0.5678139,1,0.0,0.0,0.0,0.0,0.1645202,0,0,0.0,0.0,0,0,55.0,0.0,0.0,4770.256410256411,3928.205128205129,4523.076923076924,4463.589743589744,4248.717948717949,4553.846153846154,4553.846153846154,4566.153846153847,4489.743589743591,4805.128205128206,4491.794871794872,4347.6923076923085,4181.538461538462,4620.512820512821
138.36891,0.67983174,0.731582,0.33157364,0.5678139,0,0.0,0.0,0.0,0.0,0.20510666,0,0,0.0,0.0,0,0,87.0,0.0,335.0,4743.589743589744,3940.5128205128212,4517.948717948719,4468.205128205129,4246.666666666667,4552.820512820514,4537.948717948719,4542.051282051282,4475.8974358974365,4795.384615384616,4483.076923076924,4342.051282051282,4171.794871794872,4612.307692307693
138.61913,0.652521,0.71630776,0.3317525,0.5662443,0,0.0,0.0,0.0,0.0,0.071390465,0,0,0.0,0.0,0,0,119.0,0.0,335.0,4724.615384615386,3927.692307692308,4523.589743589744,4464.102564102564,4261.538461538462,4552.820512820514,4542.564102564103,4536.410256410257,4467.179487179487,4793.846153846154,4475.8974358974365,4331.282051282052,4177.435897435898,4601.025641025642
138.86934,0.652521,0.71630776,0.3317525,0.5662443,0,0.0,0.0,0.0,0.0,0.06697597,0,0,0.0,0.0,0,0,22.0,0.0,0.0,4733.846153846154,3943.589743589744,4522.564102564103,4473.846153846154,4253.846153846154,4554.871794871796,4523.076923076924,4506.666666666667,4458.974358974359,4791.794871794872,4473.846153846154,4336.923076923077,4203.589743589744,4608.205128205129
139.11955,0.61204815,0.6802268,0.3319131,0.56483185,0,0.0,0.0,0.0,0.0,0.04137152,0,0,0.0,0.0,0,0,54.0,0.0,0.0,4700.512820512821,3941.0256410256416,4517.435897435898,4470.256410256411,4249.74358974359,4551.794871794872,4525.128205128206,4520.000000000001,4453.333333333334,4765.128205128206,4460.000000000001,4325.641025641026,4178.461538461539,4595.8974358974365
139.36977,0.61204815,0.6802268,0.3319131,0.56483185,0,0.0,0.0,0.0,0.0,0.08401453,0,0,0.0,0.0,0,0,86.0,0.0,578.0,4681.025641025642,3946.666666666667,4508.717948717949,4471.794871794872,4262.564102564103,4554.358974358975,4538.461538461539,4524.102564102564,4445.128205128206,4762.051282051282,4453.846153846154,4329.2307692307695,4181.025641025642,4586.666666666667
139.61998,0.5686983,0.6513392,0.3320578,0.56356186,0,0.0,0.0,0.0,0.0,0.0,0,0,0.1167904,0.0,0,0,118.0,0.0,578.0,4713.846153846154,3957.435897435898,4519.48717948718,4485.128205128206,4258.461538461539,4553.333333333334,4520.000000000001,4504.102564102564,4447.6923076923085,4790.769230769231,4467.179487179487,4341.025641025642,4234.358974358975,4605.128205128206
139.87021,0.5686983,0.6513392,0.3320578,0.56356186,0,0.0,0.0,0.0,0.0,0.08194324,0,0,0.0,0.0,0,0,21.0,0.0,0.0,4730.256410256411,3961.538461538462,4520.000000000001,4491.794871794872,4250.256410256411,4545.128205128206,4496.410256410257,4465.641025641026,4402.564102564103,4752.820512820514,4444.615384615385,4335.384615384616,4215.8974358974365,4618.974358974359
140.12042,0.5349202,0.60978335,0.33218798,0.56241804,0,0.0,0.0,0.0,0.0,0.11919936,0,0,0.0,0.0,0,0,53.0,0.0,0.0,4698.974358974359,3946.1538461538466,4515.384615384616,4492.307692307693,4247.6923076923085,4550.769230769231,4507.6923076923085,4491.282051282052,4431.794871794872,4758.461538461539,4445.128205128206,4335.384615384616,4202.051282051282,4589.2307692307695
140.37064,0.5349202,0.60978335,0.33218798,0.56241804,0,0.0,0.0,0.0,0.0,0.2088756,0,0,0.0,0.0,0,0,85.0,0.0,239.0,4685.641025641026,3940.0000000000005,4506.153846153847,4505.128205128206,4246.153846153847,4541.025641025642,4507.179487179488,4478.461538461539,4420.000000000001,4740.512820512821,4428.717948717949,4325.128205128206,4183.076923076924,4570.769230769231
140.62085,0.5149623,0.5709914,0.33230487,0.58217,0,0.0,0.0,0.0,0.0,0.0,0,0,0.0,0.0,0,0,117.0,0.0,239.0,4685.128205128206,3953.8461538461543,4507.6923076923085,4508.717948717949,4248.205128205129,4553.846153846154,4502.051282051282,4484.615384615385,4420.000000000001,4751.794871794872,4423.076923076924,4325.128205128206,4189.2307692307695,4558.974358974359
140.62085,0.5149623,0.5709914,0.33230487,0.58217,0,0.0,0.0,0.0,0.0,0.0,0,0,0.0,0.0,0,0,117.0,0.0,239.0,4685.128205128206,3953.8461538461543,4507.6923076923085,4508.717948717949,4248.205128205129,4553.846153846154,4502.051282051282,4484.615384615385,4420.000000000001,4751.794871794872,4423.076923076924,4325.128205128206,4189.2307692307695,4558.974358974359
141.15256,0.47235867,0.5383612,0.3324083,0.5999826,0,0.0,0.0,0.0,0.0,0.845393,0,0,0.0,0.0,0,0,56.0,0.0,0.0,4716.410256410257,3942.564102564103,4505.641025641026,4506.666666666667,4236.410256410257,4537.435897435898,4490.256410256411,4476.923076923077,4424.615384615385,4752.307692307693,4420.000000000001,4322.564102564103,4212.820512820514,4564.102564102564
141.37149,0.47235867,0.5383612,0.3324083,0.5999826,0,0.0,0.0,0.0,0.0,0.11079044,0,0,0.0,0.0,0,0,84.0,0.0,236.0,4724.615384615386,3938.9743589743593,4506.666666666667,4504.615384615385,4246.666666666667,4543.076923076924,4506.153846153847,4462.564102564103,4417.948717948719,4749.2307692307695,4423.076923076924,4323.076923076924,4210.256410256411,4557.948717948719
141.6217,0.45360017,0.51781774,0.3325018,0.6159616,0,0.0,0.0,0.0,0.0,0.087596305,0,0,0.0,0.0,0,0,116.0,0.0,236.0,4758.461538461539,3981.538461538462,4522.051282051282,4540.000000000001,4249.74358974359,4550.256410256411,4492.307692307693,4457.948717948719,4415.384615384616,4761.538461538462,4426.153846153847,4321.538461538462,4246.153846153847,4574.358974358975
141.87192,0.45360017,0.51781774,0.3325018,0.6159616,0,0.0,0.0,0.0,0.0,0.0,0,0,0.0,0.0,0,0,19.0,0.0,0.0,4721.538461538462,3944.615384615385,4506.666666666667,4528.717948717949,4250.256410256411,4546.666666666667,4491.794871794872,4461.538461538462,4413.333333333334,4742.564102564103,4406.666666666667,4305.641025641026,4190.256410256411,4545.641025641026
142.12213,0.425874,0.50078005,0.33258593,0.63033336,0,0.0,0.0,0.0,0.0,0.0,0,0,0.0,0.0,0,0,51.0,0.0,0.0,4705.641025641026,3923.076923076924,4496.923076923077,4521.538461538462,4241.025641025642,4537.948717948719,4486.153846153847,4453.333333333334,4422.051282051282,4755.384615384616,4416.410256410257,4301.025641025642,4209.2307692307695,4546.153846153847
142.12213,0.425874,0.50078005,0.33258593,0.63033336,0,0.0,0.0,0.0,0.0,0.0,0,0,0.0,0.0,0,0,51.0,0.0,0.0,4705.641025641026,3923.076923076924,4496.923076923077,4521.538461538462,4241.025641025642,4537.948717948719,4486.153846153847,4453.333333333334,4422.051282051282,4755.384615384616,4416.410256410257,4301.025641025642,4209.2307692307695,4546.153846153847
142.62257,0.41349986,0.49736902,0.33266157,0.622459,0,0.0,0.0,0.0,0.0,0.32574433,0,0,0.0,0.0,0,0,115.0,0.0,335.0,4704.102564102564,3930.7692307692314,4499.48717948718,4525.641025641026,4247.6923076923085,4540.000000000001,4492.820512820514,4452.820512820514,4423.076923076924,4755.384615384616,4413.333333333334,4295.8974358974365,4222.564102564103,4540.512820512821
142.87279,0.41349986,0.49736902,0.33266157,0.622459,0,0.0,0.0,0.0,0.0,0.026938412,0,0,0.0,0.0,0,0,18.0,0.0,0.0,4720.512820512821,3942.564102564103,4506.666666666667,4537.435897435898,4251.794871794872,4552.307692307693,4491.794871794872,4462.564102564103,4432.307692307693,4771.282051282052,4417.948717948719,4299.48717948718,4234.358974358975,4547.179487179488
143.123,0.38714987,0.4862261,0.3327299,0.6153702,0,0.0,0.0,0.0,0.0,0.041098446,0,0,0.0,0.0,0,0,50.0,0.0,0.0,4716.923076923077,3945.1282051282055,4510.769230769231,4542.051282051282,4263.076923076924,4552.820512820514,4487.6923076923085,4461.025641025642,4425.641025641026,4757.435897435898,4416.410256410257,4294.358974358975,4225.128205128206,4543.589743589744
143.24811,0.38714987,0.4862261,0.3327299,0.6153702,0,0.0,0.0,0.0,0.0,0.0,0,0,0.0,0.0,0,0,66.0,0.0,514.0,4720.512820512821,3942.564102564103,4510.256410256411,4538.974358974359,4255.384615384616,4553.333333333334,4493.333333333334,4468.205128205129,4415.8974358974365,4747.179487179488,4412.820512820514,4293.846153846154,4220.000000000001,4537.435897435898
143.62343,0.38088322,0.4687369,0.33279148,0.6089882,0,0.0,0.0,0.0,0.0,0.0,0,0,0.0,0.0,0,0,114.0,0.0,578.0,4733.846153846154,3957.435897435898,4511.794871794872,4540.000000000001,4247.6923076923085,4551.282051282052,4491.794871794872,4481.025641025642,4404.102564102564,4729.743589743591,4394.871794871796,4280.512820512821,4180.000000000001,4540.000000000001
143.87364,0.38088322,0.4687369,0.33279148,0.6089882,0,0.0,0.0,0.0,0.0,0.18258308,0,0,0.0,0.0,0,0,17.0,0.0,0.0,4758.974358974359,3988.717948717949,4520.512820512821,4550.256410256411,4250.256410256411,4542.564102564103,4471.282051282052,4460.512820512821,4384.102564102564,4708.717948717949,4400.512820512821,4284.615384615385,4169.2307692307695,4553.846153846154
144.12386,0.3455951,0.45378777,0.33284673,0.61840177,0,0.0,0.0,0.0,0.0,0.11923505,0,0,0.0,0.0,0,0,49.0,0.0,0.0,4706.666666666667,3946.666666666667,4510.256410256411,4524.615384615385,4263.076923076924,4556.410256410257,4491.794871794872,4474.871794871796,4389.2307692307695,4709.743589743591,4382.051282051282,4274.358974358975,4157.435897435898,4533.333333333334
144.37407,0.3455951,0.45378777,0.33284673,0.61840177,0,0.0,0.0,0.0,0.0,0.07903162,0,0,0.0,0.0,0,0,81.0,0.0,239.0,4722.564102564103,3961.0256410256416,4517.435897435898,4525.641025641026,4256.923076923077,4555.384615384616,4490.256410256411,4491.794871794872,4394.358974358975,4716.923076923077,4385.641025641026,4278.974358974359,4165.641025641026,4534.358974358975
144.62428,0.29820406,0.43777835,0.33289656,0.63668275,0,0.0,0.0,0.0,0.0,0.0,0,0,0.0,0.0,0,0,113.0,0.0,239.0,4736.923076923077,3957.435897435898,4510.256410256411,4512.307692307693,4249.2307692307695,4543.076923076924,4475.384615384616,4474.871794871796,4393.333333333334,4731.282051282052,4396.923076923077,4280.000000000001,4202.051282051282,4542.051282051282
144.62428,0.29820406,0.43777835,0.33289656,0.63668275,0,0.0,0.0,0.0,0.0,0.0,0,0,0.0,0.0,0,0,113.0,0.0,239.0,4736.923076923077,3957.435897435898,4510.256410256411,4512.307692307693,4249.2307692307695,4543.076923076924,4475.384615384616,4474.871794871796,4393.333333333334,4731.282051282052,4396.923076923077,4280.000000000001,4202.051282051282,4542.051282051282
145.12471,0.27859592,0.434875,0.3329559,0.65311134,0,0.0,0.0,0.0,0.0,0.0,0,0,0.0,0.0,0,0,48.0,0.0,0.0,4742.564102564103,3947.1794871794878,4509.743589743591,4504.102564102564,4244.102564102564,4539.48717948718,4476.410256410257,4474.871794871796,4396.410256410257,4744.615384615386,4402.564102564103,4283.076923076924,4214.871794871796,4562.051282051282
145.12471,0.27859592,0.434875,0.3329559,0.65311134,0,0.0,0.0,0.0,0.0,0.0,0,0,0.0,0.0,0,0,48.0,0.0,0.0,4742.564102564103,3947.1794871794878,4509.743589743591,4504.102564102564,4244.102564102564,4539.48717948718,4476.410256410257,4474.871794871796,4396.410256410257,4744.615384615386,4402.564102564103,4283.076923076924,4214.871794871796,4562.051282051282
145.62515,0.26957995,0.4363405,0.3331645,0.6711106,0,0.0,0.0,0.0,0.0,0.0,0,0,0.0,0.0,0,0,112.0,0.0,236.0,4767.179487179488,3963.589743589744,4513.333333333334,4508.205128205129,4244.102564102564,4538.974358974359,4475.384615384616,4476.923076923077,4395.8974358974365,4747.6923076923085,4409.743589743591,4264.615384615385,4229.2307692307695,4559.48717948718
145.87537,0.26957995,0.4363405,0.3331645,0.6711106,0,0.0,0.0,0.0,0.0,0.12404967,0,0,0.0,0.0,0,0,15.0,0.0,335.0,4727.6923076923085,3946.1538461538466,4509.2307692307695,4506.666666666667,4245.641025641026,4539.48717948718,4493.333333333334,4492.820512820514,4401.538461538462,4730.256410256411,4396.923076923077,4260.000000000001,4190.256410256411,4542.051282051282
146.12558,0.2500029,0.44966048,0.33335233,0.6819257,0,0.0,0.0,0.0,0.0,0.06560717,0,0,0.0,0.0,0,0,47.0,0.0,0.0,4722.564102564103,3941.538461538462,4505.128205128206,4505.641025641026,4243.076923076924,4540.512820512821,4490.769230769231,4485.641025641026,4402.051282051282,4734.358974358975,4393.333333333334,4251.794871794872,4192.820512820514,4542.564102564103
146.3758,0.2500029,0.44966048,0.33335233,0.6819257,0,0.0,0.0,0.0,0.0,0.7855469,0,0,0.0,0.0,0,0,79.0,0.0,335.0,4713.333333333334,3944.1025641025644,4507.179487179488,4508.717948717949,4247.6923076923085,4543.076923076924,4489.2307692307695,4491.794871794872,4412.307692307693,4758.974358974359,4404.615384615385,4250.256410256411,4212.820512820514,4545.128205128206
146.65729,0.24458683,0.46183875,0.33352154,0.6830265,0,0.0,0.0,0.0,0.0,0.7196023,0,0,0.0,0.0,0,0,115.0,0.0,335.0,4702.051282051282,3951.7948717948725,4505.128205128206,4508.205128205129,4246.153846153847,4544.615384615385,4480.000000000001,4485.128205128206,4401.538461538462,4736.410256410257,4396.923076923077,4247.179487179487,4188.717948717949,4552.820512820514
146.87622,0.24458683,0.46183875,0.33352154,0.6830265,0,0.0,0.0,0.0,0.0,0.06870922,0,0,0.0,0.0,0,0,14.0,0.0,578.0,4713.333333333334,3960.5128205128212,4519.48717948718,4520.512820512821,4250.256410256411,4551.282051282052,4487.179487179488,4489.743589743591,4400.512820512821,4747.6923076923085,4397.435897435898,4251.794871794872,4202.051282051282,4549.743589743591
147.12643,0.2603393,0.4716949,0.33367345,0.6740813,0,0.0,0.0,0.0,0.0,0.0,0,0,0.0,0.0,0,0,46.0,0.0,0.0,4719.48717948718,3944.1025641025644,4506.153846153847,4506.666666666667,4242.564102564103,4539.48717948718,4476.410256410257,4478.461538461539,4395.384615384616,4738.974358974359,4398.974358974359,4248.205128205129,4214.871794871796,4558.974358974359
147.12643,0.2603393,0.4716949,0.33367345,0.6740813,0,0.0,0.0,0.0,0.0,0.0,0,0,0.0,0.0,0,0,46.0,0.0,0.0,4719.48717948718,3944.1025641025644,4506.153846153847,4506.666666666667,4242.564102564103,4539.48717948718,4476.410256410257,4478.461538461539,4395.384615384616,4738.974358974359,4398.974358974359,4248.205128205129,4214.871794871796,4558.974358974359
147.62686,0.26623452,0.45197597,0.33379516,0.66177315,0,0.0,0.0,0.0,0.0,0.0,0,0,0.0,0.0,0,0,110.0,0.0,578.0,4694.358974358975,3945.1282051282055,4495.8974358974365,4504.615384615385,4244.102564102564,4537.948717948719,4473.846153846154,4458.461538461539,4379.48717948718,4729.743589743591,4396.410256410257,4248.717948717949,4197.435897435898,4550.256410256411
147.62686,0.26623452,0.45197597,0.33379516,0.66177315,0,0.0,0.0,0.0,0.0,0.0,0,0,0.0,0.0,0,0,110.0,0.0,578.0,4694.358974358975,3945.1282051282055,4495.8974358974365,4504.615384615385,4244.102564102564,4537.948717948719,4473.846153846154,4458.461538461539,4379.48717948718,4729.743589743591,4396.410256410257,4248.717948717949,4197.435897435898,4550.256410256411
148.1273,0.24568734,0.4305366,0.33374846,0.6507154,0,0.0,0.0,0.0,0.0,0.0,0,0,0.0,0.0,0,0,45.0,0.0,0.0,4682.051282051282,3945.1282051282055,4498.461538461539,4507.6923076923085,4249.74358974359,4542.051282051282,4482.564102564103,4463.589743589744,4389.2307692307695,4731.282051282052,4384.102564102564,4245.128205128206,4190.256410256411,4546.666666666667
148.1273,0.24568734,0.4305366,0.33374846,0.6507154,0,0.0,0.0,0.0,0.0,0.0,0,0,0.0,0.0,0,0,45.0,0.0,0.0,4682.051282051282,3945.1282051282055,4498.461538461539,4507.6923076923085,4249.74358974359,4542.051282051282,4482.564102564103,4463.589743589744,4389.2307692307695,4731.282051282052,4384.102564102564,4245.128205128206,4190.256410256411,4546.666666666667
148.62773,0.24625054,0.41853535,0.33370626,0.64076495,0,0.0,0.0,0.0,0.0,0.0,0,0,0.0,0.0,0,0,109.0,0.0,239.0,4694.358974358975,3958.461538461539,4501.025641025642,4505.641025641026,4248.205128205129,4535.8974358974365,4478.974358974359,4470.769230769231,4398.974358974359,4741.538461538462,4401.025641025642,4254.871794871796,4209.74358974359,4557.435897435898
148.62773,0.24625054,0.41853535,0.33370626,0.64076495,0,0.0,0.0,0.0,0.0,0.0,0,0,0.0,0.0,0,0,109.0,0.0,239.0,4694.358974358975,3958.461538461539,4501.025641025642,4505.641025641026,4248.205128205129,4535.8974358974365,4478.974358974359,4470.769230769231,4398.974358974359,4741.538461538462,4401.025641025642,4254.871794871796,4209.74358974359,4557.435897435898
149.12816,0.23041266,0.41362593,0.3336682,0.6318095,0,0.0,0.0,0.0,0.0,0.0,0,0,0.0,0.0,0,0,44.0,0.0,0.0,4686.153846153847,3954.358974358975,4507.179487179488,4505.128205128206,4251.794871794872,4540.512820512821,4491.794871794872,4478.461538461539,4412.307692307693,4753.846153846154,4400.000000000001,4252.307692307693,4208.205128205129,4548.205128205129
149.37837,0.23041266,0.41362593,0.3336682,0.6318095,0,0.0,0.0,0.0,0.0,0.15056723,0,0,0.0,0.0,0,0,76.0,0.0,236.0,4684.102564102564,3952.307692307693,4503.589743589744,4504.615384615385,4250.256410256411,4541.025641025642,4485.641025641026,4464.615384615385,4398.461538461539,4738.461538461539,4398.974358974359,4248.717948717949,4192.820512820514,4540.000000000001
149.62859,0.2292153,0.40694696,0.33087078,0.64393556,0,0.0,0.0,0.0,0.0,0.0,0,0,0.0,0.0,0,0,108.0,0.0,236.0,4667.6923076923085,3944.615384615385,4501.025641025642,4505.128205128206,4247.6923076923085,4535.384615384616,4480.512820512821,4444.102564102564,4381.025641025642,4725.128205128206,4384.615384615385,4248.717948717949,4184.102564102564,4532.820512820514
149.8788,0.2292153,0.40694696,0.33087078,0.64393556,0,0.0,0.0,0.0,0.0,1.0,0,0,0.0,0.0,0,0,11.0,0.0,335.0,4687.179487179488,3956.9230769230776,4507.179487179488,4507.6923076923085,4246.666666666667,4536.410256410257,4488.205128205129,4466.666666666667,4395.384615384616,4741.025641025642,4392.820512820514,4248.205128205129,4201.025641025642,4537.948717948719
150.1603,0.23566811,0.40247762,0.3283476,0.6549557,0,0.0,0.0,0.0,0.0,1.0,0,0,0.0,0.0,0,0,47.0,0.0,0.0,4698.461538461539,3960.0000000000005,4514.871794871796,4510.769230769231,4250.256410256411,4540.000000000001,4491.794871794872,4489.743589743591,4410.256410256411,4764.102564102564,4402.051282051282,4263.589743589744,4219.48717948718,4556.923076923077
150.37923,0.23566811,0.40247762,0.3283476,0.6549557,0,0.0,0.0,0.0,0.0,0.046585828,0,0,0.0,0.0,0,0,75.0,0.0,335.0,4694.871794871796,3958.9743589743593,4509.743589743591,4508.205128205129,4250.769230769231,4540.000000000001,4483.589743589744,4472.307692307693,4401.538461538462,4763.076923076924,4400.000000000001,4262.564102564103,4216.923076923077,4558.461538461539
150.62944,0.2448041,0.39800873,0.32608503,0.6647537,0,0.0,0.0,0.0,0.0,0.0,0,0,0.0,0.0,0,0,107.0,0.0,335.0,4702.051282051282,3938.9743589743593,4510.769230769231,4505.128205128206,4250.769230769231,4550.256410256411,4504.615384615385,4492.307692307693,4407.6923076923085,4760.512820512821,4405.128205128206,4280.000000000001,4216.923076923077,4569.2307692307695
150.87967,0.2448041,0.39800873,0.32608503,0.6647537,0,0.0,0.0,0.0,0.0,0.035331536,0,0,0.0,0.0,0,0,10.0,0.0,578.0,4690.256410256411,3942.0512820512827,4507.6923076923085,4505.128205128206,4247.179487179487,4537.435897435898,4489.743589743591,4473.846153846154,4404.615384615385,4753.846153846154,4398.974358974359,4266.153846153847,4216.923076923077,4560.512820512821
151.12988,0.26361296,0.3865845,0.32404867,0.67355317,0,0.0,0.0,0.0,0.0,0.053606994,0,0,0.0,0.0,0,0,42.0,0.0,0.0,4683.076923076924,3942.564102564103,4507.179487179488,4505.128205128206,4250.256410256411,4540.512820512821,4493.846153846154,4476.410256410257,4411.282051282052,4753.333333333334,4397.948717948719,4263.589743589744,4214.358974358975,4555.384615384616
151.3801,0.26361296,0.3865845,0.32404867,0.67355317,0,0.0,0.0,0.0,0.0,0.0,0,0,0.0,0.0,0,0,74.0,0.0,578.0,4677.435897435898,3945.1282051282055,4507.179487179488,4508.205128205129,4262.051282051282,4552.820512820514,4501.538461538462,4483.589743589744,4415.384615384616,4747.179487179488,4387.179487179487,4262.564102564103,4201.025641025642,4553.846153846154
151.63031,0.2403101,0.37026468,0.32498777,0.6612999,0,0.0,0.0,0.0,0.0,0.0,0,0,0.0,0.0,0,0,106.0,0.0,578.0,4653.846153846154,3945.1282051282055,4512.820512820514,4508.205128205129,4251.282051282052,4543.076923076924,4505.641025641026,4509.743589743591,4448.205128205129,4784.615384615386,4409.743589743591,4280.512820512821,4235.8974358974365,4566.666666666667
151.63031,0.2403101,0.37026468,0.32498777,0.6612999,0,0.0,0.0,0.0,0.0,0.0,0,0,0.0,0.0,0,0,106.0,0.0,578.0,4653.846153846154,3945.1282051282055,4512.820512820514,4508.205128205129,4251.282051282052,4543.076923076924,4505.641025641026,4509.743589743591,4448.205128205129,4784.615384615386,4409.743589743591,4280.512820512821,4235.8974358974365,4566.666666666667
152.13074,0.24958135,0.39595523,0.32583386,0.6502755,0,0.0,0.0,0.0,0.0,0.0,0,0,0.0,0.0,0,0,41.0,0.0,0.0,4673.846153846154,3946.1538461538466,4515.8974358974365,4522.564102564103,4258.974358974359,4555.384615384616,4505.641025641026,4490.769230769231,4426.666666666667,4770.256410256411,4410.256410256411,4282.051282051282,4216.410256410257,4578.461538461539
152.13074,0.24958135,0.39595523,0.32583386,0.6502755,0,0.0,0.0,0.0,0.0,0.0,0,0,0.0,0.0,0,0,41.0,0.0,0.0,4673.846153846154,3946.1538461538466,4515.8974358974365,4522.564102564103,4258.974358974359,4555.384615384616,4505.641025641026,4490.769230769231,4426.666666666667,4770.256410256411,4410.256410256411,4282.051282051282,4216.410256410257,4578.461538461539
152.63116,0.21920125,0.41634205,0.32659808,0.64033914,0,0.0,0.0,0.0,0.0,0.0,0,0,0.0,0.0,0,0,105.0,0.0,239.0,4663.589743589744,3960.0000000000005,4513.846153846154,4539.48717948718,4246.153846153847,4545.128205128206,4490.769230769231,4462.564102564103,4395.8974358974365,4727.179487179488,4395.8974358974365,4280.000000000001,4151.794871794872,4552.820512820514
152.63116,0.21920125,0.41634205,0.32659808,0.64033914,0,0.0,0.0,0.0,0.0,0.0,0,0,0.0,0.0,0,0,105.0,0.0,239.0,4663.589743589744,3960.0000000000005,4513.846153846154,4539.48717948718,4246.153846153847,4545.128205128206,4490.769230769231,4462.564102564103,4395.8974358974365,4727.179487179488,4395.8974358974365,4280.000000000001,4151.794871794872,4552.820512820514
153.16287,0.27196756,0.43342885,0.32727787,0.63148075,0,0.0,0.0,0.0,0.0,0.26173386,0,0,0.0,0.0,0,0,44.0,0.0,0.0,4644.102564102564,3950.7692307692314,4502.564102564103,4536.410256410257,4242.051282051282,4536.923076923077,4480.000000000001,4440.512820512821,4367.6923076923085,4695.8974358974365,4368.205128205129,4278.974358974359,4123.076923076924,4533.333333333334
153.38182,0.27196756,0.43342885,0.32727787,0.63148075,0,0.0,0.0,0.0,0.0,0.07305891,0,0,0.0,0.0,0,0,72.0,0.0,472.0,4650.769230769231,3941.0256410256416,4505.128205128206,4531.794871794872,4247.6923076923085,4537.948717948719,4489.2307692307695,4458.974358974359,4381.538461538462,4708.205128205129,4371.794871794872,4289.74358974359,4141.538461538462,4531.282051282052
153.6633,0.29856896,0.45315596,0.32789218,0.6234774,1,0.0,0.0,0.0,0.0,0.45314845,0,0,0.0,0.0,0,0,108.0,0.0,232.0,4781.538461538462,3967.1794871794878,4521.538461538462,4538.461538461539,4247.179487179487,4538.974358974359,4490.256410256411,4480.000000000001,4405.641025641026,4770.256410256411,4414.358974358975,4323.589743589744,4259.48717948718,4595.384615384616
153.88225,0.29856896,0.45315596,0.32789218,0.6234774,0,0.0,0.0,0.0,0.0,0.3526577,0,0,0.0,0.0,0,0,7.0,0.0,488.0,4728.205128205129,3942.0512820512827,4513.846153846154,4523.589743589744,4251.282051282052,4543.076923076924,4497.948717948719,4490.769230769231,4400.512820512821,4753.333333333334,4396.923076923077,4302.051282051282,4227.179487179487,4578.461538461539
154.13246,0.3030212,0.45853475,0.32844308,0.6162927,0,0.0,0.0,0.0,0.0,0.11970524,0,0,0.0,0.0,0,0,39.0,0.0,0.0,4706.153846153847,3940.0000000000005,4505.128205128206,4507.179487179488,4240.000000000001,4538.974358974359,4489.2307692307695,4503.076923076924,4386.666666666667,4734.871794871796,4387.179487179487,4284.615384615385,4206.153846153847,4577.948717948719
154.38268,0.3030212,0.45853475,0.32844308,0.6162927,0,0.0,0.0,0.0,0.0,0.026064113,0,0,0.0,0.0,0,0,71.0,0.0,488.0,4700.512820512821,3943.076923076924,4500.000000000001,4509.2307692307695,4230.256410256411,4533.333333333334,4473.333333333334,4510.256410256411,4391.794871794872,4744.102564102564,4392.820512820514,4291.794871794872,4207.179487179487,4575.384615384616
154.63289,0.30730554,0.45670733,0.3289388,0.60982925,0,0.0,0.0,0.0,0.0,0.12541024,0,0,0.0,0.0,0,0,103.0,0.0,335.0,4629.2307692307695,3945.6410256410263,4494.871794871796,4507.6923076923085,4238.461538461539,4541.538461538462,4458.461538461539,4485.128205128206,4359.48717948718,4705.641025641026,4367.179487179487,4265.641025641026,4160.512820512821,4535.8974358974365
154.758,0.30730554,0.45670733,0.3289388,0.60982925,0,0.0,0.0,0.0,0.0,0.0,0,0,0.0,0.0,0,0,119.0,0.0,335.0,4636.410256410257,3940.5128205128212,4502.051282051282,4506.666666666667,4248.717948717949,4543.076923076924,4465.128205128206,4497.948717948719,4376.410256410257,4712.307692307693,4374.871794871796,4265.641025641026,4167.179487179487,4533.846153846154
155.13332,0.31812415,0.44095498,0.32938543,0.6040099,0,0.0,0.0,0.0,0.0,0.0,0,0,0.0,0.0,0,0,38.0,0.0,0.0,4715.384615384616,3976.9230769230776,4504.615384615385,4517.435897435898,4232.820512820514,4527.6923076923085,4455.8974358974365,4503.076923076924,4374.871794871796,4736.410256410257,4394.358974358975,4282.564102564103,4217.435897435898,4575.8974358974365
155.41481,0.31812415,0.44095498,0.32938543,0.6040099,0,0.0,0.0,0.0,0.0,0.21348006,0,0,0.0,0.0,0,0,74.0,0.0,578.0,4681.538461538462,3940.5128205128212,4503.589743589744,4503.076923076924,4250.256410256411,4542.564102564103,4490.256410256411,4536.923076923077,4395.8974358974365,4737.435897435898,4397.435897435898,4294.871794871796,4210.256410256411,4558.974358974359
155.63374,0.34270477,0.42328066,0.32978666,0.5987794,0,0.0,0.0,0.0,0.0,0.1347692,0,0,0.0,0.0,0,0,102.0,0.0,578.0,4673.846153846154,3934.358974358975,4505.128205128206,4503.589743589744,4250.769230769231,4550.256410256411,4494.358974358975,4549.2307692307695,4412.820512820514,4757.435897435898,4401.538461538462,4298.461538461539,4226.666666666667,4566.153846153847
155.75885,0.34270477,0.42328066,0.32978666,0.5987794,0,0.0,0.0,0.0,0.0,0.0,0,0,0.0,0.0,0,0,118.0,0.0,578.0,4694.871794871796,3936.9230769230776,4505.128205128206,4503.076923076924,4251.794871794872,4549.2307692307695,4491.794871794872,4554.358974358975,4429.743589743591,4785.641025641026,4420.512820512821,4304.102564102564,4263.076923076924,4579.48717948718
156.13419,0.32176527,0.41841054,0.33014816,0.6180113,0,0.0,0.0,0.0,0.0,0.0,0,0,0.0,0.0,0,0,37.0,0.0,0.0,4678.461538461539,3925.6410256410263,4501.538461538462,4488.205128205129,4247.179487179487,4539.48717948718,4481.538461538462,4526.153846153847,4408.717948717949,4751.282051282052,4404.102564102564,4311.282051282052,4217.948717948719,4580.512820512821
156.3844,0.32176527,0.41841054,0.33014816,0.6180113,0,0.0,0.0,0.0,0.0,0.02155643,0,0,0.0,0.0,0,0,69.0,0.0,578.0,4671.794871794872,3943.076923076924,4500.000000000001,4507.6923076923085,4238.974358974359,4534.358974358975,4464.615384615385,4489.743589743591,4387.179487179487,4734.871794871796,4393.846153846154,4309.743589743591,4208.205128205129,4577.435897435898
156.63461,0.3191317,0.4224393,0.33047384,0.6586011,0,0.0,0.0,0.0,0.0,0.3583301,0,0,0.0,0.0,0,0,101.0,0.0,239.0,4661.538461538462,3948.205128205129,4505.641025641026,4506.666666666667,4240.512820512821,4538.974358974359,4477.948717948719,4509.2307692307695,4388.717948717949,4707.6923076923085,4380.512820512821,4299.48717948718,4161.538461538462,4550.769230769231
156.88483,0.3191317,0.4224393,0.33047384,0.6586011,0,0.0,0.0,0.0,0.0,0.33577693,0,0,0.0,0.0,0,0,4.0,0.0,577.0,4662.051282051282,3944.1025641025644,4506.666666666667,4497.435897435898,4231.282051282052,4536.923076923077,4470.769230769231,4494.871794871796,4374.358974358975,4703.076923076924,4372.307692307693,4296.410256410257,4169.74358974359,4553.333333333334
157.16632,0.31290737,0.4367805,0.33076182,0.69524086,0,0.0,0.0,0.0,0.0,0.050992075,0,0,0.0,0.0,0,0,40.0,0.0,0.0,4645.128205128206,3927.692307692308,4497.948717948719,4492.307692307693,4240.512820512821,4537.948717948719,4474.358974358975,4524.102564102564,4394.871794871796,4723.589743589744,4380.000000000001,4308.205128205129,4175.384615384616,4547.6923076923085
157.38525,0.31290737,0.4367805,0.33076182,0.69524086,0,0.0,0.0,0.0,0.0,0.06291715,0,0,0.0,0.0,0,0,68.0,0.0,577.0,4636.923076923077,3932.307692307693,4496.923076923077,4490.256410256411,4242.564102564103,4538.974358974359,4472.307692307693,4519.48717948718,4388.717948717949,4722.051282051282,4377.948717948719,4298.461538461539,4181.025641025642,4542.564102564103
157.63547,0.29622903,0.4230456,0.33102158,0.7279354,0,0.0,0.0,0.0,0.0,0.061905775,0,0,0.0,0.0,0,0,100.0,0.0,230.0,4650.769230769231,3944.615384615385,4504.102564102564,4494.871794871796,4249.74358974359,4540.512820512821,4476.410256410257,4507.179487179488,4384.102564102564,4720.512820512821,4376.923076923077,4299.48717948718,4178.974358974359,4537.948717948719
157.88568,0.29622903,0.4230456,0.33102158,0.7279354,0,0.0,0.0,0.0,0.0,0.044146154,0,0,0.0,0.0,0,0,3.0,0.0,564.0,4669.743589743591,3956.410256410257,4511.282051282052,4506.153846153847,4247.6923076923085,4546.153846153847,4474.358974358975,4492.820512820514,4387.6923076923085,4721.025641025642,4379.48717948718,4292.307692307693,4180.000000000001,4545.641025641026
158.1359,0.27449328,0.40864474,0.33125558,0.7333652,0,0.0,0.0,0.0,0.0,0.035597246,0,0,0.0,0.0,0,0,35.0,0.0,0.0,4693.333333333334,3974.358974358975,4512.820512820514,4516.410256410257,4237.948717948719,4538.974358974359,4457.435897435898,4454.358974358975,4376.410256410257,4725.128205128206,4377.435897435898,4292.307692307693,4193.846153846154,4553.333333333334
158.38611,0.27449328,0.40864474,0.33125558,0.7333652,0,0.0,0.0,0.0,0.0,0.12534341,0,0,0.0,0.0,0,0,67.0,0.0,564.0,4614.358974358975,3938.9743589743593,4507.179487179488,4506.666666666667,4249.74358974359,4553.333333333334,4484.102564102564,4471.794871794872,4378.974358974359,4703.076923076924,4360.000000000001,4265.641025641026,4135.8974358974365,4500.000000000001
158.63632,0.27140775,0.38994548,0.3314664,0.715002,0,0.0,0.0,0.0,0.0,0.14236106,0,0,0.0,0.0,0,0,99.0,0.0,335.0,4629.2307692307695,3943.076923076924,4501.025641025642,4500.512820512821,4249.74358974359,4544.615384615385,4465.128205128206,4442.564102564103,4378.461538461539,4708.205128205129,4365.641025641026,4272.307692307693,4144.615384615385,4503.076923076924
158.88655,0.27140775,0.38994548,0.3314664,0.715002,0,0.0,0.0,0.0,0.0,0.12141047,0,0,0.0,0.0,0,0,2.0,0.0,514.0,4682.051282051282,3982.0512820512827,4538.974358974359,4538.974358974359,4287.6923076923085,4584.102564102564,4505.128205128206,4490.769230769231,4409.743589743591,4761.538461538462,4384.615384615385,4306.153846153847,4199.48717948718,4526.666666666667
159.13676,0.31314805,0.38329253,0.3316561,0.6985003,0,0.0,0.0,0.0,0.0,0.9772189,0,0,0.0,0.0,0,0,34.0,0.0,0.0,4598.461538461539,3960.5128205128212,4514.871794871796,4508.717948717949,4248.205128205129,4541.538461538462,4476.410256410257,4480.512820512821,4394.358974358975,4735.8974358974365,4376.923076923077,4296.410256410257,4177.948717948719,4514.871794871796
159.26187,0.31314805,0.38329253,0.3316561,0.6985003,0,0.0,0.0,0.0,0.0,1.0,0,0,0.0,0.0,0,0,50.0,0.0,0.0,4627.179487179488,3960.0000000000005,4512.307692307693,4508.205128205129,4249.2307692307695,4545.641025641026,4476.923076923077,4474.871794871796,4392.307692307693,4747.6923076923085,4383.076923076924,4297.948717948719,4202.564102564103,4522.051282051282
159.63719,0.30797642,0.38428482,0.33182654,0.68366516,0,0.0,0.0,0.0,0.0,0.21741644,0,0,0.0,0.0,0,0,98.0,0.0,578.0,4624.615384615385,3943.076923076924,4502.051282051282,4498.461538461539,4245.128205128206,4541.538461538462,4477.948717948719,4493.846153846154,4391.282051282052,4726.666666666667,4369.2307692307695,4281.538461538462,4169.74358974359,4513.846153846154
159.8874,0.30797642,0.38428482,0.33182654,0.68366516,0,0.0,0.0,0.0,0.0,0.16922137,0,0,0.0,0.0,0,0,1.0,0.0,466.0,4650.769230769231,3958.461538461539,4508.717948717949,4505.641025641026,4247.6923076923085,4546.153846153847,4475.8974358974365,4476.410256410257,4391.282051282052,4732.820512820514,4372.820512820514,4290.256410256411,4182.564102564103,4523.076923076924
160.13762,0.29478464,0.39764887,0.3292907,0.6737087,0,0.0,0.0,0.0,0.0,0.6660728,0,0,0.0,0.0,0,0,33.0,0.0,0.0,4733.846153846154,3952.820512820513,4515.8974358974365,4507.179487179488,4243.076923076924,4542.564102564103,4492.820512820514,4502.051282051282,4411.282051282052,4781.025641025642,4408.205128205129,4308.717948717949,4257.435897435898,4581.538461538462
160.38783,0.29478464,0.39764887,0.3292907,0.6737087,0,0.0,0.0,0.0,0.0,0.25670186,0,0,0.0,0.0,0,0,65.0,0.0,466.0,4700.000000000001,3928.205128205129,4510.256410256411,4509.2307692307695,4248.717948717949,4552.820512820514,4504.102564102564,4504.102564102564,4414.358974358975,4772.820512820514,4395.384615384616,4296.923076923077,4227.179487179487,4556.923076923077
160.66933,0.3177182,0.4213003,0.32700083,0.66490436,0,0.0,0.0,0.0,0.0,0.030357286,0,0,0.0,0.0,0,0,101.0,0.0,240.0,4714.358974358975,3943.589743589744,4510.769230769231,4506.666666666667,4244.102564102564,4541.025641025642,4492.820512820514,4491.282051282052,4400.000000000001,4770.256410256411,4400.512820512821,4297.435897435898,4228.205128205129,4569.743589743591
160.88826,0.3177182,0.4213003,0.32700083,0.66490436,0,0.0,0.0,0.0,0.0,0.06638724,0,0,0.0,0.0,0,0,0.0,0.0,428.0,4725.128205128206,3958.9743589743593,4510.256410256411,4512.820512820514,4242.051282051282,4539.48717948718,4493.333333333334,4492.307692307693,4401.025641025642,4757.435897435898,4398.974358974359,4297.948717948719,4206.153846153847,4566.666666666667
161.13847,0.29973435,0.4260638,0.32494923,0.6568768,0,0.0,0.0,0.0,0.0,0.070024304,0,0,0.0,0.0,0,0,32.0,0.0,0.0,4721.025641025642,3956.410256410257,4518.974358974359,4520.512820512821,4254.871794871796,4552.307692307693,4496.410256410257,4490.769230769231,4414.871794871796,4773.846153846154,4404.615384615385,4289.2307692307695,4236.923076923077,4564.102564102564
161.38869,0.29973435,0.4260638,0.32494923,0.6568768,0,0.0,0.0,0.0,0.0,0.066984445,0,0,0.0,0.0,0,0,64.0,0.0,428.0,4762.051282051282,3980.5128205128212,4521.538461538462,4523.589743589744,4246.666666666667,4539.48717948718,4469.743589743591,4441.025641025642,4383.076923076924,4765.641025641026,4415.8974358974365,4294.358974358975,4258.974358974359,4588.205128205129
161.63892,0.28584015,0.4645981,0.32310277,0.64965767,0,0.0,0.0,0.0,0.0,0.09735246,0,0,0.0,0.0,0,0,96.0,0.0,229.0,4687.179487179488,3941.0256410256416,4506.153846153847,4504.615384615385,4249.74358974359,4551.282051282052,4490.769230769231,4481.025641025642,4408.205128205129,4752.307692307693,4401.538461538462,4283.589743589744,4208.205128205129,4551.282051282052
161.88913,0.28584015,0.4645981,0.32310277,0.64965767,0,0.0,0.0,0.0,0.0,0.094331995,0,0,0.0,0.0,0,0,128.0,0.0,229.0,4702.051282051282,3945.6410256410263,4513.333333333334,4507.6923076923085,4254.358974358975,4552.307692307693,4488.205128205129,4489.743589743591,4411.794871794872,4754.871794871796,4400.000000000001,4283.076923076924,4208.205128205129,4553.846153846154
162.13934,0.24538448,0.44853956,0.32413706,0.63983124,0,0.0,0.0,0.0,0.0,0.0,0,0,0.26339474,0.0,0,0,31.0,0.0,0.0,4666.666666666667,3933.333333333334,4507.179487179488,4492.307692307693,4249.74358974359,4543.589743589744,4490.769230769231,4488.717948717949,4406.666666666667,4761.538461538462,4404.615384615385,4279.48717948718,4216.923076923077,4551.794871794872
162.26445,0.24538448,0.44853956,0.32413706,0.63983124,0,0.0,0.0,0.0,0.0,0.0,0,0,0.0,0.0,0,0,47.0,0.0,0.0,4673.333333333334,3932.307692307693,4512.820512820514,4492.307692307693,4246.153846153847,4547.6923076923085,4490.256410256411,4489.743589743591,4409.2307692307695,4763.589743589744,4409.2307692307695,4281.025641025642,4214.358974358975,4560.000000000001
162.64758,0.23513111,0.4362702,0.32507095,0.6309873,0,0.0,0.0,0.0,0.0,0.0,0,0,0.0,0.0,0,0,95.0,0.0,335.0,4655.8974358974365,3942.0512820512827,4504.615384615385,4488.717948717949,4238.461538461539,4535.384615384616,4490.769230769231,4496.923076923077,4398.461538461539,4752.307692307693,4403.589743589744,4265.641025641026,4218.974358974359,4552.307692307693
162.8978,0.23513111,0.4362702,0.32507095,0.6309873,0,0.0,0.0,0.0,0.0,0.0,0,0,0.3331836,0.0,0,0,127.0,0.0,335.0,4645.128205128206,3937.435897435898,4504.102564102564,4484.615384615385,4231.794871794872,4528.205128205129,4487.179487179488,4487.179487179488,4385.641025641026,4727.6923076923085,4388.717948717949,4253.333333333334,4153.846153846154,4539.48717948718
163.14803,0.22752659,0.41708496,0.32591236,0.6230266,0,0.0,0.0,0.0,0.0,0.1136875,0,0,0.0,0.0,0,0,30.0,0.0,0.0,4629.743589743591,3943.076923076924,4509.743589743591,4489.2307692307695,4248.717948717949,4540.512820512821,4494.871794871796,4510.769230769231,4402.564102564103,4735.384615384616,4387.6923076923085,4267.179487179487,4169.2307692307695,4540.512820512821
163.39824,0.22752659,0.41708496,0.32591236,0.6230266,0,0.0,0.0,0.0,0.0,0.08004555,0,0,0.0,0.0,0,0,62.0,0.0,0.0,4631.282051282052,3958.9743589743593,4512.820512820514,4494.871794871796,4249.2307692307695,4540.000000000001,4487.179487179488,4507.6923076923085,4384.102564102564,4712.307692307693,4375.384615384616,4266.666666666667,4142.051282051282,4530.256410256411
163.64845,0.24250755,0.39012066,0.32666832,0.63240075,0,0.0,0.0,0.0,0.0,0.37810957,0,0,0.0,0.0,0,0,94.0,0.0,578.0,4645.128205128206,3970.2564102564106,4512.820512820514,4504.615384615385,4251.282051282052,4546.666666666667,4497.435897435898,4510.769230769231,4380.512820512821,4718.461538461539,4372.307692307693,4253.846153846154,4154.358974358975,4538.461538461539
163.89867,0.24250755,0.39012066,0.32666832,0.63240075,0,0.0,0.0,0.0,0.0,0.4786931,0,0,0.0,0.0,0,0,126.0,0.0,578.0,4680.512820512821,3954.358974358975,4516.923076923077,4489.743589743591,4245.641025641026,4537.435897435898,4493.846153846154,4538.461538461539,4410.256410256411,4780.000000000001,4416.410256410257,4279.48717948718,4250.256410256411,4587.179487179488
164.18016,0.25949937,0.3925653,0.3273383,0.6409238,0,0.0,0.0,0.0,0.0,0.07377878,0,0,0.0,0.0,0,0,33.0,0.0,0.0,4637.435897435898,3927.1794871794878,4508.717948717949,4489.743589743591,4246.666666666667,4539.48717948718,4505.641025641026,4555.384615384616,4415.384615384616,4755.8974358974365,4401.538461538462,4266.153846153847,4213.333333333334,4557.948717948719
164.3991,0.25949937,0.3925653,0.3273383,0.6409238,0,0.0,0.0,0.0,0.0,0.098442,0,0,0.0,0.0,0,0,61.0,0.0,0.0,4653.846153846154,3943.076923076924,4511.794871794872,4492.820512820514,4249.74358974359,4551.282051282052,4509.743589743591,4543.076923076924,4409.743589743591,4758.974358974359,4409.743589743591,4272.820512820514,4226.666666666667,4554.871794871796
164.6493,0.2579619,0.40318805,0.32794368,0.6485047,0,0.0,0.0,0.0,0.0,0.1425825,0,0,0.0,0.0,0,0,93.0,0.0,240.0,4645.128205128206,3921.0256410256416,4505.641025641026,4487.179487179488,4252.307692307693,4550.769230769231,4508.717948717949,4543.589743589744,4427.6923076923085,4766.153846153847,4415.384615384616,4268.717948717949,4219.48717948718,4550.769230769231
164.77441,0.2579619,0.40318805,0.32794368,0.6485047,0,0.0,0.0,0.0,0.0,0.0,0,0,0.0,0.0,0,0,109.0,0.0,240.0,4676.410256410257,3928.205128205129,4506.666666666667,4489.2307692307695,4246.153846153847,4539.48717948718,4507.6923076923085,4553.846153846154,4429.2307692307695,4775.384615384616,4426.666666666667,4278.974358974359,4260.512820512821,4565.641025641026
165.14973,0.25928825,0.450212,0.3284885,0.6553171,0,0.0,0.0,0.0,0.0,0.0,0,0,0.0,0.0,0,0,28.0,0.0,0.0,4711.282051282052,3942.564102564103,4507.179487179488,4487.6923076923085,4248.205128205129,4543.589743589744,4503.076923076924,4521.538461538462,4427.6923076923085,4772.307692307693,4421.025641025642,4270.769230769231,4241.538461538462,4569.2307692307695
165.14973,0.25928825,0.450212,0.3284885,0.6553171,0,0.0,0.0,0.0,0.0,0.0,0,0,0.0,0.0,0,0,28.0,0.0,0.0,4711.282051282052,3942.564102564103,4507.179487179488,4487.6923076923085,4248.205128205129,4543.589743589744,4503.076923076924,4521.538461538462,4427.6923076923085,4772.307692307693,4421.025641025642,4270.769230769231,4241.538461538462,4569.2307692307695
165.65016,0.227874,0.5010462,0.32897824,0.644918,0,0.0,0.0,0.0,0.0,0.0,0,0,0.0,0.0,0,0,92.0,0.0,225.0,4712.820512820514,3941.538461538462,4512.307692307693,4491.282051282052,4249.2307692307695,4542.564102564103,4490.769230769231,4487.6923076923085,4412.820512820514,4747.6923076923085,4409.2307692307695,4251.282051282052,4221.025641025642,4576.410256410257
165.65016,0.227874,0.5010462,0.32897824,0.644918,0,0.0,0.0,0.0,0.0,0.0,0,0,0.0,0.0,0,0,92.0,0.0,225.0,4712.820512820514,3941.538461538462,4512.307692307693,4491.282051282052,4249.2307692307695,4542.564102564103,4490.769230769231,4487.6923076923085,4412.820512820514,4747.6923076923085,4409.2307692307695,4251.282051282052,4221.025641025642,4576.410256410257
166.1506,0.2569912,0.52036,0.32941943,0.6355594,0,0.0,0.0,0.0,0.0,0.08017695,0,0,0.0,0.0,0,0,27.0,0.0,0.0,4669.743589743591,3954.358974358975,4506.666666666667,4491.794871794872,4247.179487179487,4540.512820512821,4479.48717948718,4468.205128205129,4391.282051282052,4688.205128205129,4373.846153846154,4244.615384615385,4151.794871794872,4561.538461538462
166.40082,0.2569912,0.52036,0.32941943,0.6355594,0,0.0,0.0,0.0,0.0,0.042670947,0,0,0.0,0.0,0,0,59.0,0.0,0.0,4644.615384615385,3974.8717948717954,4502.051282051282,4499.48717948718,4244.615384615385,4540.512820512821,4457.948717948719,4407.6923076923085,4336.923076923077,4629.743589743591,4331.282051282052,4216.410256410257,4070.7692307692314,4535.8974358974365
166.65103,0.32188985,0.4990404,0.32981697,0.62713593,0,0.0,0.0,0.0,0.0,0.017666623,0,0,0.0,0.0,0,0,91.0,0.0,335.0,4648.205128205129,3964.615384615385,4506.153846153847,4494.871794871796,4245.128205128206,4538.974358974359,4474.358974358975,4429.2307692307695,4356.923076923077,4656.410256410257,4340.512820512821,4215.8974358974365,4093.8461538461543,4535.8974358974365
166.90125,0.32188985,0.4990404,0.32981697,0.62713593,0,0.0,0.0,0.0,0.0,0.0,0,0,0.0,0.0,0,0,123.0,0.0,335.0,4690.256410256411,3940.5128205128212,4506.153846153847,4488.205128205129,4246.153846153847,4538.461538461539,4479.48717948718,4461.025641025642,4396.923076923077,4724.102564102564,4375.384615384616,4241.025641025642,4197.948717948719,4569.743589743591
167.15146,0.36886853,0.4766984,0.33017507,0.63822865,0,0.0,0.0,0.0,0.0,0.0,0,0,0.0,0.0,0,0,26.0,0.0,0.0,4716.410256410257,3955.8974358974365,4507.179487179488,4492.307692307693,4247.6923076923085,4538.461538461539,4485.128205128206,4462.564102564103,4404.615384615385,4746.153846153847,4388.717948717949,4249.2307692307695,4230.769230769231,4576.410256410257
167.40167,0.36886853,0.4766984,0.33017507,0.63822865,0,0.0,0.0,0.0,0.0,0.34463978,0,0,0.0,0.0,0,0,58.0,0.0,0.0,4690.769230769231,3944.1025641025644,4505.641025641026,4489.743589743591,4247.6923076923085,4539.48717948718,4494.358974358975,4463.076923076924,4413.333333333334,4750.769230769231,4379.48717948718,4238.461538461539,4217.948717948719,4560.000000000001
167.68317,0.3332699,0.45687583,0.33049253,0.64830613,0,0.0,0.0,0.0,0.0,0.091820434,0,0,0.0,0.0,0,0,94.0,0.0,578.0,4699.48717948718,3956.9230769230776,4505.128205128206,4491.282051282052,4251.282051282052,4551.282051282052,4490.769230769231,4460.000000000001,4406.153846153847,4743.076923076924,4376.923076923077,4235.8974358974365,4214.358974358975,4561.025641025642
167.777,0.3332699,0.45687583,0.33049253,0.64830613,0,0.0,0.0,0.0,0.0,0.0,0,0,0.0,0.0,0,0,106.0,0.0,578.0,4707.179487179488,3960.0000000000005,4511.282051282052,4493.846153846154,4255.384615384616,4549.743589743591,4493.333333333334,4476.410256410257,4424.102564102564,4754.358974358975,4390.769230769231,4240.000000000001,4212.307692307693,4573.333333333334
168.15231,0.28067452,0.44768265,0.33077934,0.6572732,0,0.0,0.0,0.0,0.0,0.0,0,0,0.0,0.0,0,0,25.0,0.0,0.0,4680.000000000001,3944.615384615385,4515.384615384616,4489.2307692307695,4264.102564102564,4556.410256410257,4502.564102564103,4481.538461538462,4430.256410256411,4770.769230769231,4396.923076923077,4238.974358974359,4228.205128205129,4571.282051282052
168.40253,0.28067452,0.44768265,0.33077934,0.6572732,0,0.0,0.0,0.0,0.0,0.057952788,0,0,0.0,0.0,0,0,57.0,0.0,0.0,4690.256410256411,3945.6410256410263,4511.282051282052,4491.794871794872,4260.000000000001,4552.820512820514,4492.307692307693,4465.128205128206,4421.025641025642,4750.256410256411,4394.358974358975,4237.948717948719,4215.8974358974365,4572.307692307693
168.65276,0.27879617,0.44797263,0.3310375,0.66532916,0,0.0,0.0,0.0,0.0,0.19738536,0,0,0.0,0.0,0,0,89.0,0.0,243.0,4621.538461538462,3925.6410256410263,4494.871794871796,4492.820512820514,4254.358974358975,4549.743589743591,4489.743589743591,4459.48717948718,4405.128205128206,4714.871794871796,4371.282051282052,4224.615384615385,4157.948717948719,4536.410256410257
168.90297,0.27879617,0.44797263,0.3310375,0.66532916,0,0.0,0.0,0.0,0.0,0.0,0,0,0.0,0.0,0,0,121.0,0.0,243.0,4640.000000000001,3923.076923076924,4496.410256410257,4490.769230769231,4251.794871794872,4550.769230769231,4478.974358974359,4463.076923076924,4408.717948717949,4720.512820512821,4373.333333333334,4220.512820512821,4175.384615384616,4540.000000000001
169.15318,0.2615808,0.44146594,0.33127007,0.6539156,1,0.0,0.0,0.0,0.0,0.0,0,0,0.0,0.0,0,0,24.0,0.0,0.0,4711.794871794872,3957.9487179487182,4509.743589743591,4505.128205128206,4239.48717948718,4537.948717948719,4475.384615384616,4467.6923076923085,4391.282051282052,4718.974358974359,4380.000000000001,4233.333333333334,4202.051282051282,4555.384615384616
169.4034,0.2615808,0.44146594,0.33127007,0.6539156,0,0.0,0.0,0.0,0.0,0.2072131,0,0,0.0,0.0,0,0,56.0,0.0,0.0,4723.076923076924,3965.6410256410263,4529.743589743591,4516.410256410257,4267.6923076923085,4569.743589743591,4506.666666666667,4498.461538461539,4434.871794871796,4772.307692307693,4401.025641025642,4251.282051282052,4235.8974358974365,4581.025641025642
169.65361,0.25119135,0.44411287,0.33147985,0.64364535,0,0.0,0.0,0.0,0.0,0.1284918,0,0,0.0,0.0,0,0,88.0,0.0,225.0,4689.743589743591,3944.615384615385,4507.179487179488,4494.358974358975,4248.717948717949,4539.48717948718,4477.435897435898,4475.384615384616,4415.8974358974365,4735.8974358974365,4386.153846153847,4232.307692307693,4201.538461538462,4577.948717948719
169.90382,0.25119135,0.44411287,0.33147985,0.64364535,0,0.0,0.0,0.0,0.0,0.13047417,0,0,0.0,0.0,0,0,120.0,0.0,225.0,4677.435897435898,3959.48717948718,4505.128205128206,4492.307692307693,4234.871794871796,4538.974358974359,4459.48717948718,4457.948717948719,4385.128205128206,4715.8974358974365,4370.769230769231,4229.74358974359,4184.102564102564,4583.589743589744
170.15404,0.24767645,0.4488765,0.33166885,0.63440245,0,0.0,0.0,0.0,0.0,0.07291767,0,0,0.0,0.0,0,0,23.0,0.0,0.0,4674.871794871796,3955.8974358974365,4500.512820512821,4493.333333333334,4233.846153846154,4530.256410256411,4457.435897435898,4442.051282051282,4366.153846153847,4690.256410256411,4365.641025641026,4232.820512820514,4164.615384615385,4578.974358974359
170.40425,0.24767645,0.4488765,0.33166885,0.63440245,0,0.0,0.0,0.0,0.0,0.16679272,0,0,0.0,0.0,0,0,55.0,0.0,0.0,4674.358974358975,3955.8974358974365,4505.128205128206,4502.051282051282,4247.179487179487,4540.512820512821,4461.025641025642,4457.435897435898,4384.615384615385,4716.410256410257,4378.974358974359,4235.384615384616,4185.641025641026,4583.589743589744
170.65446,0.22513013,0.47247633,0.33183888,0.6385007,0,0.0,0.0,0.0,0.0,0.1841654,0,0,0.0,0.0,0,0,87.0,0.0,335.0,4678.461538461539,3938.461538461539,4496.923076923077,4489.2307692307695,4243.076923076924,4538.461538461539,4474.871794871796,4471.282051282052,4390.256410256411,4717.948717948719,4377.948717948719,4244.615384615385,4182.051282051282,4587.179487179488
170.90468,0.22513013,0.47247633,0.33183888,0.6385007,0,0.0,0.0,0.0,0.0,0.041129082,0,0,0.0,0.0,0,0,119.0,0.0,335.0,4670.769230769231,3940.0000000000005,4496.923076923077,4489.2307692307695,4234.358974358975,4537.435897435898,4458.974358974359,4459.48717948718,4385.128205128206,4724.615384615386,4377.948717948719,4245.128205128206,4192.307692307693,4584.615384615385
171.15489,0.20498158,0.45113215,0.3319915,0.6584,0,0.0,0.0,0.0,0.0,0.0,0,0,0.0,0.0,0,0,22.0,0.0,0.0,4675.384615384616,3941.0256410256416,4494.871794871796,4476.923076923077,4233.846153846154,4536.923076923077,4458.461538461539,4461.538461538462,4381.538461538462,4707.6923076923085,4376.923076923077,4241.538461538462,4173.333333333334,4583.076923076924
171.40512,0.20498158,0.45113215,0.3319915,0.6584,0,0.0,0.0,0.0,0.0,0.085215725,0,0,0.0,0.0,0,0,54.0,0.0,0.0,4691.794871794872,3947.692307692308,4503.589743589744,4489.2307692307695,4247.179487179487,4541.538461538462,4476.923076923077,4460.000000000001,4380.512820512821,4709.2307692307695,4374.358974358975,4251.282051282052,4187.179487179487,4587.6923076923085
171.65533,0.19241501,0.42913955,0.3308164,0.67929417,0,0.0,0.0,0.0,0.0,0.037309434,0,0,0.0,0.0,0,0,86.0,0.0,578.0,4680.512820512821,3941.538461538462,4505.641025641026,4490.256410256411,4250.769230769231,4553.333333333334,4491.794871794872,4477.435897435898,4390.256410256411,4715.384615384616,4375.8974358974365,4242.564102564103,4186.666666666667,4580.512820512821
171.90555,0.19241501,0.42913955,0.3308164,0.67929417,0,0.0,0.0,0.0,0.0,0.03551458,0,0,0.0,0.0,0,0,118.0,0.0,578.0,4689.743589743591,3943.076923076924,4504.102564102564,4491.282051282052,4246.666666666667,4540.000000000001,4474.358974358975,4455.384615384616,4376.410256410257,4706.666666666667,4371.794871794872,4248.205128205129,4171.282051282052,4580.000000000001
172.15576,0.16653836,0.41982898,0.32750377,0.7000298,0,0.0,0.0,0.0,0.0,0.0,0,0,0.0,0.0,0,0,21.0,0.0,0.0,4718.461538461539,3955.8974358974365,4509.2307692307695,4491.794871794872,4238.974358974359,4538.974358974359,4469.2307692307695,4437.435897435898,4371.794871794872,4711.794871794872,4376.410256410257,4240.512820512821,4196.923076923077,4598.974358974359
172.15576,0.16653836,0.41982898,0.32750377,0.7000298,0,0.0,0.0,0.0,0.0,0.0,0,0,0.0,0.0,0,0,21.0,0.0,0.0,4718.461538461539,3955.8974358974365,4509.2307692307695,4491.794871794872,4238.974358974359,4538.974358974359,4469.2307692307695,4437.435897435898,4371.794871794872,4711.794871794872,4376.410256410257,4240.512820512821,4196.923076923077,4598.974358974359
172.65619,0.13911532,0.4077048,0.3230608,0.7181078,0,0.0,0.0,0.0,0.0,0.0,0,0,0.0,0.0,0,0,85.0,0.0,245.0,4689.743589743591,3954.358974358975,4512.820512820514,4497.435897435898,4250.256410256411,4550.769230769231,4475.384615384616,4457.948717948719,4392.820512820514,4731.282051282052,4380.512820512821,4247.6923076923085,4202.051282051282,4584.102564102564
172.9064,0.13911532,0.4077048,0.3230608,0.7181078,0,0.0,0.0,0.0,0.0,0.08199577,0,0,0.0,0.0,0,0,117.0,0.0,245.0,4694.871794871796,3951.7948717948725,4515.384615384616,4500.512820512821,4250.256410256411,4555.384615384616,4486.666666666667,4460.512820512821,4390.256410256411,4725.641025641026,4380.000000000001,4241.025641025642,4189.74358974359,4578.461538461539
173.15662,0.11986335,0.41397527,0.3182128,0.74236643,0,0.0,0.0,0.0,0.0,0.10138017,0,0,0.0,0.0,0,0,20.0,0.0,0.0,4682.051282051282,3940.5128205128212,4508.205128205129,4492.307692307693,4250.256410256411,4551.282051282052,4492.820512820514,4476.923076923077,4406.153846153847,4735.384615384616,4385.641025641026,4248.717948717949,4203.076923076924,4567.6923076923085
173.40683,0.11986335,0.41397527,0.3182128,0.74236643,0,0.0,0.0,0.0,0.0,0.038640883,0,0,0.0,0.0,0,0,52.0,0.0,0.0,4676.410256410257,3958.461538461539,4513.846153846154,4502.564102564103,4257.435897435898,4553.846153846154,4475.384615384616,4457.948717948719,4394.358974358975,4727.6923076923085,4380.000000000001,4243.076923076924,4189.2307692307695,4565.128205128206
173.65704,0.11477273,0.4211319,0.31385115,0.75600916,0,0.0,0.0,0.0,0.0,0.054864116,0,0,0.0,0.0,0,0,84.0,0.0,222.0,4674.871794871796,3938.461538461539,4508.205128205129,4490.256410256411,4254.358974358975,4552.307692307693,4474.358974358975,4457.435897435898,4399.48717948718,4730.769230769231,4384.615384615385,4256.923076923077,4193.846153846154,4557.948717948719
173.90727,0.11477273,0.4211319,0.31385115,0.75600916,0,0.0,0.0,0.0,0.0,0.04622341,0,0,0.0,0.0,0,0,116.0,0.0,222.0,4670.256410256411,3931.2820512820517,4504.102564102564,4476.923076923077,4250.256410256411,4547.179487179488,4492.820512820514,4481.025641025642,4413.846153846154,4740.000000000001,4385.641025641026,4248.205128205129,4204.102564102564,4556.410256410257
174.15749,0.13562755,0.4293137,0.31025988,0.7681887,0,0.0,0.0,0.0,0.0,0.0,0,0,0.0,0.0,0,0,19.0,0.0,0.0,4696.410256410257,3954.8717948717954,4514.871794871796,4489.743589743591,4256.923076923077,4551.282051282052,4497.948717948719,4485.128205128206,4412.820512820514,4738.974358974359,4392.307692307693,4254.871794871796,4202.051282051282,4570.256410256411
174.15749,0.13562755,0.4293137,0.31025988,0.7681887,0,0.0,0.0,0.0,0.0,0.0,0,0,0.0,0.0,0,0,19.0,0.0,0.0,4696.410256410257,3954.8717948717954,4514.871794871796,4489.743589743591,4256.923076923077,4551.282051282052,4497.948717948719,4485.128205128206,4412.820512820514,4738.974358974359,4392.307692307693,4254.871794871796,4202.051282051282,4570.256410256411
174.65791,0.16307992,0.4466351,0.3070301,0.7848459,0,0.0,0.0,0.0,0.0,0.05139432,0,0,0.0,0.0,0,0,83.0,0.0,335.0,4697.948717948719,3923.589743589744,4503.589743589744,4477.435897435898,4248.205128205129,4538.974358974359,4491.794871794872,4488.717948717949,4415.384615384616,4749.2307692307695,4403.589743589744,4263.076923076924,4225.641025641026,4580.512820512821
174.90813,0.16307992,0.4466351,0.3070301,0.7848459,0,0.0,0.0,0.0,0.0,0.80659527,0,0,0.0,0.0,0,0,115.0,0.0,335.0,4690.769230769231,3933.8461538461543,4504.615384615385,4485.128205128206,4250.256410256411,4544.102564102564,4491.794871794872,4493.333333333334,4422.051282051282,4760.000000000001,4403.589743589744,4264.102564102564,4228.205128205129,4582.564102564103
175.18962,0.15756595,0.4415091,0.30536476,0.79857546,0,0.0,0.0,0.0,0.0,0.817227,0,0,0.0,0.0,0,0,22.0,0.0,0.0,4701.025641025642,3936.9230769230776,4506.153846153847,4488.717948717949,4246.666666666667,4540.512820512821,4492.307692307693,4488.205128205129,4418.461538461539,4765.128205128206,4406.666666666667,4262.564102564103,4220.512820512821,4588.205128205129
175.40855,0.15756595,0.4415091,0.30536476,0.79857546,0,0.0,0.0,0.0,0.0,0.066790804,0,0,0.0,0.0,0,0,50.0,0.0,0.0,4676.410256410257,3933.333333333334,4503.076923076924,4488.717948717949,4237.948717948719,4537.435897435898,4487.179487179488,4473.846153846154,4411.794871794872,4755.8974358974365,4396.410256410257,4251.282051282052,4209.2307692307695,4580.512820512821
175.65877,0.1705885,0.4344069,0.3063442,0.8091438,0,0.0,0.0,0.0,0.0,0.0,0,0,0.0,0.0,0,0,82.0,0.0,578.0,4690.256410256411,3940.5128205128212,4506.666666666667,4490.256410256411,4247.6923076923085,4541.025641025642,4488.205128205129,4476.923076923077,4410.769230769231,4760.512820512821,4403.589743589744,4252.820512820514,4214.358974358975,4585.128205128206
175.90898,0.1705885,0.4344069,0.3063442,0.8091438,0,0.0,0.0,0.0,0.0,0.0438035,0,0,0.0,0.0,0,0,114.0,0.0,578.0,4686.153846153847,3942.564102564103,4506.153846153847,4486.153846153847,4248.205128205129,4542.051282051282,4490.769230769231,4474.358974358975,4413.846153846154,4748.717948717949,4400.000000000001,4252.307692307693,4210.256410256411,4582.564102564103
176.1592,0.17148033,0.4200998,0.30907133,0.7972864,0,0.0,0.0,0.0,0.0,0.0,0,0,0.0,0.0,0,0,17.0,0.0,0.0,4655.8974358974365,3941.0256410256416,4501.538461538462,4489.743589743591,4236.923076923077,4536.923076923077,4476.923076923077,4456.923076923077,4384.102564102564,4704.102564102564,4382.051282051282,4249.74358974359,4154.871794871796,4566.153846153847
176.1592,0.17148033,0.4200998,0.30907133,0.7972864,0,0.0,0.0,0.0,0.0,0.0,0,0,0.0,0.0,0,0,17.0,0.0,0.0,4655.8974358974365,3941.0256410256416,4501.538461538462,4489.743589743591,4236.923076923077,4536.923076923077,4476.923076923077,4456.923076923077,4384.102564102564,4704.102564102564,4382.051282051282,4249.74358974359,4154.871794871796,4566.153846153847
176.65964,0.17992356,0.3976942,0.31152818,0.7723171,0,0.0,0.0,0.0,0.0,0.0,0,0,0.0,0.0,0,0,81.0,0.0,245.0,4670.256410256411,3946.1538461538466,4506.666666666667,4490.256410256411,4248.205128205129,4541.538461538462,4480.512820512821,4442.051282051282,4386.666666666667,4717.435897435898,4381.025641025642,4248.205128205129,4183.076923076924,4571.282051282052
176.90985,0.17992356,0.3976942,0.31152818,0.7723171,0,0.0,0.0,0.0,0.0,0.05000834,0,0,0.0,0.0,0,0,113.0,0.0,245.0,4685.128205128206,3941.0256410256416,4505.641025641026,4490.769230769231,4247.179487179487,4537.948717948719,4474.358974358975,4446.153846153847,4392.307692307693,4720.512820512821,4393.846153846154,4250.256410256411,4191.282051282052,4577.948717948719
177.16006,0.18622227,0.37279397,0.31374153,0.7499162,0,0.0,0.0,0.0,0.0,0.05993487,0,0,0.0,0.0,0,0,16.0,0.0,0.0,4649.743589743591,3927.1794871794878,4493.846153846154,4484.615384615385,4244.615384615385,4538.461538461539,4478.974358974359,4445.641025641026,4380.000000000001,4698.461538461539,4381.538461538462,4245.641025641026,4167.179487179487,4553.846153846154
177.41028,0.18622227,0.37279397,0.31374153,0.7499162,0,0.0,0.0,0.0,0.0,0.13149983,0,0,0.0,0.0,0,0,48.0,0.0,0.0,4657.435897435898,3943.589743589744,4503.076923076924,4493.333333333334,4246.666666666667,4540.512820512821,4482.051282051282,4445.641025641026,4383.076923076924,4705.641025641026,4378.461538461539,4251.282051282052,4165.128205128206,4541.025641025642
177.66049,0.19135714,0.34821975,0.31573012,0.7298047,0,0.0,0.0,0.0,0.0,0.0,0,0,0.0,0.0,0,0,80.0,0.0,216.0,4665.128205128206,3943.589743589744,4504.615384615385,4489.743589743591,4249.2307692307695,4543.076923076924,4484.102564102564,4442.564102564103,4385.641025641026,4715.384615384616,4380.000000000001,4263.076923076924,4186.153846153847,4553.846153846154
177.66049,0.19135714,0.34821975,0.31573012,0.7298047,0,0.0,0.0,0.0,0.0,0.0,0,0,0.0,0.0,0,0,80.0,0.0,216.0,4665.128205128206,3943.589743589744,4504.615384615385,4489.743589743591,4249.2307692307695,4543.076923076924,4484.102564102564,4442.564102564103,4385.641025641026,4715.384615384616,4380.000000000001,4263.076923076924,4186.153846153847,4553.846153846154
178.16092,0.20599782,0.3269088,0.31658977,0.71887934,0,0.0,0.0,0.0,0.0,0.0,0,0,0.0,0.0,0,0,15.0,0.0,335.0,4672.820512820514,3943.589743589744,4506.666666666667,4478.974358974359,4246.666666666667,4538.461538461539,4474.871794871796,4458.461538461539,4395.8974358974365,4730.256410256411,4390.256410256411,4286.666666666667,4202.051282051282,4553.846153846154
178.16092,0.20599782,0.3269088,0.31658977,0.71887934,0,0.0,0.0,0.0,0.0,0.0,0,0,0.0,0.0,0,0,15.0,0.0,335.0,4672.820512820514,3943.589743589744,4506.666666666667,4478.974358974359,4246.666666666667,4538.461538461539,4474.871794871796,4458.461538461539,4395.8974358974365,4730.256410256411,4390.256410256411,4286.666666666667,4202.051282051282,4553.846153846154
178.66135,0.22588941,0.30680922,0.31399646,0.7274526,0,0.0,0.0,0.0,0.0,0.0,0,0,0.0,0.0,0,0,79.0,0.0,335.0,4652.307692307693,3940.5128205128212,4494.871794871796,4473.846153846154,4232.307692307693,4534.871794871796,4470.769230769231,4441.025641025642,4389.2307692307695,4723.589743589744,4386.666666666667,4296.410256410257,4187.179487179487,4528.717948717949
178.91156,0.22588941,0.30680922,0.31399646,0.7274526,0,0.0,0.0,0.0,0.0,0.76006424,0,0,0.0,0.0,0,0,111.0,0.0,335.0,4647.179487179488,3934.8717948717954,4494.871794871796,4472.820512820514,4234.358974358975,4537.435897435898,4474.871794871796,4445.641025641026,4386.666666666667,4720.512820512821,4380.000000000001,4286.666666666667,4182.564102564103,4534.358974358975
179.19305,0.23845522,0.29380977,0.31164205,0.73540604,0,0.0,0.0,0.0,0.0,0.45780268,0,0,0.0,0.0,0,0,18.0,0.0,0.0,4646.666666666667,3943.589743589744,4491.794871794872,4471.282051282052,4234.358974358975,4528.205128205129,4474.871794871796,4443.589743589744,4383.589743589744,4714.871794871796,4377.948717948719,4294.358974358975,4168.717948717949,4530.769230769231
179.412,0.23845522,0.29380977,0.31164205,0.73540604,0,0.0,0.0,0.0,0.0,0.0505074,0,0,0.0,0.0,0,0,46.0,0.0,0.0,4632.307692307693,3926.666666666667,4490.256410256411,4471.794871794872,4234.358974358975,4535.8974358974365,4468.717948717949,4443.589743589744,4385.128205128206,4710.256410256411,4368.205128205129,4283.076923076924,4164.615384615385,4523.589743589744
179.66222,0.25953877,0.28765646,0.30954766,0.74224657,0,0.0,0.0,0.0,0.0,0.0,0,0,0.0,0.0,0,0,78.0,0.0,578.0,4657.435897435898,3935.3846153846157,4491.794871794872,4474.871794871796,4240.000000000001,4533.333333333334,4474.871794871796,4456.410256410257,4395.8974358974365,4724.102564102564,4372.307692307693,4291.794871794872,4183.076923076924,4532.307692307693
179.66222,0.25953877,0.28765646,0.30954766,0.74224657,0,0.0,0.0,0.0,0.0,0.0,0,0,0.0,0.0,0,0,78.0,0.0,578.0,4657.435897435898,3935.3846153846157,4491.794871794872,4474.871794871796,4240.000000000001,4533.333333333334,4474.871794871796,4456.410256410257,4395.8974358974365,4724.102564102564,4372.307692307693,4291.794871794872,4183.076923076924,4532.307692307693
180.16264,0.2598501,0.2805398,0.30858496,0.73004085,0,0.0,0.0,0.0,0.0,0.084735736,0,0,0.0,0.0,0,0,13.0,0.0,245.0,4672.820512820514,3942.564102564103,4499.48717948718,4491.282051282052,4232.820512820514,4534.871794871796,4477.948717948719,4455.384615384616,4382.564102564103,4704.615384615386,4367.179487179487,4289.2307692307695,4158.461538461539,4529.2307692307695
180.28775,0.2598501,0.2805398,0.30858496,0.73004085,0,0.0,0.0,0.0,0.0,0.0,0,0,0.0,0.0,0,0,29.0,0.0,0.0,4694.871794871796,3942.564102564103,4503.076923076924,4490.769230769231,4246.153846153847,4540.512820512821,4482.564102564103,4469.2307692307695,4402.051282051282,4720.512820512821,4376.410256410257,4296.923076923077,4175.384615384616,4536.410256410257
180.66307,0.2752503,0.28241298,0.31108522,0.7120313,0,0.0,0.0,0.0,0.0,0.0,0,0,0.0,0.0,0,0,77.0,0.0,245.0,4694.871794871796,3935.3846153846157,4496.923076923077,4488.205128205129,4234.358974358975,4529.2307692307695,4471.794871794872,4470.769230769231,4406.153846153847,4723.589743589744,4373.846153846154,4288.205128205129,4173.333333333334,4538.974358974359
180.66307,0.2752503,0.28241298,0.31108522,0.7120313,0,0.0,0.0,0.0,0.0,0.0,0,0,0.0,0.0,0,0,77.0,0.0,245.0,4694.871794871796,3935.3846153846157,4496.923076923077,4488.205128205129,4234.358974358975,4529.2307692307695,4471.794871794872,4470.769230769231,4406.153846153847,4723.589743589744,4373.846153846154,4288.205128205129,4173.333333333334,4538.974358974359
181.1635,0.26219252,0.275169,0.31333768,0.6958448,0,0.0,0.0,0.0,0.0,0.0,0,0,0.0,0.0,0,0,12.0,0.0,216.0,4700.512820512821,3942.564102564103,4501.025641025642,4497.435897435898,4251.282051282052,4540.000000000001,4475.8974358974365,4476.410256410257,4409.2307692307695,4740.000000000001,4383.589743589744,4291.282051282052,4203.589743589744,4531.282051282052
181.1635,0.26219252,0.275169,0.31333768,0.6958448,0,0.0,0.0,0.0,0.0,0.0,0,0,0.0,0.0,0,0,12.0,0.0,216.0,4700.512820512821,3942.564102564103,4501.025641025642,4497.435897435898,4251.282051282052,4540.000000000001,4475.8974358974365,4476.410256410257,4409.2307692307695,4740.000000000001,4383.589743589744,4291.282051282052,4203.589743589744,4531.282051282052
181.66393,0.26013198,0.26685172,0.31536683,0.68129146,0,0.0,0.0,0.0,0.0,0.0,0,0,0.0,0.0,0,0,76.0,0.0,216.0,4708.717948717949,3937.9487179487182,4503.589743589744,4491.794871794872,4254.358974358975,4538.974358974359,4493.846153846154,4478.974358974359,4408.717948717949,4723.589743589744,4379.48717948718,4281.538461538462,4183.589743589744,4525.128205128206
181.66393,0.26013198,0.26685172,0.31536683,0.68129146,0,0.0,0.0,0.0,0.0,0.0,0,0,0.0,0.0,0,0,76.0,0.0,216.0,4708.717948717949,3937.9487179487182,4503.589743589744,4491.794871794872,4254.358974358975,4538.974358974359,4493.846153846154,4478.974358974359,4408.717948717949,4723.589743589744,4379.48717948718,4281.538461538462,4183.589743589744,4525.128205128206
182.16437,0.25280562,0.26263413,0.31397843,0.68478566,0,0.0,0.0,0.0,0.0,0.0,0,0,0.0,0.0,0,0,11.0,0.0,337.0,4689.743589743591,3940.0000000000005,4498.974358974359,4490.256410256411,4249.2307692307695,4539.48717948718,4478.974358974359,4467.6923076923085,4397.948717948719,4730.769230769231,4375.384615384616,4281.538461538462,4185.128205128206,4523.076923076924
182.16437,0.25280562,0.26263413,0.31397843,0.68478566,0,0.0,0.0,0.0,0.0,0.0,0,0,0.0,0.0,0,0,11.0,0.0,337.0,4689.743589743591,3940.0000000000005,4498.974358974359,4490.256410256411,4249.2307692307695,4539.48717948718,4478.974358974359,4467.6923076923085,4397.948717948719,4730.769230769231,4375.384615384616,4281.538461538462,4185.128205128206,4523.076923076924
182.6648,0.24235503,0.25745595,0.30925918,0.71145105,0,0.0,0.0,0.0,0.0,0.0,0,0,0.0,0.0,0,0,75.0,0.0,337.0,4681.538461538462,3940.5128205128212,4497.435897435898,4486.153846153847,4245.641025641026,4540.512820512821,4475.384615384616,4467.179487179487,4399.48717948718,4734.871794871796,4377.948717948719,4278.974358974359,4201.538461538462,4534.871794871796
182.6648,0.24235503,0.25745595,0.30925918,0.71145105,0,0.0,0.0,0.0,0.0,0.0,0,0,0.0,0.0,0,0,75.0,0.0,337.0,4681.538461538462,3940.5128205128212,4497.435897435898,4486.153846153847,4245.641025641026,4540.512820512821,4475.384615384616,4467.179487179487,4399.48717948718,4734.871794871796,4377.948717948719,4278.974358974359,4201.538461538462,4534.871794871796
183.1965,0.24594672,0.26305467,0.30498537,0.73564154,0,0.0,0.0,0.0,0.0,0.9847663,0,0,0.0,0.0,0,0,14.0,0.0,578.0,4677.435897435898,3942.0512820512827,4509.2307692307695,4489.2307692307695,4261.538461538462,4550.256410256411,4491.794871794872,4476.923076923077,4411.794871794872,4730.769230769231,4378.974358974359,4270.256410256411,4185.641025641026,4537.948717948719
183.41544,0.24594672,0.26305467,0.30498537,0.73564154,0,0.0,0.0,0.0,0.0,0.09585756,0,0,0.0,0.0,0,0,42.0,0.0,0.0,4689.2307692307695,3946.1538461538466,4506.153846153847,4487.6923076923085,4249.74358974359,4548.205128205129,4490.769230769231,4468.205128205129,4402.051282051282,4721.538461538462,4378.974358974359,4277.435897435898,4183.589743589744,4544.615384615385
183.66565,0.23113492,0.2608926,0.30117184,0.75703955,0,0.0,0.0,0.0,0.0,0.0,0,0,0.0,0.0,0,0,74.0,0.0,578.0,4690.769230769231,3943.589743589744,4507.6923076923085,4481.538461538462,4250.256410256411,4539.48717948718,4494.358974358975,4479.48717948718,4411.794871794872,4745.128205128206,4385.641025641026,4278.461538461539,4202.564102564103,4550.256410256411
183.91586,0.23113492,0.2608926,0.30117184,0.75703955,0,0.0,0.0,0.0,0.0,0.043574173,0,0,0.0,0.0,0,0,106.0,0.0,578.0,4692.820512820514,3957.435897435898,4513.846153846154,4490.256410256411,4262.564102564103,4555.384615384616,4496.410256410257,4491.794871794872,4424.102564102564,4750.769230769231,4391.282051282052,4278.461538461539,4203.076923076924,4544.615384615385
184.16608,0.24498717,0.2568328,0.3009527,0.7597015,0,0.0,0.0,0.0,0.0,0.0,0,0,0.0,0.0,0,0,9.0,0.0,522.0,4680.000000000001,3941.0256410256416,4510.769230769231,4480.512820512821,4263.589743589744,4555.8974358974365,4507.6923076923085,4489.743589743591,4411.282051282052,4731.794871794872,4378.461538461539,4278.974358974359,4188.717948717949,4543.076923076924
184.16608,0.24498717,0.2568328,0.3009527,0.7597015,0,0.0,0.0,0.0,0.0,0.0,0,0,0.0,0.0,0,0,9.0,0.0,522.0,4680.000000000001,3941.0256410256416,4510.769230769231,4480.512820512821,4263.589743589744,4555.8974358974365,4507.6923076923085,4489.743589743591,4411.282051282052,4731.794871794872,4378.461538461539,4278.974358974359,4188.717948717949,4543.076923076924
184.6665,0.21689725,0.25258073,0.30422366,0.73864126,0,0.0,0.0,0.0,0.0,0.0,0,0,0.0,0.0,0,0,73.0,0.0,522.0,4685.128205128206,3936.410256410257,4498.461538461539,4478.461538461539,4256.923076923077,4552.307692307693,4491.794871794872,4487.6923076923085,4397.948717948719,4727.6923076923085,4388.717948717949,4261.538461538462,4197.948717948719,4541.538461538462
184.91673,0.21689725,0.25258073,0.30422366,0.73864126,0,0.0,0.0,0.0,0.0,0.0,0,0,0.29636484,0.0,0,0,105.0,0.0,245.0,4697.948717948719,3944.615384615385,4509.2307692307695,4489.2307692307695,4264.102564102564,4555.384615384616,4498.461538461539,4487.6923076923085,4413.333333333334,4738.974358974359,4393.846153846154,4277.435897435898,4206.153846153847,4549.2307692307695
185.16695,0.22450314,0.24808194,0.30717033,0.7197262,0,0.0,0.0,0.0,0.0,0.0,0,0,0.0,0.0,0,0,8.0,0.0,472.0,4681.538461538462,3940.0000000000005,4504.615384615385,4474.358974358975,4257.435897435898,4548.717948717949,4489.743589743591,4482.564102564103,4404.102564102564,4722.051282051282,4382.564102564103,4281.538461538462,4183.076923076924,4532.307692307693
185.41716,0.22450314,0.24808194,0.30717033,0.7197262,0,0.0,0.0,0.0,0.0,0.0,0,0,0.0,0.0,0,0,40.0,0.0,0.0,4676.923076923077,3942.0512820512827,4498.974358974359,4475.384615384616,4250.769230769231,4540.512820512821,4479.48717948718,4468.717948717949,4396.923076923077,4720.512820512821,4379.48717948718,4275.8974358974365,4185.128205128206,4530.769230769231
185.66737,0.20142275,0.24601638,0.30982488,0.7027291,0,0.0,0.0,0.0,0.0,0.0,0,0,0.0,0.0,0,0,72.0,0.0,472.0,4693.333333333334,3953.333333333334,4509.2307692307695,4483.076923076924,4249.74358974359,4543.076923076924,4489.2307692307695,4491.794871794872,4412.307692307693,4736.410256410257,4387.6923076923085,4284.102564102564,4209.74358974359,4538.461538461539
185.66737,0.20142275,0.24601638,0.30982488,0.7027291,0,0.0,0.0,0.0,0.0,0.0,0,0,0.0,0.0,0,0,72.0,0.0,472.0,4693.333333333334,3953.333333333334,4509.2307692307695,4483.076923076924,4249.74358974359,4543.076923076924,4489.2307692307695,4491.794871794872,4412.307692307693,4736.410256410257,4387.6923076923085,4284.102564102564,4209.74358974359,4538.461538461539
186.1678,0.19378665,0.24267992,0.31017616,0.70423687,0,0.0,0.0,0.0,0.0,0.0,0,0,0.0,0.0,0,0,7.0,0.0,489.0,4681.538461538462,3946.666666666667,4504.615384615385,4484.102564102564,4248.717948717949,4540.512820512821,4480.000000000001,4489.2307692307695,4394.871794871796,4724.615384615386,4382.564102564103,4295.384615384616,4190.256410256411,4540.000000000001
186.41801,0.19378665,0.24267992,0.31017616,0.70423687,0,0.0,0.0,0.0,0.0,0.08268303,0,0,0.0,0.0,0,0,39.0,0.0,0.0,4662.564102564103,3938.461538461539,4496.923076923077,4476.923076923077,4244.102564102564,4537.435897435898,4488.205128205129,4489.2307692307695,4395.384615384616,4728.717948717949,4386.153846153847,4295.384615384616,4198.974358974359,4538.974358974359
186.66823,0.20342033,0.24032554,0.30904794,0.7125666,0,0.0,0.0,0.0,0.0,0.22313666,0,0,0.0,0.0,0,0,71.0,0.0,489.0,4664.615384615386,3946.1538461538466,4503.076923076924,4474.871794871796,4246.153846153847,4536.410256410257,4490.256410256411,4495.384615384616,4408.205128205129,4743.076923076924,4388.205128205129,4304.102564102564,4195.384615384616,4552.307692307693
186.91844,0.20342033,0.24032554,0.30904794,0.7125666,0,0.0,0.0,0.0,0.0,0.10868621,0,0,0.0,0.0,0,0,103.0,0.0,337.0,4668.205128205129,3943.589743589744,4499.48717948718,4476.923076923077,4247.6923076923085,4540.000000000001,4493.846153846154,4494.871794871796,4410.256410256411,4727.179487179488,4382.051282051282,4297.948717948719,4188.205128205129,4545.641025641026
187.16866,0.20400935,0.23458777,0.30702943,0.72020775,0,0.0,0.0,0.0,0.0,0.04096818,0,0,0.0,0.0,0,0,6.0,0.0,562.0,4666.666666666667,3941.538461538462,4497.948717948719,4486.666666666667,4247.6923076923085,4540.000000000001,4476.923076923077,4468.205128205129,4386.153846153847,4727.6923076923085,4381.025641025642,4284.102564102564,4195.8974358974365,4555.8974358974365
187.41887,0.20400935,0.23458777,0.30702943,0.72020775,0,0.0,0.0,0.0,0.0,0.075651616,0,0,0.0,0.0,0,0,38.0,0.0,0.0,4684.615384615386,3942.0512820512827,4507.179487179488,4490.769230769231,4249.74358974359,4539.48717948718,4490.769230769231,4492.307692307693,4413.333333333334,4752.307692307693,4393.333333333334,4294.871794871796,4219.48717948718,4563.076923076924
187.6691,0.20915738,0.23728634,0.3034754,0.7344667,0,0.0,0.0,0.0,0.0,0.043438666,0,0,0.0,0.0,0,0,70.0,0.0,562.0,4681.538461538462,3945.1282051282055,4506.666666666667,4491.282051282052,4249.2307692307695,4541.538461538462,4487.179487179488,4477.948717948719,4396.923076923077,4729.743589743591,4380.512820512821,4294.358974358975,4204.615384615385,4563.076923076924
187.91931,0.20915738,0.23728634,0.3034754,0.7344667,0,0.0,0.0,0.0,0.0,0.69899374,0,0,0.0,0.0,0,0,102.0,0.0,578.0,4683.076923076924,3943.076923076924,4505.641025641026,4491.282051282052,4247.179487179487,4540.000000000001,4481.538461538462,4474.358974358975,4389.743589743591,4725.128205128206,4377.948717948719,4294.358974358975,4195.8974358974365,4561.025641025642
188.2008,0.18223938,0.24223301,0.3006606,0.7379457,0,0.0,0.0,0.0,0.0,1.0,0,0,0.0,0.0,0,0,9.0,0.0,523.0,4699.48717948718,3948.205128205129,4509.743589743591,4492.820512820514,4261.538461538462,4554.358974358975,4491.794871794872,4489.2307692307695,4414.358974358975,4750.256410256411,4389.2307692307695,4293.333333333334,4218.461538461539,4569.743589743591
188.41974,0.18223938,0.24223301,0.3006606,0.7379457,0,0.0,0.0,0.0,0.0,0.057421252,0,0,0.0,0.0,0,0,37.0,0.0,0.0,4686.666666666667,3952.820512820513,4509.743589743591,4494.358974358975,4259.48717948718,4554.871794871796,4494.358974358975,4481.025641025642,4404.102564102564,4735.8974358974365,4375.384615384616,4291.282051282052,4205.128205128206,4567.179487179488
188.66995,0.20128602,0.244214,0.30049822,0.7331588,0,0.0,0.0,0.0,0.0,0.07279025,0,0,0.0,0.0,0,0,69.0,0.0,578.0,4682.564102564103,3945.1282051282055,4506.153846153847,4491.794871794872,4250.769230769231,4550.256410256411,4491.282051282052,4475.8974358974365,4397.435897435898,4733.333333333334,4377.948717948719,4282.564102564103,4198.974358974359,4569.2307692307695
188.92017,0.20128602,0.244214,0.30049822,0.7331588,0,0.0,0.0,0.0,0.0,0.0,0,0,0.0,0.0,0,0,101.0,0.0,245.0,4687.179487179488,3942.564102564103,4508.717948717949,4489.2307692307695,4252.307692307693,4550.256410256411,4487.6923076923085,4475.384615384616,4402.051282051282,4728.205128205129,4391.282051282052,4281.025641025642,4198.974358974359,4571.282051282052
189.17038,0.19237728,0.24586555,0.30238053,0.72174853,0,0.0,0.0,0.0,0.0,0.0,0,0,0.0,0.0,0,0,4.0,0.0,577.0,4671.794871794872,3941.0256410256416,4502.564102564103,4473.333333333334,4245.128205128206,4538.974358974359,4478.974358974359,4477.435897435898,4389.2307692307695,4722.051282051282,4381.538461538462,4280.512820512821,4196.923076923077,4561.538461538462
189.17038,0.19237728,0.24586555,0.30238053,0.72174853,0,0.0,0.0,0.0,0.0,0.0,0,0,0.0,0.0,0,0,4.0,0.0,577.0,4671.794871794872,3941.0256410256416,4502.564102564103,4473.333333333334,4245.128205128206,4538.974358974359,4478.974358974359,4477.435897435898,4389.2307692307695,4722.051282051282,4381.538461538462,4280.512820512821,4196.923076923077,4561.538461538462
189.6708,0.17618732,0.23778534,0.30550668,0.7045931,0,0.0,0.0,0.0,0.0,0.0,0,0,0.0,0.0,0,0,68.0,0.0,577.0,4693.333333333334,3953.333333333334,4504.615384615385,4489.743589743591,4246.153846153847,4536.923076923077,4476.923076923077,4475.8974358974365,4396.923076923077,4734.871794871796,4393.333333333334,4285.641025641026,4190.256410256411,4554.871794871796
189.6708,0.17618732,0.23778534,0.30550668,0.7045931,0,0.0,0.0,0.0,0.0,0.0,0,0,0.0,0.0,0,0,68.0,0.0,577.0,4693.333333333334,3953.333333333334,4504.615384615385,4489.743589743591,4246.153846153847,4536.923076923077,4476.923076923077,4475.8974358974365,4396.923076923077,4734.871794871796,4393.333333333334,4285.641025641026,4190.256410256411,4554.871794871796
190.17125,0.18244076,0.23389691,0.30832285,0.68917125,0,0.0,0.0,0.0,0.0,0.14900738,0,0,0.0,0.0,0,0,3.0,0.0,564.0,4693.333333333334,3945.1282051282055,4501.025641025642,4486.153846153847,4236.410256410257,4539.48717948718,4478.461538461539,4462.051282051282,4396.923076923077,4724.102564102564,4389.743589743591,4281.025641025642,4196.923076923077,4550.769230769231
190.42146,0.18244076,0.23389691,0.30832285,0.68917125,0,0.0,0.0,0.0,0.0,0.0,0,0,0.0,0.0,0,0,35.0,0.0,0.0,4668.717948717949,3945.1282051282055,4502.051282051282,4497.948717948719,4234.358974358975,4537.948717948719,4474.358974358975,4451.282051282052,4383.076923076924,4703.589743589744,4375.8974358974365,4277.948717948719,4165.641025641026,4523.589743589744
190.67168,0.19159485,0.22866742,0.31085977,0.67530304,0,0.0,0.0,0.0,0.0,0.0,0,0,0.0,0.0,0,0,67.0,0.0,564.0,4660.000000000001,3943.076923076924,4501.538461538462,4491.282051282052,4244.102564102564,4538.974358974359,4468.205128205129,4448.205128205129,4379.48717948718,4706.666666666667,4386.666666666667,4278.974358974359,4172.820512820514,4522.564102564103
190.67168,0.19159485,0.22866742,0.31085977,0.67530304,0,0.0,0.0,0.0,0.0,0.0,0,0,0.0,0.0,0,0,67.0,0.0,564.0,4660.000000000001,3943.076923076924,4501.538461538462,4491.282051282052,4244.102564102564,4538.974358974359,4468.205128205129,4448.205128205129,4379.48717948718,4706.666666666667,4386.666666666667,4278.974358974359,4172.820512820514,4522.564102564103
191.1721,0.21572532,0.23209211,0.30849648,0.6837828,0,0.0,0.0,0.0,0.0,0.0,0,0,0.0,0.0,0,0,2.0,0.0,514.0,4701.025641025642,3956.9230769230776,4504.615384615385,4489.2307692307695,4240.000000000001,4538.461538461539,4476.410256410257,4453.333333333334,4393.333333333334,4740.512820512821,4397.435897435898,4284.615384615385,4215.384615384616,4546.666666666667
191.1721,0.21572532,0.23209211,0.30849648,0.6837828,0,0.0,0.0,0.0,0.0,0.0,0,0,0.0,0.0,0,0,2.0,0.0,514.0,4701.025641025642,3956.9230769230776,4504.615384615385,4489.2307692307695,4240.000000000001,4538.461538461539,4476.410256410257,4453.333333333334,4393.333333333334,4740.512820512821,4397.435897435898,4284.615384615385,4215.384615384616,4546.666666666667
191.67253,0.22747311,0.25426865,0.30320093,0.70182234,0,0.0,0.0,0.0,0.0,0.08793766,0,0,0.0,0.0,0,0,66.0,0.0,514.0,4651.282051282052,3948.205128205129,4504.615384615385,4485.641025641026,4248.205128205129,4540.512820512821,4470.769230769231,4446.666666666667,4369.2307692307695,4696.410256410257,4373.333333333334,4281.538461538462,4141.025641025642,4506.666666666667
191.92274,0.22747311,0.25426865,0.30320093,0.70182234,0,0.0,0.0,0.0,0.0,0.15516847,0,0,0.0,0.0,0,0,98.0,0.0,579.0,4651.794871794872,3955.8974358974365,4507.179487179488,4489.2307692307695,4256.410256410257,4554.358974358975,4480.000000000001,4466.153846153847,4394.358974358975,4717.435897435898,4376.923076923077,4274.871794871796,4156.410256410257,4510.769230769231
192.17296,0.23441051,0.2740985,0.29843798,0.71799594,0,0.0,0.0,0.0,0.0,0.15731357,0,0,0.0,0.0,0,0,1.0,0.0,466.0,4658.974358974359,3954.358974358975,4504.615384615385,4474.871794871796,4236.410256410257,4537.948717948719,4458.974358974359,4433.846153846154,4366.666666666667,4687.6923076923085,4375.8974358974365,4263.589743589744,4143.589743589744,4516.923076923077
