timestamp,excitement,frustration,meditation,engagementBoredom,blink,clench,laugh,smile,eyebrow,furrowBrow,lookLeft,lookRight,smirkLeft,smirkRight,winkLeft,winkRight,eeg0,eeg1,eeg2,eeg3,eeg4,eeg5,eeg6,eeg7,eeg8,eeg9,eeg10,eeg11,eeg12,eeg13,eeg14,eeg15,eeg16
970.9672,0.48995385,0.5969457,0.33333334,0.5522388,0,0.0,0.0,0.0,0.0,0.0,0,0,0.0,0.0,0,0,13.0,0.0,197.0,4656.923076923077,3945.1282051282055,4513.333333333334,4454.358974358975,4232.820512820514,4539.48717948718,4453.333333333334,4429.743589743591,4389.743589743591,4730.769230769231,4343.589743589744,4247.179487179487,4217.948717948719,4537.435897435898
970.9672,0.48995385,0.5969457,0.33333334,0.5522388,0,0.0,0.0,0.0,0.0,0.0,0,0,0.0,0.0,0,0,13.0,0.0,197.0,4656.923076923077,3945.1282051282055,4513.333333333334,4454.358974358975,4232.820512820514,4539.48717948718,4453.333333333334,4429.743589743591,4389.743589743591,4730.769230769231,4343.589743589744,4247.179487179487,4217.948717948719,4537.435897435898
971.37384,0.441306,0.5902267,0.33333334,0.5522388,0,0.0,0.0,0.0,0.0,0.0,0,0,0.0,0.0,0,0,65.0,0.0,461.0,4635.384615384616,3939.48717948718,4502.051282051282,4452.820512820514,4239.48717948718,4547.179487179488,4464.102564102564,4433.846153846154,4397.435897435898,4734.871794871796,4346.153846153847,4235.384615384616,4209.2307692307695,4520.512820512821
971.37384,0.441306,0.5902267,0.33333334,0.5522388,0,0.0,0.0,0.0,0.0,0.0,0,0,0.0,0.0,0,0,65.0,0.0,461.0,4635.384615384616,3939.48717948718,4502.051282051282,4452.820512820514,4239.48717948718,4547.179487179488,4464.102564102564,4433.846153846154,4397.435897435898,4734.871794871796,4346.153846153847,4235.384615384616,4209.2307692307695,4520.512820512821
971.87427,0.43089634,0.5893613,0.33333334,0.5522388,0,0.0,0.0,0.0,0.0,0.0,0,0,0.0,0.0,0,0,0.0,0.0,420.0,4652.307692307693,3945.1282051282055,4493.846153846154,4455.384615384616,4220.000000000001,4541.538461538462,4448.717948717949,4424.615384615385,4365.128205128206,4729.2307692307695,4345.128205128206,4234.358974358975,4169.2307692307695,4512.307692307693
971.87427,0.43089634,0.5893613,0.33333334,0.5522388,0,0.0,0.0,0.0,0.0,0.0,0,0,0.0,0.0,0,0,0.0,0.0,420.0,4652.307692307693,3945.1282051282055,4493.846153846154,4455.384615384616,4220.000000000001,4541.538461538462,4448.717948717949,4424.615384615385,4365.128205128206,4729.2307692307695,4345.128205128206,4234.358974358975,4169.2307692307695,4512.307692307693
972.3747,0.46545288,0.5908968,0.33333334,0.5522388,0,0.0,0.0,0.0,0.0,0.0,0,0,0.0,0.0,0,0,64.0,0.0,420.0,4674.358974358975,3929.7435897435903,4504.102564102564,4456.923076923077,4234.871794871796,4554.871794871796,4468.717948717949,4433.846153846154,4377.948717948719,4730.769230769231,4348.717948717949,4249.2307692307695,4201.025641025642,4524.102564102564
972.3747,0.46545288,0.5908968,0.33333334,0.5522388,0,0.0,0.0,0.0,0.0,0.0,0,0,0.0,0.0,0,0,64.0,0.0,420.0,4674.358974358975,3929.7435897435903,4504.102564102564,4456.923076923077,4234.871794871796,4554.871794871796,4468.717948717949,4433.846153846154,4377.948717948719,4730.769230769231,4348.717948717949,4249.2307692307695,4201.025641025642,4524.102564102564
972.8751,0.48470277,0.5975681,0.33333334,0.5522388,0,0.0,0.0,0.0,0.0,0.0,0,0,0.0,0.0,0,0,128.0,0.0,0.0,4660.512820512821,3920.5128205128212,4503.076923076924,4445.128205128206,4239.48717948718,4554.871794871796,4466.666666666667,4435.384615384616,4379.48717948718,4731.282051282052,4351.794871794872,4249.74358974359,4210.256410256411,4566.666666666667
972.8751,0.48470277,0.5975681,0.33333334,0.5522388,0,0.0,0.0,0.0,0.0,0.0,0,0,0.0,0.0,0,0,128.0,0.0,0.0,4660.512820512821,3920.5128205128212,4503.076923076924,4445.128205128206,4239.48717948718,4554.871794871796,4466.666666666667,4435.384615384616,4379.48717948718,4731.282051282052,4351.794871794872,4249.74358974359,4210.256410256411,4566.666666666667
973.4694,0.4396986,0.57187396,0.33333334,0.5522388,0,0.0,0.0,0.0,0.0,0.19463006,0,0,0.0,0.0,0,0,75.0,0.0,384.0,4655.8974358974365,3951.2820512820517,4511.794871794872,4452.820512820514,4244.102564102564,4536.410256410257,4450.256410256411,4452.307692307693,4404.615384615385,4734.871794871796,4350.769230769231,4287.6923076923085,4233.846153846154,4559.48717948718
973.7196,0.4396986,0.57187396,0.33333334,0.5522388,0,0.0,0.0,0.0,0.0,0.0,0,0,0.0,0.0,0,0,107.0,0.0,384.0,4650.769230769231,3938.461538461539,4502.051282051282,4446.153846153847,4236.923076923077,4532.307692307693,4436.923076923077,4410.256410256411,4364.102564102564,4695.384615384616,4352.307692307693,4281.025641025642,4176.410256410257,4527.6923076923085
973.876,0.4167845,0.55347914,0.33333334,0.5522388,0,0.0,0.0,0.0,0.0,0.0,0,0,0.0,0.0,0,0,127.0,0.0,384.0,4650.769230769231,3944.615384615385,4496.410256410257,4445.641025641026,4238.461538461539,4531.282051282052,4436.923076923077,4426.153846153847,4389.2307692307695,4721.025641025642,4351.282051282052,4287.6923076923085,4190.256410256411,4527.179487179488
973.876,0.4167845,0.55347914,0.33333334,0.5522388,0,0.0,0.0,0.0,0.0,0.0,0,0,0.0,0.0,0,0,127.0,0.0,384.0,4650.769230769231,3944.615384615385,4496.410256410257,4445.641025641026,4238.461538461539,4531.282051282052,4436.923076923077,4426.153846153847,4389.2307692307695,4721.025641025642,4351.282051282052,4287.6923076923085,4190.256410256411,4527.179487179488
974.3764,0.4187007,0.5370712,0.33333334,0.5522388,0,0.0,0.0,0.0,0.0,0.0,0,0,0.0,0.0,0,0,62.0,0.0,0.0,4668.717948717949,3942.0512820512827,4499.48717948718,4446.666666666667,4248.205128205129,4547.179487179488,4461.025641025642,4450.256410256411,4395.8974358974365,4736.923076923077,4353.333333333334,4292.820512820514,4223.076923076924,4517.948717948719
974.72046,0.4187007,0.5370712,0.33333334,0.5522388,0,0.0,0.0,0.0,0.0,0.0872773,0,0,0.0,0.0,0,0,106.0,0.0,593.0,4660.000000000001,3958.9743589743593,4512.307692307693,4456.923076923077,4253.846153846154,4552.307692307693,4455.384615384616,4427.6923076923085,4382.564102564103,4740.000000000001,4353.333333333334,4281.025641025642,4213.333333333334,4526.153846153847
974.9707,0.38609368,0.50784945,0.33333334,0.5522388,0,0.0,0.0,0.0,0.0,0.042622607,0,0,0.0,0.0,0,0,9.0,0.0,513.0,4642.051282051282,3938.461538461539,4507.6923076923085,4446.666666666667,4251.282051282052,4546.666666666667,4451.794871794872,4416.923076923077,4378.461538461539,4717.948717948719,4348.717948717949,4278.461538461539,4178.974358974359,4517.948717948719
975.2209,0.38609368,0.50784945,0.33333334,0.5522388,0,0.0,0.0,0.0,0.0,0.0,0,0,0.0,0.0,0,0,41.0,0.0,0.0,4635.8974358974365,3944.1025641025644,4499.48717948718,4445.641025641026,4249.74358974359,4545.128205128206,4453.333333333334,4424.615384615385,4381.025641025642,4720.512820512821,4353.333333333334,4273.333333333334,4171.794871794872,4517.435897435898
975.37726,0.35815337,0.50681514,0.33333334,0.5522388,0,0.0,0.0,0.0,0.0,0.0,0,0,0.0,0.0,0,0,61.0,0.0,0.0,4624.102564102564,3945.6410256410263,4496.923076923077,4443.589743589744,4249.2307692307695,4540.000000000001,4460.512820512821,4437.948717948719,4402.051282051282,4738.974358974359,4355.384615384616,4269.2307692307695,4197.435897435898,4513.846153846154
975.37726,0.35815337,0.50681514,0.33333334,0.5522388,0,0.0,0.0,0.0,0.0,0.0,0,0,0.0,0.0,0,0,61.0,0.0,0.0,4624.102564102564,3945.6410256410263,4496.923076923077,4443.589743589744,4249.2307692307695,4540.000000000001,4460.512820512821,4437.948717948719,4402.051282051282,4738.974358974359,4355.384615384616,4269.2307692307695,4197.435897435898,4513.846153846154
975.8777,0.35700113,0.494914,0.33333334,0.5522388,0,0.0,0.0,0.0,0.0,0.0,0,0,0.0,0.0,0,0,125.0,0.0,195.0,4634.871794871796,3943.076923076924,4504.102564102564,4446.666666666667,4254.871794871796,4546.666666666667,4470.769230769231,4455.384615384616,4405.128205128206,4752.307692307693,4346.666666666667,4274.358974358975,4183.076923076924,4530.769230769231
975.8777,0.35700113,0.494914,0.33333334,0.5522388,0,0.0,0.0,0.0,0.0,0.0,0,0,0.0,0.0,0,0,125.0,0.0,195.0,4634.871794871796,3943.076923076924,4504.102564102564,4446.666666666667,4254.871794871796,4546.666666666667,4470.769230769231,4455.384615384616,4405.128205128206,4752.307692307693,4346.666666666667,4274.358974358975,4183.076923076924,4530.769230769231
976.3781,0.31940958,0.4945227,0.33333334,0.5522388,0,0.0,0.0,0.0,0.0,0.0,0,0,0.0,0.0,0,0,60.0,0.0,0.0,4633.333333333334,3942.564102564103,4500.000000000001,4443.589743589744,4240.000000000001,4539.48717948718,4444.615384615385,4439.48717948718,4399.48717948718,4737.948717948719,4348.717948717949,4263.076923076924,4174.358974358975,4525.641025641026
976.3781,0.31940958,0.4945227,0.33333334,0.5522388,0,0.0,0.0,0.0,0.0,0.0,0,0,0.0,0.0,0,0,60.0,0.0,0.0,4633.333333333334,3942.564102564103,4500.000000000001,4443.589743589744,4240.000000000001,4539.48717948718,4444.615384615385,4439.48717948718,4399.48717948718,4737.948717948719,4348.717948717949,4263.076923076924,4174.358974358975,4525.641025641026
976.9724,0.2799504,0.5329601,0.33333334,0.5522388,0,0.0,0.0,0.0,0.0,0.16356616,0,0,0.0,0.0,0,0,7.0,0.0,497.0,4650.256410256411,3950.7692307692314,4510.769230769231,4452.820512820514,4257.435897435898,4550.769230769231,4449.743589743591,4434.871794871796,4396.410256410257,4714.358974358975,4350.256410256411,4265.641025641026,4168.717948717949,4543.589743589744
977.2226,0.2799504,0.5329601,0.33333334,0.5522388,0,0.0,0.0,0.0,0.0,0.2402702,0,0,0.0,0.0,0,0,39.0,0.0,0.0,4625.641025641026,3939.48717948718,4503.589743589744,4445.641025641026,4262.564102564103,4553.846153846154,4479.48717948718,4468.717948717949,4406.666666666667,4731.794871794872,4350.256410256411,4277.435897435898,4180.000000000001,4531.282051282052
977.47284,0.23545487,0.5613439,0.33333334,0.5522388,0,0.0,0.0,0.0,0.0,0.13213497,0,0,0.0,0.0,0,0,71.0,0.0,497.0,4626.153846153847,3943.076923076924,4506.153846153847,4448.205128205129,4255.384615384616,4550.769230769231,4455.384615384616,4455.384615384616,4405.641025641026,4736.410256410257,4347.6923076923085,4286.666666666667,4191.794871794872,4534.358974358975
977.723,0.23545487,0.5613439,0.33333334,0.5522388,0,0.0,0.0,0.0,0.0,0.17452177,0,0,0.0,0.0,0,0,103.0,0.0,384.0,4651.282051282052,3958.9743589743593,4515.384615384616,4453.333333333334,4248.205128205129,4543.589743589744,4463.589743589744,4452.307692307693,4402.564102564103,4730.769230769231,4354.358974358975,4295.384615384616,4197.435897435898,4549.743589743591
977.97327,0.17042354,0.65028733,0.33333334,0.5522388,0,0.0,0.0,0.0,0.0,0.10846903,0,0,0.0,0.0,0,0,6.0,0.0,583.0,4656.410256410257,3947.1794871794878,4508.205128205129,4449.743589743591,4242.564102564103,4536.923076923077,4444.102564102564,4424.615384615385,4382.051282051282,4719.48717948718,4351.794871794872,4286.666666666667,4188.717948717949,4543.076923076924
978.22345,0.17042354,0.65028733,0.33333334,0.5522388,0,0.0,0.0,0.0,0.0,0.07186568,0,0,0.0,0.0,0,0,38.0,0.0,0.0,4630.769230769231,3923.076923076924,4506.666666666667,4444.102564102564,4225.641025641026,4548.717948717949,4461.538461538462,4455.8974358974365,4412.820512820514,4748.717948717949,4353.333333333334,4282.564102564103,4202.051282051282,4536.923076923077
978.4737,0.13389221,0.6952772,0.33333334,0.5522388,0,0.0,0.0,0.0,0.0,0.0,0,0,0.0,0.0,0,0,70.0,0.0,583.0,4661.025641025642,3941.0256410256416,4513.846153846154,4448.205128205129,4232.307692307693,4552.307692307693,4469.743589743591,4438.974358974359,4386.153846153847,4731.282051282052,4352.820512820514,4290.769230769231,4193.846153846154,4540.000000000001
978.4737,0.13389221,0.6952772,0.33333334,0.5522388,0,0.0,0.0,0.0,0.0,0.0,0,0,0.0,0.0,0,0,70.0,0.0,583.0,4661.025641025642,3941.0256410256416,4513.846153846154,4448.205128205129,4232.307692307693,4552.307692307693,4469.743589743591,4438.974358974359,4386.153846153847,4731.282051282052,4352.820512820514,4290.769230769231,4193.846153846154,4540.000000000001
978.8803,0.13681486,0.696686,0.33333334,0.5522388,0,0.0,0.0,0.0,0.0,0.0,0,0,0.0,0.0,0,0,122.0,0.0,593.0,4650.256410256411,3946.1538461538466,4502.564102564103,4445.641025641026,4225.641025641026,4542.051282051282,4457.435897435898,4440.000000000001,4382.564102564103,4738.974358974359,4348.717948717949,4278.461538461539,4205.128205128206,4544.615384615385
978.8803,0.13681486,0.696686,0.33333334,0.5522388,0,0.0,0.0,0.0,0.0,0.0,0,0,0.0,0.0,0,0,122.0,0.0,593.0,4650.256410256411,3946.1538461538466,4502.564102564103,4445.641025641026,4225.641025641026,4542.051282051282,4457.435897435898,4440.000000000001,4382.564102564103,4738.974358974359,4348.717948717949,4278.461538461539,4205.128205128206,4544.615384615385
979.47455,0.13740948,0.6978457,0.33333334,0.5522388,0,0.0,0.0,0.0,0.0,0.5401644,0,0,0.0,0.0,0,0,69.0,0.0,582.0,4620.000000000001,3950.7692307692314,4491.282051282052,4443.076923076924,4231.282051282052,4538.974358974359,4441.025641025642,4425.641025641026,4376.410256410257,4698.974358974359,4346.666666666667,4247.179487179487,4150.256410256411,4478.461538461539
979.7248,0.13740948,0.6978457,0.33333334,0.5522388,0,0.0,0.0,0.0,0.0,0.3175373,0,0,0.0,0.0,0,0,101.0,0.0,195.0,4643.076923076924,3958.461538461539,4506.153846153847,4456.410256410257,4249.2307692307695,4549.743589743591,4476.923076923077,4477.435897435898,4417.948717948719,4749.743589743591,4349.743589743591,4265.128205128206,4207.179487179487,4536.923076923077
979.975,0.22601354,0.66884047,0.33333334,0.5522388,0,0.0,0.0,0.0,0.0,0.14973888,0,0,0.0,0.0,0,0,4.0,0.0,587.0,4648.205128205129,3975.8974358974365,4511.794871794872,4468.205128205129,4255.384615384616,4554.358974358975,4468.717948717949,4469.743589743591,4415.8974358974365,4737.948717948719,4351.794871794872,4264.615384615385,4215.384615384616,4553.846153846154
980.2252,0.22601354,0.66884047,0.33333334,0.5522388,1,0.0,0.0,0.0,0.0,0.17505184,0,0,0.0,0.0,0,0,36.0,0.0,0.0,4670.769230769231,3960.0000000000005,4510.256410256411,4459.48717948718,4251.794871794872,4548.717948717949,4491.282051282052,4489.743589743591,4432.820512820514,4764.615384615386,4355.384615384616,4281.538461538462,4263.076923076924,4576.923076923077
980.4754,0.2463692,0.67495525,0.33333334,0.5522388,0,0.0,0.0,0.19529334,0.0,0.0,0,0,0.0,0.0,0,0,68.0,0.0,587.0,4635.8974358974365,3963.076923076924,4507.179487179488,4460.512820512821,4247.6923076923085,4540.000000000001,4473.333333333334,4445.128205128206,4393.333333333334,4700.512820512821,4352.307692307693,4268.717948717949,4173.333333333334,4555.384615384616
980.72565,0.2463692,0.67495525,0.33333334,0.5522388,0,0.0,0.0,0.0,0.0,0.06511181,0,0,0.0,0.0,0,0,100.0,0.0,0.0,4614.871794871796,3953.333333333334,4490.769230769231,4444.615384615385,4213.846153846154,4520.512820512821,4445.641025641026,4430.256410256411,4394.358974358975,4695.384615384616,4349.2307692307695,4260.512820512821,4164.102564102564,4533.333333333334
980.9758,0.29447204,0.68653786,0.33333334,0.5522388,0,0.0,0.0,0.0,0.0,0.10582461,0,0,0.0,0.0,0,0,3.0,0.0,568.0,4724.102564102564,4012.307692307693,4518.974358974359,4474.358974358975,4215.8974358974365,4526.666666666667,4429.743589743591,4401.538461538462,4371.282051282052,4711.794871794872,4353.333333333334,4286.153846153847,4257.435897435898,4594.358974358975
981.2261,0.29447204,0.68653786,0.33333334,0.5522388,0,0.0,0.0,0.0,0.0,0.10263921,0,0,0.0,0.0,0,1,35.0,0.0,0.0,4638.974358974359,3942.564102564103,4505.641025641026,4453.846153846154,4232.307692307693,4542.564102564103,4490.256410256411,4472.820512820514,4415.384615384616,4744.102564102564,4352.820512820514,4263.076923076924,4224.102564102564,4569.2307692307695
981.47626,0.34644273,0.7372234,0.33333334,0.5522388,0,0.0,0.0,0.0,0.0,0.11758149,0,0,0.0,0.0,0,0,67.0,0.0,568.0,4619.48717948718,3940.0000000000005,4501.025641025642,4447.6923076923085,4224.102564102564,4540.512820512821,4458.461538461539,4431.282051282052,4391.794871794872,4723.589743589744,4346.153846153847,4263.589743589744,4181.538461538462,4539.48717948718
981.7265,0.34644273,0.7372234,0.33333334,0.5522388,0,0.0,0.0,0.0,0.0,0.08511424,0,0,0.0,0.0,0,0,99.0,0.0,384.0,4589.743589743591,3933.8461538461543,4489.2307692307695,4442.564102564103,4218.461538461539,4531.282051282052,4444.615384615385,4404.102564102564,4369.743589743591,4693.846153846154,4347.6923076923085,4264.615384615385,4164.615384615385,4521.538461538462
981.9767,0.3733002,0.78087544,0.33333334,0.5522388,0,0.0,0.0,0.0,0.0,0.11965321,0,0,0.0,0.0,0,0,2.0,0.0,524.0,4630.769230769231,3943.076923076924,4493.846153846154,4443.589743589744,4228.717948717949,4535.384615384616,4452.820512820514,4427.179487179487,4368.717948717949,4681.025641025642,4349.743589743591,4278.461538461539,4181.538461538462,4520.512820512821
982.1018,0.3733002,0.78087544,0.33333334,0.5522388,0,0.0,0.0,0.0,0.0,0.0,0,0,0.0,0.0,0,0,18.0,0.0,0.0,4618.974358974359,3927.1794871794878,4500.512820512821,4442.051282051282,4235.384615384616,4540.512820512821,4460.512820512821,4455.384615384616,4387.179487179487,4708.205128205129,4351.282051282052,4268.205128205129,4187.6923076923085,4548.205128205129
982.3833,0.4117953,0.8070896,0.33333334,0.5522388,0,0.0,0.0,0.0,0.0,0.0,0,0,0.0,0.0,0,0,54.0,0.0,0.0,4608.205128205129,3941.538461538462,4491.282051282052,4442.564102564103,4242.564102564103,4535.384615384616,4453.333333333334,4440.512820512821,4391.282051282052,4711.794871794872,4349.743589743591,4260.512820512821,4192.820512820514,4549.2307692307695
982.72736,0.4117953,0.8070896,0.33333334,0.5522388,0,0.0,0.0,0.0,0.0,0.26673806,0,0,0.0,0.0,0,0,98.0,0.0,593.0,4665.128205128206,3947.692307692308,4508.205128205129,4450.769230769231,4248.717948717949,4541.025641025642,4459.48717948718,4460.000000000001,4409.2307692307695,4736.923076923077,4355.8974358974365,4262.564102564103,4245.128205128206,4568.717948717949
982.97754,0.39533377,0.84878504,0.33333334,0.5522388,0,0.0,0.0,0.0,0.0,0.10579473,0,0,0.0,0.0,0,0,1.0,0.0,461.0,4630.769230769231,3944.615384615385,4505.641025641026,4448.205128205129,4243.589743589744,4542.564102564103,4474.871794871796,4455.8974358974365,4405.641025641026,4736.410256410257,4355.8974358974365,4250.256410256411,4211.794871794872,4545.128205128206
983.2278,0.39533377,0.84878504,0.33333334,0.5522388,0,0.0,0.0,0.0,0.0,0.07697981,0,0,0.0,0.0,0,0,33.0,0.0,0.0,4632.307692307693,3932.307692307693,4494.871794871796,4443.589743589744,4227.179487179487,4536.410256410257,4450.256410256411,4435.8974358974365,4390.256410256411,4725.128205128206,4348.717948717949,4251.794871794872,4175.8974358974365,4508.205128205129
983.47797,0.3745473,0.8353731,0.33333334,0.5522388,0,0.0,0.0,0.0,0.0,0.0,0,0,0.0,0.0,0,0,65.0,0.0,461.0,4630.769230769231,3922.0512820512827,4495.8974358974365,4438.461538461539,4230.256410256411,4539.48717948718,4445.128205128206,4424.615384615385,4380.000000000001,4710.256410256411,4342.564102564103,4247.179487179487,4189.2307692307695,4518.974358974359
983.47797,0.3745473,0.8353731,0.33333334,0.5522388,0,0.0,0.0,0.0,0.0,0.0,0,0,0.0,0.0,0,0,65.0,0.0,461.0,4630.769230769231,3922.0512820512827,4495.8974358974365,4438.461538461539,4230.256410256411,4539.48717948718,4445.128205128206,4424.615384615385,4380.000000000001,4710.256410256411,4342.564102564103,4247.179487179487,4189.2307692307695,4518.974358974359
983.9784,0.36205488,0.8331856,0.33333334,0.5522388,0,0.0,0.0,0.0,0.0,0.18241183,0,0,0.0,0.0,0,0,0.0,0.0,420.0,4667.179487179488,3945.6410256410263,4507.179487179488,4447.6923076923085,4218.461538461539,4538.974358974359,4441.538461538462,4422.051282051282,4370.769230769231,4721.538461538462,4351.282051282052,4267.179487179487,4195.384615384616,4528.717948717949
984.1035,0.36205488,0.8331856,0.33333334,0.5522388,0,0.0,0.0,0.0,0.0,0.0,0,0,0.0,0.0,0,0,16.0,0.0,0.0,4648.205128205129,3924.1025641025644,4501.025641025642,4441.538461538462,4233.333333333334,4541.025641025642,4458.974358974359,4451.282051282052,4396.923076923077,4726.153846153847,4353.846153846154,4269.2307692307695,4203.589743589744,4530.256410256411
984.4789,0.33892587,0.8167898,0.33333334,0.5522388,0,0.0,0.0,0.0,0.0,0.12806104,0,0,0.0,0.0,0,0,64.0,0.0,420.0,4627.6923076923085,3922.0512820512827,4494.871794871796,4439.48717948718,4222.051282051282,4537.435897435898,4435.384615384616,4423.589743589744,4388.717948717949,4797.948717948719,4354.358974358975,4266.666666666667,4507.6923076923085,4520.000000000001
984.72906,0.33892587,0.8167898,0.33333334,0.5522388,0,0.0,0.0,0.0,0.0,0.10092638,0,0,0.0,0.0,0,0,96.0,0.0,0.0,4651.794871794872,3941.538461538462,4506.666666666667,4446.153846153847,4237.435897435898,4543.589743589744,4440.512820512821,4429.743589743591,4389.743589743591,4765.128205128206,4356.410256410257,4282.051282051282,4249.74358974359,4535.8974358974365
984.9793,0.3383698,0.7865906,0.33333334,0.5522388,0,0.0,0.0,0.0,0.0,0.14190024,0,0,0.0,0.0,0,0,128.0,0.0,0.0,4624.615384615385,3941.0256410256416,4507.179487179488,4446.153846153847,4237.948717948719,4540.512820512821,4437.435897435898,4427.179487179487,4377.435897435898,4711.794871794872,4354.871794871796,4278.974358974359,4060.5128205128212,4530.769230769231
985.2295,0.3383698,0.7865906,0.33333334,0.5522388,0,0.0,0.0,0.0,0.0,0.04489885,0,0,0.0,0.0,0,0,31.0,0.0,0.0,4623.589743589744,3944.1025641025644,4505.128205128206,4447.6923076923085,4241.538461538462,4547.179487179488,4443.589743589744,4445.128205128206,4375.8974358974365,4707.179487179488,4356.923076923077,4286.153846153847,4079.48717948718,4518.974358974359
985.47974,0.36251128,0.7666284,0.33333334,0.5522388,0,0.0,0.0,0.0,0.0,0.17242862,0,0,0.0,0.0,0,0,63.0,0.0,0.0,4620.512820512821,3949.7435897435903,4506.153846153847,4445.641025641026,4240.000000000001,4542.051282051282,4445.128205128206,4429.2307692307695,4378.461538461539,4704.615384615386,4354.358974358975,4281.538461538462,4100.512820512821,4511.794871794872
985.6048,0.36251128,0.7666284,0.33333334,0.5522388,0,0.0,0.0,0.0,0.0,0.0,0,0,0.0,0.0,0,0,79.0,0.0,384.0,4604.102564102564,3926.1538461538466,4500.512820512821,4443.589743589744,4248.717948717949,4554.358974358975,4447.179487179487,4432.820512820514,4379.48717948718,4700.000000000001,4355.8974358974365,4266.153846153847,4102.564102564103,4500.512820512821
985.8863,0.41261417,0.74964046,0.33333334,0.5522388,0,0.0,0.0,0.0,0.0,0.0,0,0,0.0,0.0,0,0,115.0,0.0,384.0,4632.307692307693,3942.564102564103,4504.102564102564,4448.717948717949,4243.589743589744,4550.769230769231,4448.717948717949,4465.128205128206,4397.948717948719,4726.153846153847,4358.974358974359,4281.538461538462,4145.128205128206,4491.282051282052
985.8863,0.41261417,0.74964046,0.33333334,0.5522388,0,0.0,0.0,0.0,0.0,0.0,0,0,0.0,0.0,0,0,115.0,0.0,384.0,4632.307692307693,3942.564102564103,4504.102564102564,4448.717948717949,4243.589743589744,4550.769230769231,4448.717948717949,4465.128205128206,4397.948717948719,4726.153846153847,4358.974358974359,4281.538461538462,4145.128205128206,4491.282051282052
986.3867,0.35377952,0.73513615,0.33333334,0.5522388,0,0.0,0.0,0.0,0.0,0.0,0,0,0.0,0.0,0,0,50.0,0.0,0.0,4626.666666666667,3943.076923076924,4504.102564102564,4445.641025641026,4236.923076923077,4541.025641025642,4440.512820512821,4435.8974358974365,4383.076923076924,4704.615384615386,4357.435897435898,4248.205128205129,4141.538461538462,4475.384615384616
986.3867,0.35377952,0.73513615,0.33333334,0.5522388,0,0.0,0.0,0.0,0.0,0.0,0,0,0.0,0.0,0,0,50.0,0.0,0.0,4626.666666666667,3943.076923076924,4504.102564102564,4445.641025641026,4236.923076923077,4541.025641025642,4440.512820512821,4435.8974358974365,4383.076923076924,4704.615384615386,4357.435897435898,4248.205128205129,4141.538461538462,4475.384615384616
986.88715,0.341346,0.7241998,0.33333334,0.5522388,0,0.0,0.0,0.0,0.0,0.0,0,0,0.0,0.0,0,0,114.0,0.0,589.0,4669.743589743591,3958.9743589743593,4518.461538461539,4459.48717948718,4250.256410256411,4556.923076923077,4452.307692307693,4429.743589743591,4376.410256410257,4723.076923076924,4356.923076923077,4249.2307692307695,4184.615384615385,4502.564102564103
987.2312,0.341346,0.7241998,0.33333334,0.5522388,0,0.0,0.0,0.0,0.0,0.066539586,0,0,0.0,0.0,0,0,29.0,0.0,0.0,4645.641025641026,3940.5128205128212,4509.2307692307695,4458.974358974359,4254.871794871796,4554.358974358975,4456.923076923077,4437.435897435898,4380.512820512821,4731.794871794872,4358.461538461539,4240.512820512821,4153.846153846154,4480.000000000001
987.3876,0.2874169,0.72565985,0.33333334,0.5522388,0,0.0,0.0,0.0,0.0,0.0,0,0,0.0,0.0,0,0,49.0,0.0,0.0,4676.923076923077,3960.0000000000005,4527.6923076923085,4470.769230769231,4266.666666666667,4567.179487179488,4467.6923076923085,4492.820512820514,4441.025641025642,4804.102564102564,4361.538461538462,4258.974358974359,4224.102564102564,4521.538461538462
987.3876,0.2874169,0.72565985,0.33333334,0.5522388,0,0.0,0.0,0.0,0.0,0.0,0,0,0.0,0.0,0,0,49.0,0.0,0.0,4676.923076923077,3960.0000000000005,4527.6923076923085,4470.769230769231,4266.666666666667,4567.179487179488,4467.6923076923085,4492.820512820514,4441.025641025642,4804.102564102564,4361.538461538462,4258.974358974359,4224.102564102564,4521.538461538462
987.88806,0.33592966,0.73111206,0.33333334,0.5522388,0,0.0,0.0,0.0,0.0,0.0,0,0,0.0,0.0,0,0,113.0,0.0,193.0,4679.48717948718,3958.461538461539,4521.538461538462,4459.48717948718,4250.769230769231,4553.846153846154,4458.974358974359,4459.48717948718,4406.153846153847,4760.512820512821,4358.974358974359,4251.794871794872,4210.256410256411,4515.384615384616
988.23206,0.33592966,0.73111206,0.33333334,0.5522388,0,0.0,0.0,0.0,0.0,0.06654844,0,0,0.0,0.0,0,0,28.0,0.0,0.0,4658.461538461539,3957.9487179487182,4501.538461538462,4447.6923076923085,4235.384615384616,4535.8974358974365,4435.8974358974365,4408.717948717949,4369.2307692307695,4721.025641025642,4359.48717948718,4247.179487179487,4167.6923076923085,4504.615384615385
988.3885,0.34671026,0.75752836,0.33333334,0.5522388,0,0.0,0.0,0.0,0.0,0.0,0,0,0.0,0.0,0,0,48.0,0.0,0.0,4658.461538461539,3941.0256410256416,4504.615384615385,4445.128205128206,4236.410256410257,4539.48717948718,4453.333333333334,4436.923076923077,4395.384615384616,4736.923076923077,4360.000000000001,4249.2307692307695,4188.717948717949,4505.128205128206
988.3885,0.34671026,0.75752836,0.33333334,0.5522388,0,0.0,0.0,0.0,0.0,0.0,0,0,0.0,0.0,0,0,48.0,0.0,0.0,4658.461538461539,3941.0256410256416,4504.615384615385,4445.128205128206,4236.410256410257,4539.48717948718,4453.333333333334,4436.923076923077,4395.384615384616,4736.923076923077,4360.000000000001,4249.2307692307695,4188.717948717949,4505.128205128206
988.8889,0.30921745,0.75389886,0.33333334,0.5522388,0,0.0,0.0,0.0,0.0,0.0,0,0,0.0,0.0,0,0,112.0,0.0,0.0,4646.666666666667,3945.6410256410263,4502.051282051282,4445.128205128206,4235.384615384616,4539.48717948718,4447.6923076923085,4423.076923076924,4376.923076923077,4732.820512820514,4356.923076923077,4248.205128205129,4160.000000000001,4494.871794871796
988.8889,0.30921745,0.75389886,0.33333334,0.5522388,0,0.0,0.0,0.0,0.0,0.0,0,0,0.0,0.0,0,0,112.0,0.0,0.0,4646.666666666667,3945.6410256410263,4502.051282051282,4445.128205128206,4235.384615384616,4539.48717948718,4447.6923076923085,4423.076923076924,4376.923076923077,4732.820512820514,4356.923076923077,4248.205128205129,4160.000000000001,4494.871794871796
989.38934,0.27803072,0.7216122,0.33333334,0.5522388,0,0.0,0.0,0.0,0.0,0.0,0,0,0.0,0.0,0,0,47.0,0.0,0.0,4649.743589743591,3943.589743589744,4504.615384615385,4445.641025641026,4238.461538461539,4540.512820512821,4441.538461538462,4435.384615384616,4384.102564102564,4730.769230769231,4359.48717948718,4248.205128205129,4184.615384615385,4504.102564102564
989.38934,0.27803072,0.7216122,0.33333334,0.5522388,0,0.0,0.0,0.0,0.0,0.0,0,0,0.0,0.0,0,0,47.0,0.0,0.0,4649.743589743591,3943.589743589744,4504.615384615385,4445.641025641026,4238.461538461539,4540.512820512821,4441.538461538462,4435.384615384616,4384.102564102564,4730.769230769231,4359.48717948718,4248.205128205129,4184.615384615385,4504.102564102564
989.8898,0.26647216,0.7010874,0.33333334,0.5522388,0,0.0,0.0,0.0,0.0,0.0,0,0,0.0,0.0,0,0,111.0,0.0,384.0,4647.6923076923085,3942.0512820512827,4500.512820512821,4455.384615384616,4245.641025641026,4546.666666666667,4452.820512820514,4439.48717948718,4385.128205128206,4717.435897435898,4357.435897435898,4231.794871794872,4168.717948717949,4493.333333333334
989.8898,0.26647216,0.7010874,0.33333334,0.5522388,0,0.0,0.0,0.0,0.0,0.0,0,0,0.0,0.0,0,0,111.0,0.0,384.0,4647.6923076923085,3942.0512820512827,4500.512820512821,4455.384615384616,4245.641025641026,4546.666666666667,4452.820512820514,4439.48717948718,4385.128205128206,4717.435897435898,4357.435897435898,4231.794871794872,4168.717948717949,4493.333333333334
990.3902,0.25228077,0.66201633,0.33333334,0.5522388,0,0.0,0.0,0.0,0.0,0.0,0,0,0.0,0.0,0,0,46.0,0.0,0.0,4644.102564102564,3960.5128205128212,4504.615384615385,4463.076923076924,4246.666666666667,4553.846153846154,4457.948717948719,4422.564102564103,4368.205128205129,4709.743589743591,4355.8974358974365,4217.435897435898,4126.153846153847,4493.846153846154
990.3902,0.25228077,0.66201633,0.33333334,0.5522388,0,0.0,0.0,0.0,0.0,0.0,0,0,0.0,0.0,0,0,46.0,0.0,0.0,4644.102564102564,3960.5128205128212,4504.615384615385,4463.076923076924,4246.666666666667,4553.846153846154,4457.948717948719,4422.564102564103,4368.205128205129,4709.743589743591,4355.8974358974365,4217.435897435898,4126.153846153847,4493.846153846154
990.98444,0.21372971,0.6394466,0.33333334,0.5522388,0,0.0,0.0,0.0,0.0,0.14374737,0,0,0.0,0.0,0,0,122.0,0.0,590.0,4634.871794871796,3945.1282051282055,4494.871794871796,4454.871794871796,4238.461538461539,4542.051282051282,4445.128205128206,4430.256410256411,4377.435897435898,4719.48717948718,4355.8974358974365,4215.8974358974365,4150.256410256411,4498.461538461539
991.10956,0.21372971,0.6394466,0.33333334,0.5522388,0,0.0,0.0,0.0,0.0,0.0,0,0,0.0,0.0,0,0,9.0,0.0,512.0,4621.025641025642,3943.076923076924,4497.948717948719,4456.410256410257,4234.358974358975,4540.512820512821,4445.128205128206,4432.820512820514,4380.512820512821,4720.512820512821,4355.8974358974365,4217.435897435898,4164.615384615385,4473.333333333334
991.39105,0.20998526,0.62305635,0.33333334,0.5522388,0,0.0,0.0,0.0,0.0,0.0,0,0,0.0,0.0,0,0,45.0,0.0,0.0,4643.076923076924,3946.666666666667,4504.102564102564,4459.48717948718,4235.8974358974365,4538.974358974359,4452.820512820514,4446.153846153847,4393.846153846154,4746.666666666667,4355.384615384616,4232.307692307693,4192.820512820514,4496.923076923077
991.39105,0.20998526,0.62305635,0.33333334,0.5522388,0,0.0,0.0,0.0,0.0,0.0,0,0,0.0,0.0,0,0,45.0,0.0,0.0,4643.076923076924,3946.666666666667,4504.102564102564,4459.48717948718,4235.8974358974365,4538.974358974359,4452.820512820514,4446.153846153847,4393.846153846154,4746.666666666667,4355.384615384616,4232.307692307693,4192.820512820514,4496.923076923077
991.8915,0.18767503,0.60000944,0.33333334,0.5522388,0,0.0,0.0,0.0,0.0,0.0,0,0,0.0,0.0,0,0,109.0,0.0,193.0,4619.48717948718,3941.538461538462,4498.461538461539,4456.923076923077,4245.128205128206,4540.512820512821,4448.205128205129,4422.564102564103,4365.641025641026,4715.384615384616,4353.846153846154,4229.2307692307695,4166.666666666667,4507.179487179488
991.8915,0.18767503,0.60000944,0.33333334,0.5522388,0,0.0,0.0,0.0,0.0,0.0,0,0,0.0,0.0,0,0,109.0,0.0,193.0,4619.48717948718,3941.538461538462,4498.461538461539,4456.923076923077,4245.128205128206,4540.512820512821,4448.205128205129,4422.564102564103,4365.641025641026,4715.384615384616,4353.846153846154,4229.2307692307695,4166.666666666667,4507.179487179488
992.3919,0.19185689,0.5573089,0.33333334,0.5522388,0,0.0,0.0,0.0,0.0,0.0,0,0,0.0,0.0,0,0,44.0,0.0,0.0,4614.871794871796,3941.538461538462,4505.641025641026,4457.948717948719,4248.717948717949,4552.820512820514,4457.435897435898,4446.153846153847,4382.564102564103,4720.512820512821,4356.410256410257,4232.820512820514,4183.589743589744,4510.256410256411
992.3919,0.19185689,0.5573089,0.33333334,0.5522388,0,0.0,0.0,0.0,0.0,0.0,0,0,0.0,0.0,0,0,44.0,0.0,0.0,4614.871794871796,3941.538461538462,4505.641025641026,4457.948717948719,4248.717948717949,4552.820512820514,4457.435897435898,4446.153846153847,4382.564102564103,4720.512820512821,4356.410256410257,4232.820512820514,4183.589743589744,4510.256410256411
992.89233,0.18790877,0.51041627,0.33333334,0.5522388,0,0.0,0.0,0.0,0.0,0.0,0,0,0.0,0.0,0,0,108.0,0.0,0.0,4625.641025641026,3940.0000000000005,4503.076923076924,4453.846153846154,4245.641025641026,4546.153846153847,4461.025641025642,4447.6923076923085,4386.666666666667,4737.435897435898,4357.435897435898,4249.74358974359,4201.538461538462,4514.871794871796
992.89233,0.18790877,0.51041627,0.33333334,0.5522388,0,0.0,0.0,0.0,0.0,0.0,0,0,0.0,0.0,0,0,108.0,0.0,0.0,4625.641025641026,3940.0000000000005,4503.076923076924,4453.846153846154,4245.641025641026,4546.153846153847,4461.025641025642,4447.6923076923085,4386.666666666667,4737.435897435898,4357.435897435898,4249.74358974359,4201.538461538462,4514.871794871796
993.4866,0.16269349,0.48524186,0.33333334,0.5522388,0,0.0,0.0,0.0,0.0,0.11630176,0,0,0.0,0.0,0,0,55.0,0.0,0.0,4624.615384615385,3940.5128205128212,4503.076923076924,4455.8974358974365,4247.6923076923085,4550.769230769231,4477.948717948719,4457.435897435898,4397.948717948719,4741.538461538462,4355.8974358974365,4246.666666666667,4205.641025641026,4504.102564102564
993.7368,0.16269349,0.48524186,0.33333334,0.5522388,0,0.0,0.0,0.0,0.0,0.16775809,0,0,0.0,0.0,0,0,87.0,0.0,384.0,4616.923076923077,3938.461538461539,4500.000000000001,4455.8974358974365,4248.205128205129,4547.6923076923085,4461.538461538462,4424.615384615385,4371.794871794872,4717.948717948719,4356.410256410257,4244.102564102564,4182.051282051282,4521.025641025642
993.987,0.14423902,0.4763479,0.33333334,0.5522388,0,0.0,0.0,0.0,0.0,0.05798809,0,0,0.0,0.0,0,0,119.0,0.0,384.0,4646.666666666667,3942.0512820512827,4508.205128205129,4473.333333333334,4251.282051282052,4551.282051282052,4447.6923076923085,4436.410256410257,4393.846153846154,4744.102564102564,4354.358974358975,4250.256410256411,4207.179487179487,4532.820512820514
994.1121,0.14423902,0.4763479,0.33333334,0.5522388,0,0.0,0.0,0.0,0.0,0.0,0,0,0.0,0.0,0,0,6.0,0.0,583.0,4641.025641025642,3957.435897435898,4512.307692307693,4476.923076923077,4251.282051282052,4556.410256410257,4460.512820512821,4436.923076923077,4384.615384615385,4733.333333333334,4355.8974358974365,4246.666666666667,4208.717948717949,4520.000000000001
994.3936,0.13467139,0.47908193,0.33333334,0.5522388,0,0.0,0.0,0.0,0.0,0.0,0,0,0.0,0.0,0,0,42.0,0.0,0.0,4628.717948717949,3943.589743589744,4499.48717948718,4474.358974358975,4250.769230769231,4551.282051282052,4455.384615384616,4413.333333333334,4370.769230769231,4724.102564102564,4353.846153846154,4247.179487179487,4189.2307692307695,4520.512820512821
994.3936,0.13467139,0.47908193,0.33333334,0.5522388,0,0.0,0.0,0.0,0.0,0.0,0,0,0.0,0.0,0,0,42.0,0.0,0.0,4628.717948717949,3943.589743589744,4499.48717948718,4474.358974358975,4250.769230769231,4551.282051282052,4455.384615384616,4413.333333333334,4370.769230769231,4724.102564102564,4353.846153846154,4247.179487179487,4189.2307692307695,4520.512820512821
994.89404,0.10429579,0.48350593,0.33333334,0.5522388,0,0.0,0.0,0.0,0.0,0.0,0,0,0.0,0.0,0,0,106.0,0.0,590.0,4630.256410256411,3943.589743589744,4506.666666666667,4466.153846153847,4249.74358974359,4548.717948717949,4463.589743589744,4430.256410256411,4385.641025641026,4733.846153846154,4356.410256410257,4248.205128205129,4198.974358974359,4520.512820512821
994.89404,0.10429579,0.48350593,0.33333334,0.5522388,0,0.0,0.0,0.0,0.0,0.0,0,0,0.0,0.0,0,0,106.0,0.0,590.0,4630.256410256411,3943.589743589744,4506.666666666667,4466.153846153847,4249.74358974359,4548.717948717949,4463.589743589744,4430.256410256411,4385.641025641026,4733.846153846154,4356.410256410257,4248.205128205129,4198.974358974359,4520.512820512821
995.3945,0.12713432,0.4938432,0.33333334,0.5522388,0,0.0,0.0,0.0,0.0,0.0,0,0,0.0,0.0,0,0,41.0,0.0,0.0,4629.2307692307695,3945.1282051282055,4500.512820512821,4458.461538461539,4242.051282051282,4539.48717948718,4462.051282051282,4424.615384615385,4380.000000000001,4725.128205128206,4354.358974358975,4243.076923076924,4187.179487179487,4508.717948717949
995.3945,0.12713432,0.4938432,0.33333334,0.5522388,0,0.0,0.0,0.0,0.0,0.0,0,0,0.0,0.0,0,0,41.0,0.0,0.0,4629.2307692307695,3945.1282051282055,4500.512820512821,4458.461538461539,4242.051282051282,4539.48717948718,4462.051282051282,4424.615384615385,4380.000000000001,4725.128205128206,4354.358974358975,4243.076923076924,4187.179487179487,4508.717948717949
995.9888,0.15241246,0.49243966,0.33333334,0.5522388,0,0.0,0.0,0.0,0.0,0.048786532,0,0,0.0,0.0,0,0,117.0,0.0,193.0,4614.871794871796,3947.1794871794878,4498.461538461539,4456.923076923077,4236.410256410257,4538.974358974359,4445.128205128206,4408.717948717949,4384.615384615385,4725.128205128206,4353.846153846154,4247.6923076923085,4201.538461538462,4505.128205128206
996.23895,0.15241246,0.49243966,0.33333334,0.5522388,0,0.0,0.0,0.0,0.0,0.04329298,0,0,0.0,0.0,0,0,20.0,0.0,0.0,4621.025641025642,3945.6410256410263,4494.358974358975,4455.8974358974365,4245.641025641026,4540.512820512821,4443.076923076924,4393.846153846154,4371.282051282052,4709.743589743591,4353.846153846154,4246.153846153847,4213.846153846154,4523.589743589744
996.4892,0.1323447,0.46162456,0.33333334,0.5522388,0,0.0,0.0,0.0,0.0,0.14210632,0,0,0.0,0.0,0,0,52.0,0.0,0.0,4632.820512820514,3945.6410256410263,4506.666666666667,4458.461538461539,4250.256410256411,4551.794871794872,4456.410256410257,4424.615384615385,4400.512820512821,4737.948717948719,4355.8974358974365,4262.564102564103,4263.076923076924,4544.615384615385
996.7394,0.1323447,0.46162456,0.33333334,0.5522388,0,0.0,0.0,0.0,0.0,0.1569893,0,0,0.0,0.0,0,0,84.0,0.0,0.0,4641.538461538462,3937.435897435898,4499.48717948718,4449.2307692307695,4245.128205128206,4546.666666666667,4446.666666666667,4423.076923076924,4393.846153846154,4732.820512820514,4355.8974358974365,4248.205128205129,4258.461538461539,4515.384615384616
996.9896,0.14897798,0.42208213,0.33333334,0.5522388,0,0.0,0.0,0.0,0.0,0.120946065,0,0,0.0,0.0,0,0,116.0,0.0,0.0,4631.794871794872,3935.8974358974365,4498.461538461539,4458.974358974359,4242.051282051282,4542.564102564103,4462.051282051282,4443.076923076924,4404.615384615385,4729.2307692307695,4357.948717948719,4264.615384615385,4256.923076923077,4542.564102564103
997.1147,0.14897798,0.42208213,0.33333334,0.5522388,0,0.0,0.0,0.0,0.0,0.0,0,0,0.0,0.0,0,0,3.0,0.0,568.0,4634.871794871796,3958.461538461539,4509.2307692307695,4463.076923076924,4238.461538461539,4538.974358974359,4457.435897435898,4441.025641025642,4388.205128205129,4704.615384615386,4355.8974358974365,4257.435897435898,4208.717948717949,4527.6923076923085
997.49005,0.14837787,0.38296285,0.33333334,0.5522388,0,0.0,0.0,0.0,0.0,0.0,0,0,0.0,0.0,0,0,51.0,0.0,0.0,4634.358974358975,3961.0256410256416,4514.871794871796,4460.000000000001,4240.000000000001,4543.589743589744,4446.666666666667,4406.666666666667,4375.8974358974365,4708.717948717949,4357.435897435898,4248.717948717949,4205.641025641026,4524.102564102564
997.49005,0.14837787,0.38296285,0.33333334,0.5522388,0,0.0,0.0,0.0,0.0,0.0,0,0,0.0,0.0,0,0,51.0,0.0,0.0,4634.358974358975,3961.0256410256416,4514.871794871796,4460.000000000001,4240.000000000001,4543.589743589744,4446.666666666667,4406.666666666667,4375.8974358974365,4708.717948717949,4357.435897435898,4248.717948717949,4205.641025641026,4524.102564102564
997.8966,0.16660611,0.34666765,0.33333334,0.5522388,0,0.0,0.0,0.0,0.0,0.0,0,0,0.0,0.0,0,0,103.0,0.0,384.0,4610.769230769231,3933.333333333334,4494.871794871796,4442.051282051282,4228.205128205129,4534.871794871796,4435.8974358974365,4398.461538461539,4374.871794871796,4693.846153846154,4351.282051282052,4233.333333333334,4182.564102564103,4504.615384615385
997.8966,0.16660611,0.34666765,0.33333334,0.5522388,0,0.0,0.0,0.0,0.0,0.0,0,0,0.0,0.0,0,0,103.0,0.0,384.0,4610.769230769231,3933.333333333334,4494.871794871796,4442.051282051282,4228.205128205129,4534.871794871796,4435.8974358974365,4398.461538461539,4374.871794871796,4693.846153846154,4351.282051282052,4233.333333333334,4182.564102564103,4504.615384615385
998.4909,0.19936085,0.3444792,0.33333334,0.5522388,0,0.0,0.0,0.0,0.0,0.20992292,0,0,0.0,0.0,0,0,50.0,0.0,0.0,4672.307692307693,3932.307692307693,4501.025641025642,4442.051282051282,4236.410256410257,4541.538461538462,4467.179487179487,4444.615384615385,4416.923076923077,4742.051282051282,4354.358974358975,4253.846153846154,4239.48717948718,4528.717948717949
998.616,0.19936085,0.3444792,0.33333334,0.5522388,0,0.0,0.0,0.0,0.0,0.0,0,0,0.0,0.0,0,0,66.0,0.0,524.0,4671.282051282052,3940.5128205128212,4505.641025641026,4444.615384615385,4243.076923076924,4551.282051282052,4458.974358974359,4433.846153846154,4409.2307692307695,4732.820512820514,4349.743589743591,4260.000000000001,4231.794871794872,4538.974358974359
998.8975,0.2017988,0.35269356,0.33333334,0.5522388,0,0.0,0.0,0.0,0.0,0.0,0,0,0.0,0.0,0,0,102.0,0.0,590.0,4667.179487179488,3948.717948717949,4501.538461538462,4445.128205128206,4242.051282051282,4536.410256410257,4452.307692307693,4406.666666666667,4381.538461538462,4704.102564102564,4350.256410256411,4245.641025641026,4182.051282051282,4527.179487179488
998.8975,0.2017988,0.35269356,0.33333334,0.5522388,0,0.0,0.0,0.0,0.0,0.0,0,0,0.0,0.0,0,0,102.0,0.0,590.0,4667.179487179488,3948.717948717949,4501.538461538462,4445.128205128206,4242.051282051282,4536.410256410257,4452.307692307693,4406.666666666667,4381.538461538462,4704.102564102564,4350.256410256411,4245.641025641026,4182.051282051282,4527.179487179488
999.49176,0.25882357,0.3551548,0.33333334,0.5522388,0,0.0,0.0,0.0,0.0,0.07843869,0,0,0.0,0.0,0,0,49.0,0.0,0.0,4660.512820512821,3941.0256410256416,4501.025641025642,4444.102564102564,4240.512820512821,4539.48717948718,4461.538461538462,4441.538461538462,4406.666666666667,4738.461538461539,4352.820512820514,4252.307692307693,4200.000000000001,4531.282051282052
999.74194,0.25882357,0.3551548,0.33333334,0.5522388,0,0.0,0.0,0.0,0.0,0.074653596,0,0,0.0,0.0,0,0,81.0,0.0,193.0,4641.538461538462,3926.1538461538466,4494.358974358975,4432.820512820514,4237.948717948719,4536.410256410257,4458.461538461539,4438.974358974359,4404.615384615385,4726.666666666667,4351.794871794872,4248.205128205129,4200.000000000001,4521.025641025642
999.9922,0.26265553,0.3600791,0.33333334,0.5522388,0,0.0,0.0,0.0,0.0,0.0509761,0,0,0.0,0.0,0,0,113.0,0.0,193.0,4636.923076923077,3928.717948717949,4493.846153846154,4439.48717948718,4238.461538461539,4541.538461538462,4457.435897435898,4423.076923076924,4399.48717948718,4712.307692307693,4352.820512820514,4244.102564102564,4185.128205128206,4500.512820512821
1000.2424,0.26265553,0.3600791,0.33333334,0.5522388,0,0.0,0.0,0.0,0.0,0.05141159,0,0,0.0,0.0,0,0,16.0,0.0,0.0,4635.8974358974365,3926.666666666667,4490.256410256411,4430.769230769231,4232.307692307693,4536.410256410257,4441.538461538462,4420.512820512821,4383.589743589744,4704.615384615386,4349.743589743591,4238.974358974359,4188.205128205129,4510.256410256411
1000.4926,0.24629426,0.34810656,0.33333334,0.5522388,0,0.0,0.0,0.0,0.0,0.0,0,0,0.0,0.0,0,0,48.0,0.0,0.0,4676.923076923077,3962.564102564103,4512.307692307693,4455.8974358974365,4248.205128205129,4552.307692307693,4446.666666666667,4422.564102564103,4400.512820512821,4720.512820512821,4350.769230769231,4254.871794871796,4216.923076923077,4535.384615384616
1000.74286,0.24629426,0.34810656,0.33333334,0.5522388,0,0.0,0.0,0.0,0.0,0.072357364,0,0,0.0,0.0,0,0,80.0,0.0,0.0,4651.794871794872,3941.0256410256416,4507.179487179488,4442.564102564103,4238.461538461539,4538.974358974359,4458.461538461539,4458.974358974359,4420.000000000001,4732.820512820514,4349.2307692307695,4259.48717948718,4216.923076923077,4524.102564102564
1000.99304,0.2630346,0.3469084,0.33333334,0.5522388,0,0.0,0.0,0.0,0.0,0.0,0,0,0.0,0.0,0,0,112.0,0.0,0.0,4656.410256410257,3961.0256410256416,4502.051282051282,4445.641025641026,4248.205128205129,4537.948717948719,4494.358974358975,4480.000000000001,4437.948717948719,4710.769230769231,4353.333333333334,4250.256410256411,4226.153846153847,4554.871794871796
1000.99304,0.2630346,0.3469084,0.33333334,0.5522388,0,0.0,0.0,0.0,0.0,0.0,0,0,0.0,0.0,0,0,112.0,0.0,0.0,4656.410256410257,3961.0256410256416,4502.051282051282,4445.641025641026,4248.205128205129,4537.948717948719,4494.358974358975,4480.000000000001,4437.948717948719,4710.769230769231,4353.333333333334,4250.256410256411,4226.153846153847,4554.871794871796
1001.39966,0.2780971,0.3479347,0.33333334,0.5522388,0,0.0,0.0,0.0,0.0,0.0,0,0,0.0,0.0,0,0,35.0,0.0,0.0,4643.589743589744,3950.7692307692314,4498.974358974359,4444.102564102564,4233.333333333334,4526.666666666667,4475.8974358974365,4459.48717948718,4418.461538461539,4695.8974358974365,4350.769230769231,4258.974358974359,4180.512820512821,4538.974358974359
1001.39966,0.2780971,0.3479347,0.33333334,0.5522388,0,0.0,0.0,0.0,0.0,0.0,0,0,0.0,0.0,0,0,35.0,0.0,0.0,4643.589743589744,3950.7692307692314,4498.974358974359,4444.102564102564,4233.333333333334,4526.666666666667,4475.8974358974365,4459.48717948718,4418.461538461539,4695.8974358974365,4350.769230769231,4258.974358974359,4180.512820512821,4538.974358974359
1001.9001,0.2569969,0.34625015,0.33333334,0.5522388,0,0.0,0.0,0.0,0.0,0.0,0,0,0.0,0.0,0,0,99.0,0.0,384.0,4664.615384615386,3965.6410256410263,4507.6923076923085,4447.6923076923085,4235.384615384616,4536.410256410257,4471.282051282052,4475.8974358974365,4425.641025641026,4729.743589743591,4354.871794871796,4262.564102564103,4210.769230769231,4554.871794871796
1001.9001,0.2569969,0.34625015,0.33333334,0.5522388,0,0.0,0.0,0.0,0.0,0.0,0,0,0.0,0.0,0,0,99.0,0.0,384.0,4664.615384615386,3965.6410256410263,4507.6923076923085,4447.6923076923085,4235.384615384616,4536.410256410257,4471.282051282052,4475.8974358974365,4425.641025641026,4729.743589743591,4354.871794871796,4262.564102564103,4210.769230769231,4554.871794871796
1002.4005,0.22321112,0.36192352,0.33333334,0.5522388,0,0.0,0.0,0.0,0.0,0.0,0,0,0.0,0.0,0,0,34.0,0.0,0.0,4651.794871794872,3941.538461538462,4497.948717948719,4444.615384615385,4246.153846153847,4538.974358974359,4457.435897435898,4440.512820512821,4395.8974358974365,4703.076923076924,4353.333333333334,4247.6923076923085,4149.74358974359,4552.307692307693
1002.4005,0.22321112,0.36192352,0.33333334,0.5522388,0,0.0,0.0,0.0,0.0,0.0,0,0,0.0,0.0,0,0,34.0,0.0,0.0,4651.794871794872,3941.538461538462,4497.948717948719,4444.615384615385,4246.153846153847,4538.974358974359,4457.435897435898,4440.512820512821,4395.8974358974365,4703.076923076924,4353.333333333334,4247.6923076923085,4149.74358974359,4552.307692307693
1002.90094,0.21796459,0.35318172,0.33333334,0.5522388,0,0.0,0.0,0.0,0.0,0.0,0,0,0.0,0.0,0,0,98.0,0.0,591.0,4646.153846153847,3937.9487179487182,4488.205128205129,4443.076923076924,4244.102564102564,4538.974358974359,4453.333333333334,4437.948717948719,4404.615384615385,4711.794871794872,4353.333333333334,4238.461538461539,4168.205128205129,4533.333333333334
1003.245,0.21796459,0.35318172,0.33333334,0.5522388,0,0.0,0.0,0.0,0.0,0.13884826,0,0,0.0,0.0,0,0,13.0,0.0,192.0,4632.820512820514,3941.0256410256416,4486.153846153847,4441.538461538462,4234.871794871796,4537.435897435898,4445.641025641026,4424.102564102564,4388.717948717949,4693.333333333334,4351.282051282052,4232.820512820514,4168.717948717949,4550.256410256411
1003.4952,0.17370012,0.3522866,0.33333334,0.5522388,0,0.0,0.0,0.0,0.0,0.058947563,0,0,0.0,0.0,0,0,45.0,0.0,0.0,4646.153846153847,3936.410256410257,4488.717948717949,4442.051282051282,4236.410256410257,4536.923076923077,4441.538461538462,4418.974358974359,4374.358974358975,4725.641025641026,4350.769230769231,4229.74358974359,4208.205128205129,4537.948717948719
1003.7454,0.17370012,0.3522866,0.33333334,0.5522388,0,0.0,0.0,0.0,0.0,0.0991495,0,0,0.0,0.0,0,0,77.0,0.0,192.0,4633.846153846154,3943.589743589744,4503.076923076924,4444.615384615385,4240.512820512821,4539.48717948718,4447.179487179487,4438.461538461539,4391.794871794872,4718.974358974359,4351.282051282052,4246.153846153847,4184.615384615385,4533.333333333334
1003.9956,0.1248681,0.36348864,0.33333334,0.5522388,0,0.0,0.0,0.0,0.0,0.049973287,0,0,0.0,0.0,0,0,109.0,0.0,192.0,4640.512820512821,3956.9230769230776,4497.435897435898,4444.615384615385,4229.74358974359,4534.871794871796,4437.948717948719,4418.461538461539,4374.358974358975,4688.205128205129,4348.717948717949,4244.615384615385,4140.512820512821,4523.589743589744
1004.24585,0.1248681,0.36348864,0.33333334,0.5522388,0,0.0,0.0,0.0,0.0,0.06582858,0,0,0.0,0.0,0,0,12.0,0.0,0.0,4637.435897435898,3957.9487179487182,4506.153846153847,4458.461538461539,4245.641025641026,4549.743589743591,4440.512820512821,4413.846153846154,4372.307692307693,4698.461538461539,4346.666666666667,4244.102564102564,4124.102564102564,4513.846153846154
1004.49603,0.17429203,0.36760852,0.33333334,0.5522388,0,0.0,0.0,0.0,0.0,0.0,0,0,0.0,0.0,0,0,44.0,0.0,0.0,4645.641025641026,3952.820512820513,4507.6923076923085,4451.794871794872,4241.538461538462,4549.2307692307695,4455.8974358974365,4423.076923076924,4370.769230769231,4703.589743589744,4347.6923076923085,4250.769230769231,4118.461538461539,4523.076923076924
1004.49603,0.17429203,0.36760852,0.33333334,0.5522388,0,0.0,0.0,0.0,0.0,0.0,0,0,0.0,0.0,0,0,44.0,0.0,0.0,4645.641025641026,3952.820512820513,4507.6923076923085,4451.794871794872,4241.538461538462,4549.2307692307695,4455.8974358974365,4423.076923076924,4370.769230769231,4703.589743589744,4347.6923076923085,4250.769230769231,4118.461538461539,4523.076923076924
1004.90265,0.22383192,0.38055137,0.33333334,0.5522388,0,0.0,0.0,0.0,0.0,0.0,0,0,0.0,0.0,0,0,96.0,0.0,0.0,4647.179487179488,3947.692307692308,4507.179487179488,4446.666666666667,4233.846153846154,4545.641025641026,4472.307692307693,4458.974358974359,4394.358974358975,4717.435897435898,4348.717948717949,4256.923076923077,4115.384615384616,4522.564102564103
1004.90265,0.22383192,0.38055137,0.33333334,0.5522388,0,0.0,0.0,0.0,0.0,0.0,0,0,0.0,0.0,0,0,96.0,0.0,0.0,4647.179487179488,3947.692307692308,4507.179487179488,4446.666666666667,4233.846153846154,4545.641025641026,4472.307692307693,4458.974358974359,4394.358974358975,4717.435897435898,4348.717948717949,4256.923076923077,4115.384615384616,4522.564102564103
1005.4031,0.30366826,0.37874877,0.33333334,0.5522388,0,0.0,0.0,0.0,0.0,0.0,0,0,0.0,0.0,0,0,31.0,0.0,0.0,4650.256410256411,3949.7435897435903,4491.282051282052,4444.102564102564,4230.769230769231,4536.923076923077,4462.051282051282,4441.025641025642,4383.076923076924,4713.333333333334,4351.282051282052,4249.74358974359,4107.179487179487,4522.564102564103
1005.4031,0.30366826,0.37874877,0.33333334,0.5522388,0,0.0,0.0,0.0,0.0,0.0,0,0,0.0,0.0,0,0,31.0,0.0,0.0,4650.256410256411,3949.7435897435903,4491.282051282052,4444.102564102564,4230.769230769231,4536.923076923077,4462.051282051282,4441.025641025642,4383.076923076924,4713.333333333334,4351.282051282052,4249.74358974359,4107.179487179487,4522.564102564103
1005.9035,0.30059072,0.37504792,0.33333334,0.5522388,0,0.0,0.0,0.0,0.0,0.0,0,0,0.0,0.0,0,0,95.0,0.0,384.0,4660.000000000001,3952.307692307693,4490.769230769231,4445.128205128206,4228.717948717949,4538.974358974359,4472.820512820514,4475.8974358974365,4414.871794871796,4731.282051282052,4350.256410256411,4263.589743589744,4170.256410256411,4521.025641025642
1005.9035,0.30059072,0.37504792,0.33333334,0.5522388,0,0.0,0.0,0.0,0.0,0.0,0,0,0.0,0.0,0,0,95.0,0.0,384.0,4660.000000000001,3952.307692307693,4490.769230769231,4445.128205128206,4228.717948717949,4538.974358974359,4472.820512820514,4475.8974358974365,4414.871794871796,4731.282051282052,4350.256410256411,4263.589743589744,4170.256410256411,4521.025641025642
1006.40393,0.27018884,0.36809742,0.33333334,0.5522388,0,0.0,0.0,0.0,0.0,0.0,0,0,0.0,0.0,0,0,30.0,0.0,0.0,4628.205128205129,3938.9743589743593,4484.615384615385,4438.974358974359,4229.74358974359,4535.8974358974365,4468.205128205129,4443.589743589744,4384.615384615385,4686.666666666667,4351.282051282052,4264.102564102564,4140.512820512821,4529.743589743591
1006.40393,0.27018884,0.36809742,0.33333334,0.5522388,0,0.0,0.0,0.0,0.0,0.0,0,0,0.0,0.0,0,0,30.0,0.0,0.0,4628.205128205129,3938.9743589743593,4484.615384615385,4438.974358974359,4229.74358974359,4535.8974358974365,4468.205128205129,4443.589743589744,4384.615384615385,4686.666666666667,4351.282051282052,4264.102564102564,4140.512820512821,4529.743589743591
1006.9982,0.2647677,0.35692823,0.33333334,0.5522388,0,0.0,0.0,0.0,0.0,0.0,0,0,0.0,0.0,0,0,106.0,0.0,591.0,4650.769230769231,3938.461538461539,4495.8974358974365,4445.128205128206,4240.512820512821,4538.974358974359,4465.641025641026,4448.205128205129,4394.358974358975,4682.051282051282,4344.615384615385,4261.025641025642,3915.8974358974365,636.4102564102565
1007.2484,0.2647677,0.35692823,0.33333334,0.5522388,0,0.0,0.0,0.0,1.0,0.0,0,0,0.0,0.0,0,0,1.0,0.0,461.0,4650.256410256411,3944.615384615385,4496.410256410257,4453.333333333334,4248.205128205129,4553.333333333334,4476.410256410257,4454.358974358975,4408.717948717949,4722.051282051282,4355.384615384616,4255.8974358974365,4200.512820512821,4552.820512820514
1007.49866,0.25493604,0.3534892,0.33333334,0.5522388,0,0.0,0.0,0.0,0.0,1.0,0,0,0.0,0.0,0,0,41.0,0.0,0.0,4647.179487179488,3941.0256410256416,4496.923076923077,4442.564102564103,4232.307692307693,4537.435897435898,4470.256410256411,4448.717948717949,4408.717948717949,4713.333333333334,4351.794871794872,4249.74358974359,4212.820512820514,4725.641025641026
1007.49866,0.25493604,0.3534892,0.33333334,0.5522388,0,0.0,0.0,0.0,0.0,1.0,0,0,0.0,0.0,0,0,41.0,0.0,0.0,4647.179487179488,3941.0256410256416,4496.923076923077,4442.564102564103,4232.307692307693,4537.435897435898,4470.256410256411,4448.717948717949,4408.717948717949,4713.333333333334,4351.794871794872,4249.74358974359,4212.820512820514,4725.641025641026
1007.9991,0.2555512,0.34741208,0.33333334,0.5522388,0,0.0,0.0,0.0,0.0,0.08787253,0,0,0.0,0.0,0,0,105.0,0.0,189.0,4643.589743589744,3940.5128205128212,4495.8974358974365,4447.6923076923085,4243.076923076924,4545.641025641026,4468.205128205129,4425.641025641026,4377.948717948719,4701.538461538462,4351.282051282052,4247.179487179487,4199.48717948718,4742.564102564103
1008.12415,0.2555512,0.34741208,0.33333334,0.5522388,0,0.0,0.0,0.0,0.0,0.0,0,0,0.0,0.0,0,0,121.0,0.0,189.0,4631.282051282052,3938.9743589743593,4495.8974358974365,4445.641025641026,4245.641025641026,4540.512820512821,4458.461538461539,4423.589743589744,4389.743589743591,4703.076923076924,4350.256410256411,4236.410256410257,4201.538461538462,4722.051282051282
1008.40564,0.23146822,0.33972186,0.33333334,0.5522388,0,0.0,0.0,0.0,0.0,0.0,0,0,0.0,0.0,0,0,28.0,0.0,0.0,4659.48717948718,3944.615384615385,4506.666666666667,4450.769230769231,4249.74358974359,4552.307692307693,4462.564102564103,4440.512820512821,4395.384615384616,4723.076923076924,4353.846153846154,4247.179487179487,4215.8974358974365,4735.8974358974365
1008.40564,0.23146822,0.33972186,0.33333334,0.5522388,0,0.0,0.0,0.0,0.0,0.0,0,0,0.0,0.0,0,0,28.0,0.0,0.0,4659.48717948718,3944.615384615385,4506.666666666667,4450.769230769231,4249.74358974359,4552.307692307693,4462.564102564103,4440.512820512821,4395.384615384616,4723.076923076924,4353.846153846154,4247.179487179487,4215.8974358974365,4735.8974358974365
1008.90607,0.23974258,0.34089467,0.33333334,0.5522388,0,0.0,0.0,0.0,0.0,0.0,0,0,0.0,0.0,0,0,92.0,0.0,0.0,4664.102564102564,3939.48717948718,4504.102564102564,4445.128205128206,4245.641025641026,4551.282051282052,4460.512820512821,4431.282051282052,4384.615384615385,4710.256410256411,4352.820512820514,4235.384615384616,4195.384615384616,4700.000000000001
1009.2501,0.23974258,0.34089467,0.33333334,0.5522388,0,0.0,0.0,0.0,0.0,0.25150323,0,0,0.0,0.0,0,0,107.0,0.0,368.0,4650.769230769231,3935.8974358974365,4504.102564102564,4445.641025641026,4246.153846153847,4545.641025641026,4461.025641025642,4441.538461538462,4392.820512820514,4716.923076923077,4351.794871794872,4232.820512820514,4182.051282051282,4684.102564102564
1009.50037,0.23110849,0.3332399,0.33333334,0.5522388,0,0.0,0.0,0.0,0.0,0.0,0,0,0.0,0.0,0,0,39.0,0.0,0.0,4646.666666666667,3924.615384615385,4495.384615384616,4444.102564102564,4246.153846153847,4549.743589743591,4460.000000000001,4428.205128205129,4384.615384615385,4708.717948717949,4350.256410256411,4229.2307692307695,4177.435897435898,4649.2307692307695
1009.50037,0.23110849,0.3332399,0.33333334,0.5522388,0,0.0,0.0,0.0,0.0,0.0,0,0,0.0,0.0,0,0,39.0,0.0,0.0,4646.666666666667,3924.615384615385,4495.384615384616,4444.102564102564,4246.153846153847,4549.743589743591,4460.000000000001,4428.205128205129,4384.615384615385,4708.717948717949,4350.256410256411,4229.2307692307695,4177.435897435898,4649.2307692307695
1009.907,0.21367353,0.3190548,0.33333334,0.5522388,0,0.0,0.0,0.0,0.0,0.065892965,0,0,0.0,0.0,0,0,91.0,0.0,370.0,4672.820512820514,3972.307692307693,4502.564102564103,4451.794871794872,4232.307692307693,4525.128205128206,4427.179487179487,4393.846153846154,4353.846153846154,4681.538461538462,4349.743589743591,4215.8974358974365,4168.717948717949,4647.6923076923085
1010.1259,0.21367353,0.3190548,0.33333334,0.5522388,0,0.0,0.0,0.0,0.0,0.110591374,0,0,0.0,0.0,0,0,119.0,0.0,370.0,4615.384615384616,3925.6410256410263,4489.2307692307695,4431.794871794872,4235.8974358974365,4537.435897435898,4446.153846153847,4424.102564102564,4365.641025641026,4693.333333333334,4348.205128205129,4217.948717948719,4153.846153846154,4611.794871794872
1010.4074,0.15545623,0.319129,0.33333334,0.5522388,0,0.0,0.0,0.0,0.0,0.17789282,0,0,0.0,0.0,0,0,26.0,0.0,0.0,4620.000000000001,3925.1282051282055,4489.2307692307695,4428.717948717949,4232.307692307693,4532.820512820514,4428.717948717949,4418.461538461539,4374.871794871796,4716.923076923077,4351.794871794872,4226.666666666667,4184.615384615385,4600.000000000001
1010.62634,0.15545623,0.319129,0.33333334,0.5522388,0,0.0,0.0,0.0,0.0,0.07839929,0,0,0.0,0.0,0,0,54.0,0.0,0.0,4631.794871794872,3922.564102564103,4491.794871794872,4431.794871794872,4233.846153846154,4536.410256410257,4452.820512820514,4428.717948717949,4373.846153846154,4714.358974358975,4354.358974358975,4228.717948717949,4206.153846153847,4614.871794871796
1010.90784,0.16869451,0.33914265,0.33333334,0.5522388,0,0.0,0.0,0.0,0.0,0.0,0,0,0.0,0.0,0,0,90.0,0.0,592.0,4632.820512820514,3926.1538461538466,4486.153846153847,4435.384615384616,4240.512820512821,4538.461538461539,4442.564102564103,4428.205128205129,4393.333333333334,4722.564102564103,4351.282051282052,4227.6923076923085,4204.615384615385,4603.589743589744
1011.1268,0.16869451,0.33914265,0.33333334,0.5522388,0,0.0,0.0,0.0,0.0,0.2564506,0,0,0.0,0.0,0,0,118.0,0.0,592.0,4619.48717948718,3924.1025641025644,4494.358974358975,4436.923076923077,4239.48717948718,4538.461538461539,4442.564102564103,4429.2307692307695,4392.307692307693,4727.6923076923085,4350.256410256411,4234.871794871796,4200.512820512821,4583.589743589744
1011.40826,0.20537344,0.3687254,0.33333334,0.5522388,0,0.0,0.0,0.0,0.0,0.0,0,0,0.0,0.0,0,0,25.0,0.0,0.0,4618.461538461539,3929.2307692307695,4487.6923076923085,4436.410256410257,4233.846153846154,4539.48717948718,4444.102564102564,4428.717948717949,4391.282051282052,4709.2307692307695,4351.794871794872,4233.333333333334,4186.666666666667,4534.871794871796
1011.40826,0.20537344,0.3687254,0.33333334,0.5522388,0,0.0,0.0,0.0,0.0,0.0,0,0,0.0,0.0,0,0,25.0,0.0,0.0,4618.461538461539,3929.2307692307695,4487.6923076923085,4436.410256410257,4233.846153846154,4539.48717948718,4444.102564102564,4428.717948717949,4391.282051282052,4709.2307692307695,4351.794871794872,4233.333333333334,4186.666666666667,4534.871794871796
1011.9087,0.18862031,0.40090767,0.33333334,0.5522388,0,0.0,0.0,0.0,0.0,0.0,0,0,0.0,0.0,0,0,89.0,0.0,189.0,4649.743589743591,3940.5128205128212,4495.8974358974365,4439.48717948718,4242.051282051282,4541.538461538462,4435.8974358974365,4413.846153846154,4381.025641025642,4693.333333333334,4349.743589743591,4219.48717948718,4180.000000000001,4554.871794871796
1011.9087,0.18862031,0.40090767,0.33333334,0.5522388,0,0.0,0.0,0.0,0.0,0.0,0,0,0.0,0.0,0,0,89.0,0.0,189.0,4649.743589743591,3940.5128205128212,4495.8974358974365,4439.48717948718,4242.051282051282,4541.538461538462,4435.8974358974365,4413.846153846154,4381.025641025642,4693.333333333334,4349.743589743591,4219.48717948718,4180.000000000001,4554.871794871796
1012.4091,0.16764495,0.41584837,0.33333334,0.5522388,0,0.0,0.0,0.0,0.0,0.0,0,0,0.0,0.0,0,0,24.0,0.0,0.0,4641.025641025642,3945.6410256410263,4490.769230769231,4442.564102564103,4233.846153846154,4538.461538461539,4429.2307692307695,4409.2307692307695,4373.333333333334,4669.2307692307695,4348.717948717949,4242.051282051282,4166.153846153847,4547.179487179488
1012.4091,0.16764495,0.41584837,0.33333334,0.5522388,0,0.0,0.0,0.0,0.0,0.0,0,0,0.0,0.0,0,0,24.0,0.0,0.0,4641.025641025642,3945.6410256410263,4490.769230769231,4442.564102564103,4233.846153846154,4538.461538461539,4429.2307692307695,4409.2307692307695,4373.333333333334,4669.2307692307695,4348.717948717949,4242.051282051282,4166.153846153847,4547.179487179488
1012.90955,0.15981361,0.42364514,0.33333334,0.5522388,0,0.0,0.0,0.0,0.0,0.0,0,0,0.20252205,0.0,0,0,88.0,0.0,0.0,4630.256410256411,3929.7435897435903,4492.307692307693,4440.512820512821,4243.589743589744,4539.48717948718,4435.384615384616,4412.307692307693,4380.000000000001,4697.435897435898,4348.205128205129,4254.358974358975,4186.153846153847,4536.410256410257
1013.1285,0.15981361,0.42364514,0.33333334,0.5522388,0,0.0,0.0,0.0,0.0,0.020702744,0,0,0.0,0.0,0,0,116.0,0.0,0.0,4635.384615384616,3941.538461538462,4500.512820512821,4446.153846153847,4245.641025641026,4541.025641025642,4431.282051282052,4402.051282051282,4361.538461538462,4682.051282051282,4345.641025641026,4246.666666666667,4172.307692307693,4537.948717948719
1013.41,0.17606267,0.4278664,0.33333334,0.5522388,0,0.0,0.0,0.0,0.0,0.030652106,0,0,0.0,0.0,0,0,23.0,0.0,0.0,4629.743589743591,3933.8461538461543,4502.564102564103,4442.564102564103,4253.333333333334,4549.743589743591,4448.205128205129,4432.307692307693,4390.256410256411,4706.153846153847,4348.205128205129,4251.282051282052,4178.974358974359,4537.435897435898
1013.5038,0.17606267,0.4278664,0.33333334,0.5522388,0,0.0,0.0,0.0,0.0,0.0,0,0,0.0,0.0,0,0,35.0,0.0,0.0,4631.282051282052,3949.7435897435903,4500.000000000001,4451.794871794872,4255.384615384616,4553.333333333334,4457.948717948719,4441.025641025642,4392.307692307693,4704.102564102564,4346.666666666667,4248.205128205129,4183.076923076924,4536.410256410257
1013.9104,0.22159603,0.41325724,0.33333334,0.5522388,0,0.0,0.0,0.0,0.0,0.0,0,0,0.0,0.0,0,0,87.0,0.0,375.0,4614.871794871796,3934.8717948717954,4494.871794871796,4444.102564102564,4250.256410256411,4555.8974358974365,4460.512820512821,4445.128205128206,4398.974358974359,4701.538461538462,4347.179487179487,4238.461538461539,4194.871794871796,4536.410256410257
1013.9104,0.22159603,0.41325724,0.33333334,0.5522388,0,0.0,0.0,0.0,0.0,0.0,0,0,0.0,0.0,0,0,87.0,0.0,375.0,4614.871794871796,3934.8717948717954,4494.871794871796,4444.102564102564,4250.256410256411,4555.8974358974365,4460.512820512821,4445.128205128206,4398.974358974359,4701.538461538462,4347.179487179487,4238.461538461539,4194.871794871796,4536.410256410257
1014.4108,0.22233814,0.39749762,0.33333334,0.5522388,0,0.0,0.0,0.0,0.0,0.0,0,0,0.0,0.0,0,0,22.0,0.0,0.0,4616.923076923077,3951.2820512820517,4496.410256410257,4456.923076923077,4246.666666666667,4545.128205128206,4445.641025641026,4431.282051282052,4391.282051282052,4716.410256410257,4349.743589743591,4232.820512820514,4221.025641025642,4527.6923076923085
1014.4108,0.22233814,0.39749762,0.33333334,0.5522388,0,0.0,0.0,0.0,0.0,0.0,0,0,0.0,0.0,0,0,22.0,0.0,0.0,4616.923076923077,3951.2820512820517,4496.410256410257,4456.923076923077,4246.666666666667,4545.128205128206,4445.641025641026,4431.282051282052,4391.282051282052,4716.410256410257,4349.743589743591,4232.820512820514,4221.025641025642,4527.6923076923085
1014.91125,0.2565532,0.3804034,0.33333334,0.5522388,0,0.0,0.0,0.0,0.0,0.0,0,0,0.0,0.0,0,0,86.0,0.0,592.0,4605.128205128206,3955.3846153846157,4496.923076923077,4490.769230769231,4253.333333333334,4557.948717948719,4476.923076923077,4444.102564102564,4398.461538461539,4702.051282051282,4348.205128205129,4235.8974358974365,4191.282051282052,4521.025641025642
1014.91125,0.2565532,0.3804034,0.33333334,0.5522388,0,0.0,0.0,0.0,0.0,0.0,0,0,0.0,0.0,0,0,86.0,0.0,592.0,4605.128205128206,3955.3846153846157,4496.923076923077,4490.769230769231,4253.333333333334,4557.948717948719,4476.923076923077,4444.102564102564,4398.461538461539,4702.051282051282,4348.205128205129,4235.8974358974365,4191.282051282052,4521.025641025642
1015.4117,0.23596233,0.36107382,0.33333334,0.5522388,0,0.0,0.0,0.0,0.0,0.0,0,0,0.0,0.0,0,0,21.0,0.0,0.0,4646.153846153847,3975.8974358974365,4507.179487179488,4508.717948717949,4263.589743589744,4558.461538461539,4459.48717948718,4445.641025641026,4398.974358974359,4726.666666666667,4349.2307692307695,4266.153846153847,4227.6923076923085,4554.358974358975
1015.4117,0.23596233,0.36107382,0.33333334,0.5522388,0,0.0,0.0,0.0,0.0,0.0,0,0,0.0,0.0,0,0,21.0,0.0,0.0,4646.153846153847,3975.8974358974365,4507.179487179488,4508.717948717949,4263.589743589744,4558.461538461539,4459.48717948718,4445.641025641026,4398.974358974359,4726.666666666667,4349.2307692307695,4266.153846153847,4227.6923076923085,4554.358974358975
1015.9121,0.22911543,0.3523046,0.33333334,0.5522388,0,0.0,0.0,0.0,0.0,1.0,0,0,0.0,0.0,0,0,85.0,0.0,189.0,4611.282051282052,3957.435897435898,4500.000000000001,4483.589743589744,4254.358974358975,4553.846153846154,4447.6923076923085,4434.358974358975,4385.128205128206,4714.871794871796,4350.769230769231,4254.358974358975,4204.102564102564,4534.871794871796
1015.9121,0.22911543,0.3523046,0.33333334,0.5522388,0,0.0,0.0,0.0,0.0,1.0,0,0,0.0,0.0,0,0,85.0,0.0,189.0,4611.282051282052,3957.435897435898,4500.000000000001,4483.589743589744,4254.358974358975,4553.846153846154,4447.6923076923085,4434.358974358975,4385.128205128206,4714.871794871796,4350.769230769231,4254.358974358975,4204.102564102564,4534.871794871796
1016.41254,0.22994033,0.34415802,0.33333334,0.5522388,0,0.0,0.0,0.0,0.0,0.05578745,0,0,0.0,0.0,0,0,20.0,0.0,0.0,4620.000000000001,3962.564102564103,4507.179487179488,4477.435897435898,4256.410256410257,4558.461538461539,4455.384615384616,4435.8974358974365,4380.000000000001,4709.743589743591,4349.743589743591,4248.717948717949,4191.794871794872,4543.589743589744
1016.6315,0.22994033,0.34415802,0.33333334,0.5522388,0,0.0,0.0,0.0,0.0,0.078286365,0,0,0.0,0.0,0,0,48.0,0.0,0.0,4603.589743589744,3957.435897435898,4501.538461538462,4470.256410256411,4251.794871794872,4554.358974358975,4445.641025641026,4430.769230769231,4378.974358974359,4699.48717948718,4344.102564102564,4231.282051282052,4173.846153846154,4523.589743589744
1016.91296,0.20225465,0.34183443,0.33333334,0.5522388,0,0.0,0.0,0.0,0.0,0.16835332,0,0,0.0,0.0,0,0,84.0,0.0,0.0,4621.538461538462,3946.1538461538466,4508.717948717949,4460.512820512821,4257.948717948719,4556.923076923077,4463.589743589744,4448.717948717949,4390.769230769231,4718.461538461539,4351.794871794872,4239.48717948718,4205.128205128206,4552.820512820514
1017.1319,0.20225465,0.34183443,0.33333334,0.5522388,0,0.0,0.0,0.0,0.0,0.21435754,0,0,0.0,0.0,0,0,112.0,0.0,0.0,4612.820512820514,3944.1025641025644,4506.153846153847,4460.000000000001,4262.564102564103,4560.512820512821,4460.000000000001,4443.589743589744,4391.282051282052,4716.923076923077,4349.2307692307695,4234.871794871796,4206.666666666667,4542.564102564103
1017.4134,0.18160696,0.34064677,0.33333334,0.5522388,0,0.0,0.0,0.0,0.0,0.16624284,0,0,0.0,0.0,0,0,19.0,0.0,0.0,4613.846153846154,3943.589743589744,4507.179487179488,4458.974358974359,4252.820512820514,4556.410256410257,4448.717948717949,4430.769230769231,4392.307692307693,4709.743589743591,4351.282051282052,4233.333333333334,4221.025641025642,4537.948717948719
1017.6323,0.18160696,0.34064677,0.33333334,0.5522388,0,0.0,0.0,0.0,0.0,0.097678535,0,0,0.0,0.0,0,0,47.0,0.0,0.0,4617.948717948719,3954.8717948717954,4505.128205128206,4457.435897435898,4246.153846153847,4546.666666666667,4447.6923076923085,4443.076923076924,4391.282051282052,4692.307692307693,4348.205128205129,4230.256410256411,4215.384615384616,4539.48717948718
1017.9138,0.14666201,0.3372254,0.33333334,0.5522388,0,0.0,0.0,0.0,0.0,0.18244222,0,0,0.0,0.0,0,0,83.0,0.0,377.0,4623.076923076924,3947.1794871794878,4511.794871794872,4455.384615384616,4247.179487179487,4544.615384615385,4447.179487179487,4444.102564102564,4399.48717948718,4711.794871794872,4345.128205128206,4238.974358974359,4217.435897435898,4485.128205128206
1018.13275,0.14666201,0.3372254,0.33333334,0.5522388,0,0.0,0.0,0.0,0.0,0.6265006,0,0,0.0,0.0,0,0,111.0,0.0,377.0,4626.666666666667,3951.2820512820517,4517.435897435898,4456.410256410257,4251.794871794872,4553.333333333334,4452.307692307693,4446.153846153847,4397.948717948719,4703.076923076924,4350.256410256411,4235.8974358974365,4213.333333333334,4533.333333333334
1018.41425,0.12697525,0.34223533,0.33333334,0.5522388,0,0.0,0.0,0.0,0.0,0.88540125,0,0,0.0,0.0,0,0,18.0,0.0,0.0,4636.410256410257,3947.692307692308,4508.205128205129,4456.923076923077,4257.948717948719,4554.871794871796,4460.512820512821,4449.2307692307695,4400.000000000001,4716.923076923077,4350.769230769231,4222.564102564103,4211.282051282052,4394.871794871796
1018.5081,0.12697525,0.34223533,0.33333334,0.5522388,0,0.0,0.0,0.0,0.0,1.0,0,0,0.0,0.0,0,0,30.0,0.0,0.0,4616.410256410257,3928.717948717949,4497.435897435898,4438.461538461539,4246.666666666667,4540.512820512821,4443.589743589744,4442.051282051282,4396.410256410257,4709.743589743591,4346.666666666667,4216.410256410257,4189.74358974359,4389.2307692307695
1018.9147,0.16620454,0.34628674,0.33333334,0.5522388,1,0.0,0.0,0.0,0.0,1.0,0,0,0.0,0.0,0,0,82.0,0.0,592.0,4609.2307692307695,3925.6410256410263,4494.871794871796,4443.076923076924,4248.717948717949,4552.820512820514,4443.589743589744,4434.358974358975,4383.589743589744,4703.076923076924,4344.615384615385,4219.48717948718,4186.153846153847,4429.743589743591
1019.0398,0.16620454,0.34628674,0.33333334,0.5522388,0,0.0,0.0,0.0,0.0,1.0,0,0,0.0,0.0,0,0,98.0,0.0,592.0,4621.538461538462,3944.615384615385,4498.974358974359,4448.205128205129,4247.179487179487,4550.769230769231,4428.717948717949,4409.2307692307695,4367.6923076923085,4688.205128205129,4348.205128205129,4216.410256410257,4169.2307692307695,4446.666666666667
1019.4151,0.19127107,0.35115197,0.33333334,0.5522388,0,0.0,0.0,0.0,0.0,1.0,0,0,0.0,0.0,0,0,17.0,0.0,0.0,4630.769230769231,3941.0256410256416,4506.666666666667,4454.358974358975,4257.948717948719,4556.410256410257,4450.769230769231,4446.666666666667,4393.846153846154,4706.666666666667,4348.205128205129,4223.076923076924,4202.051282051282,4535.8974358974365
1019.6341,0.19127107,0.35115197,0.33333334,0.5522388,0,0.0,0.0,0.0,0.0,0.07323065,0,0,0.0,0.0,0,0,45.0,0.0,0.0,4632.307692307693,3943.589743589744,4511.794871794872,4453.846153846154,4256.923076923077,4558.461538461539,4461.025641025642,4445.641025641026,4416.410256410257,4728.205128205129,4349.2307692307695,4236.923076923077,4218.974358974359,4533.333333333334
1019.9155,0.19747123,0.35848916,0.33333334,0.5522388,0,0.0,0.0,0.0,0.0,0.0,0,0,0.0,0.0,0,0,81.0,0.0,189.0,4639.48717948718,3945.1282051282055,4505.641025641026,4454.871794871796,4265.641025641026,4561.025641025642,4465.641025641026,4448.205128205129,4410.769230769231,4716.410256410257,4348.205128205129,4221.538461538462,4207.179487179487,4537.435897435898
1019.9155,0.19747123,0.35848916,0.33333334,0.5522388,0,0.0,0.0,0.0,0.0,0.0,0,0,0.0,0.0,0,0,81.0,0.0,189.0,4639.48717948718,3945.1282051282055,4505.641025641026,4454.871794871796,4265.641025641026,4561.025641025642,4465.641025641026,4448.205128205129,4410.769230769231,4716.410256410257,4348.205128205129,4221.538461538462,4207.179487179487,4537.435897435898
1020.416,0.2150868,0.36921775,0.33333334,0.5522388,0,0.0,0.0,0.0,0.0,0.0,0,0,0.0,0.0,0,0,16.0,0.0,0.0,4644.102564102564,3939.48717948718,4504.615384615385,4441.025641025642,4247.179487179487,4543.076923076924,4446.153846153847,4411.282051282052,4390.256410256411,4701.025641025642,4349.743589743591,4206.153846153847,4225.128205128206,4543.076923076924
1020.416,0.2150868,0.36921775,0.33333334,0.5522388,0,0.0,0.0,0.0,0.0,0.0,0,0,0.0,0.0,0,0,16.0,0.0,0.0,4644.102564102564,3939.48717948718,4504.615384615385,4441.025641025642,4247.179487179487,4543.076923076924,4446.153846153847,4411.282051282052,4390.256410256411,4701.025641025642,4349.743589743591,4206.153846153847,4225.128205128206,4543.076923076924
1020.91644,0.19745101,0.3809756,0.33333334,0.5522388,0,0.0,0.0,0.0,0.0,0.66404134,0,0,0.0,0.0,0,0,80.0,0.0,0.0,4601.025641025642,3942.0512820512827,4504.615384615385,4445.128205128206,4255.8974358974365,4555.8974358974365,4457.948717948719,4415.8974358974365,4386.666666666667,4670.769230769231,4347.179487179487,4207.179487179487,4142.051282051282,4381.025641025642
1021.01025,0.19745101,0.3809756,0.33333334,0.5522388,0,0.0,0.0,0.0,0.0,1.0,0,0,0.0,0.0,0,0,92.0,0.0,0.0,4585.128205128206,3936.410256410257,4502.051282051282,4443.076923076924,4247.6923076923085,4544.102564102564,4447.179487179487,4404.615384615385,4362.564102564103,4655.8974358974365,4348.205128205129,4202.564102564103,4128.205128205129,4396.410256410257
1021.4169,0.22918944,0.38582888,0.33333334,0.5522388,0,0.0,0.0,0.0,0.0,0.21290798,0,0,0.0,0.0,0,0,15.0,0.0,381.0,4619.48717948718,3959.48717948718,4518.461538461539,4458.461538461539,4253.333333333334,4555.8974358974365,4447.179487179487,4401.025641025642,4377.435897435898,4696.410256410257,4346.666666666667,4208.205128205129,4175.8974358974365,4476.410256410257
1021.6358,0.22918944,0.38582888,0.33333334,0.5522388,0,0.0,0.0,0.0,0.0,0.36801335,0,0,0.0,0.0,0,0,43.0,0.0,0.0,4586.666666666667,3934.358974358975,4495.384615384616,4443.589743589744,4247.179487179487,4544.102564102564,4437.948717948719,4399.48717948718,4368.205128205129,4680.000000000001,4345.641025641026,4201.025641025642,4160.000000000001,4491.794871794872
1021.9173,0.2175692,0.39075196,0.33333334,0.5522388,0,0.0,0.0,0.0,0.0,0.19524693,0,0,0.0,0.0,0,0,79.0,0.0,381.0,4613.846153846154,3942.564102564103,4505.641025641026,4449.743589743591,4248.717948717949,4550.256410256411,4442.564102564103,4418.461538461539,4381.538461538462,4705.128205128206,4348.205128205129,4203.076923076924,4177.435897435898,4523.589743589744
1022.1362,0.2175692,0.39075196,0.33333334,0.5522388,0,0.0,0.0,0.0,0.0,0.618565,0,0,0.0,0.0,0,0,107.0,0.0,381.0,4623.589743589744,3945.1282051282055,4506.666666666667,4449.2307692307695,4240.512820512821,4542.051282051282,4440.000000000001,4415.384615384616,4377.948717948719,4706.666666666667,4349.2307692307695,4220.512820512821,4187.179487179487,4542.564102564103
1022.4177,0.19164354,0.37604925,0.33333334,0.5522388,0,0.0,0.0,0.0,0.0,0.3199018,0,0,0.0,0.0,0,0,14.0,0.0,592.0,4600.000000000001,3930.7692307692314,4491.282051282052,4443.076923076924,4231.282051282052,4536.923076923077,4430.256410256411,4396.410256410257,4360.000000000001,4685.128205128206,4346.153846153847,4198.461538461539,4155.384615384616,4529.2307692307695
1022.63666,0.19164354,0.37604925,0.33333334,0.5522388,0,0.0,0.0,0.0,0.0,0.17805819,0,0,0.0,0.0,0,0,42.0,0.0,0.0,4601.538461538462,3941.0256410256416,4502.564102564103,4445.641025641026,4248.717948717949,4550.256410256411,4442.051282051282,4415.8974358974365,4377.435897435898,4704.615384615386,4349.2307692307695,4201.025641025642,4180.512820512821,4538.461538461539
1022.91815,0.20262802,0.3794552,0.33333334,0.5522388,0,0.0,0.0,0.0,0.0,0.1129678,0,0,0.0,0.0,0,0,78.0,0.0,592.0,4605.641025641026,3940.0000000000005,4504.102564102564,4462.051282051282,4247.179487179487,4548.717948717949,4451.794871794872,4432.307692307693,4381.538461538462,4702.564102564103,4347.6923076923085,4210.769230769231,4181.025641025642,4547.179487179488
1023.01196,0.20262802,0.3794552,0.33333334,0.5522388,0,0.0,0.0,0.0,0.0,0.0,0,0,0.0,0.0,0,0,90.0,0.0,592.0,4610.256410256411,3931.7948717948725,4496.410256410257,4460.000000000001,4244.615384615385,4544.615384615385,4446.666666666667,4432.307692307693,4377.948717948719,4701.538461538462,4344.102564102564,4216.923076923077,4177.435897435898,4537.435897435898
1023.4186,0.21841405,0.37488946,0.33333334,0.5522388,0,0.0,0.0,0.0,0.0,0.0,0,0,0.0,0.0,0,0,13.0,0.0,189.0,4613.846153846154,3971.2820512820517,4497.948717948719,4458.974358974359,4241.538461538462,4538.461538461539,4436.410256410257,4405.128205128206,4363.589743589744,4681.025641025642,4342.564102564103,4220.000000000001,4188.717948717949,4529.2307692307695
1023.6375,0.21841405,0.37488946,0.33333334,0.5522388,0,0.0,0.0,0.0,0.0,0.013381841,0,0,0.0,0.0,0,0,41.0,0.0,0.0,4615.8974358974365,3968.205128205129,4490.769230769231,4444.102564102564,4228.717948717949,4526.153846153847,4430.256410256411,4399.48717948718,4354.871794871796,4682.051282051282,4343.076923076924,4218.461538461539,4186.666666666667,4521.025641025642
1023.919,0.22306041,0.3712748,0.33333334,0.5522388,0,0.0,0.0,0.0,0.0,0.022524858,0,0,0.0,0.0,0,0,77.0,0.0,189.0,4625.128205128206,3952.820512820513,4503.589743589744,4444.615384615385,4243.589743589744,4537.435897435898,4451.282051282052,4433.333333333334,4382.051282051282,4703.589743589744,4346.666666666667,4221.025641025642,4207.6923076923085,4542.051282051282
1024.138,0.22306041,0.3712748,0.33333334,0.5522388,0,0.0,0.0,0.0,0.0,0.05595315,0,0,0.0,0.0,0,0,105.0,0.0,189.0,4624.102564102564,3955.8974358974365,4500.512820512821,4448.717948717949,4248.717948717949,4553.333333333334,4449.2307692307695,4431.282051282052,4382.051282051282,4715.384615384616,4345.128205128206,4218.974358974359,4209.74358974359,4546.153846153847
1024.4194,0.21878085,0.36923492,0.33333334,0.5522388,0,0.0,0.0,0.0,0.0,0.06325578,0,0,0.0,0.0,0,0,12.0,0.0,0.0,4616.410256410257,3943.076923076924,4506.666666666667,4457.435897435898,4248.205128205129,4552.820512820514,4462.051282051282,4438.974358974359,4389.2307692307695,4704.615384615386,4345.128205128206,4215.384615384616,4181.025641025642,4535.8974358974365
1024.5133,0.21878085,0.36923492,0.33333334,0.5522388,0,0.0,0.0,0.0,0.0,0.0,0,0,0.0,0.0,0,0,24.0,0.0,0.0,4613.846153846154,3941.538461538462,4503.589743589744,4443.076923076924,4242.051282051282,4547.179487179488,4460.512820512821,4432.307692307693,4386.153846153847,4700.000000000001,4345.128205128206,4217.948717948719,4190.256410256411,4537.948717948719
1024.9198,0.25837615,0.3711169,0.33333334,0.5522388,0,0.0,0.0,0.0,0.0,0.0,0,0,0.0,0.0,0,0,76.0,0.0,0.0,4643.589743589744,3960.0000000000005,4513.846153846154,4455.8974358974365,4243.589743589744,4548.717948717949,4466.153846153847,4442.564102564103,4384.615384615385,4698.974358974359,4343.589743589744,4228.717948717949,4187.6923076923085,4547.6923076923085
1024.9198,0.25837615,0.3711169,0.33333334,0.5522388,0,0.0,0.0,0.0,0.0,0.0,0,0,0.0,0.0,0,0,76.0,0.0,0.0,4643.589743589744,3960.0000000000005,4513.846153846154,4455.8974358974365,4243.589743589744,4548.717948717949,4466.153846153847,4442.564102564103,4384.615384615385,4698.974358974359,4343.589743589744,4228.717948717949,4187.6923076923085,4547.6923076923085
1025.4203,0.2341144,0.36531168,0.33333334,0.5522388,0,0.0,0.0,0.0,0.0,0.0,0,0,0.0,0.0,0,0,11.0,0.0,381.0,4630.256410256411,3943.589743589744,4500.512820512821,4443.589743589744,4233.846153846154,4538.974358974359,4431.794871794872,4397.948717948719,4365.128205128206,4690.256410256411,4346.153846153847,4215.384615384616,4170.256410256411,4483.076923076924
1025.4203,0.2341144,0.36531168,0.33333334,0.5522388,0,0.0,0.0,0.0,0.0,0.0,0,0,0.0,0.0,0,0,11.0,0.0,381.0,4630.256410256411,3943.589743589744,4500.512820512821,4443.589743589744,4233.846153846154,4538.974358974359,4431.794871794872,4397.948717948719,4365.128205128206,4690.256410256411,4346.153846153847,4215.384615384616,4170.256410256411,4483.076923076924
1025.9208,0.25412446,0.35710874,0.33333334,0.5522388,0,0.0,0.0,0.0,0.0,0.3957903,0,0,0.0,0.0,0,0,75.0,0.0,381.0,4617.435897435898,3928.717948717949,4502.051282051282,4442.051282051282,4243.589743589744,4550.769230769231,4447.6923076923085,4407.6923076923085,4368.205128205129,4699.48717948718,4346.666666666667,4217.948717948719,4181.538461538462,4518.974358974359
1026.1396,0.25412446,0.35710874,0.33333334,0.5522388,0,0.0,0.0,0.0,0.0,0.0,0,0,0.0,0.0,0,0,103.0,0.0,381.0,4632.820512820514,3954.8717948717954,4507.6923076923085,4447.6923076923085,4244.102564102564,4551.794871794872,4457.948717948719,4439.48717948718,4401.025641025642,4736.923076923077,4346.153846153847,4225.128205128206,4207.179487179487,4530.256410256411
1026.4211,0.24309225,0.35461846,0.33333334,0.5522388,0,0.0,0.0,0.0,0.0,0.0,0,0,0.0,0.0,0,0,10.0,0.0,592.0,4606.666666666667,3943.076923076924,4496.410256410257,4443.589743589744,4247.179487179487,4553.333333333334,4456.923076923077,4425.641025641026,4378.461538461539,4722.051282051282,4344.615384615385,4214.358974358975,4183.076923076924,4493.846153846154
1026.4211,0.24309225,0.35461846,0.33333334,0.5522388,0,0.0,0.0,0.0,0.0,0.0,0,0,0.0,0.0,0,0,10.0,0.0,592.0,4606.666666666667,3943.076923076924,4496.410256410257,4443.589743589744,4247.179487179487,4553.333333333334,4456.923076923077,4425.641025641026,4378.461538461539,4722.051282051282,4344.615384615385,4214.358974358975,4183.076923076924,4493.846153846154
1026.9216,0.18032683,0.352057,0.33333334,0.5522388,0,0.0,0.0,0.0,0.0,0.0,0,0,0.0,0.0,0,0,74.0,0.0,592.0,4613.846153846154,3941.0256410256416,4498.974358974359,4441.538461538462,4235.384615384616,4542.564102564103,4460.000000000001,4439.48717948718,4386.666666666667,4713.333333333334,4345.641025641026,4224.615384615385,4198.461538461539,4520.512820512821
1026.9216,0.18032683,0.352057,0.33333334,0.5522388,0,0.0,0.0,0.0,0.0,0.0,0,0,0.0,0.0,0,0,74.0,0.0,592.0,4613.846153846154,3941.0256410256416,4498.974358974359,4441.538461538462,4235.384615384616,4542.564102564103,4460.000000000001,4439.48717948718,4386.666666666667,4713.333333333334,4345.641025641026,4224.615384615385,4198.461538461539,4520.512820512821
1027.422,0.1658099,0.34531185,0.33333334,0.5522388,0,0.0,0.0,0.0,0.0,0.0,0,0,0.0,0.0,0,0,9.0,0.0,512.0,4610.769230769231,3947.692307692308,4497.948717948719,4442.051282051282,4232.820512820514,4541.538461538462,4458.461538461539,4409.2307692307695,4366.666666666667,4698.461538461539,4346.666666666667,4220.512820512821,4190.256410256411,4534.358974358975
1027.422,0.1658099,0.34531185,0.33333334,0.5522388,0,0.0,0.0,0.0,0.0,0.0,0,0,0.0,0.0,0,0,9.0,0.0,512.0,4610.769230769231,3947.692307692308,4497.948717948719,4442.051282051282,4232.820512820514,4541.538461538462,4458.461538461539,4409.2307692307695,4366.666666666667,4698.461538461539,4346.666666666667,4220.512820512821,4190.256410256411,4534.358974358975
1027.9225,0.123955704,0.340766,0.33333334,0.5522388,0,0.0,0.0,0.0,0.0,0.0,0,0,0.0,0.0,0,0,73.0,0.0,512.0,4613.333333333334,3940.5128205128212,4496.923076923077,4436.923076923077,4236.923076923077,4538.461538461539,4455.8974358974365,4426.153846153847,4376.410256410257,4704.102564102564,4346.666666666667,4229.74358974359,4172.820512820514,4500.000000000001
1028.1414,0.123955704,0.340766,0.33333334,0.5522388,0,0.0,0.0,0.0,0.0,0.1478854,0,0,0.0,0.0,0,0,101.0,0.0,189.0,4624.615384615385,3936.9230769230776,4496.410256410257,4431.282051282052,4231.282051282052,4536.923076923077,4458.461538461539,4411.282051282052,4372.307692307693,4703.076923076924,4347.179487179487,4231.282051282052,4178.974358974359,4525.128205128206
1028.4229,0.10257701,0.33104208,0.33333334,0.5522388,0,0.0,0.0,0.0,0.0,0.16961098,0,0,0.0,0.0,0,0,8.0,0.0,467.0,4631.794871794872,3937.435897435898,4503.076923076924,4441.538461538462,4236.923076923077,4545.128205128206,4475.384615384616,4451.794871794872,4392.307692307693,4713.333333333334,4348.717948717949,4243.589743589744,4197.435897435898,4522.564102564103
1028.6418,0.10257701,0.33104208,0.33333334,0.5522388,0,0.0,0.0,0.0,0.0,0.28846514,0,0,0.0,0.0,0,0,36.0,0.0,0.0,4618.974358974359,3948.205128205129,4504.615384615385,4444.615384615385,4237.948717948719,4543.076923076924,4469.743589743591,4422.051282051282,4378.461538461539,4705.641025641026,4347.179487179487,4237.948717948719,4185.641025641026,4504.615384615385
1028.9233,0.1078037,0.31921583,0.33333334,0.5522388,0,0.0,0.0,0.0,0.0,0.16034786,0,0,0.0,0.0,0,0,72.0,0.0,467.0,4632.307692307693,3943.076923076924,4507.6923076923085,4446.153846153847,4246.153846153847,4548.717948717949,4469.743589743591,4426.666666666667,4381.538461538462,4720.000000000001,4350.256410256411,4247.6923076923085,4197.435897435898,4521.025641025642
1029.1422,0.1078037,0.31921583,0.33333334,0.5522388,0,0.0,0.0,0.0,0.0,0.0,0,0,0.0,0.0,0,0,100.0,0.0,0.0,4634.358974358975,3946.666666666667,4510.256410256411,4447.6923076923085,4248.205128205129,4551.282051282052,4475.8974358974365,4444.615384615385,4398.974358974359,4733.333333333334,4348.717948717949,4257.948717948719,4202.051282051282,4522.051282051282
1029.4237,0.16670491,0.31006858,0.33333334,0.5522388,0,0.0,0.0,0.0,0.0,0.0,0,0,0.0,0.0,0,0,7.0,0.0,497.0,4617.948717948719,3938.461538461539,4504.615384615385,4442.564102564103,4235.8974358974365,4536.410256410257,4459.48717948718,4435.8974358974365,4383.076923076924,4717.948717948719,4348.205128205129,4248.205128205129,4181.538461538462,4503.589743589744
1029.6427,0.16670491,0.31006858,0.33333334,0.5522388,0,0.0,0.0,0.0,0.0,0.10962739,0,0,0.0,0.0,0,0,35.0,0.0,0.0,4644.102564102564,3948.205128205129,4508.205128205129,4448.717948717949,4249.2307692307695,4551.794871794872,4462.564102564103,4458.461538461539,4411.794871794872,4750.769230769231,4347.6923076923085,4261.025641025642,4218.974358974359,4520.000000000001
1029.9242,0.16662562,0.31829628,0.33333334,0.5522388,0,0.0,0.0,0.0,0.0,0.21126255,0,0,0.0,0.0,0,0,71.0,0.0,497.0,4647.179487179488,3946.666666666667,4508.717948717949,4447.179487179487,4250.256410256411,4550.256410256411,4472.820512820514,4459.48717948718,4414.871794871796,4748.205128205129,4350.769230769231,4251.282051282052,4228.205128205129,4541.025641025642
1030.1431,0.16662562,0.31829628,0.33333334,0.5522388,0,0.0,0.0,0.0,0.0,0.091131456,0,0,0.0,0.0,0,0,99.0,0.0,381.0,4655.384615384616,3962.0512820512827,4513.846153846154,4462.051282051282,4250.769230769231,4553.333333333334,4475.8974358974365,4461.025641025642,4405.128205128206,4752.820512820514,4351.282051282052,4248.717948717949,4231.282051282052,4561.538461538462
1030.4246,0.18253241,0.3261767,0.33333334,0.5522388,0,0.0,0.0,0.0,0.0,0.0,0,0,0.0,0.0,0,0,6.0,0.0,583.0,4635.8974358974365,3966.1538461538466,4507.6923076923085,4457.948717948719,4246.666666666667,4543.076923076924,4453.333333333334,4423.076923076924,4380.000000000001,4694.358974358975,4347.179487179487,4234.358974358975,4161.538461538462,4501.538461538462
1030.4246,0.18253241,0.3261767,0.33333334,0.5522388,0,0.0,0.0,0.0,0.0,0.0,0,0,0.0,0.0,0,0,6.0,0.0,583.0,4635.8974358974365,3966.1538461538466,4507.6923076923085,4457.948717948719,4246.666666666667,4543.076923076924,4453.333333333334,4423.076923076924,4380.000000000001,4694.358974358975,4347.179487179487,4234.358974358975,4161.538461538462,4501.538461538462
1030.925,0.14423029,0.32941484,0.33333334,0.5522388,0,0.0,0.0,0.0,0.0,0.066994555,0,0,0.0,0.0,0,0,70.0,0.0,583.0,4634.358974358975,3948.717948717949,4503.589743589744,4446.666666666667,4247.179487179487,4540.512820512821,4441.025641025642,4426.666666666667,4390.256410256411,4720.000000000001,4351.282051282052,4233.333333333334,4180.000000000001,4543.589743589744
1031.0188,0.14423029,0.32941484,0.33333334,0.5522388,0,0.0,0.0,0.0,0.0,0.0,0,0,0.0,0.0,0,0,82.0,0.0,592.0,4621.538461538462,3958.461538461539,4508.205128205129,4457.948717948719,4251.794871794872,4550.769230769231,4462.051282051282,4462.564102564103,4403.589743589744,4732.307692307693,4348.717948717949,4236.410256410257,4201.025641025642,4553.333333333334
1031.4254,0.18378134,0.32003224,0.33333334,0.5522388,0,0.0,0.0,0.0,0.0,0.0,0,0,0.0,0.0,0,0,5.0,0.0,582.0,4597.435897435898,3944.1025641025644,4489.2307692307695,4439.48717948718,4231.282051282052,4534.871794871796,4441.025641025642,4423.076923076924,4375.8974358974365,4701.538461538462,4348.717948717949,4213.846153846154,4167.6923076923085,4536.410256410257
1031.4254,0.18378134,0.32003224,0.33333334,0.5522388,0,0.0,0.0,0.0,0.0,0.0,0,0,0.0,0.0,0,0,5.0,0.0,582.0,4597.435897435898,3944.1025641025644,4489.2307692307695,4439.48717948718,4231.282051282052,4534.871794871796,4441.025641025642,4423.076923076924,4375.8974358974365,4701.538461538462,4348.717948717949,4213.846153846154,4167.6923076923085,4536.410256410257
1031.9259,0.23379615,0.29937425,0.33333334,0.5522388,0,0.0,0.0,0.0,0.0,0.0,0,0,0.0,0.0,0,0,69.0,0.0,582.0,4609.743589743591,3945.1282051282055,4500.512820512821,4445.641025641026,4244.615384615385,4546.666666666667,4429.743589743591,4399.48717948718,4374.358974358975,4691.282051282052,4348.205128205129,4211.794871794872,4164.615384615385,4480.512820512821
1031.9259,0.23379615,0.29937425,0.33333334,0.5522388,0,0.0,0.0,0.0,0.0,0.0,0,0,0.0,0.0,0,0,69.0,0.0,582.0,4609.743589743591,3945.1282051282055,4500.512820512821,4445.641025641026,4244.615384615385,4546.666666666667,4429.743589743591,4399.48717948718,4374.358974358975,4691.282051282052,4348.205128205129,4211.794871794872,4164.615384615385,4480.512820512821
1032.4263,0.2680929,0.2946814,0.33333334,0.5522388,0,0.0,0.0,0.0,0.0,0.09745445,0,0,0.0,0.0,0,1,4.0,0.0,588.0,4667.179487179488,3985.6410256410263,4510.769230769231,4452.820512820514,4226.153846153847,4522.564102564103,4489.743589743591,4464.615384615385,4423.589743589744,4752.820512820514,4349.2307692307695,4226.666666666667,4235.8974358974365,4553.333333333334
1032.6453,0.2680929,0.2946814,0.33333334,0.5522388,0,0.0,0.0,0.0,0.0,0.0,0,0,0.0,0.0,0,1,32.0,0.0,0.0,4649.743589743591,3968.717948717949,4506.666666666667,4449.2307692307695,4234.358974358975,4538.974358974359,4458.974358974359,4442.051282051282,4406.666666666667,4735.384615384616,4349.2307692307695,4214.358974358975,4220.000000000001,4540.000000000001
1032.9268,0.31902513,0.3057771,0.33333334,0.5522388,0,0.0,0.0,0.0,0.0,0.0,0,0,0.0,0.0,0,0,68.0,0.0,588.0,4631.282051282052,3956.410256410257,4496.923076923077,4444.102564102564,4232.820512820514,4537.435897435898,4464.615384615385,4411.794871794872,4393.333333333334,4705.128205128206,4351.794871794872,4217.435897435898,4189.74358974359,4480.512820512821
1032.9268,0.31902513,0.3057771,0.33333334,0.5522388,0,0.0,0.0,0.0,0.0,0.0,0,0,0.0,0.0,0,0,68.0,0.0,588.0,4631.282051282052,3956.410256410257,4496.923076923077,4444.102564102564,4232.820512820514,4537.435897435898,4464.615384615385,4411.794871794872,4393.333333333334,4705.128205128206,4351.794871794872,4217.435897435898,4189.74358974359,4480.512820512821
1033.4271,0.3179673,0.33322573,0.33333334,0.5522388,0,0.0,0.0,0.0,0.0,0.47618067,0,0,0.0,0.0,0,0,3.0,0.0,568.0,4631.794871794872,3947.1794871794878,4507.179487179488,4454.871794871796,4246.666666666667,4554.871794871796,4474.871794871796,4441.025641025642,4403.589743589744,4720.000000000001,4347.179487179487,4233.333333333334,4189.74358974359,4515.8974358974365
1033.6461,0.3179673,0.33322573,0.33333334,0.5522388,0,0.0,0.0,0.0,0.0,0.101185486,0,0,0.0,0.0,0,0,31.0,0.0,0.0,4634.871794871796,3945.6410256410263,4501.538461538462,4444.615384615385,4239.48717948718,4546.666666666667,4472.307692307693,4455.8974358974365,4410.769230769231,4717.435897435898,4349.743589743591,4237.435897435898,4181.538461538462,4508.717948717949
1033.9276,0.27297923,0.35357034,0.33333334,0.5522388,0,0.0,0.0,0.0,0.0,0.16163595,0,0,0.0,0.0,0,0,67.0,0.0,568.0,4634.871794871796,3932.820512820513,4506.153846153847,4447.179487179487,4259.48717948718,4556.923076923077,4492.820512820514,4474.871794871796,4418.974358974359,4747.6923076923085,4348.205128205129,4255.384615384616,4212.307692307693,4522.564102564103
1034.1465,0.27297923,0.35357034,0.33333334,0.5522388,0,0.0,0.0,0.0,0.0,0.032872617,0,0,0.0,0.0,0,0,95.0,0.0,381.0,4630.256410256411,3944.1025641025644,4504.615384615385,4450.256410256411,4249.2307692307695,4552.820512820514,4458.974358974359,4442.051282051282,4408.717948717949,4718.461538461539,4348.717948717949,4260.000000000001,4193.333333333334,4507.6923076923085
1034.428,0.2744953,0.34261894,0.33333334,0.5522388,0,0.0,0.0,0.0,0.0,0.038065065,0,0,0.0,0.0,0,0,2.0,0.0,525.0,4636.410256410257,3942.0512820512827,4507.179487179488,4448.205128205129,4250.256410256411,4550.256410256411,4459.48717948718,4440.000000000001,4394.358974358975,4723.589743589744,4350.769230769231,4264.615384615385,4181.538461538462,4521.025641025642
1034.647,0.2744953,0.34261894,0.33333334,0.5522388,0,0.0,0.0,0.0,0.0,0.12103426,0,0,0.0,0.0,0,0,30.0,0.0,0.0,4650.256410256411,3957.9487179487182,4508.205128205129,4449.2307692307695,4250.769230769231,4547.6923076923085,4453.846153846154,4429.743589743591,4390.769230769231,4723.589743589744,4349.743589743591,4284.102564102564,4194.871794871796,4531.282051282052
1034.9285,0.23621127,0.325734,0.33333334,0.5522388,0,0.0,0.0,0.0,0.0,0.12677386,0,0,0.0,0.0,0,0,66.0,0.0,525.0,4643.589743589744,3947.692307692308,4505.641025641026,4442.564102564103,4245.128205128206,4538.461538461539,4448.717948717949,4419.48717948718,4378.974358974359,4718.461538461539,4350.769230769231,4283.076923076924,4177.435897435898,4519.48717948718
1035.0223,0.23621127,0.325734,0.33333334,0.5522388,0,0.0,0.0,0.0,0.0,0.0,0,0,0.0,0.0,0,0,78.0,0.0,592.0,4626.153846153847,3924.615384615385,4499.48717948718,4441.538461538462,4250.256410256411,4550.769230769231,4459.48717948718,4440.512820512821,4387.179487179487,4710.256410256411,4344.102564102564,4285.641025641026,4163.589743589744,4513.333333333334
1035.4288,0.20539418,0.33907428,0.33333334,0.5522388,0,0.0,0.0,0.0,0.0,0.0,0,0,0.0,0.0,0,0,1.0,0.0,461.0,4636.923076923077,3939.48717948718,4504.102564102564,4442.564102564103,4247.6923076923085,4548.717948717949,4466.666666666667,4445.128205128206,4398.974358974359,4735.8974358974365,4350.256410256411,4301.538461538462,4188.717948717949,4488.717948717949
1035.4288,0.20539418,0.33907428,0.33333334,0.5522388,0,0.0,0.0,0.0,0.0,0.0,0,0,0.0,0.0,0,0,1.0,0.0,461.0,4636.923076923077,3939.48717948718,4504.102564102564,4442.564102564103,4247.6923076923085,4548.717948717949,4466.666666666667,4445.128205128206,4398.974358974359,4735.8974358974365,4350.256410256411,4301.538461538462,4188.717948717949,4488.717948717949
1035.9293,0.1737221,0.36310577,0.33333334,0.5522388,0,0.0,0.0,0.0,0.0,0.0,0,0,0.0,0.0,0,0,65.0,0.0,461.0,4620.512820512821,3909.2307692307695,4487.6923076923085,4437.435897435898,4234.358974358975,4536.923076923077,4446.153846153847,4441.538461538462,4371.794871794872,4702.564102564103,4350.256410256411,4306.666666666667,4153.333333333334,4478.974358974359
1036.1483,0.1737221,0.36310577,0.33333334,0.5522388,0,0.0,0.0,0.0,0.0,1.0,0,0,0.0,0.0,0,0,93.0,0.0,187.0,4661.538461538462,3904.1025641025644,4496.410256410257,4444.615384615385,4221.538461538462,4551.282051282052,4434.871794871796,4423.076923076924,4362.564102564103,4719.48717948718,4344.102564102564,4319.48717948718,4165.128205128206,4347.6923076923085
1036.4298,0.20478101,0.39303717,0.33333334,0.5522388,0,0.0,0.0,0.0,0.0,1.0,0,0,0.0,0.0,0,0,0.0,0.0,420.0,4654.871794871796,3893.8461538461543,4490.769230769231,4434.871794871796,4217.435897435898,4548.717948717949,4433.333333333334,4413.333333333334,4351.282051282052,4694.358974358975,4348.205128205129,4305.641025641026,4164.615384615385,4244.615384615385
1036.4298,0.20478101,0.39303717,0.33333334,0.5522388,0,0.0,0.0,0.0,0.0,1.0,0,0,0.0,0.0,0,0,0.0,0.0,420.0,4654.871794871796,3893.8461538461543,4490.769230769231,4434.871794871796,4217.435897435898,4548.717948717949,4433.333333333334,4413.333333333334,4351.282051282052,4694.358974358975,4348.205128205129,4305.641025641026,4164.615384615385,4244.615384615385
1036.9302,0.32765585,0.40725702,0.33333334,0.5522388,0,0.0,0.0,0.0,0.0,0.5285482,0,0,0.0,0.0,0,0,64.0,0.0,420.0,4678.974358974359,3920.0000000000005,4489.743589743591,4442.051282051282,4205.128205128206,4542.051282051282,4429.743589743591,4406.153846153847,4345.128205128206,4701.538461538462,4345.641025641026,4292.820512820514,4201.538461538462,4331.794871794872
1037.1492,0.32765585,0.40725702,0.33333334,0.5522388,0,0.0,0.0,0.0,0.0,0.19933772,0,0,0.0,0.0,0,0,92.0,0.0,0.0,4660.512820512821,3910.7692307692314,4487.6923076923085,4443.076923076924,4223.076923076924,4548.717948717949,4444.615384615385,4437.948717948719,4373.846153846154,4723.589743589744,4347.6923076923085,4282.051282051282,4190.769230769231,4325.641025641026
1037.4307,0.3260152,0.42121837,0.33333334,0.5522388,0,0.0,0.0,0.0,0.0,0.24531743,0,0,0.0,0.0,0,0,128.0,0.0,0.0,4624.102564102564,3898.461538461539,4471.282051282052,4430.769230769231,4224.615384615385,4544.102564102564,4441.025641025642,4429.743589743591,4358.974358974359,4712.307692307693,4350.769230769231,4260.512820512821,4212.820512820514,4342.051282051282
1037.6495,0.3260152,0.42121837,0.33333334,0.5522388,0,0.0,0.0,0.0,0.0,0.20277148,0,0,0.0,0.0,0,0,27.0,0.0,0.0,4640.000000000001,3900.0000000000005,4474.358974358975,4426.666666666667,4221.025641025642,4529.743589743591,4458.461538461539,4449.2307692307695,4392.307692307693,4743.076923076924,4347.6923076923085,4265.641025641026,4182.051282051282,4333.333333333334
1037.931,0.3831511,0.43862846,0.33333334,0.5522388,0,0.0,0.0,0.0,0.0,0.42002028,0,0,0.0,0.0,0,0,63.0,0.0,0.0,4663.589743589744,3943.076923076924,4489.2307692307695,4444.615384615385,4220.000000000001,4530.769230769231,4462.051282051282,4456.410256410257,4395.384615384616,4753.333333333334,4352.307692307693,4267.6923076923085,4185.641025641026,4386.666666666667
1038.15,0.3831511,0.43862846,0.33333334,0.5522388,0,0.0,0.0,0.0,0.0,0.31792367,0,0,0.0,0.0,0,0,91.0,0.0,387.0,4673.846153846154,3950.7692307692314,4492.820512820514,4447.179487179487,4229.74358974359,4532.307692307693,4444.615384615385,4435.384615384616,4376.410256410257,4720.000000000001,4351.282051282052,4260.000000000001,4153.333333333334,4364.102564102564
1038.4315,0.36729515,0.43486148,0.33333334,0.5522388,0,0.0,0.0,0.0,0.0,0.3405631,0,0,0.0,0.0,0,0,127.0,0.0,387.0,4661.538461538462,3940.5128205128212,4497.948717948719,4443.076923076924,4232.307692307693,4536.923076923077,4468.717948717949,4444.102564102564,4391.794871794872,4728.205128205129,4353.846153846154,4254.358974358975,4146.666666666667,4352.820512820514
1038.6504,0.36729515,0.43486148,0.33333334,0.5522388,0,0.0,0.0,0.0,0.0,1.0,0,0,0.0,0.0,0,0,26.0,0.0,0.0,4651.282051282052,3946.666666666667,4496.410256410257,4453.333333333334,4232.820512820514,4537.948717948719,4465.641025641026,4429.743589743591,4382.051282051282,4723.076923076924,4352.307692307693,4261.538461538462,4131.282051282052,4451.794871794872
1038.9319,0.37406105,0.43107215,0.33333334,0.5522388,0,0.0,0.0,0.0,0.0,1.0,0,0,0.0,0.0,0,0,62.0,0.0,0.0,4648.717948717949,3945.1282051282055,4499.48717948718,4448.717948717949,4235.8974358974365,4542.051282051282,4447.179487179487,4414.358974358975,4366.666666666667,4713.846153846154,4352.820512820514,4247.179487179487,4121.025641025642,4422.051282051282
1038.9319,0.37406105,0.43107215,0.33333334,0.5522388,0,0.0,0.0,0.0,0.0,1.0,0,0,0.0,0.0,0,0,62.0,0.0,0.0,4648.717948717949,3945.1282051282055,4499.48717948718,4448.717948717949,4235.8974358974365,4542.051282051282,4447.179487179487,4414.358974358975,4366.666666666667,4713.846153846154,4352.820512820514,4247.179487179487,4121.025641025642,4422.051282051282
1039.4324,0.37723857,0.42246535,0.33333334,0.5522388,0,0.0,0.0,0.0,0.0,1.0,0,0,0.0,0.0,0,0,126.0,0.0,592.0,4655.8974358974365,3945.6410256410263,4496.410256410257,4444.102564102564,4232.820512820514,4536.410256410257,4461.538461538462,4426.666666666667,4380.000000000001,4733.333333333334,4353.333333333334,4266.153846153847,4153.846153846154,4459.48717948718
1039.6512,0.37723857,0.42246535,0.33333334,0.5522388,0,0.0,0.0,0.0,0.0,0.96835226,0,0,0.0,0.0,0,0,25.0,0.0,0.0,4691.794871794872,3972.820512820513,4504.102564102564,4458.974358974359,4227.179487179487,4535.384615384616,4452.820512820514,4414.358974358975,4380.000000000001,4732.820512820514,4354.358974358975,4262.564102564103,4172.307692307693,4533.333333333334
1039.9327,0.3209141,0.41522297,0.33333334,0.5522388,0,0.0,0.0,0.0,0.0,0.8369171,0,0,0.0,0.0,0,0,61.0,0.0,0.0,4652.820512820514,3942.0512820512827,4502.051282051282,4456.923076923077,4241.538461538462,4541.538461538462,4473.846153846154,4445.128205128206,4393.846153846154,4747.179487179488,4352.820512820514,4263.076923076924,4169.74358974359,4564.615384615385
1040.1517,0.3209141,0.41522297,0.33333334,0.5522388,0,0.0,0.0,0.0,0.0,1.0,0,0,0.0,0.0,0,0,89.0,0.0,187.0,4649.743589743591,3950.7692307692314,4501.025641025642,4458.461538461539,4246.666666666667,4542.564102564103,4461.538461538462,4435.384615384616,4392.820512820514,4769.743589743591,4352.820512820514,4262.564102564103,4187.6923076923085,4606.153846153847
1040.4332,0.26697922,0.40943956,0.33333334,0.5522388,0,0.0,0.0,0.0,0.0,1.0,0,0,0.0,0.0,0,0,125.0,0.0,187.0,4657.435897435898,3942.564102564103,4502.564102564103,4458.974358974359,4247.6923076923085,4545.641025641026,4476.410256410257,4448.717948717949,4407.6923076923085,4765.641025641026,4354.871794871796,4251.282051282052,4194.358974358975,4534.358974358975
1040.4332,0.26697922,0.40943956,0.33333334,0.5522388,0,0.0,0.0,0.0,0.0,1.0,0,0,0.0,0.0,0,0,125.0,0.0,187.0,4657.435897435898,3942.564102564103,4502.564102564103,4458.974358974359,4247.6923076923085,4545.641025641026,4476.410256410257,4448.717948717949,4407.6923076923085,4765.641025641026,4354.871794871796,4251.282051282052,4194.358974358975,4534.358974358975
1040.9336,0.24284226,0.38957405,0.33333334,0.5522388,0,0.0,0.0,0.0,0.0,1.0,0,0,0.0,0.0,0,0,60.0,0.0,0.0,4663.076923076924,3943.076923076924,4501.025641025642,4457.435897435898,4247.6923076923085,4555.8974358974365,4476.923076923077,4452.307692307693,4412.820512820514,4757.435897435898,4354.871794871796,4261.538461538462,4203.589743589744,4578.974358974359
1040.9336,0.24284226,0.38957405,0.33333334,0.5522388,0,0.0,0.0,0.0,0.0,1.0,0,0,0.0,0.0,0,0,60.0,0.0,0.0,4663.076923076924,3943.076923076924,4501.025641025642,4457.435897435898,4247.6923076923085,4555.8974358974365,4476.923076923077,4452.307692307693,4412.820512820514,4757.435897435898,4354.871794871796,4261.538461538462,4203.589743589744,4578.974358974359
1041.4341,0.25911933,0.35532296,0.33333334,0.5522388,0,0.0,0.0,0.0,0.0,0.6000371,0,0,0.0,0.0,0,0,124.0,0.0,0.0,4658.461538461539,3930.2564102564106,4498.974358974359,4446.153846153847,4243.076923076924,4541.025641025642,4469.2307692307695,4460.512820512821,4416.923076923077,4760.512820512821,4356.410256410257,4264.615384615385,4215.384615384616,4542.051282051282
1041.653,0.25911933,0.35532296,0.33333334,0.5522388,0,0.0,0.0,0.0,0.0,0.71739525,0,0,0.0,0.0,0,0,23.0,0.0,0.0,4649.743589743591,3946.666666666667,4500.512820512821,4453.333333333334,4244.102564102564,4543.076923076924,4447.179487179487,4430.769230769231,4392.307692307693,4728.205128205129,4353.333333333334,4252.307692307693,4181.025641025642,4569.743589743591
1041.9344,0.2629929,0.3253765,0.33333334,0.5522388,0,0.0,0.0,0.0,0.0,0.48914346,0,0,0.0,0.0,0,0,59.0,0.0,0.0,4654.358974358975,3960.0000000000005,4503.589743589744,4457.435897435898,4245.641025641026,4540.000000000001,4458.974358974359,4442.564102564103,4394.871794871796,4733.846153846154,4352.820512820514,4249.74358974359,4183.076923076924,4565.641025641026
1042.1534,0.2629929,0.3253765,0.33333334,0.5522388,0,0.0,0.0,0.0,0.0,0.5238808,0,0,0.0,0.0,0,0,87.0,0.0,382.0,4653.846153846154,3947.1794871794878,4503.589743589744,4443.589743589744,4237.435897435898,4537.948717948719,4459.48717948718,4429.743589743591,4390.769230769231,4730.769230769231,4352.820512820514,4250.256410256411,4181.025641025642,4475.384615384616
1042.4349,0.2561533,0.30773938,0.33333334,0.5522388,0,0.0,0.0,0.0,0.0,0.42915857,0,0,0.0,0.0,0,0,123.0,0.0,382.0,4654.358974358975,3952.307692307693,4500.000000000001,4455.384615384616,4248.717948717949,4544.615384615385,4473.846153846154,4451.282051282052,4411.282051282052,4763.076923076924,4353.846153846154,4252.307692307693,4201.025641025642,4599.48717948718
1042.6538,0.2561533,0.30773938,0.33333334,0.5522388,0,0.0,0.0,0.0,0.0,0.5465908,0,0,0.0,0.0,0,0,22.0,0.0,0.0,4653.333333333334,3943.076923076924,4504.615384615385,4448.717948717949,4248.205128205129,4541.025641025642,4469.743589743591,4438.974358974359,4426.153846153847,4731.794871794872,4354.358974358975,4235.8974358974365,4187.179487179487,4600.512820512821
1042.9353,0.24562658,0.2826567,0.33333334,0.5522388,0,0.0,0.0,0.0,0.0,0.29181346,0,0,0.0,0.0,0,0,58.0,0.0,0.0,4642.564102564103,3945.1282051282055,4504.102564102564,4444.615384615385,4238.974358974359,4538.974358974359,4456.923076923077,4409.743589743591,4400.000000000001,4720.512820512821,4354.358974358975,4233.333333333334,4172.307692307693,4594.358974358975
1043.1543,0.24562658,0.2826567,0.33333334,0.5522388,0,0.0,0.0,0.0,0.0,0.41139576,0,0,0.0,0.0,0,0,86.0,0.0,592.0,4657.435897435898,3957.9487179487182,4504.615384615385,4457.948717948719,4244.102564102564,4546.153846153847,4456.410256410257,4423.589743589744,4406.666666666667,4716.923076923077,4350.769230769231,4231.794871794872,4182.051282051282,4606.153846153847
1043.4358,0.26267228,0.2728772,0.33333334,0.5522388,0,0.0,0.0,0.0,0.0,0.12631643,0,0,0.0,0.0,0,0,122.0,0.0,592.0,4657.435897435898,3957.9487179487182,4514.358974358975,4458.974358974359,4248.717948717949,4551.794871794872,4463.589743589744,4444.102564102564,4426.153846153847,4757.435897435898,4351.282051282052,4231.282051282052,4214.358974358975,4612.820512820514
1043.6547,0.26267228,0.2728772,0.33333334,0.5522388,0,0.0,0.0,0.0,0.0,0.18925114,0,0,0.0,0.0,0,0,21.0,0.0,0.0,4655.8974358974365,3959.48717948718,4509.743589743591,4459.48717948718,4247.6923076923085,4554.871794871796,4474.358974358975,4439.48717948718,4427.179487179487,4750.256410256411,4351.282051282052,4232.307692307693,4207.179487179487,4573.333333333334
1043.9362,0.2250234,0.26840854,0.33333334,0.5522388,0,0.0,0.0,0.0,0.0,0.15435094,0,0,0.0,0.0,0,0,57.0,0.0,0.0,4648.205128205129,3942.564102564103,4501.025641025642,4445.641025641026,4248.717948717949,4551.282051282052,4462.051282051282,4422.564102564103,4413.333333333334,4753.333333333334,4355.8974358974365,4233.333333333334,4219.48717948718,4611.282051282052
1044.03,0.2250234,0.26840854,0.33333334,0.5522388,0,0.0,0.0,0.0,0.0,0.0,0,0,0.0,0.0,0,0,69.0,0.0,582.0,4650.769230769231,3945.1282051282055,4504.615384615385,4446.666666666667,4248.205128205129,4553.333333333334,4460.000000000001,4429.2307692307695,4420.000000000001,4757.948717948719,4354.871794871796,4235.384615384616,4222.051282051282,4609.2307692307695
1044.4366,0.22296047,0.26750746,0.33333334,0.5522388,0,0.0,0.0,0.0,0.0,0.0,0,0,0.0,0.0,0,0,121.0,0.0,186.0,4636.410256410257,3948.717948717949,4499.48717948718,4448.205128205129,4248.205128205129,4546.153846153847,4459.48717948718,4447.6923076923085,4426.153846153847,4749.2307692307695,4350.256410256411,4223.076923076924,4199.48717948718,4607.179487179488
1044.4366,0.22296047,0.26750746,0.33333334,0.5522388,0,0.0,0.0,0.0,0.0,0.0,0,0,0.0,0.0,0,0,121.0,0.0,186.0,4636.410256410257,3948.717948717949,4499.48717948718,4448.205128205129,4248.205128205129,4546.153846153847,4459.48717948718,4447.6923076923085,4426.153846153847,4749.2307692307695,4350.256410256411,4223.076923076924,4199.48717948718,4607.179487179488
1044.937,0.20653409,0.26995885,0.33333334,0.5522388,0,0.0,0.0,0.0,0.0,0.0,0,0,0.0,0.0,0,0,56.0,0.0,0.0,4643.076923076924,3942.0512820512827,4495.384615384616,4443.589743589744,4246.153846153847,4539.48717948718,4457.948717948719,4432.820512820514,4401.025641025642,4732.820512820514,4356.410256410257,4214.358974358975,4215.8974358974365,4609.2307692307695
1044.937,0.20653409,0.26995885,0.33333334,0.5522388,0,0.0,0.0,0.0,0.0,0.0,0,0,0.0,0.0,0,0,56.0,0.0,0.0,4643.076923076924,3942.0512820512827,4495.384615384616,4443.589743589744,4246.153846153847,4539.48717948718,4457.948717948719,4432.820512820514,4401.025641025642,4732.820512820514,4356.410256410257,4214.358974358975,4215.8974358974365,4609.2307692307695
1045.4375,0.15451765,0.2719922,0.33333334,0.5522388,0,0.0,0.0,0.0,0.0,0.12837288,0,0,0.0,0.0,0,0,120.0,0.0,0.0,4657.948717948719,3938.9743589743593,4496.923076923077,4443.589743589744,4246.666666666667,4537.435897435898,4460.512820512821,4442.564102564103,4410.256410256411,4733.846153846154,4355.8974358974365,4234.358974358975,4215.384615384616,4580.000000000001
1045.6564,0.15451765,0.2719922,0.33333334,0.5522388,0,0.0,0.0,0.0,0.0,0.10018001,0,0,0.0,0.0,0,0,19.0,0.0,0.0,4649.743589743591,3941.538461538462,4500.000000000001,4443.076923076924,4246.666666666667,4538.974358974359,4462.051282051282,4446.666666666667,4413.846153846154,4744.102564102564,4355.8974358974365,4241.538461538462,4213.333333333334,4573.846153846154
1045.9379,0.12740986,0.26592642,0.33333334,0.5522388,0,0.0,0.0,0.0,0.0,0.17583355,0,0,0.0,0.0,0,0,55.0,0.0,0.0,4664.615384615386,3949.2307692307695,4511.794871794872,4460.000000000001,4249.2307692307695,4552.307692307693,4459.48717948718,4457.948717948719,4424.615384615385,4753.846153846154,4355.8974358974365,4248.717948717949,4231.282051282052,4568.717948717949
1046.0317,0.12740986,0.26592642,0.33333334,0.5522388,0,0.0,0.0,0.0,0.0,0.0,0,0,0.0,0.0,0,0,67.0,0.0,568.0,4666.153846153847,3935.3846153846157,4504.102564102564,4444.102564102564,4250.769230769231,4550.256410256411,4480.512820512821,4464.615384615385,4426.666666666667,4755.384615384616,4354.358974358975,4251.282051282052,4235.8974358974365,4567.179487179488
1046.4384,0.16165328,0.2665166,0.33333334,0.5522388,0,0.0,0.0,0.0,0.0,0.0,0,0,0.0,0.0,0,0,119.0,0.0,382.0,4663.076923076924,3941.0256410256416,4508.205128205129,4450.256410256411,4246.153846153847,4541.025641025642,4454.358974358975,4438.974358974359,4402.051282051282,4740.000000000001,4356.923076923077,4264.102564102564,4217.435897435898,4559.48717948718
1046.4384,0.16165328,0.2665166,0.33333334,0.5522388,0,0.0,0.0,0.0,0.0,0.0,0,0,0.0,0.0,0,0,119.0,0.0,382.0,4663.076923076924,3941.0256410256416,4508.205128205129,4450.256410256411,4246.153846153847,4541.025641025642,4454.358974358975,4438.974358974359,4402.051282051282,4740.000000000001,4356.923076923077,4264.102564102564,4217.435897435898,4559.48717948718
1046.9387,0.22120251,0.2802921,0.33333334,0.5522388,0,0.0,0.0,0.0,0.0,0.0,0,0,0.0,0.0,0,0,54.0,0.0,0.0,4626.666666666667,3953.333333333334,4508.717948717949,4454.358974358975,4245.641025641026,4545.641025641026,4456.410256410257,4429.2307692307695,4392.307692307693,4713.846153846154,4355.384615384616,4247.179487179487,4165.641025641026,4555.8974358974365
1047.1577,0.22120251,0.2802921,0.33333334,0.5522388,0,0.0,0.0,0.0,0.0,0.1066589,0,0,0.0,0.0,0,0,82.0,0.0,592.0,4637.435897435898,3945.1282051282055,4508.717948717949,4448.205128205129,4240.512820512821,4541.538461538462,4446.666666666667,4426.666666666667,4383.076923076924,4716.410256410257,4353.846153846154,4247.6923076923085,4182.051282051282,4550.769230769231
1047.4392,0.27582046,0.30030224,0.33333334,0.5522388,0,0.0,0.0,0.0,0.0,0.0,0,0,0.0,0.0,0,0,118.0,0.0,592.0,4646.666666666667,3926.666666666667,4494.358974358975,4443.589743589744,4237.948717948719,4537.948717948719,4444.102564102564,4435.8974358974365,4392.307692307693,4735.384615384616,4352.820512820514,4262.564102564103,4220.512820512821,4544.615384615385
1047.4392,0.27582046,0.30030224,0.33333334,0.5522388,0,0.0,0.0,0.0,0.0,0.0,0,0,0.0,0.0,0,0,118.0,0.0,592.0,4646.666666666667,3926.666666666667,4494.358974358975,4443.589743589744,4237.948717948719,4537.948717948719,4444.102564102564,4435.8974358974365,4392.307692307693,4735.384615384616,4352.820512820514,4262.564102564103,4220.512820512821,4544.615384615385
1047.9397,0.28138837,0.33160254,0.33333334,0.5522388,0,0.0,0.0,0.0,0.0,0.0,0,0,0.0,0.0,0,0,53.0,0.0,0.0,4633.846153846154,3940.0000000000005,4501.538461538462,4445.128205128206,4243.589743589744,4539.48717948718,4460.000000000001,4451.794871794872,4396.410256410257,4737.435897435898,4351.794871794872,4280.512820512821,4201.025641025642,4543.076923076924
1047.9397,0.28138837,0.33160254,0.33333334,0.5522388,0,0.0,0.0,0.0,0.0,0.0,0,0,0.0,0.0,0,0,53.0,0.0,0.0,4633.846153846154,3940.0000000000005,4501.538461538462,4445.128205128206,4243.589743589744,4539.48717948718,4460.000000000001,4451.794871794872,4396.410256410257,4737.435897435898,4351.794871794872,4280.512820512821,4201.025641025642,4543.076923076924
1048.4401,0.24583451,0.34380704,0.33333334,0.5522388,0,0.0,0.0,0.0,0.0,0.053480636,0,0,0.0,0.0,0,0,117.0,0.0,186.0,4629.743589743591,3925.1282051282055,4503.589743589744,4443.589743589744,4242.051282051282,4538.974358974359,4469.743589743591,4437.948717948719,4390.256410256411,4749.2307692307695,4356.410256410257,4280.512820512821,4221.538461538462,4551.282051282052
1048.659,0.24583451,0.34380704,0.33333334,0.5522388,0,0.0,0.0,0.0,0.0,0.035783015,0,0,0.0,0.0,0,0,16.0,0.0,0.0,4625.641025641026,3925.1282051282055,4496.923076923077,4442.564102564103,4240.512820512821,4536.923076923077,4456.410256410257,4422.051282051282,4385.641025641026,4721.538461538462,4350.256410256411,4278.974358974359,4203.076923076924,4534.871794871796
1048.9406,0.21277516,0.3438488,0.33333334,0.5522388,0,0.0,0.0,0.0,0.0,0.0,0,0,0.0,0.0,0,0,52.0,0.0,0.0,4631.282051282052,3942.0512820512827,4494.871794871796,4446.153846153847,4237.948717948719,4538.974358974359,4441.025641025642,4423.076923076924,4381.538461538462,4730.256410256411,4355.384615384616,4261.538461538462,4184.615384615385,4528.717948717949
1049.1594,0.21277516,0.3438488,0.33333334,0.5522388,0,0.0,0.0,0.0,0.0,0.0,0,0,0.0,0.0,0,0,80.0,0.0,0.0,4637.435897435898,3948.205128205129,4498.461538461539,4453.846153846154,4247.179487179487,4550.769230769231,4455.384615384616,4426.666666666667,4381.025641025642,4728.717948717949,4352.307692307693,4278.461538461539,4187.179487179487,4540.512820512821
1049.4409,0.21190766,0.32956704,0.33333334,0.5522388,0,0.0,0.0,0.0,0.0,0.0,0,0,0.0,0.0,0,0,116.0,0.0,0.0,4649.2307692307695,3945.1282051282055,4500.000000000001,4449.743589743591,4245.641025641026,4539.48717948718,4461.538461538462,4435.8974358974365,4384.615384615385,4738.461538461539,4356.923076923077,4276.923076923077,4196.923076923077,4540.000000000001
1049.4409,0.21190766,0.32956704,0.33333334,0.5522388,0,0.0,0.0,0.0,0.0,0.0,0,0,0.0,0.0,0,0,116.0,0.0,0.0,4649.2307692307695,3945.1282051282055,4500.000000000001,4449.743589743591,4245.641025641026,4539.48717948718,4461.538461538462,4435.8974358974365,4384.615384615385,4738.461538461539,4356.923076923077,4276.923076923077,4196.923076923077,4540.000000000001
1049.9414,0.19911236,0.31494656,0.33333334,0.5522388,0,0.0,0.0,0.0,0.0,0.0,0,0,0.0,0.0,0,0,51.0,0.0,0.0,4659.48717948718,3957.9487179487182,4501.538461538462,4455.8974358974365,4244.615384615385,4540.512820512821,4454.358974358975,4423.076923076924,4392.820512820514,4751.794871794872,4354.871794871796,4267.179487179487,4214.358974358975,4541.538461538462
1050.1603,0.19911236,0.31494656,0.33333334,0.5522388,0,0.0,0.0,0.0,0.0,0.0531249,0,0,0.0,0.0,0,0,79.0,0.0,382.0,4645.641025641026,3939.48717948718,4493.333333333334,4444.615384615385,4232.307692307693,4538.461538461539,4455.384615384616,4408.205128205129,4377.948717948719,4731.794871794872,4350.769230769231,4265.128205128206,4188.717948717949,4530.769230769231
1050.4418,0.18422966,0.29146045,0.33333334,0.5522388,0,0.0,0.0,0.0,0.0,0.0,0,0,0.0,0.0,0,0,115.0,0.0,382.0,4658.461538461539,3933.333333333334,4501.025641025642,4445.128205128206,4245.641025641026,4544.615384615385,4476.410256410257,4464.615384615385,4408.717948717949,4758.974358974359,4353.333333333334,4261.025641025642,4200.000000000001,4540.000000000001
1050.4418,0.18422966,0.29146045,0.33333334,0.5522388,0,0.0,0.0,0.0,0.0,0.0,0,0,0.0,0.0,0,0,115.0,0.0,382.0,4658.461538461539,3933.333333333334,4501.025641025642,4445.128205128206,4245.641025641026,4544.615384615385,4476.410256410257,4464.615384615385,4408.717948717949,4758.974358974359,4353.333333333334,4261.025641025642,4200.000000000001,4540.000000000001
1050.9423,0.187602,0.2825716,0.33333334,0.5522388,0,0.0,0.0,0.0,0.0,0.0,0,0,0.0,0.0,0,0,50.0,0.0,0.0,4656.410256410257,3943.076923076924,4501.538461538462,4446.666666666667,4246.666666666667,4544.102564102564,4454.871794871796,4424.102564102564,4392.820512820514,4740.512820512821,4352.307692307693,4250.256410256411,4176.923076923077,4530.769230769231
1051.1611,0.187602,0.2825716,0.33333334,0.5522388,0,0.0,0.0,0.0,0.0,0.0,0,0,0.18605393,0.0,0,0,78.0,0.0,592.0,4641.538461538462,3946.666666666667,4496.410256410257,4449.743589743591,4247.6923076923085,4545.128205128206,4456.923076923077,4430.769230769231,4387.6923076923085,4748.717948717949,4345.641025641026,4248.205128205129,4182.564102564103,4525.641025641026
1051.4426,0.16330506,0.27812985,0.33333334,0.5522388,0,0.0,0.0,0.0,0.0,0.13407874,0,0,0.0,0.0,0,0,114.0,0.0,592.0,4632.307692307693,3938.9743589743593,4491.282051282052,4444.102564102564,4241.025641025642,4537.948717948719,4441.538461538462,4423.589743589744,4393.846153846154,4754.358974358975,4354.358974358975,4248.717948717949,4191.282051282052,4509.2307692307695
1051.5365,0.16330506,0.27812985,0.33333334,0.5522388,0,0.0,0.0,0.0,0.0,0.0,0,0,0.0,0.0,0,0,126.0,0.0,592.0,4620.000000000001,3944.615384615385,4491.282051282052,4446.153846153847,4243.589743589744,4538.461538461539,4452.820512820514,4414.871794871796,4382.564102564103,4742.051282051282,4354.871794871796,4249.74358974359,4179.48717948718,4506.666666666667
1051.9431,0.15665862,0.28232792,0.33333334,0.5522388,0,0.0,0.0,0.0,0.0,0.0,0,0,0.0,0.0,0,0,49.0,0.0,0.0,4627.179487179488,3949.2307692307695,4502.051282051282,4460.000000000001,4263.589743589744,4560.512820512821,4471.794871794872,4454.358974358975,4419.48717948718,4780.000000000001,4354.358974358975,4251.282051282052,4196.923076923077,4509.2307692307695
1051.9431,0.15665862,0.28232792,0.33333334,0.5522388,0,0.0,0.0,0.0,0.0,0.0,0,0,0.0,0.0,0,0,49.0,0.0,0.0,4627.179487179488,3949.2307692307695,4502.051282051282,4460.000000000001,4263.589743589744,4560.512820512821,4471.794871794872,4454.358974358975,4419.48717948718,4780.000000000001,4354.358974358975,4251.282051282052,4196.923076923077,4509.2307692307695
1052.4435,0.11595197,0.29329857,0.33333334,0.5522388,0,0.0,0.0,0.0,0.0,0.0,0,0,0.0,0.0,0,0,113.0,0.0,186.0,4625.641025641026,3946.1538461538466,4486.666666666667,4445.128205128206,4244.102564102564,4537.948717948719,4456.923076923077,4446.153846153847,4414.358974358975,4776.410256410257,4350.769230769231,4266.153846153847,4198.974358974359,4513.333333333334
1052.4435,0.11595197,0.29329857,0.33333334,0.5522388,0,0.0,0.0,0.0,0.0,0.0,0,0,0.0,0.0,0,0,113.0,0.0,186.0,4625.641025641026,3946.1538461538466,4486.666666666667,4445.128205128206,4244.102564102564,4537.948717948719,4456.923076923077,4446.153846153847,4414.358974358975,4776.410256410257,4350.769230769231,4266.153846153847,4198.974358974359,4513.333333333334
1052.944,0.112384334,0.30449024,0.33333334,0.5522388,0,0.0,0.0,0.0,0.0,0.0,0,0,0.0,0.0,0,0,48.0,0.0,0.0,4615.8974358974365,3930.7692307692314,4486.153846153847,4435.384615384616,4230.769230769231,4537.948717948719,4450.769230769231,4431.794871794872,4393.846153846154,4741.538461538462,4351.794871794872,4265.641025641026,4178.461538461539,4510.256410256411
1052.944,0.112384334,0.30449024,0.33333334,0.5522388,0,0.0,0.0,0.0,0.0,0.0,0,0,0.0,0.0,0,0,48.0,0.0,0.0,4615.8974358974365,3930.7692307692314,4486.153846153847,4435.384615384616,4230.769230769231,4537.948717948719,4450.769230769231,4431.794871794872,4393.846153846154,4741.538461538462,4351.794871794872,4265.641025641026,4178.461538461539,4510.256410256411
1053.4443,0.112830736,0.34438118,0.33333334,0.5522388,0,0.0,0.0,0.0,0.0,0.2760815,0,0,0.0,0.0,0,0,112.0,0.0,0.0,4664.102564102564,3957.9487179487182,4492.820512820514,4444.615384615385,4233.846153846154,4529.743589743591,4460.000000000001,4441.025641025642,4384.102564102564,4731.282051282052,4350.256410256411,4264.615384615385,4196.923076923077,4546.153846153847
1053.6633,0.112830736,0.34438118,0.33333334,0.5522388,0,0.0,0.0,0.0,0.0,0.15375067,0,0,0.0,0.0,0,0,11.0,0.0,382.0,4651.282051282052,3957.435897435898,4506.666666666667,4448.717948717949,4236.923076923077,4537.948717948719,4456.923076923077,4445.128205128206,4395.8974358974365,4755.384615384616,4349.743589743591,4271.282051282052,4198.974358974359,4538.461538461539
