timestamp,excitement,frustration,meditation,engagementBoredom,blink,clench,laugh,smile,eyebrow,furrowBrow,lookLeft,lookRight,smirkLeft,smirkRight,winkLeft,winkRight,eeg0,eeg1,eeg2,eeg3,eeg4,eeg5,eeg6,eeg7,eeg8,eeg9,eeg10,eeg11,eeg12,eeg13,eeg14,eeg15,eeg16
1183.3998,0.56837296,0.7755,0.33333334,0.5522388,0,0.0,0.0,0.0,0.0,0.0823223,0,0,0.0,0.0,0,0,91.0,0.0,385.0,4595.8974358974365,3915.8974358974365,4493.846153846154,4474.871794871796,4246.666666666667,4536.410256410257,4426.666666666667,4411.794871794872,4382.564102564103,4694.358974358975,4341.538461538462,4234.871794871796,4159.48717948718,4522.051282051282
1183.65,0.5922337,0.7946204,0.33333334,0.5522388,0,0.0,0.0,0.0,0.0,0.11691537,0,0,0.0,0.0,0,0,123.0,0.0,385.0,4632.820512820514,3934.8717948717954,4509.2307692307695,4479.48717948718,4254.358974358975,4550.256410256411,4450.769230769231,4455.8974358974365,4416.410256410257,4716.410256410257,4340.000000000001,4243.076923076924,4196.410256410257,4530.769230769231
1183.9003,0.5922337,0.7946204,0.33333334,0.5522388,0,0.0,0.0,0.0,0.0,1.0,0,0,0.0,0.0,0,0,26.0,0.0,0.0,4662.564102564103,3927.692307692308,4502.564102564103,4473.846153846154,4248.717948717949,4541.025641025642,4449.2307692307695,4417.948717948719,4385.128205128206,4675.384615384616,4336.410256410257,4242.051282051282,3973.8461538461543,925.1282051282052
1184.0566,0.56886804,0.82331836,0.33333334,0.5522388,0,0.0,0.0,0.0,0.0,1.0,0,0,0.0,0.0,0,0,46.0,0.0,0.0,4676.410256410257,3938.9743589743593,4504.102564102564,4479.48717948718,4237.948717948719,4538.974358974359,4453.333333333334,4431.282051282052,4388.717948717949,4691.794871794872,4337.435897435898,4243.076923076924,4092.307692307693,1982.5641025641028
1184.0566,0.56886804,0.82331836,0.33333334,0.5522388,0,0.0,0.0,0.0,0.0,1.0,0,0,0.0,0.0,0,0,46.0,0.0,0.0,4676.410256410257,3938.9743589743593,4504.102564102564,4479.48717948718,4237.948717948719,4538.974358974359,4453.333333333334,4431.282051282052,4388.717948717949,4691.794871794872,4337.435897435898,4243.076923076924,4092.307692307693,1982.5641025641028
1184.557,0.58449,0.8589059,0.33333334,0.5522388,0,0.0,0.0,0.0,0.0,1.0,0,0,0.0,0.0,0,0,110.0,0.0,588.0,4647.6923076923085,3960.0000000000005,4504.102564102564,4491.282051282052,4262.564102564103,4556.923076923077,4460.000000000001,4447.179487179487,4415.8974358974365,4738.461538461539,4327.6923076923085,4263.589743589744,4237.948717948719,4891.282051282052
1184.9011,0.58449,0.8589059,0.33333334,0.5522388,0,0.0,0.0,0.0,0.0,0.2080009,0,0,0.0,0.0,0,0,25.0,0.0,0.0,4618.461538461539,3967.692307692308,4504.615384615385,4334.358974358975,4271.794871794872,4563.589743589744,4461.538461538462,4446.153846153847,4405.128205128206,4701.025641025642,4339.48717948718,4277.435897435898,4183.589743589744,4881.538461538462
1185.1514,0.5350461,0.89351654,0.33333334,0.5522388,0,0.0,0.26285172,0.0,0.0,0.0,0,0,0.0,0.0,0,0,57.0,0.0,0.0,4617.948717948719,3955.3846153846157,4498.974358974359,4350.769230769231,4267.179487179487,4557.435897435898,4458.461538461539,4457.435897435898,4409.743589743591,4718.461538461539,4345.641025641026,4276.923076923077,4189.74358974359,4875.8974358974365
1185.4015,0.5350461,0.89351654,0.33333334,0.5522388,0,0.0,0.0,0.0,0.0,0.0,0,0,0.0,0.0,0,0,89.0,0.0,165.0,4614.358974358975,3943.076923076924,4507.6923076923085,4371.794871794872,4265.641025641026,4559.48717948718,4465.128205128206,4459.48717948718,4412.820512820514,4717.435897435898,4346.153846153847,4266.153846153847,4194.358974358975,4845.128205128206
1185.6517,0.52752286,0.89126116,0.33333334,0.5522388,0,0.0,0.0,0.0,0.0,0.1977785,0,0,0.0,0.0,0,0,121.0,0.0,165.0,4625.128205128206,3956.410256410257,4500.512820512821,4388.205128205129,4262.051282051282,4555.8974358974365,4476.410256410257,4427.6923076923085,4403.589743589744,4705.128205128206,4346.153846153847,4267.179487179487,4186.153846153847,4806.666666666667
1185.902,0.52752286,0.89126116,0.33333334,0.5522388,0,0.0,0.0,0.0,0.0,0.13011543,0,0,0.0,0.0,0,0,24.0,0.0,0.0,4605.128205128206,3957.9487179487182,4507.6923076923085,4410.256410256411,4267.6923076923085,4558.461538461539,4462.051282051282,4433.333333333334,4414.358974358975,4713.846153846154,4346.666666666667,4262.051282051282,4177.948717948719,4771.794871794872
1186.1522,0.50375235,0.881628,0.33333334,0.5522388,0,0.0,0.0,0.0,0.0,0.35628808,0,0,0.0,0.0,0,0,56.0,0.0,0.0,4618.974358974359,3955.8974358974365,4508.717948717949,4416.410256410257,4263.076923076924,4553.333333333334,4452.307692307693,4429.2307692307695,4415.8974358974365,4731.794871794872,4346.666666666667,4264.615384615385,4221.025641025642,4750.769230769231
1186.4023,0.50375235,0.881628,0.33333334,0.5522388,0,0.0,0.0,0.0,0.0,0.4918597,0,0,0.0,0.0,0,0,88.0,0.0,0.0,4616.923076923077,3958.461538461539,4512.307692307693,4431.282051282052,4262.564102564103,4556.410256410257,4461.025641025642,4433.846153846154,4422.564102564103,4738.461538461539,4346.153846153847,4266.153846153847,4224.102564102564,4720.000000000001
1186.6526,0.4226055,0.8437225,0.33333334,0.5522388,0,0.0,0.0,0.0,0.0,0.50183487,0,0,0.0,0.0,0,0,120.0,0.0,0.0,4614.871794871796,3943.076923076924,4509.2307692307695,4430.256410256411,4256.923076923077,4555.384615384616,4458.461538461539,4412.820512820514,4395.384615384616,4714.871794871796,4354.358974358975,4260.000000000001,4211.794871794872,4687.179487179488
1186.9028,0.4226055,0.8437225,0.33333334,0.5522388,0,0.0,0.0,0.0,0.0,0.23475096,0,0,0.0,0.0,0,0,23.0,0.0,0.0,4629.2307692307695,3952.820512820513,4507.179487179488,4430.256410256411,4256.410256410257,4554.358974358975,4463.589743589744,4445.128205128206,4408.717948717949,4725.128205128206,4341.538461538462,4252.307692307693,4215.8974358974365,4662.564102564103
1187.1531,0.4178439,0.78383493,0.33333334,0.5522388,0,0.0,0.0,0.0,0.0,0.084569365,0,0,0.0,0.0,0,0,55.0,0.0,0.0,4610.256410256411,3945.1282051282055,4511.282051282052,4431.794871794872,4246.666666666667,4542.564102564103,4446.666666666667,4420.512820512821,4393.333333333334,4715.384615384616,4345.128205128206,4258.461538461539,4193.846153846154,4633.846153846154
1187.4032,0.4178439,0.78383493,0.33333334,0.5522388,0,0.0,0.0,0.0,0.0,0.13653453,0,0,0.0,0.0,0,0,87.0,0.0,374.0,4611.282051282052,3947.692307692308,4517.435897435898,4442.051282051282,4251.282051282052,4554.871794871796,4464.102564102564,4445.641025641026,4418.461538461539,4741.538461538462,4345.128205128206,4249.74358974359,4203.076923076924,4623.589743589744
1187.5596,0.4212619,0.7277694,0.33333334,0.5522388,0,0.0,0.0,0.0,0.0,0.0,0,0,0.0,0.0,0,0,107.0,0.0,374.0,4606.153846153847,3946.1538461538466,4509.743589743591,4442.051282051282,4248.717948717949,4554.358974358975,4458.461538461539,4441.538461538462,4409.743589743591,4717.435897435898,4344.102564102564,4248.717948717949,4171.282051282052,4604.102564102564
1187.5596,0.4212619,0.7277694,0.33333334,0.5522388,0,0.0,0.0,0.0,0.0,0.0,0,0,0.0,0.0,0,0,107.0,0.0,374.0,4606.153846153847,3946.1538461538466,4509.743589743591,4442.051282051282,4248.717948717949,4554.358974358975,4458.461538461539,4441.538461538462,4409.743589743591,4717.435897435898,4344.102564102564,4248.717948717949,4171.282051282052,4604.102564102564
1188.06,0.3752602,0.66361237,0.33333334,0.5522388,0,0.0,0.0,0.0,0.0,0.0,0,0,0.0,0.0,0,0,42.0,0.0,0.0,4614.358974358975,3941.0256410256416,4506.153846153847,4443.076923076924,4243.589743589744,4548.205128205129,4446.153846153847,4433.333333333334,4402.564102564103,4708.205128205129,4347.6923076923085,4246.666666666667,4173.846153846154,4585.128205128206
1188.06,0.3752602,0.66361237,0.33333334,0.5522388,0,0.0,0.0,0.0,0.0,0.0,0,0,0.0,0.0,0,0,42.0,0.0,0.0,4614.358974358975,3941.0256410256416,4506.153846153847,4443.076923076924,4243.589743589744,4548.205128205129,4446.153846153847,4433.333333333334,4402.564102564103,4708.205128205129,4347.6923076923085,4246.666666666667,4173.846153846154,4585.128205128206
1188.6543,0.31607908,0.61908394,0.33333334,0.5522388,0,0.0,0.0,0.0,0.0,0.08700568,0,0,0.0,0.0,0,0,118.0,0.0,588.0,4601.538461538462,3928.205128205129,4506.153846153847,4437.948717948719,4235.384615384616,4543.076923076924,4430.769230769231,4434.358974358975,4400.000000000001,4705.641025641026,4345.641025641026,4249.74358974359,4152.820512820514,4552.307692307693
1188.9045,0.31607908,0.61908394,0.33333334,0.5522388,0,0.0,0.0,0.0,0.0,0.11725737,0,0,0.0,0.0,0,0,21.0,0.0,0.0,4627.179487179488,3942.0512820512827,4514.871794871796,4443.076923076924,4240.000000000001,4543.076923076924,4437.948717948719,4427.6923076923085,4397.435897435898,4713.333333333334,4346.153846153847,4246.153846153847,4160.000000000001,4541.538461538462
1189.0609,0.2898466,0.59235114,0.33333334,0.5522388,0,0.0,0.0,0.0,0.0,0.0,0,0,0.0,0.0,0,0,41.0,0.0,0.0,4646.153846153847,3951.7948717948725,4522.564102564103,4455.384615384616,4255.8974358974365,4558.974358974359,4450.256410256411,4431.282051282052,4412.820512820514,4730.769230769231,4345.641025641026,4264.615384615385,4184.102564102564,4565.641025641026
1189.0609,0.2898466,0.59235114,0.33333334,0.5522388,0,0.0,0.0,0.0,0.0,0.0,0,0,0.0,0.0,0,0,41.0,0.0,0.0,4646.153846153847,3951.7948717948725,4522.564102564103,4455.384615384616,4255.8974358974365,4558.974358974359,4450.256410256411,4431.282051282052,4412.820512820514,4730.769230769231,4345.641025641026,4264.615384615385,4184.102564102564,4565.641025641026
1189.5614,0.32872614,0.56323427,0.33333334,0.5522388,0,0.0,0.0,0.0,0.0,0.0,0,0,0.0,0.0,0,0,105.0,0.0,165.0,4646.666666666667,3929.7435897435903,4510.256410256411,4436.923076923077,4234.871794871796,4540.512820512821,4458.461538461539,4469.743589743591,4433.846153846154,4747.179487179488,4353.846153846154,4264.615384615385,4198.461538461539,4552.820512820514
1189.5614,0.32872614,0.56323427,0.33333334,0.5522388,0,0.0,0.0,0.0,0.0,0.0,0,0,0.0,0.0,0,0,105.0,0.0,165.0,4646.666666666667,3929.7435897435903,4510.256410256411,4436.923076923077,4234.871794871796,4540.512820512821,4458.461538461539,4469.743589743591,4433.846153846154,4747.179487179488,4353.846153846154,4264.615384615385,4198.461538461539,4552.820512820514
1190.0618,0.36724055,0.5500293,0.33333334,0.5522388,0,0.0,0.0,0.0,0.0,0.0,0,0,0.0,0.0,0,0,40.0,0.0,0.0,4654.358974358975,3938.9743589743593,4511.282051282052,4442.051282051282,4246.666666666667,4551.282051282052,4468.717948717949,4467.179487179487,4434.358974358975,4743.589743589744,4352.307692307693,4254.871794871796,4181.025641025642,4554.358974358975
1190.4059,0.36724055,0.5500293,0.33333334,0.5522388,0,0.0,0.0,0.0,0.0,1.0,0,0,0.0,0.0,0,0,84.0,0.0,0.0,4631.282051282052,3954.358974358975,4510.769230769231,4446.666666666667,4237.948717948719,4540.512820512821,4458.974358974359,4456.923076923077,4412.307692307693,4686.153846153847,4352.820512820514,4245.641025641026,4104.615384615385,4546.153846153847
1190.5623,0.38309437,0.5363769,0.33333334,0.5522388,0,0.0,0.0,0.0,0.0,1.0,0,0,0.0,0.0,0,0,104.0,0.0,0.0,4612.307692307693,3942.564102564103,4507.179487179488,4442.564102564103,4240.512820512821,4543.589743589744,4462.564102564103,4462.051282051282,4413.333333333334,4675.384615384616,4345.641025641026,4234.358974358975,4098.461538461539,4547.179487179488
1190.9062,0.38309437,0.5363769,0.33333334,0.5522388,0,0.0,0.0,0.0,0.0,0.05340622,0,0,0.0,0.0,0,0,19.0,0.0,0.0,4621.025641025642,3971.7948717948725,4513.333333333334,4459.48717948718,4245.641025641026,4551.794871794872,4470.256410256411,4457.948717948719,4407.6923076923085,4679.48717948718,4348.717948717949,4244.615384615385,4104.102564102564,4540.000000000001
1191.1565,0.44897124,0.5077366,0.33333334,0.5522388,0,0.0,0.0,0.0,0.0,0.0,0,0,0.0,0.0,0,0,51.0,0.0,0.0,4671.282051282052,4005.6410256410263,4546.666666666667,4501.538461538462,4298.461538461539,4601.538461538462,4508.205128205129,4515.384615384616,4454.871794871796,4735.384615384616,4354.871794871796,4268.205128205129,4168.717948717949,4578.461538461539
1191.1565,0.44897124,0.5077366,0.33333334,0.5522388,0,0.0,0.0,0.0,0.0,0.0,0,0,0.0,0.0,0,0,51.0,0.0,0.0,4671.282051282052,4005.6410256410263,4546.666666666667,4501.538461538462,4298.461538461539,4601.538461538462,4508.205128205129,4515.384615384616,4454.871794871796,4735.384615384616,4354.871794871796,4268.205128205129,4168.717948717949,4578.461538461539
1191.5631,0.54771125,0.50673825,0.33333334,0.5522388,0,0.0,0.0,0.0,0.0,0.0,0,0,0.0,0.0,0,0,103.0,0.0,384.0,4611.794871794872,3926.1538461538466,4492.820512820514,4434.871794871796,4229.74358974359,4532.307692307693,4443.076923076924,4445.641025641026,4395.384615384616,4680.512820512821,4345.641025641026,4246.153846153847,4110.769230769231,4537.435897435898
1191.5631,0.54771125,0.50673825,0.33333334,0.5522388,0,0.0,0.0,0.0,0.0,0.0,0,0,0.0,0.0,0,0,103.0,0.0,384.0,4611.794871794872,3926.1538461538466,4492.820512820514,4434.871794871796,4229.74358974359,4532.307692307693,4443.076923076924,4445.641025641026,4395.384615384616,4680.512820512821,4345.641025641026,4246.153846153847,4110.769230769231,4537.435897435898
1192.2511,0.55566114,0.5095886,0.33333334,0.5522388,0,0.0,0.0,0.0,0.0,0.0,0,0,0.0,0.0,0,0,62.0,0.0,0.0,4662.051282051282,3926.666666666667,4493.846153846154,4443.076923076924,4238.461538461539,4538.974358974359,4462.051282051282,4480.512820512821,4417.948717948719,4730.256410256411,4347.179487179487,4249.2307692307695,4185.641025641026,4567.179487179488
1192.4076,0.55566114,0.5095886,0.33333334,0.5522388,0,0.0,0.0,0.0,0.0,0.075290196,0,0,0.0,0.0,0,0,82.0,0.0,588.0,4657.435897435898,3924.615384615385,4474.871794871796,4434.358974358975,4244.102564102564,4539.48717948718,4473.846153846154,4487.179487179488,4424.615384615385,4726.666666666667,4348.717948717949,4240.512820512821,4187.6923076923085,4570.256410256411
1192.6577,0.4787974,0.55762833,0.33333334,0.5522388,0,0.0,0.0,0.0,0.0,0.0,0,0,0.0,0.0,0,0,114.0,0.0,588.0,4631.794871794872,3912.820512820513,4473.333333333334,4437.948717948719,4251.282051282052,4554.871794871796,4480.512820512821,4496.410256410257,4430.256410256411,4733.846153846154,4348.205128205129,4241.025641025642,4183.076923076924,4553.333333333334
1192.6577,0.4787974,0.55762833,0.33333334,0.5522388,0,0.0,0.0,0.0,0.0,0.0,0,0,0.0,0.0,0,0,114.0,0.0,588.0,4631.794871794872,3912.820512820513,4473.333333333334,4437.948717948719,4251.282051282052,4554.871794871796,4480.512820512821,4496.410256410257,4430.256410256411,4733.846153846154,4348.205128205129,4241.025641025642,4183.076923076924,4553.333333333334
1193.0643,0.48718327,0.5756639,0.33333334,0.5522388,0,0.0,0.0,0.0,0.0,0.0,0,0,0.0,0.0,0,0,37.0,0.0,0.0,4632.307692307693,3922.0512820512827,4476.410256410257,4442.564102564103,4257.948717948719,4556.410256410257,4473.846153846154,4485.128205128206,4428.205128205129,4752.820512820514,4351.794871794872,4245.128205128206,4222.564102564103,4545.128205128206
1193.0643,0.48718327,0.5756639,0.33333334,0.5522388,0,0.0,0.0,0.0,0.0,0.0,0,0,0.0,0.0,0,0,37.0,0.0,0.0,4632.307692307693,3922.0512820512827,4476.410256410257,4442.564102564103,4257.948717948719,4556.410256410257,4473.846153846154,4485.128205128206,4428.205128205129,4752.820512820514,4351.794871794872,4245.128205128206,4222.564102564103,4545.128205128206
1193.6586,0.458457,0.65844053,0.33333334,0.5522388,0,0.0,0.0,0.0,0.0,0.17106296,0,0,0.0,0.0,0,0,113.0,0.0,163.0,4641.025641025642,3926.1538461538466,4491.282051282052,4445.128205128206,4250.256410256411,4553.846153846154,4445.641025641026,4458.461538461539,4382.564102564103,4691.282051282052,4347.179487179487,4237.435897435898,4153.333333333334,4549.2307692307695
1193.9088,0.458457,0.65844053,0.33333334,0.5522388,0,0.0,0.0,0.0,0.0,0.08452696,0,0,0.0,0.0,0,0,16.0,0.0,0.0,4638.461538461539,3927.692307692308,4491.282051282052,4443.589743589744,4245.641025641026,4551.794871794872,4429.743589743591,4442.564102564103,4381.538461538462,4694.358974358975,4348.205128205129,4230.769230769231,4153.333333333334,4548.717948717949
1194.159,0.45024902,0.6543034,0.33333334,0.5522388,0,0.0,0.0,0.0,0.0,0.0,0,0,0.0,0.0,0,0,48.0,0.0,0.0,4632.820512820514,3923.589743589744,4486.666666666667,4439.48717948718,4244.102564102564,4549.743589743591,4442.051282051282,4442.051282051282,4384.102564102564,4700.000000000001,4347.179487179487,4233.846153846154,4163.076923076924,4536.410256410257
1194.159,0.45024902,0.6543034,0.33333334,0.5522388,0,0.0,0.0,0.0,0.0,0.0,0,0,0.0,0.0,0,0,48.0,0.0,0.0,4632.820512820514,3923.589743589744,4486.666666666667,4439.48717948718,4244.102564102564,4549.743589743591,4442.051282051282,4442.051282051282,4384.102564102564,4700.000000000001,4347.179487179487,4233.846153846154,4163.076923076924,4536.410256410257
1194.5657,0.43973535,0.62920326,0.33333334,0.5522388,0,0.0,0.0,0.0,0.0,0.0,0,0,0.0,0.0,0,0,100.0,0.0,0.0,4642.051282051282,3944.615384615385,4490.769230769231,4446.153846153847,4240.512820512821,4539.48717948718,4468.717948717949,4453.333333333334,4398.974358974359,4707.6923076923085,4347.6923076923085,4245.641025641026,4175.8974358974365,4543.589743589744
1194.5657,0.43973535,0.62920326,0.33333334,0.5522388,0,0.0,0.0,0.0,0.0,0.0,0,0,0.0,0.0,0,0,100.0,0.0,0.0,4642.051282051282,3944.615384615385,4490.769230769231,4446.153846153847,4240.512820512821,4539.48717948718,4468.717948717949,4453.333333333334,4398.974358974359,4707.6923076923085,4347.6923076923085,4245.641025641026,4175.8974358974365,4543.589743589744
1195.066,0.46363387,0.6137289,0.33333334,0.5522388,0,0.0,0.0,0.0,0.0,0.0,0,0,0.0,0.0,0,0,35.0,0.0,0.0,4637.948717948719,3955.8974358974365,4493.333333333334,4446.666666666667,4242.564102564103,4538.974358974359,4468.205128205129,4436.923076923077,4380.512820512821,4690.769230769231,4345.128205128206,4246.666666666667,4165.128205128206,4509.2307692307695
1195.066,0.46363387,0.6137289,0.33333334,0.5522388,0,0.0,0.0,0.0,0.0,0.0,0,0,0.0,0.0,0,0,35.0,0.0,0.0,4637.948717948719,3955.8974358974365,4493.333333333334,4446.666666666667,4242.564102564103,4538.974358974359,4468.205128205129,4436.923076923077,4380.512820512821,4690.769230769231,4345.128205128206,4246.666666666667,4165.128205128206,4509.2307692307695
1195.5665,0.50148696,0.59751403,0.33333334,0.5522388,0,0.0,0.0,0.0,0.0,0.0,0,0,0.0,0.0,0,0,99.0,0.0,384.0,4644.615384615385,3966.1538461538466,4495.384615384616,4453.333333333334,4241.538461538462,4540.512820512821,4474.871794871796,4440.512820512821,4386.666666666667,4702.564102564103,4345.128205128206,4262.051282051282,4192.820512820514,4517.948717948719
1195.5665,0.50148696,0.59751403,0.33333334,0.5522388,0,0.0,0.0,0.0,0.0,0.0,0,0,0.0,0.0,0,0,99.0,0.0,384.0,4644.615384615385,3966.1538461538466,4495.384615384616,4453.333333333334,4241.538461538462,4540.512820512821,4474.871794871796,4440.512820512821,4386.666666666667,4702.564102564103,4345.128205128206,4262.051282051282,4192.820512820514,4517.948717948719
1196.0669,0.520323,0.58408254,0.33333334,0.5522388,0,0.0,0.0,0.0,0.0,0.0,0,0,0.0,0.0,0,0,34.0,0.0,0.0,4633.846153846154,3939.48717948718,4492.820512820514,4445.128205128206,4247.179487179487,4551.794871794872,4472.307692307693,4428.717948717949,4379.48717948718,4692.307692307693,4346.666666666667,4281.538461538462,4162.051282051282,4492.307692307693
1196.0669,0.520323,0.58408254,0.33333334,0.5522388,0,0.0,0.0,0.0,0.0,0.0,0,0,0.0,0.0,0,0,34.0,0.0,0.0,4633.846153846154,3939.48717948718,4492.820512820514,4445.128205128206,4247.179487179487,4551.794871794872,4472.307692307693,4428.717948717949,4379.48717948718,4692.307692307693,4346.666666666667,4281.538461538462,4162.051282051282,4492.307692307693
1196.5674,0.45559824,0.56130725,0.33333334,0.5522388,0,0.0,0.0,0.0,0.0,0.0,0,0,0.0,0.0,0,0,98.0,0.0,588.0,4651.282051282052,3966.666666666667,4490.256410256411,4452.307692307693,4245.641025641026,4540.000000000001,4474.358974358975,4425.128205128206,4372.820512820514,4684.615384615386,4346.666666666667,4266.666666666667,4171.794871794872,4496.923076923077
1196.5674,0.45559824,0.56130725,0.33333334,0.5522388,0,0.0,0.0,0.0,0.0,0.0,0,0,0.0,0.0,0,0,98.0,0.0,588.0,4651.282051282052,3966.666666666667,4490.256410256411,4452.307692307693,4245.641025641026,4540.000000000001,4474.358974358975,4425.128205128206,4372.820512820514,4684.615384615386,4346.666666666667,4266.666666666667,4171.794871794872,4496.923076923077
1197.0677,0.4350003,0.543115,0.33333334,0.5522388,0,0.0,0.0,0.0,0.0,0.0,0,0,0.0,0.0,0,0,33.0,0.0,0.0,4642.564102564103,3938.9743589743593,4485.641025641026,4442.051282051282,4244.102564102564,4540.512820512821,4470.256410256411,4443.589743589744,4397.435897435898,4720.512820512821,4344.102564102564,4250.256410256411,4182.051282051282,4493.333333333334
1197.0677,0.4350003,0.543115,0.33333334,0.5522388,0,0.0,0.0,0.0,0.0,0.0,0,0,0.0,0.0,0,0,33.0,0.0,0.0,4642.564102564103,3938.9743589743593,4485.641025641026,4442.051282051282,4244.102564102564,4540.512820512821,4470.256410256411,4443.589743589744,4397.435897435898,4720.512820512821,4344.102564102564,4250.256410256411,4182.051282051282,4493.333333333334
1197.6621,0.44735128,0.5283576,0.33333334,0.5522388,0,0.0,0.0,0.0,0.0,0.0,0,0,0.0,0.0,0,0,109.0,0.0,163.0,4640.512820512821,3942.564102564103,4499.48717948718,4444.615384615385,4246.666666666667,4540.000000000001,4464.615384615385,4429.2307692307695,4371.794871794872,4687.6923076923085,4345.641025641026,4264.615384615385,4181.025641025642,4471.794871794872
1197.9122,0.44735128,0.5283576,0.33333334,0.5522388,0,0.0,0.0,0.0,1.0,0.0,0,0,0.0,0.0,0,0,12.0,0.0,0.0,4633.333333333334,3945.1282051282055,4498.974358974359,4445.128205128206,4246.153846153847,4542.564102564103,4466.153846153847,4440.000000000001,4385.128205128206,4704.615384615386,4347.179487179487,4265.128205128206,4191.794871794872,4552.307692307693
1198.0686,0.5136751,0.5420564,0.33333334,0.5522388,0,0.0,0.0,0.0,0.0,1.0,0,0,0.0,0.0,0,0,32.0,0.0,0.0,4628.205128205129,3942.564102564103,4494.358974358975,4443.076923076924,4244.102564102564,4542.051282051282,4471.282051282052,4435.8974358974365,4381.538461538462,4693.333333333334,4347.179487179487,4263.589743589744,4181.025641025642,4565.641025641026
1198.4127,0.5136751,0.5420564,0.33333334,0.5522388,0,0.0,0.0,0.0,0.0,0.0,0,0,0.0,0.0,0,0,76.0,0.0,0.0,4624.102564102564,3944.615384615385,4499.48717948718,4445.641025641026,4245.641025641026,4540.512820512821,4460.000000000001,4434.358974358975,4388.717948717949,4707.179487179488,4345.641025641026,4266.666666666667,4177.948717948719,4575.384615384616
1198.5691,0.52360123,0.5389268,0.33333334,0.5522388,0,0.0,0.0,0.0,0.0,0.0,0,0,0.0,0.0,0,0,96.0,0.0,0.0,4630.769230769231,3937.9487179487182,4496.410256410257,4442.051282051282,4238.461538461539,4537.948717948719,4458.461538461539,4424.615384615385,4377.435897435898,4701.538461538462,4346.666666666667,4263.589743589744,4179.48717948718,4608.717948717949
1198.5691,0.52360123,0.5389268,0.33333334,0.5522388,0,0.0,0.0,0.0,0.0,0.0,0,0,0.0,0.0,0,0,96.0,0.0,0.0,4630.769230769231,3937.9487179487182,4496.410256410257,4442.051282051282,4238.461538461539,4537.948717948719,4458.461538461539,4424.615384615385,4377.435897435898,4701.538461538462,4346.666666666667,4263.589743589744,4179.48717948718,4608.717948717949
1199.0695,0.47657815,0.5182398,0.33333334,0.5522388,0,0.0,0.0,0.0,0.0,0.0,0,0,0.0,0.0,0,0,31.0,0.0,0.0,4630.256410256411,3941.538461538462,4501.025641025642,4449.743589743591,4250.769230769231,4551.794871794872,4455.384615384616,4426.666666666667,4384.102564102564,4720.000000000001,4346.666666666667,4264.615384615385,4184.615384615385,4605.641025641026
1199.0695,0.47657815,0.5182398,0.33333334,0.5522388,0,0.0,0.0,0.0,0.0,0.0,0,0,0.0,0.0,0,0,31.0,0.0,0.0,4630.256410256411,3941.538461538462,4501.025641025642,4449.743589743591,4250.769230769231,4551.794871794872,4455.384615384616,4426.666666666667,4384.102564102564,4720.000000000001,4346.666666666667,4264.615384615385,4184.615384615385,4605.641025641026
1199.57,0.45447204,0.48974383,0.33333334,0.5522388,0,0.0,0.0,0.0,0.0,0.0,0,0,0.0,0.0,0,0,95.0,0.0,387.0,4632.307692307693,3953.333333333334,4507.6923076923085,4458.974358974359,4256.410256410257,4553.846153846154,4472.307692307693,4428.205128205129,4376.923076923077,4702.564102564103,4349.743589743591,4265.128205128206,4183.076923076924,4597.435897435898
1199.57,0.45447204,0.48974383,0.33333334,0.5522388,0,0.0,0.0,0.0,0.0,0.0,0,0,0.0,0.0,0,0,95.0,0.0,387.0,4632.307692307693,3953.333333333334,4507.6923076923085,4458.974358974359,4256.410256410257,4553.846153846154,4472.307692307693,4428.205128205129,4376.923076923077,4702.564102564103,4349.743589743591,4265.128205128206,4183.076923076924,4597.435897435898
1200.0704,0.46852487,0.47846025,0.33333334,0.5522388,0,0.0,0.0,0.0,0.0,0.0,0,0,0.0,0.0,0,0,30.0,0.0,0.0,4617.435897435898,3941.538461538462,4505.641025641026,4446.666666666667,4247.6923076923085,4543.589743589744,4461.538461538462,4414.871794871796,4371.282051282052,4697.435897435898,4344.615384615385,4258.974358974359,4175.384615384616,4585.128205128206
1200.0704,0.46852487,0.47846025,0.33333334,0.5522388,0,0.0,0.0,0.0,0.0,0.0,0,0,0.0,0.0,0,0,30.0,0.0,0.0,4617.435897435898,3941.538461538462,4505.641025641026,4446.666666666667,4247.6923076923085,4543.589743589744,4461.538461538462,4414.871794871796,4371.282051282052,4697.435897435898,4344.615384615385,4258.974358974359,4175.384615384616,4585.128205128206
1200.5708,0.4134638,0.48886514,0.33333334,0.5522388,0,0.0,0.0,0.0,0.0,0.0,0,0,0.0,0.0,0,0,94.0,0.0,588.0,4633.846153846154,3955.3846153846157,4505.641025641026,4456.410256410257,4248.205128205129,4553.333333333334,4472.307692307693,4426.153846153847,4381.538461538462,4700.512820512821,4344.102564102564,4253.846153846154,4208.205128205129,4596.410256410257
1200.5708,0.4134638,0.48886514,0.33333334,0.5522388,0,0.0,0.0,0.0,0.0,0.0,0,0,0.0,0.0,0,0,94.0,0.0,588.0,4633.846153846154,3955.3846153846157,4505.641025641026,4456.410256410257,4248.205128205129,4553.333333333334,4472.307692307693,4426.153846153847,4381.538461538462,4700.512820512821,4344.102564102564,4253.846153846154,4208.205128205129,4596.410256410257
1201.0713,0.4388248,0.49950993,0.33333334,0.5522388,0,0.0,0.0,0.0,0.0,0.0,0,0,0.0,0.0,0,0,29.0,0.0,0.0,4650.256410256411,3959.48717948718,4507.6923076923085,4452.307692307693,4253.846153846154,4542.564102564103,4456.410256410257,4428.717948717949,4390.256410256411,4712.307692307693,4344.102564102564,4255.384615384616,4214.871794871796,4586.666666666667
1201.0713,0.4388248,0.49950993,0.33333334,0.5522388,0,0.0,0.0,0.0,0.0,0.0,0,0,0.0,0.0,0,0,29.0,0.0,0.0,4650.256410256411,3959.48717948718,4507.6923076923085,4452.307692307693,4253.846153846154,4542.564102564103,4456.410256410257,4428.717948717949,4390.256410256411,4712.307692307693,4344.102564102564,4255.384615384616,4214.871794871796,4586.666666666667
1201.5717,0.4470371,0.49032396,0.33333334,0.5522388,0,0.0,0.0,0.0,0.0,0.0,0,0,0.0,0.0,0,0,93.0,0.0,162.0,4633.846153846154,3944.615384615385,4503.589743589744,4444.615384615385,4240.000000000001,4540.000000000001,4442.051282051282,4407.179487179487,4378.974358974359,4708.717948717949,4345.128205128206,4259.48717948718,4202.051282051282,4570.769230769231
1201.5717,0.4470371,0.49032396,0.33333334,0.5522388,0,0.0,0.0,0.0,0.0,0.0,0,0,0.0,0.0,0,0,93.0,0.0,162.0,4633.846153846154,3944.615384615385,4503.589743589744,4444.615384615385,4240.000000000001,4540.000000000001,4442.051282051282,4407.179487179487,4378.974358974359,4708.717948717949,4345.128205128206,4259.48717948718,4202.051282051282,4570.769230769231
1202.0721,0.4229033,0.47038856,0.33333334,0.5522388,0,0.0,0.0,0.0,0.0,0.0,0,0,0.0,0.0,0,0,28.0,0.0,0.0,4602.564102564103,3928.717948717949,4491.282051282052,4437.948717948719,4239.48717948718,4536.410256410257,4437.948717948719,4399.48717948718,4362.051282051282,4663.076923076924,4345.128205128206,4233.333333333334,4162.051282051282,4528.205128205129
1202.4161,0.4229033,0.47038856,0.33333334,0.5522388,0,0.0,0.0,0.0,0.0,0.03573132,0,0,0.0,0.0,0,0,72.0,0.0,461.0,4614.871794871796,3940.5128205128212,4496.923076923077,4441.025641025642,4244.615384615385,4540.000000000001,4430.769230769231,4410.256410256411,4376.923076923077,4677.435897435898,4346.153846153847,4227.6923076923085,4173.333333333334,4533.333333333334
1202.6664,0.4000071,0.45669094,0.33333334,0.5522388,0,0.0,0.0,0.0,0.0,0.0,0,0,0.0,0.0,0,0,104.0,0.0,0.0,4642.564102564103,3941.538461538462,4507.6923076923085,4444.615384615385,4253.846153846154,4551.794871794872,4442.564102564103,4413.846153846154,4378.974358974359,4717.435897435898,4347.179487179487,4234.358974358975,4201.538461538462,4550.256410256411
1202.6664,0.4000071,0.45669094,0.33333334,0.5522388,0,0.0,0.0,0.0,0.0,0.0,0,0,0.0,0.0,0,0,104.0,0.0,0.0,4642.564102564103,3941.538461538462,4507.6923076923085,4444.615384615385,4253.846153846154,4551.794871794872,4442.564102564103,4413.846153846154,4378.974358974359,4717.435897435898,4347.179487179487,4234.358974358975,4201.538461538462,4550.256410256411
1203.073,0.3525418,0.45018834,0.33333334,0.5522388,0,0.0,0.0,0.0,0.0,0.0,0,0,0.0,0.0,0,0,27.0,0.0,0.0,4682.051282051282,3944.1025641025644,4511.794871794872,4449.2307692307695,4248.205128205129,4551.282051282052,4445.128205128206,4444.102564102564,4403.589743589744,4749.743589743591,4344.102564102564,4247.179487179487,4297.948717948719,4589.2307692307695
1203.073,0.3525418,0.45018834,0.33333334,0.5522388,0,0.0,0.0,0.0,0.0,0.0,0,0,0.0,0.0,0,0,27.0,0.0,0.0,4682.051282051282,3944.1025641025644,4511.794871794872,4449.2307692307695,4248.205128205129,4551.282051282052,4445.128205128206,4444.102564102564,4403.589743589744,4749.743589743591,4344.102564102564,4247.179487179487,4297.948717948719,4589.2307692307695
1203.6672,0.37106118,0.46135005,0.33333334,0.5522388,0,0.0,0.0,0.0,0.0,0.0,0,0,0.0,0.9684573,0,0,103.0,0.0,386.0,4702.051282051282,3973.333333333334,4513.333333333334,4453.846153846154,4234.358974358975,4537.948717948719,4426.666666666667,4413.333333333334,4358.974358974359,4631.282051282052,4334.871794871796,4243.076923076924,4220.512820512821,4584.615384615385
1203.9175,0.37106118,0.46135005,0.33333334,0.5522388,0,0.0,0.0,0.0,0.0,1.0,0,0,0.0,0.0,0,0,6.0,0.0,585.0,4794.871794871796,3924.1025641025644,4492.307692307693,4444.615384615385,4226.153846153847,4524.615384615385,4433.846153846154,4427.6923076923085,4364.615384615385,4633.333333333334,4337.948717948719,4235.384615384616,4114.358974358975,4506.153846153847
1204.1676,0.42700848,0.5529101,0.33333334,0.5522388,0,0.0,0.0,0.0,0.0,0.8862493,0,0,0.0,0.0,0,0,38.0,0.0,0.0,4796.923076923077,3922.564102564103,4486.153846153847,4510.256410256411,4178.974358974359,4505.128205128206,4407.179487179487,4374.871794871796,4321.538461538462,4581.538461538462,4334.871794871796,4249.2307692307695,4093.333333333334,4464.102564102564
1204.4178,0.42700848,0.5529101,0.33333334,0.5522388,0,0.0,0.0,0.0,0.0,0.78460854,0,0,0.0,0.0,0,0,70.0,0.0,585.0,4645.641025641026,3910.7692307692314,4470.256410256411,4441.538461538462,4171.794871794872,4502.051282051282,4402.051282051282,4393.333333333334,4358.974358974359,4590.256410256411,4330.769230769231,4250.769230769231,4149.74358974359,4465.128205128206
1204.5742,0.576263,0.6392161,0.33333334,0.5522388,0,0.0,0.0,0.0,0.0,1.0,0,0,0.0,0.0,0,0,90.0,0.0,588.0,4581.538461538462,3929.2307692307695,4478.461538461539,4423.076923076924,4198.461538461539,4516.410256410257,4418.461538461539,4414.871794871796,4376.923076923077,4714.358974358975,4337.435897435898,4264.102564102564,4528.717948717949,4497.948717948719
1204.9183,0.576263,0.6392161,0.33333334,0.5522388,0,0.0,0.0,0.0,0.0,0.16658205,0,0,0.0,0.0,0,0,5.0,0.0,584.0,4595.8974358974365,3938.9743589743593,4485.641025641026,4422.051282051282,4198.461538461539,4517.435897435898,4448.205128205129,4452.307692307693,4370.769230769231,4732.820512820514,4333.846153846154,4272.820512820514,4136.410256410257,4521.538461538462
1205.1685,0.6246077,0.70422983,0.33333334,0.5522388,0,0.0,0.0,0.0,0.0,0.123362,0,0,0.0,0.0,0,0,37.0,0.0,0.0,4626.666666666667,3954.8717948717954,4510.256410256411,4444.615384615385,4243.076923076924,4555.8974358974365,4490.256410256411,4457.948717948719,4394.871794871796,4774.871794871796,4321.538461538462,4276.410256410257,4163.076923076924,4522.051282051282
1205.4187,0.6246077,0.70422983,0.33333334,0.5522388,0,0.0,0.0,0.0,0.0,0.12168132,0,0,0.0,0.0,0,0,69.0,0.0,584.0,4644.102564102564,3947.1794871794878,4503.589743589744,4439.48717948718,4218.974358974359,4528.717948717949,4481.538461538462,4443.076923076924,4400.512820512821,4740.512820512821,4330.256410256411,4281.025641025642,4145.641025641026,4520.000000000001
1205.669,0.65361667,0.75494653,0.33333334,0.5522388,0,0.0,0.0,0.0,0.0,0.7483068,0,0,0.0,0.0,0,0,101.0,0.0,162.0,4686.666666666667,3953.8461538461543,4503.076923076924,4442.564102564103,4227.6923076923085,4532.307692307693,4483.589743589744,4435.384615384616,4405.128205128206,4718.974358974359,4336.410256410257,4276.923076923077,4143.589743589744,4537.948717948719
1205.9192,0.65361667,0.75494653,0.33333334,0.5522388,0,0.0,0.0,0.0,0.0,0.45106044,0,0,0.0,0.0,0,0,4.0,0.0,589.0,4703.076923076924,3954.358974358975,4502.564102564103,4442.564102564103,4229.74358974359,4528.205128205129,4490.769230769231,4435.384615384616,4407.179487179487,4708.717948717949,4336.410256410257,4268.205128205129,4138.974358974359,4520.512820512821
1206.1693,0.6263846,0.74534595,0.33333334,0.5522388,0,0.0,0.0,0.0,0.0,0.25992188,0,0,0.0,0.0,0,0,36.0,0.0,0.0,4683.589743589744,3943.076923076924,4500.000000000001,4443.076923076924,4229.74358974359,4533.333333333334,4467.179487179487,4417.435897435898,4398.461538461539,4713.846153846154,4331.794871794872,4266.153846153847,4147.179487179487,4508.205128205129
1206.4196,0.6263846,0.74534595,0.33333334,0.5522388,0,0.0,0.0,0.0,0.0,0.0,0,0,0.0,0.0,0,0,68.0,0.0,589.0,4674.871794871796,3949.2307692307695,4507.6923076923085,4446.666666666667,4234.358974358975,4537.435897435898,4478.974358974359,4436.923076923077,4412.307692307693,4728.205128205129,4336.410256410257,4271.282051282052,4153.333333333334,4507.6923076923085
1206.5759,0.58736634,0.7352199,0.33333334,0.5522388,0,0.0,0.0,0.0,0.0,0.0,0,0,0.0,0.0,0,0,88.0,0.0,0.0,4650.769230769231,3948.717948717949,4506.153846153847,4445.641025641026,4232.820512820514,4531.282051282052,4461.025641025642,4418.461538461539,4395.384615384616,4714.358974358975,4337.948717948719,4265.641025641026,4149.74358974359,4492.820512820514
1206.5759,0.58736634,0.7352199,0.33333334,0.5522388,0,0.0,0.0,0.0,0.0,0.0,0,0,0.0,0.0,0,0,88.0,0.0,0.0,4650.769230769231,3948.717948717949,4506.153846153847,4445.641025641026,4232.820512820514,4531.282051282052,4461.025641025642,4418.461538461539,4395.384615384616,4714.358974358975,4337.948717948719,4265.641025641026,4149.74358974359,4492.820512820514
1207.0764,0.527135,0.7233064,0.33333334,0.5522388,0,0.0,0.0,0.0,0.0,0.0,0,0,0.0,0.0,0,0,23.0,0.0,0.0,4621.025641025642,3944.1025641025644,4505.128205128206,4445.128205128206,4248.205128205129,4545.128205128206,4462.051282051282,4421.025641025642,4380.512820512821,4727.179487179488,4339.48717948718,4256.410256410257,4146.153846153847,4490.256410256411
1207.4204,0.527135,0.7233064,0.33333334,0.5522388,0,0.0,0.0,0.0,0.0,0.0,0,0,0.0,0.0,0,0,67.0,0.0,567.0,4691.794871794872,3898.461538461539,4504.102564102564,4442.051282051282,4261.538461538462,4555.384615384616,4447.6923076923085,4416.923076923077,4373.846153846154,4688.205128205129,4338.461538461539,4248.717948717949,4126.153846153847,4420.512820512821
1207.6707,0.51871383,0.75825804,0.33333334,0.5522388,0,0.0,0.0,0.0,0.0,1.0,0,0,0.0,0.0,0,0,99.0,0.0,386.0,4777.435897435898,3876.410256410257,4486.666666666667,4429.743589743591,4236.923076923077,4543.589743589744,4443.076923076924,4397.948717948719,4355.384615384616,4671.794871794872,4333.333333333334,4238.974358974359,4114.358974358975,4395.8974358974365
1207.6707,0.51871383,0.75825804,0.33333334,0.5522388,0,0.0,0.0,0.0,0.0,1.0,0,0,0.0,0.0,0,0,99.0,0.0,386.0,4777.435897435898,3876.410256410257,4486.666666666667,4429.743589743591,4236.923076923077,4543.589743589744,4443.076923076924,4397.948717948719,4355.384615384616,4671.794871794872,4333.333333333334,4238.974358974359,4114.358974358975,4395.8974358974365
1208.0773,0.6664682,0.8145673,0.33333334,0.5522388,0,0.0,0.0,0.0,0.0,1.0,0,0,0.0,0.0,0,0,22.0,0.0,0.0,4805.641025641026,3869.7435897435903,4476.923076923077,4444.102564102564,4214.358974358975,4530.256410256411,4413.333333333334,4360.000000000001,4312.820512820514,4614.358974358975,4325.641025641026,4218.974358974359,4069.7435897435903,3583.589743589744
1208.0773,0.6664682,0.8145673,0.33333334,0.5522388,0,0.0,0.0,0.0,0.0,1.0,0,0,0.0,0.0,0,0,22.0,0.0,0.0,4805.641025641026,3869.7435897435903,4476.923076923077,4444.102564102564,4214.358974358975,4530.256410256411,4413.333333333334,4360.000000000001,4312.820512820514,4614.358974358975,4325.641025641026,4218.974358974359,4069.7435897435903,3583.589743589744
1208.5776,0.796492,0.89479893,0.33333334,0.5522388,0,0.0,0.0,0.0,0.0,1.0,0,0,0.0,0.0,0,0,86.0,0.0,588.0,4816.410256410257,3895.8974358974365,4486.666666666667,4457.948717948719,4214.871794871796,4529.2307692307695,4403.076923076924,4357.948717948719,4315.8974358974365,4614.358974358975,4322.564102564103,4215.8974358974365,4092.307692307693,3083.0769230769233
1208.5776,0.796492,0.89479893,0.33333334,0.5522388,0,0.0,0.0,0.0,0.0,1.0,0,0,0.0,0.0,0,0,86.0,0.0,588.0,4816.410256410257,3895.8974358974365,4486.666666666667,4457.948717948719,4214.871794871796,4529.2307692307695,4403.076923076924,4357.948717948719,4315.8974358974365,4614.358974358975,4322.564102564103,4215.8974358974365,4092.307692307693,3083.0769230769233
1209.0781,0.91091293,0.9323997,0.33333334,0.5522388,0,0.0,0.0,0.0,0.0,1.0,0,0,0.0,0.0,0,0,21.0,0.0,0.0,4946.153846153847,3913.333333333334,4483.076923076924,4464.102564102564,4212.307692307693,4529.743589743591,4415.384615384616,4352.820512820514,4341.538461538462,4653.846153846154,4322.564102564103,4217.435897435898,4136.923076923077,3981.538461538462
1209.0781,0.91091293,0.9323997,0.33333334,0.5522388,0,0.0,0.0,0.0,0.0,1.0,0,0,0.0,0.0,0,0,21.0,0.0,0.0,4946.153846153847,3913.333333333334,4483.076923076924,4464.102564102564,4212.307692307693,4529.743589743591,4415.384615384616,4352.820512820514,4341.538461538462,4653.846153846154,4322.564102564103,4217.435897435898,4136.923076923077,3981.538461538462
1209.5785,0.99675006,0.9366433,0.33333334,0.5522388,0,0.0,0.0,0.0,0.0,1.0,0,0,0.0,0.0,0,0,85.0,0.0,161.0,4883.076923076924,3926.666666666667,4488.717948717949,4471.282051282052,4218.461538461539,4531.794871794872,4431.794871794872,4370.256410256411,4345.641025641026,4669.2307692307695,4325.641025641026,4208.205128205129,4194.358974358975,4648.717948717949
1209.5785,0.99675006,0.9366433,0.33333334,0.5522388,0,0.0,0.0,0.0,0.0,1.0,0,0,0.0,0.0,0,0,85.0,0.0,161.0,4883.076923076924,3926.666666666667,4488.717948717949,4471.282051282052,4218.461538461539,4531.794871794872,4431.794871794872,4370.256410256411,4345.641025641026,4669.2307692307695,4325.641025641026,4208.205128205129,4194.358974358975,4648.717948717949
1210.1729,0.8746504,0.88967824,0.33333334,0.5522388,0,0.0,0.0,0.0,0.0,0.17836416,0,0,0.0,0.0,0,0,32.0,0.0,0.0,4748.717948717949,3940.0000000000005,4484.102564102564,4483.589743589744,4218.461538461539,4536.410256410257,4444.615384615385,4388.717948717949,4360.000000000001,4718.461538461539,4321.025641025642,4218.461538461539,4207.179487179487,4827.179487179488
1210.423,0.8746504,0.88967824,0.33333334,0.5522388,0,0.0,0.0,0.0,0.0,0.0,0,0,0.0,0.0,0,0,64.0,0.0,421.0,4764.102564102564,3957.435897435898,4492.307692307693,4485.128205128206,4199.48717948718,4521.025641025642,4413.846153846154,4367.179487179487,4344.102564102564,4694.358974358975,4323.076923076924,4209.2307692307695,4211.794871794872,4793.846153846154
1210.6732,0.7871427,0.87358415,0.33333334,0.5522388,0,0.0,0.0,0.0,0.0,0.8532898,0,0,0.0,0.0,0,0,96.0,0.0,0.0,4780.000000000001,3956.9230769230776,4490.769230769231,4489.743589743591,4213.846153846154,4535.384615384616,4439.48717948718,4384.615384615385,4346.666666666667,4702.051282051282,4323.589743589744,4209.2307692307695,4207.6923076923085,4738.461538461539
1210.9235,0.7871427,0.87358415,0.33333334,0.5522388,0,0.0,0.0,0.0,0.0,1.0,0,0,0.0,0.0,0,0,128.0,0.0,0.0,4799.48717948718,3958.461538461539,4495.384615384616,4494.871794871796,4218.461538461539,4540.000000000001,4433.846153846154,4386.666666666667,4360.512820512821,4737.948717948719,4320.000000000001,4197.435897435898,4218.461538461539,4681.025641025642
1211.0798,0.7723097,0.8397676,0.33333334,0.5522388,0,0.0,0.0,0.0,0.0,1.0,0,0,0.0,0.0,0,0,19.0,0.0,0.0,4810.769230769231,3972.820512820513,4500.000000000001,4502.051282051282,4217.435897435898,4536.923076923077,4430.769230769231,4364.615384615385,4333.333333333334,4728.205128205129,4321.025641025642,4205.641025641026,4206.153846153847,4652.820512820514
1211.4238,0.7723097,0.8397676,0.33333334,0.5522388,0,0.0,0.0,0.0,0.0,0.17867853,0,0,0.0,0.0,0,0,63.0,0.0,0.0,4843.076923076924,3969.7435897435903,4486.666666666667,4491.794871794872,4222.564102564103,4530.256410256411,4412.307692307693,4380.512820512821,4347.179487179487,4764.102564102564,4321.538461538462,4203.589743589744,4224.615384615385,4643.589743589744
1211.6741,0.70626813,0.8172511,0.33333334,0.5522388,0,0.0,0.0,0.0,0.0,0.07376159,0,0,0.0,0.0,0,0,95.0,0.0,380.0,4847.179487179488,3963.589743589744,4490.769230769231,4489.2307692307695,4225.641025641026,4537.948717948719,4427.179487179487,4386.153846153847,4350.769230769231,4781.025641025642,4326.666666666667,4203.076923076924,4230.769230769231,4643.076923076924
1211.9243,0.70626813,0.8172511,0.33333334,0.5522388,0,0.0,0.0,0.0,0.0,0.21413198,0,0,0.0,0.0,0,0,127.0,0.0,380.0,4857.435897435898,3962.0512820512827,4487.179487179488,4491.794871794872,4225.641025641026,4538.461538461539,4429.2307692307695,4383.589743589744,4344.102564102564,4792.820512820514,4322.564102564103,4202.564102564103,4224.615384615385,4616.923076923077
1212.1746,0.7056043,0.8100099,0.33333334,0.5522388,0,0.0,0.0,0.0,0.0,0.45066705,0,0,0.0,0.0,0,0,30.0,0.0,0.0,4895.384615384616,3980.5128205128212,4493.333333333334,4496.923076923077,4232.820512820514,4541.025641025642,4423.589743589744,4385.641025641026,4341.538461538462,4790.256410256411,4322.564102564103,4208.205128205129,4240.000000000001,4624.615384615385
1212.4248,0.7056043,0.8100099,0.33333334,0.5522388,0,0.0,0.0,0.0,0.0,0.04049805,0,0,0.0,0.0,0,0,62.0,0.0,0.0,4893.333333333334,3945.1282051282055,4493.333333333334,4486.153846153847,4234.871794871796,4546.153846153847,4441.025641025642,4423.589743589744,4358.974358974359,4807.179487179488,4321.025641025642,4216.410256410257,4261.538461538462,4615.384615384616
1212.6749,0.7396042,0.8052776,0.33333334,0.5522388,0,0.0,0.0,0.0,0.0,0.032723963,0,0,0.0,0.0,0,0,94.0,0.0,589.0,4892.820512820514,3973.8461538461543,4499.48717948718,4502.564102564103,4236.410256410257,4547.179487179488,4444.615384615385,4415.8974358974365,4369.743589743591,4833.333333333334,4322.564102564103,4219.48717948718,4270.769230769231,4619.48717948718
1212.9252,0.7396042,0.8052776,0.33333334,0.5522388,0,0.0,0.0,0.0,0.0,0.14292255,0,0,0.0,0.0,0,0,126.0,0.0,589.0,4875.384615384616,3974.358974358975,4501.538461538462,4496.923076923077,4244.102564102564,4551.794871794872,4444.102564102564,4416.923076923077,4370.769230769231,4840.512820512821,4323.589743589744,4214.358974358975,4262.564102564103,4594.871794871796
1213.1754,0.77516836,0.8042651,0.33333334,0.5522388,0,0.0,0.0,0.0,0.0,0.05558864,0,0,0.0,0.0,0,0,29.0,0.0,0.0,4828.205128205129,3975.8974358974365,4496.923076923077,4491.282051282052,4234.358974358975,4546.666666666667,4408.205128205129,4366.666666666667,4322.051282051282,4758.974358974359,4331.794871794872,4215.384615384616,4173.846153846154,4553.846153846154
1213.4257,0.77516836,0.8042651,0.33333334,0.5522388,0,0.0,0.0,0.0,0.0,0.91618603,0,0,0.0,0.0,0,0,61.0,0.0,0.0,4830.256410256411,3939.48717948718,4490.769230769231,4496.410256410257,4232.307692307693,4551.282051282052,4428.205128205129,4376.923076923077,4342.051282051282,4785.128205128206,4321.025641025642,4215.8974358974365,4228.717948717949,4514.358974358975
1213.6758,0.7857825,0.7694342,0.33333334,0.5522388,0,0.0,0.0,0.0,0.0,0.8075489,0,0,0.0,0.0,0,0,93.0,0.0,161.0,4853.846153846154,3973.8461538461543,4495.8974358974365,4491.794871794872,4264.615384615385,4558.461538461539,4433.846153846154,4407.179487179487,4365.641025641026,4805.128205128206,4325.641025641026,4200.000000000001,4250.769230769231,4534.871794871796
1213.926,0.7857825,0.7694342,0.33333334,0.5522388,0,0.0,0.0,0.0,0.0,0.075161114,0,0,0.0,0.0,0,0,125.0,0.0,161.0,4835.8974358974365,4095.8974358974365,4522.564102564103,4566.153846153847,4282.051282051282,4555.8974358974365,4456.410256410257,4478.974358974359,4399.48717948718,4893.333333333334,4321.538461538462,4215.8974358974365,4315.8974358974365,4548.717948717949
1214.1763,0.8307824,0.74850065,0.33333334,0.5522388,0,0.0,0.0,0.0,0.0,0.2669127,0,0,0.0,0.0,0,0,28.0,0.0,0.0,4835.8974358974365,3993.333333333334,4521.025641025642,4498.974358974359,4295.384615384616,4558.974358974359,4477.948717948719,4490.256410256411,4421.538461538462,4904.615384615386,4335.384615384616,4234.358974358975,4232.307692307693,4538.461538461539
1214.4265,0.8307824,0.74850065,0.33333334,0.5522388,0,0.0,0.0,0.0,0.0,0.11323042,0,0,0.0,0.0,0,0,60.0,0.0,0.0,4843.589743589744,3960.0000000000005,4523.589743589744,4476.923076923077,4306.153846153847,4568.717948717949,4507.6923076923085,4493.333333333334,4433.846153846154,4907.179487179488,4328.205128205129,4261.025641025642,4282.051282051282,4603.076923076924
1214.6766,0.8598365,0.7061001,0.33333334,0.5522388,0,0.0,0.0,0.0,0.0,0.19643459,0,0,0.0,0.0,0,0,92.0,0.0,0.0,4735.384615384616,4135.384615384616,4522.051282051282,4520.000000000001,4246.153846153847,4520.000000000001,4425.128205128206,4420.512820512821,4382.051282051282,4832.307692307693,4335.384615384616,4232.307692307693,4217.435897435898,4513.333333333334
1214.9269,0.8598365,0.7061001,0.33333334,0.5522388,0,0.0,0.0,0.0,0.0,0.11552009,0,0,0.0,0.0,0,0,124.0,0.0,0.0,4390.256410256411,4912.820512820514,4498.974358974359,4722.051282051282,4047.692307692308,4322.051282051282,4119.48717948718,4110.256410256411,4184.102564102564,4544.615384615385,4328.717948717949,4165.128205128206,4676.410256410257,4310.256410256411
1215.1771,0.966656,0.66800666,0.33333334,0.5522388,0,0.0,0.0,0.0,0.0,0.05541995,0,0,0.0,0.0,0,0,27.0,0.0,0.0,4509.743589743591,4432.307692307693,4504.102564102564,4632.307692307693,4194.358974358975,4456.923076923077,4317.435897435898,4317.435897435898,4352.820512820514,4786.666666666667,4330.769230769231,4220.512820512821,4577.948717948719,4460.000000000001
1215.4274,0.966656,0.66800666,0.33333334,0.5522388,0,0.0,0.0,0.0,0.0,0.029711213,0,0,0.0,0.0,0,0,59.0,0.0,0.0,4688.205128205129,3924.1025641025644,4515.384615384616,4490.256410256411,4296.410256410257,4562.564102564103,4506.153846153847,4525.641025641026,4486.666666666667,4926.666666666667,4327.179487179487,4263.589743589744,4323.589743589744,4591.794871794872
1215.6775,1.0,0.63372254,0.33333334,0.5522388,0,0.0,0.0,0.0,0.0,0.08628196,0,0,0.0,0.0,0,0,91.0,0.0,383.0,4695.8974358974365,3900.0000000000005,4520.000000000001,4472.307692307693,4292.820512820514,4585.128205128206,4510.769230769231,4514.871794871796,4461.538461538462,4885.641025641026,4350.769230769231,4274.358974358975,4212.307692307693,4626.153846153847
1215.9277,1.0,0.63372254,0.33333334,0.5522388,0,0.0,0.0,0.0,0.0,0.19323263,0,0,0.0,0.0,0,0,123.0,0.0,383.0,4736.923076923077,3962.564102564103,4524.102564102564,4475.8974358974365,4286.666666666667,4578.974358974359,4502.564102564103,4505.641025641026,4453.846153846154,4853.333333333334,4340.000000000001,4280.000000000001,4211.794871794872,4657.435897435898
1216.178,1.0,0.6028669,0.33333334,0.5522388,0,0.0,0.0,0.0,0.0,0.1626793,0,0,0.0,0.0,0,0,26.0,0.0,0.0,4650.769230769231,3925.1282051282055,4508.205128205129,4453.333333333334,4285.641025641026,4570.769230769231,4510.769230769231,4496.410256410257,4429.2307692307695,4772.307692307693,4329.743589743591,4258.461538461539,4082.564102564103,4599.48717948718
1216.4282,1.0,0.6028669,0.33333334,0.5522388,0,0.0,0.0,0.0,0.0,0.110699706,0,0,0.0,0.0,0,0,58.0,0.0,0.0,4635.8974358974365,3791.7948717948725,4496.410256410257,4397.435897435898,4310.256410256411,4592.820512820514,4537.948717948719,4551.794871794872,4474.358974358975,4780.000000000001,4326.153846153847,4268.205128205129,4096.410256410257,4581.538461538462
1216.6783,0.96223813,0.5750968,0.33333334,0.5522388,0,0.0,0.0,0.0,0.0,0.22138602,0,0,0.0,0.0,0,0,90.0,0.0,583.0,4611.282051282052,3830.2564102564106,4486.153846153847,4401.538461538462,4293.846153846154,4579.48717948718,4525.641025641026,4497.948717948719,4448.717948717949,4741.538461538462,4326.666666666667,4265.641025641026,4112.820512820514,4584.102564102564
1216.9286,0.96223813,0.5750968,0.33333334,0.5522388,0,0.0,0.0,0.0,0.0,0.1497411,0,0,0.0,0.0,0,0,122.0,0.0,583.0,4601.025641025642,3910.7692307692314,4497.948717948719,4435.8974358974365,4266.153846153847,4566.153846153847,4489.743589743591,4453.333333333334,4439.48717948718,4737.435897435898,4329.743589743591,4258.974358974359,4158.461538461539,4601.025641025642
1217.1788,0.9546263,0.55010366,0.33333334,0.5522388,0,0.0,0.0,0.0,0.0,0.0231918,0,0,0.0,0.0,0,0,25.0,0.0,0.0,4568.717948717949,3952.307692307693,4495.8974358974365,4454.871794871796,4229.2307692307695,4542.564102564103,4448.717948717949,4419.48717948718,4408.205128205129,4715.8974358974365,4327.6923076923085,4266.153846153847,4142.564102564103,4567.179487179488
1217.4291,0.9546263,0.55010366,0.33333334,0.5522388,0,0.0,0.0,0.0,0.0,0.07906608,0,0,0.0,0.0,0,0,57.0,0.0,0.0,4605.641025641026,3997.9487179487182,4504.615384615385,4474.358974358975,4220.512820512821,4524.102564102564,4439.48717948718,4429.743589743591,4411.282051282052,4713.846153846154,4343.589743589744,4268.717948717949,4184.615384615385,4607.6923076923085
1217.6793,0.85374516,0.6053598,0.33333334,0.5522388,0,0.0,0.0,0.0,0.0,0.109230615,0,0,0.0,0.0,0,0,89.0,0.0,159.0,4583.589743589744,4016.9230769230776,4488.205128205129,4474.358974358975,4244.102564102564,4543.076923076924,4451.794871794872,4445.641025641026,4422.564102564103,4754.358974358975,4302.051282051282,4260.000000000001,4176.923076923077,4609.743589743591
1217.9294,0.85374516,0.6053598,0.33333334,0.5522388,0,0.0,0.0,0.0,0.0,0.086992845,0,0,0.0,0.0,0,0,121.0,0.0,159.0,4600.512820512821,3972.307692307693,4495.384615384616,4464.615384615385,4223.589743589744,4528.205128205129,4435.384615384616,4415.8974358974365,4410.256410256411,4744.615384615386,4333.333333333334,4265.641025641026,4151.282051282052,4617.435897435898
1218.1797,0.88392544,0.594292,0.33333334,0.5522388,0,0.0,0.0,0.0,0.0,0.16739292,0,0,0.0,0.0,0,0,24.0,0.0,0.0,4616.410256410257,3969.7435897435903,4503.076923076924,4457.948717948719,4232.307692307693,4538.974358974359,4449.743589743591,4422.564102564103,4407.6923076923085,4764.615384615386,4333.846153846154,4279.48717948718,4170.256410256411,4603.076923076924
1218.4299,0.88392544,0.594292,0.33333334,0.5522388,0,0.0,0.0,0.0,0.0,0.015084584,0,0,0.0,0.0,0,0,56.0,0.0,0.0,4648.205128205129,3933.8461538461543,4521.538461538462,4452.307692307693,4247.179487179487,4553.846153846154,4489.743589743591,4498.461538461539,4446.666666666667,4804.615384615386,4336.923076923077,4291.282051282052,4212.820512820514,4632.307692307693
1218.6802,0.89912117,0.5940107,0.33333334,0.5522388,0,0.0,0.0,0.0,0.0,0.031585164,0,0,0.0,0.0,0,0,88.0,0.0,0.0,4628.205128205129,3925.1282051282055,4512.307692307693,4453.846153846154,4248.205128205129,4555.8974358974365,4506.666666666667,4494.871794871796,4453.846153846154,4803.589743589744,4337.435897435898,4285.128205128206,4205.641025641026,4614.358974358975
1218.9303,0.89912117,0.5940107,0.33333334,0.5522388,0,0.0,0.0,0.0,0.0,0.2200905,0,0,0.0,0.0,0,0,120.0,0.0,0.0,4685.641025641026,3981.538461538462,4528.205128205129,4467.179487179487,4237.948717948719,4552.820512820514,4516.923076923077,4501.538461538462,4462.051282051282,4816.410256410257,4336.410256410257,4289.74358974359,4241.025641025642,4642.051282051282
1219.1805,0.8616088,0.6115038,0.33333334,0.5522388,0,0.0,0.0,0.0,0.0,0.5165612,0,0,0.0,0.0,0,0,23.0,0.0,0.0,4525.128205128206,4172.307692307693,4504.615384615385,4522.051282051282,4187.6923076923085,4505.641025641026,4373.846153846154,4362.051282051282,4356.923076923077,4678.461538461539,4335.384615384616,4250.256410256411,4097.948717948719,4536.923076923077
1219.4308,0.8616088,0.6115038,0.33333334,0.5522388,0,0.0,0.0,0.0,0.0,0.19772105,0,0,0.0,0.0,0,0,55.0,0.0,0.0,4494.871794871796,4244.615384615385,4499.48717948718,4538.974358974359,4164.615384615385,4469.2307692307695,4340.000000000001,4329.2307692307695,4327.179487179487,4647.179487179488,4335.8974358974365,4244.615384615385,4055.8974358974365,4505.128205128206
1219.681,0.9682158,0.62727726,0.33333334,0.5522388,0,0.0,0.0,0.0,0.0,0.19851889,0,0,0.0,0.0,0,0,87.0,0.0,384.0,4571.282051282052,4106.666666666667,4505.128205128206,4506.666666666667,4189.2307692307695,4490.769230769231,4363.076923076924,4340.512820512821,4333.333333333334,4670.256410256411,4332.820512820514,4252.307692307693,4097.435897435898,4536.923076923077
1219.9312,0.9682158,0.62727726,0.33333334,0.5522388,0,0.0,0.0,0.0,0.0,0.05801618,0,0,0.0,0.0,0,0,119.0,0.0,384.0,4704.615384615386,3851.7948717948725,4525.128205128206,4436.923076923077,4278.974358974359,4578.974358974359,4525.128205128206,4500.512820512821,4451.282051282052,4808.717948717949,4337.435897435898,4294.358974358975,4243.589743589744,4616.923076923077
1220.1814,1.0,0.6414734,0.33333334,0.5522388,0,0.0,0.0,0.0,0.0,0.035660703,0,0,0.0,0.0,0,0,22.0,0.0,0.0,4703.076923076924,3839.48717948718,4510.256410256411,4424.615384615385,4272.820512820514,4572.307692307693,4530.769230769231,4496.410256410257,4452.820512820514,4807.179487179488,4337.948717948719,4291.794871794872,4244.102564102564,4614.871794871796
1220.4316,1.0,0.6414734,0.33333334,0.5522388,0,0.0,0.0,0.0,0.0,0.13455302,0,0,0.0,0.0,0,0,54.0,0.0,0.0,4704.102564102564,3874.8717948717954,4512.820512820514,4428.205128205129,4264.615384615385,4569.743589743591,4521.025641025642,4491.282051282052,4447.179487179487,4792.820512820514,4339.48717948718,4282.564102564103,4253.333333333334,4618.461538461539
1220.6819,0.90637803,0.6542499,0.33333334,0.5522388,0,0.0,0.0,0.0,0.0,0.6205,0,0,0.0,0.0,0,0,86.0,0.0,585.0,4677.435897435898,3879.48717948718,4516.410256410257,4426.153846153847,4252.307692307693,4554.871794871796,4504.102564102564,4474.871794871796,4427.6923076923085,4756.410256410257,4339.48717948718,4285.128205128206,4219.48717948718,4534.871794871796
1220.932,0.90637803,0.6542499,0.33333334,0.5522388,0,0.0,0.0,0.0,0.0,0.46115407,0,0,0.0,0.0,0,0,118.0,0.0,585.0,4669.2307692307695,3907.1794871794878,4521.538461538462,4437.948717948719,4264.102564102564,4566.666666666667,4510.256410256411,4472.820512820514,4431.282051282052,4748.205128205129,4341.025641025642,4281.025641025642,4227.6923076923085,4541.538461538462
1221.0885,0.93183196,0.66574883,0.33333334,0.5522388,0,0.0,0.0,0.0,0.0,1.0,0,0,0.0,0.0,0,0,9.0,0.0,508.0,4660.000000000001,3909.2307692307695,4510.256410256411,4429.743589743591,4248.717948717949,4551.794871794872,4502.051282051282,4473.333333333334,4431.282051282052,4764.102564102564,4342.051282051282,4278.974358974359,4233.846153846154,4508.717948717949
1221.0885,0.93183196,0.66574883,0.33333334,0.5522388,0,0.0,0.0,0.0,0.0,1.0,0,0,0.0,0.0,0,0,9.0,0.0,508.0,4660.000000000001,3909.2307692307695,4510.256410256411,4429.743589743591,4248.717948717949,4551.794871794872,4502.051282051282,4473.333333333334,4431.282051282052,4764.102564102564,4342.051282051282,4278.974358974359,4233.846153846154,4508.717948717949
1221.6827,0.88958126,0.6760978,0.33333334,0.5522388,0,0.0,0.0,0.0,0.0,1.0,0,0,0.0,0.0,0,0,85.0,0.0,157.0,4663.076923076924,3944.615384615385,4523.076923076924,4450.256410256411,4254.358974358975,4550.769230769231,4474.358974358975,4460.512820512821,4413.333333333334,4717.435897435898,4341.025641025642,4264.615384615385,4222.051282051282,4585.128205128206
1221.9329,0.88958126,0.6760978,0.33333334,0.5522388,0,0.0,0.0,0.0,0.0,0.5194898,0,0,0.0,0.0,0,0,117.0,0.0,157.0,4654.871794871796,3930.7692307692314,4512.820512820514,4443.076923076924,4247.179487179487,4541.025641025642,4490.256410256411,4456.410256410257,4406.153846153847,4714.871794871796,4344.615384615385,4263.076923076924,4205.128205128206,4601.538461538462
1222.1831,0.7973148,0.6376783,0.33333334,0.5522388,0,0.0,0.0,0.0,0.0,0.070130296,0,0,0.0,0.0,0,0,20.0,0.0,0.0,4660.512820512821,3929.7435897435903,4510.256410256411,4440.512820512821,4247.6923076923085,4540.000000000001,4477.435897435898,4451.794871794872,4397.948717948719,4701.025641025642,4341.538461538462,4252.820512820514,4207.6923076923085,4599.48717948718
1222.3082,0.7973148,0.6376783,0.33333334,0.5522388,0,0.0,0.0,0.0,0.0,0.0,0,0,0.0,0.0,0,0,36.0,0.0,0.0,4648.205128205129,3923.076923076924,4506.666666666667,4432.307692307693,4241.025641025642,4538.461538461539,4466.666666666667,4453.333333333334,4391.282051282052,4703.076923076924,4342.051282051282,4249.74358974359,4200.000000000001,4585.128205128206
1222.5897,0.7432463,0.5760354,0.33333334,0.5522388,0,0.0,0.0,0.0,0.0,0.0,0,0,0.0,0.0,0,0,72.0,0.0,459.0,4664.102564102564,3923.589743589744,4508.205128205129,4435.8974358974365,4240.512820512821,4537.435897435898,4471.282051282052,4459.48717948718,4393.846153846154,4712.307692307693,4344.102564102564,4249.2307692307695,4190.256410256411,4578.461538461539
1222.5897,0.7432463,0.5760354,0.33333334,0.5522388,0,0.0,0.0,0.0,0.0,0.0,0,0,0.0,0.0,0,0,72.0,0.0,459.0,4664.102564102564,3923.589743589744,4508.205128205129,4435.8974358974365,4240.512820512821,4537.435897435898,4471.282051282052,4459.48717948718,4393.846153846154,4712.307692307693,4344.102564102564,4249.2307692307695,4190.256410256411,4578.461538461539
1223.0902,0.71170616,0.5347368,0.33333334,0.5522388,0,0.0,0.0,0.0,0.0,0.0,0,0,0.0,0.0,0,0,7.0,0.0,497.0,4645.641025641026,3926.1538461538466,4510.256410256411,4434.358974358975,4245.641025641026,4544.102564102564,4461.538461538462,4443.589743589744,4383.076923076924,4708.717948717949,4343.589743589744,4245.128205128206,4201.538461538462,4584.615384615385
1223.0902,0.71170616,0.5347368,0.33333334,0.5522388,0,0.0,0.0,0.0,0.0,0.0,0,0,0.0,0.0,0,0,7.0,0.0,497.0,4645.641025641026,3926.1538461538466,4510.256410256411,4434.358974358975,4245.641025641026,4544.102564102564,4461.538461538462,4443.589743589744,4383.076923076924,4708.717948717949,4343.589743589744,4245.128205128206,4201.538461538462,4584.615384615385
1223.5906,0.7575425,0.5070766,0.33333334,0.5522388,0,0.0,0.0,0.0,0.0,0.0,0,0,0.0,0.0,0,0,71.0,0.0,497.0,4618.461538461539,3927.692307692308,4501.538461538462,4434.871794871796,4231.794871794872,4542.051282051282,4444.615384615385,4409.743589743591,4363.589743589744,4660.512820512821,4343.076923076924,4231.282051282052,4135.8974358974365,4538.461538461539
1223.5906,0.7575425,0.5070766,0.33333334,0.5522388,0,0.0,0.0,0.0,0.0,0.0,0,0,0.0,0.0,0,0,71.0,0.0,497.0,4618.461538461539,3927.692307692308,4501.538461538462,4434.871794871796,4231.794871794872,4542.051282051282,4444.615384615385,4409.743589743591,4363.589743589744,4660.512820512821,4343.076923076924,4231.282051282052,4135.8974358974365,4538.461538461539
1224.0911,0.7939971,0.49793226,0.33333334,0.5522388,0,0.0,0.0,0.0,0.0,0.0,0,0,0.0,0.0,0,0,6.0,0.0,585.0,4668.205128205129,3935.8974358974365,4507.6923076923085,4433.333333333334,4237.435897435898,4537.435897435898,4461.538461538462,4444.615384615385,4389.743589743591,4704.102564102564,4345.128205128206,4235.384615384616,4211.794871794872,4568.717948717949
1224.0911,0.7939971,0.49793226,0.33333334,0.5522388,0,0.0,0.0,0.0,0.0,0.0,0,0,0.0,0.0,0,0,6.0,0.0,585.0,4668.205128205129,3935.8974358974365,4507.6923076923085,4433.333333333334,4237.435897435898,4537.435897435898,4461.538461538462,4444.615384615385,4389.743589743591,4704.102564102564,4345.128205128206,4235.384615384616,4211.794871794872,4568.717948717949
1224.5914,0.71447057,0.48798257,0.33333334,0.5522388,0,0.0,0.0,0.0,0.0,0.0,0,0,0.0,0.0,0,0,70.0,0.0,585.0,4630.256410256411,3917.9487179487182,4495.8974358974365,4425.641025641026,4237.948717948719,4539.48717948718,4452.307692307693,4432.307692307693,4377.435897435898,4694.358974358975,4344.102564102564,4232.820512820514,4191.794871794872,4539.48717948718
1224.5914,0.71447057,0.48798257,0.33333334,0.5522388,0,0.0,0.0,0.0,0.0,0.0,0,0,0.0,0.0,0,0,70.0,0.0,585.0,4630.256410256411,3917.9487179487182,4495.8974358974365,4425.641025641026,4237.948717948719,4539.48717948718,4452.307692307693,4432.307692307693,4377.435897435898,4694.358974358975,4344.102564102564,4232.820512820514,4191.794871794872,4539.48717948718
1225.0919,0.6787662,0.47434878,0.33333334,0.5522388,0,0.0,0.0,0.0,0.0,0.0,0,0,0.0,0.0,0,0,5.0,0.0,585.0,4646.153846153847,3927.692307692308,4507.179487179488,4438.461538461539,4247.6923076923085,4544.615384615385,4448.205128205129,4441.025641025642,4392.307692307693,4718.461538461539,4345.128205128206,4238.461538461539,4218.974358974359,4543.589743589744
1225.4359,0.6787662,0.47434878,0.33333334,0.5522388,0,0.0,0.0,0.0,0.0,1.0,0,0,0.0,0.0,0,1,49.0,0.0,0.0,4612.820512820514,3913.8461538461543,4490.769230769231,4426.666666666667,4244.615384615385,4540.512820512821,4447.179487179487,4421.538461538462,4377.435897435898,4691.282051282052,4343.589743589744,4233.846153846154,4182.564102564103,4513.846153846154
1225.7174,0.6290395,0.4526133,0.33333334,0.5522388,0,0.0,0.0,0.0,0.0,1.0,0,0,0.0,0.0,0,0,85.0,0.0,157.0,4681.025641025642,3972.307692307693,4502.564102564103,4445.128205128206,4236.923076923077,4537.435897435898,4438.461538461539,4430.769230769231,4382.564102564103,4695.384615384616,4346.153846153847,4233.333333333334,4219.48717948718,4550.769230769231
1225.9364,0.6290395,0.4526133,0.33333334,0.5522388,0,0.0,0.0,0.0,0.0,0.12718737,0,0,0.0,0.0,0,0,113.0,0.0,157.0,4617.435897435898,3914.358974358975,4492.307692307693,4438.461538461539,4239.48717948718,4540.512820512821,4446.666666666667,4446.153846153847,4393.333333333334,4710.256410256411,4342.051282051282,4234.358974358975,4168.717948717949,4507.6923076923085
1226.1865,0.5598699,0.43394375,0.33333334,0.5522388,0,0.0,0.0,0.0,0.0,1.0,0,0,0.0,0.0,0,0,16.0,0.0,0.0,4626.666666666667,3897.9487179487182,4495.8974358974365,4429.743589743591,4246.666666666667,4543.076923076924,4461.538461538462,4424.102564102564,4394.358974358975,4729.2307692307695,4346.153846153847,4243.589743589744,4142.051282051282,2409.74358974359
1226.3116,0.5598699,0.43394375,0.33333334,0.5522388,0,0.0,0.0,0.0,0.0,1.0,0,0,0.0,0.0,0,0,32.0,0.0,0.0,4634.358974358975,3894.8717948717954,4492.307692307693,4422.564102564103,4248.717948717949,4552.307692307693,4458.974358974359,4433.333333333334,4387.179487179487,4732.307692307693,4345.641025641026,4248.205128205129,4162.051282051282,3211.794871794872
1226.687,0.53078055,0.44338864,0.33333334,0.5522388,0,0.0,0.0,0.0,0.0,1.0,0,0,0.0,0.0,0,0,80.0,0.0,0.0,4632.820512820514,3896.9230769230776,4482.564102564103,4433.333333333334,4235.384615384616,4538.974358974359,4437.948717948719,4431.794871794872,4388.717948717949,4721.538461538462,4346.153846153847,4248.717948717949,4194.871794871796,4668.717948717949
1226.9373,0.53078055,0.44338864,0.33333334,0.5522388,0,0.0,0.0,0.0,0.0,0.85257095,0,0,0.0,0.0,0,0,112.0,0.0,0.0,4616.410256410257,3894.8717948717954,4495.8974358974365,4442.051282051282,4246.666666666667,4552.820512820514,4445.641025641026,4411.794871794872,4374.358974358975,4709.2307692307695,4342.564102564103,4250.769230769231,4175.8974358974365,4690.769230769231
1227.1874,0.5200477,0.4389994,0.33333334,0.5522388,0,0.0,0.0,0.0,0.0,0.055763528,0,0,0.0,0.0,0,0,15.0,0.0,381.0,4634.871794871796,3906.666666666667,4494.871794871796,4435.384615384616,4245.641025641026,4542.564102564103,4447.6923076923085,4426.153846153847,4393.846153846154,4738.461538461539,4346.666666666667,4248.717948717949,4191.282051282052,4683.589743589744
1227.3125,0.5200477,0.4389994,0.33333334,0.5522388,0,0.0,0.0,0.0,0.0,0.0,0,0,0.0,0.0,0,0,31.0,0.0,0.0,4687.6923076923085,3928.205128205129,4507.179487179488,4440.512820512821,4248.205128205129,4549.743589743591,4458.974358974359,4458.974358974359,4399.48717948718,4738.974358974359,4344.615384615385,4264.102564102564,4234.871794871796,4708.717948717949
1227.6879,0.4909723,0.47196504,0.33333334,0.5522388,0,0.0,0.0,0.0,0.0,0.018333407,0,0,0.0,0.0,0,0,79.0,0.0,381.0,4495.8974358974365,4650.256410256411,4494.871794871796,4592.820512820514,4037.9487179487182,4345.641025641026,4181.025641025642,4140.000000000001,4178.461538461539,4340.000000000001,4342.564102564103,4188.717948717949,4167.6923076923085,4547.6923076923085
1227.9381,0.4909723,0.47196504,0.33333334,0.5522388,0,0.0,0.0,0.0,0.0,0.04733687,0,0,0.0,0.0,0,0,111.0,0.0,381.0,4451.794871794872,4415.384615384616,4477.435897435898,4546.666666666667,4131.794871794872,4422.564102564103,4197.948717948719,4162.051282051282,4208.717948717949,4492.307692307693,4336.923076923077,4203.589743589744,4433.846153846154,4467.6923076923085
1228.1882,0.64205563,0.50163496,0.33333334,0.5522388,0,0.0,0.0,0.060644034,0.0,0.0,0,0,0.0,0.0,0,0,14.0,0.0,581.0,4689.2307692307695,3831.2820512820517,4505.128205128206,4412.307692307693,4278.461538461539,4570.769230769231,4491.794871794872,4472.307692307693,4409.743589743591,4738.461538461539,4343.589743589744,4262.564102564103,4226.666666666667,4623.589743589744
1228.4385,0.64205563,0.50163496,0.33333334,0.5522388,0,0.0,0.0,0.0,0.0,0.0165877,1,0,0.0,0.0,0,0,46.0,0.0,0.0,4697.948717948719,3862.564102564103,4504.102564102564,4424.102564102564,4270.256410256411,4570.769230769231,4494.871794871796,4463.589743589744,4412.820512820514,4727.179487179488,4343.076923076924,4251.282051282052,4200.000000000001,4601.025641025642
1228.6887,0.67156357,0.52833784,0.33333334,0.5522388,0,0.0,0.0,0.0,0.0,0.06939776,1,0,0.0,0.0,0,0,78.0,0.0,583.0,4673.333333333334,3892.307692307693,4501.538461538462,4433.333333333334,4262.051282051282,4555.384615384616,4474.871794871796,4454.871794871796,4391.282051282052,4717.948717948719,4345.128205128206,4249.74358974359,4148.717948717949,4583.589743589744
1228.939,0.67156357,0.52833784,0.33333334,0.5522388,0,0.0,0.0,0.0,0.0,0.05264333,1,0,0.0,0.0,0,0,110.0,0.0,583.0,4702.564102564103,3935.8974358974365,4514.358974358975,4451.794871794872,4250.256410256411,4554.871794871796,4447.179487179487,4431.282051282052,4382.051282051282,4715.384615384616,4343.589743589744,4247.6923076923085,4142.051282051282,4583.076923076924
1229.1892,0.6935943,0.5523705,0.33333334,0.5522388,0,0.0,0.0,0.0,0.0,0.027388014,1,0,0.0,0.0,0,0,13.0,0.0,157.0,4673.333333333334,3946.666666666667,4501.538461538462,4448.205128205129,4249.74358974359,4544.615384615385,4440.000000000001,4422.051282051282,4373.846153846154,4702.051282051282,4343.589743589744,4242.051282051282,4128.717948717949,4566.666666666667
1229.4393,0.6935943,0.5523705,0.33333334,0.5522388,0,0.0,0.0,0.0,0.0,0.0,1,0,0.0,0.0,0,0,45.0,0.0,0.0,4669.2307692307695,3949.2307692307695,4501.538461538462,4454.871794871796,4246.666666666667,4540.512820512821,4446.153846153847,4420.512820512821,4371.794871794872,4711.794871794872,4342.564102564103,4249.2307692307695,4159.48717948718,4568.205128205129
1229.5957,0.626057,0.5739998,0.33333334,0.5522388,0,0.0,0.0,0.0,0.0,0.0,1,0,0.0,0.0,0,0,65.0,0.0,455.0,4664.615384615386,3948.205128205129,4498.461538461539,4443.589743589744,4246.153846153847,4540.000000000001,4433.846153846154,4412.307692307693,4370.769230769231,4721.025641025642,4348.205128205129,4247.6923076923085,4153.333333333334,4548.717948717949
1229.9398,0.626057,0.5739998,0.33333334,0.5522388,0,0.0,0.0,0.0,0.0,0.0983555,1,0,0.0,0.0,0,0,109.0,0.0,157.0,4693.846153846154,3978.9743589743593,4501.538461538462,4455.8974358974365,4234.871794871796,4526.666666666667,4413.846153846154,4383.076923076924,4343.589743589744,4700.000000000001,4344.102564102564,4234.358974358975,4191.282051282052,4568.205128205129
1230.1901,0.5582016,0.61534345,0.33333334,0.5522388,0,0.0,0.0,0.0,0.0,0.11321688,0,0,0.0,0.0,0,0,12.0,0.0,0.0,4675.384615384616,3959.48717948718,4507.179487179488,4457.435897435898,4249.2307692307695,4551.794871794872,4444.102564102564,4417.948717948719,4369.743589743591,4717.435897435898,4349.743589743591,4234.358974358975,4180.512820512821,4538.974358974359
1230.4402,0.5582016,0.61534345,0.33333334,0.5522388,0,0.0,0.0,0.0,0.0,0.111751154,0,0,0.0,0.0,0,0,44.0,0.0,0.0,4655.384615384616,3945.6410256410263,4504.102564102564,4447.179487179487,4261.025641025642,4554.871794871796,4454.871794871796,4420.512820512821,4373.333333333334,4716.923076923077,4345.641025641026,4237.435897435898,4178.974358974359,4540.000000000001
1230.6904,0.51527125,0.58716655,0.33333334,0.5522388,0,0.0,0.0,0.0,0.0,0.0,0,0,0.0,0.0,0,0,76.0,0.0,0.0,4649.2307692307695,3941.0256410256416,4490.256410256411,4444.615384615385,4250.256410256411,4545.641025641026,4447.6923076923085,4408.205128205129,4367.179487179487,4713.333333333334,4345.641025641026,4249.74358974359,4167.6923076923085,4530.256410256411
1230.6904,0.51527125,0.58716655,0.33333334,0.5522388,0,0.0,0.0,0.0,0.0,0.0,0,0,0.0,0.0,0,0,76.0,0.0,0.0,4649.2307692307695,3941.0256410256416,4490.256410256411,4444.615384615385,4250.256410256411,4545.641025641026,4447.6923076923085,4408.205128205129,4367.179487179487,4713.333333333334,4345.641025641026,4249.74358974359,4167.6923076923085,4530.256410256411
1231.2222,0.48134187,0.552782,0.33333334,0.5522388,1,0.0,0.0,0.0,0.0,0.0,0,0,0.0,0.0,0,0,15.0,0.0,388.0,4664.102564102564,3935.3846153846157,4506.153846153847,4444.615384615385,4264.615384615385,4552.820512820514,4470.256410256411,4454.871794871796,4401.538461538462,4740.000000000001,4347.179487179487,4230.769230769231,4213.846153846154,4549.2307692307695
1231.441,0.48134187,0.552782,0.33333334,0.5522388,0,0.0,0.0,0.0,0.0,1.0,0,0,0.0,0.0,0,0,43.0,0.0,0.0,4645.128205128206,3926.1538461538466,4496.923076923077,4442.051282051282,4264.615384615385,4541.025641025642,4460.512820512821,4462.564102564103,4396.410256410257,4717.435897435898,4346.153846153847,4220.512820512821,4170.769230769231,4507.179487179488
1231.6913,0.5052232,0.51421756,0.33333334,0.5522388,0,0.0,0.0,0.0,0.0,1.0,0,0,0.0,0.0,0,0,75.0,0.0,382.0,4641.025641025642,3926.1538461538466,4490.256410256411,4437.948717948719,4247.179487179487,4541.025641025642,4454.358974358975,4422.051282051282,4375.8974358974365,4715.8974358974365,4346.666666666667,4216.410256410257,4173.333333333334,4463.589743589744
1231.9415,0.5052232,0.51421756,0.33333334,0.5522388,0,0.0,0.0,0.0,1.0,0.0,0,0,0.0,0.0,0,0,107.0,0.0,382.0,4654.358974358975,3928.205128205129,4489.2307692307695,4439.48717948718,4246.666666666667,4547.179487179488,4449.2307692307695,4427.6923076923085,4382.051282051282,4729.743589743591,4347.179487179487,4218.974358974359,4189.2307692307695,4568.717948717949
1232.0979,0.512275,0.4704207,0.33333334,0.5522388,0,0.0,0.0,0.0,0.0,1.0,0,0,0.0,0.0,0,0,127.0,0.0,382.0,4646.153846153847,3932.820512820513,4500.512820512821,4444.102564102564,4255.8974358974365,4557.948717948719,4457.435897435898,4432.820512820514,4376.410256410257,4710.256410256411,4347.179487179487,4212.820512820514,4169.74358974359,4583.589743589744
1232.4419,0.512275,0.4704207,0.33333334,0.5522388,0,0.0,0.0,0.0,0.0,0.0,0,0,0.0,0.0,0,0,42.0,0.0,0.0,4647.179487179488,3918.9743589743593,4492.307692307693,4432.307692307693,4250.769230769231,4553.333333333334,4453.333333333334,4436.923076923077,4391.794871794872,4731.794871794872,4348.717948717949,4225.641025641026,4202.051282051282,4597.948717948719
1232.5984,0.5263821,0.44986162,0.33333334,0.5522388,0,0.0,0.0,0.0,0.0,0.0,0,0,0.0,0.0,0,0,62.0,0.0,0.0,4658.974358974359,3916.9230769230776,4501.025641025642,4436.410256410257,4252.307692307693,4553.846153846154,4456.410256410257,4427.179487179487,4393.333333333334,4730.256410256411,4348.717948717949,4215.8974358974365,4211.794871794872,4606.153846153847
1232.5984,0.5263821,0.44986162,0.33333334,0.5522388,0,0.0,0.0,0.0,0.0,0.0,0,0,0.0,0.0,0,0,62.0,0.0,0.0,4658.974358974359,3916.9230769230776,4501.025641025642,4436.410256410257,4252.307692307693,4553.846153846154,4456.410256410257,4427.179487179487,4393.333333333334,4730.256410256411,4348.717948717949,4215.8974358974365,4211.794871794872,4606.153846153847
1233.0988,0.47359005,0.42102766,0.33333334,0.5522388,0,0.0,0.0,0.0,0.0,0.0,0,0,0.0,0.0,0,0,126.0,0.0,586.0,4649.2307692307695,3909.7435897435903,4501.025641025642,4427.6923076923085,4250.256410256411,4543.589743589744,4462.564102564103,4435.8974358974365,4394.358974358975,4726.153846153847,4347.6923076923085,4216.410256410257,4177.435897435898,4596.923076923077
1233.0988,0.47359005,0.42102766,0.33333334,0.5522388,0,0.0,0.0,0.0,0.0,0.0,0,0,0.0,0.0,0,0,126.0,0.0,586.0,4649.2307692307695,3909.7435897435903,4501.025641025642,4427.6923076923085,4250.256410256411,4543.589743589744,4462.564102564103,4435.8974358974365,4394.358974358975,4726.153846153847,4347.6923076923085,4216.410256410257,4177.435897435898,4596.923076923077
1233.5992,0.4992388,0.39442378,0.33333334,0.5522388,0,0.0,0.0,0.0,0.0,0.0,0,0,0.0,0.0,0,0,61.0,0.0,0.0,4694.358974358975,3941.538461538462,4506.153846153847,4442.564102564103,4247.179487179487,4543.589743589744,4452.307692307693,4436.410256410257,4399.48717948718,4733.333333333334,4348.205128205129,4232.820512820514,4207.179487179487,4622.051282051282
1233.5992,0.4992388,0.39442378,0.33333334,0.5522388,0,0.0,0.0,0.0,0.0,0.0,0,0,0.0,0.0,0,0,61.0,0.0,0.0,4694.358974358975,3941.538461538462,4506.153846153847,4442.564102564103,4247.179487179487,4543.589743589744,4452.307692307693,4436.410256410257,4399.48717948718,4733.333333333334,4348.205128205129,4232.820512820514,4207.179487179487,4622.051282051282
1234.0996,0.454867,0.3659611,0.33333334,0.5522388,0,0.0,0.0,0.0,0.0,0.0,0,0,0.0,0.0,0,0,125.0,0.0,157.0,4658.974358974359,3912.820512820513,4503.076923076924,4434.871794871796,4258.461538461539,4555.384615384616,4466.153846153847,4454.358974358975,4415.8974358974365,4751.794871794872,4345.641025641026,4232.820512820514,4188.205128205129,4580.512820512821
1234.0996,0.454867,0.3659611,0.33333334,0.5522388,0,0.0,0.0,0.0,0.0,0.0,0,0,0.0,0.0,0,0,125.0,0.0,157.0,4658.974358974359,3912.820512820513,4503.076923076924,4434.871794871796,4258.461538461539,4555.384615384616,4466.153846153847,4454.358974358975,4415.8974358974365,4751.794871794872,4345.641025641026,4232.820512820514,4188.205128205129,4580.512820512821
1234.6938,0.43107462,0.34425303,0.33333334,0.5522388,0,0.0,0.0,0.0,0.0,0.1411256,0,0,0.0,0.0,0,0,72.0,0.0,458.0,4658.461538461539,3931.7948717948725,4513.333333333334,4447.179487179487,4263.589743589744,4564.102564102564,4471.794871794872,4447.6923076923085,4411.282051282052,4760.000000000001,4346.153846153847,4240.000000000001,4191.282051282052,4576.410256410257
1234.9441,0.43107462,0.34425303,0.33333334,0.5522388,0,0.0,0.0,0.0,0.0,0.16249697,0,0,0.0,0.0,0,0,104.0,0.0,0.0,4657.435897435898,3926.1538461538466,4507.179487179488,4444.102564102564,4257.948717948719,4554.871794871796,4468.205128205129,4448.717948717949,4408.205128205129,4760.000000000001,4348.205128205129,4233.846153846154,4183.076923076924,4570.769230769231
1235.1943,0.43221164,0.34125143,0.33333334,0.5522388,0,0.0,0.0,0.0,0.0,0.08890965,0,0,0.0,0.0,0,0,7.0,0.0,502.0,4649.743589743591,3922.0512820512827,4504.102564102564,4434.358974358975,4248.205128205129,4549.743589743591,4461.025641025642,4427.179487179487,4397.435897435898,4732.307692307693,4349.2307692307695,4232.307692307693,4174.358974358975,4559.48717948718
1235.4446,0.43221164,0.34125143,0.33333334,0.5522388,0,0.0,0.0,0.0,0.0,0.05751575,0,0,0.0,0.0,0,0,39.0,0.0,0.0,4648.717948717949,3923.076923076924,4507.6923076923085,4437.435897435898,4252.820512820514,4549.743589743591,4456.410256410257,4426.153846153847,4394.871794871796,4731.282051282052,4346.666666666667,4231.794871794872,4167.179487179487,4550.769230769231
1235.601,0.39446038,0.34390727,0.33333334,0.5522388,0,0.0,0.0,0.0,0.0,0.0,0,0,0.0,0.0,0,0,59.0,0.0,0.0,4648.205128205129,3918.9743589743593,4506.666666666667,4433.846153846154,4248.717948717949,4547.179487179488,4457.948717948719,4439.48717948718,4404.102564102564,4735.8974358974365,4345.128205128206,4226.153846153847,4185.128205128206,4553.333333333334
1235.601,0.39446038,0.34390727,0.33333334,0.5522388,0,0.0,0.0,0.0,0.0,0.0,0,0,0.0,0.0,0,0,59.0,0.0,0.0,4648.205128205129,3918.9743589743593,4506.666666666667,4433.846153846154,4248.717948717949,4547.179487179488,4457.948717948719,4439.48717948718,4404.102564102564,4735.8974358974365,4345.128205128206,4226.153846153847,4185.128205128206,4553.333333333334
1236.1013,0.34378746,0.3504627,0.33333334,0.5522388,0,0.0,0.0,0.0,0.0,0.0,0,0,0.0,0.0,0,0,123.0,0.0,382.0,4653.846153846154,3917.9487179487182,4504.615384615385,4432.307692307693,4249.74358974359,4551.794871794872,4462.564102564103,4435.8974358974365,4393.333333333334,4728.717948717949,4347.6923076923085,4230.256410256411,4174.871794871796,4551.794871794872
1236.4454,0.34378746,0.3504627,0.33333334,0.5522388,0,0.0,0.0,0.0,0.0,0.124731824,0,0,0.0,0.0,0,0,38.0,0.0,0.0,4615.8974358974365,3907.1794871794878,4498.974358974359,4428.205128205129,4248.717948717949,4549.743589743591,4454.358974358975,4430.769230769231,4395.384615384616,4731.282051282052,4346.153846153847,4218.974358974359,4174.358974358975,4523.076923076924
1236.6956,0.28865084,0.35740137,0.33333334,0.5522388,0,0.0,0.0,0.0,0.0,0.11587945,0,0,0.0,0.0,0,0,70.0,0.0,588.0,4647.179487179488,3918.461538461539,4508.205128205129,4438.974358974359,4253.846153846154,4555.8974358974365,4455.8974358974365,4429.2307692307695,4386.153846153847,4720.512820512821,4342.051282051282,4227.179487179487,4175.384615384616,4535.384615384616
1236.8207,0.28865084,0.35740137,0.33333334,0.5522388,0,0.0,0.0,0.0,0.0,0.0,0,0,0.0,0.0,0,0,86.0,0.0,586.0,4631.282051282052,3921.0256410256416,4507.179487179488,4431.282051282052,4248.205128205129,4545.641025641026,4448.717948717949,4434.871794871796,4386.153846153847,4717.435897435898,4345.641025641026,4222.564102564103,4174.358974358975,4524.102564102564
1237.1022,0.26638713,0.3470211,0.33333334,0.5522388,0,0.0,0.0,0.0,0.0,0.0,0,0,0.0,0.0,0,0,122.0,0.0,586.0,4651.794871794872,3941.538461538462,4513.846153846154,4444.102564102564,4257.948717948719,4554.358974358975,4456.410256410257,4437.948717948719,4392.820512820514,4743.589743589744,4346.153846153847,4218.461538461539,4200.512820512821,4536.923076923077
1237.1022,0.26638713,0.3470211,0.33333334,0.5522388,0,0.0,0.0,0.0,0.0,0.0,0,0,0.0,0.0,0,0,122.0,0.0,586.0,4651.794871794872,3941.538461538462,4513.846153846154,4444.102564102564,4257.948717948719,4554.358974358975,4456.410256410257,4437.948717948719,4392.820512820514,4743.589743589744,4346.153846153847,4218.461538461539,4200.512820512821,4536.923076923077
1237.6027,0.22540186,0.3501645,0.33333334,0.5522388,0,0.0,0.0,0.0,0.0,0.0,0,0,0.0,0.0,0,0,57.0,0.0,0.0,4630.769230769231,3923.076923076924,4504.615384615385,4443.589743589744,4260.000000000001,4554.871794871796,4468.205128205129,4447.6923076923085,4383.589743589744,4718.461538461539,4347.6923076923085,4215.8974358974365,4170.256410256411,4518.974358974359
1237.6027,0.22540186,0.3501645,0.33333334,0.5522388,0,0.0,0.0,0.0,0.0,0.0,0,0,0.0,0.0,0,0,57.0,0.0,0.0,4630.769230769231,3923.076923076924,4504.615384615385,4443.589743589744,4260.000000000001,4554.871794871796,4468.205128205129,4447.6923076923085,4383.589743589744,4718.461538461539,4347.6923076923085,4215.8974358974365,4170.256410256411,4518.974358974359
1238.103,0.2645441,0.33322665,0.33333334,0.5522388,0,0.0,0.0,0.0,0.0,0.0,0,0,0.0,0.0,0,0,121.0,0.0,157.0,4637.948717948719,3940.5128205128212,4506.153846153847,4442.051282051282,4246.153846153847,4543.589743589744,4445.641025641026,4414.871794871796,4370.256410256411,4713.846153846154,4345.128205128206,4234.358974358975,4174.871794871796,4523.589743589744
1238.103,0.2645441,0.33322665,0.33333334,0.5522388,0,0.0,0.0,0.0,0.0,0.0,0,0,0.0,0.0,0,0,121.0,0.0,157.0,4637.948717948719,3940.5128205128212,4506.153846153847,4442.051282051282,4246.153846153847,4543.589743589744,4445.641025641026,4414.871794871796,4370.256410256411,4713.846153846154,4345.128205128206,4234.358974358975,4174.871794871796,4523.589743589744
1238.6035,0.28476146,0.33204132,0.33333334,0.5522388,0,0.0,0.0,0.0,0.0,0.0,0,0,0.0,0.0,0,0,56.0,0.0,0.0,4630.256410256411,3941.0256410256416,4495.8974358974365,4443.589743589744,4245.641025641026,4550.256410256411,4454.358974358975,4436.923076923077,4375.384615384616,4711.282051282052,4343.589743589744,4245.641025641026,4147.6923076923085,4504.102564102564
1238.6035,0.28476146,0.33204132,0.33333334,0.5522388,0,0.0,0.0,0.0,0.0,0.0,0,0,0.0,0.0,0,0,56.0,0.0,0.0,4630.256410256411,3941.0256410256416,4495.8974358974365,4443.589743589744,4245.641025641026,4550.256410256411,4454.358974358975,4436.923076923077,4375.384615384616,4711.282051282052,4343.589743589744,4245.641025641026,4147.6923076923085,4504.102564102564
1239.1039,0.36330557,0.32475132,0.33333334,0.5522388,0,0.0,0.0,0.0,0.0,0.0,0,0,0.0,0.0,0,0,120.0,0.0,0.0,4638.461538461539,3929.7435897435903,4495.8974358974365,4441.538461538462,4246.153846153847,4540.000000000001,4458.461538461539,4445.641025641026,4385.128205128206,4741.538461538462,4346.666666666667,4244.102564102564,4193.846153846154,4505.641025641026
1239.1039,0.36330557,0.32475132,0.33333334,0.5522388,0,0.0,0.0,0.0,0.0,0.0,0,0,0.0,0.0,0,0,120.0,0.0,0.0,4638.461538461539,3929.7435897435903,4495.8974358974365,4441.538461538462,4246.153846153847,4540.000000000001,4458.461538461539,4445.641025641026,4385.128205128206,4741.538461538462,4346.666666666667,4244.102564102564,4193.846153846154,4505.641025641026
1239.6044,0.40354857,0.32438442,0.33333334,0.5522388,0,0.0,0.0,0.0,0.0,0.0,0,0,0.0,0.0,0,0,55.0,0.0,0.0,4631.794871794872,3941.538461538462,4495.8974358974365,4444.615384615385,4249.2307692307695,4553.333333333334,4457.435897435898,4429.2307692307695,4382.564102564103,4732.307692307693,4344.615384615385,4232.307692307693,4188.717948717949,4506.153846153847
1239.6044,0.40354857,0.32438442,0.33333334,0.5522388,0,0.0,0.0,0.0,0.0,0.0,0,0,0.0,0.0,0,0,55.0,0.0,0.0,4631.794871794872,3941.538461538462,4495.8974358974365,4444.615384615385,4249.2307692307695,4553.333333333334,4457.435897435898,4429.2307692307695,4382.564102564103,4732.307692307693,4344.615384615385,4232.307692307693,4188.717948717949,4506.153846153847
1240.1047,0.35449985,0.3047944,0.33333334,0.5522388,0,0.0,0.0,0.0,0.0,0.0,0,0,0.0,0.0,0,0,119.0,0.0,382.0,4631.282051282052,3938.9743589743593,4492.820512820514,4436.923076923077,4237.948717948719,4538.461538461539,4456.923076923077,4435.8974358974365,4378.461538461539,4722.564102564103,4345.128205128206,4243.076923076924,4186.666666666667,4473.846153846154
1240.1047,0.35449985,0.3047944,0.33333334,0.5522388,0,0.0,0.0,0.0,0.0,0.0,0,0,0.0,0.0,0,0,119.0,0.0,382.0,4631.282051282052,3938.9743589743593,4492.820512820514,4436.923076923077,4237.948717948719,4538.461538461539,4456.923076923077,4435.8974358974365,4378.461538461539,4722.564102564103,4345.128205128206,4243.076923076924,4186.666666666667,4473.846153846154
1240.6991,0.3297476,0.30258447,0.33333334,0.5522388,0,0.0,0.0,0.0,0.0,1.0,0,0,0.0,0.0,0,0,66.0,0.0,530.0,4640.000000000001,3942.564102564103,4503.076923076924,4456.410256410257,4251.282051282052,4555.8974358974365,4462.564102564103,4430.256410256411,4376.923076923077,4704.615384615386,4346.153846153847,4249.74358974359,4185.641025641026,4484.102564102564
1240.9492,0.3297476,0.30258447,0.33333334,0.5522388,0,0.0,0.0,0.0,0.0,0.122882806,0,0,0.0,0.0,0,0,98.0,0.0,586.0,4631.794871794872,3928.205128205129,4498.461538461539,4444.615384615385,4240.000000000001,4540.512820512821,4458.974358974359,4441.538461538462,4387.6923076923085,4702.564102564103,4346.153846153847,4243.589743589744,4196.410256410257,4476.923076923077
1241.1995,0.31501424,0.33491105,0.33333334,0.5522388,0,0.0,0.0,0.0,0.0,0.0,0,0,0.0,0.0,0,0,1.0,0.0,455.0,4650.769230769231,3941.538461538462,4498.974358974359,4444.102564102564,4241.025641025642,4540.512820512821,4435.384615384616,4415.384615384616,4382.564102564103,4714.358974358975,4346.153846153847,4233.333333333334,4208.205128205129,4489.743589743591
1241.1995,0.31501424,0.33491105,0.33333334,0.5522388,0,0.0,0.0,0.0,0.0,0.0,0,0,0.0,0.0,0,0,1.0,0.0,455.0,4650.769230769231,3941.538461538462,4498.974358974359,4444.102564102564,4241.025641025642,4540.512820512821,4435.384615384616,4415.384615384616,4382.564102564103,4714.358974358975,4346.153846153847,4233.333333333334,4208.205128205129,4489.743589743591
1241.7,0.27283368,0.34942305,0.33333334,0.5522388,0,0.0,0.0,0.0,0.0,1.0,0,0,0.0,0.0,0,0,65.0,0.0,455.0,4641.025641025642,3942.0512820512827,4502.564102564103,4448.717948717949,4247.6923076923085,4541.538461538462,4450.256410256411,4426.666666666667,4388.205128205129,4705.128205128206,4347.179487179487,4220.000000000001,4185.641025641026,4486.666666666667
1241.7,0.27283368,0.34942305,0.33333334,0.5522388,0,0.0,0.0,0.0,0.0,1.0,0,0,0.0,0.0,0,0,65.0,0.0,455.0,4641.025641025642,3942.0512820512827,4502.564102564103,4448.717948717949,4247.6923076923085,4541.538461538462,4450.256410256411,4426.666666666667,4388.205128205129,4705.128205128206,4347.179487179487,4220.000000000001,4185.641025641026,4486.666666666667
1242.1064,0.26503986,0.33602473,0.33333334,0.5522388,0,0.0,0.0,0.0,0.0,1.0,0,0,0.0,0.0,0,0,117.0,0.0,157.0,4596.923076923077,3901.538461538462,4491.282051282052,4433.333333333334,4247.6923076923085,4551.282051282052,4451.794871794872,4426.666666666667,4400.512820512821,4729.743589743591,4346.153846153847,4215.384615384616,4197.435897435898,4474.871794871796
1242.4506,0.26503986,0.33602473,0.33333334,0.5522388,0,0.0,0.0,0.0,0.0,0.08541112,0,0,0.0,0.0,0,0,32.0,0.0,0.0,4612.820512820514,3909.2307692307695,4489.743589743591,4432.820512820514,4240.000000000001,4543.076923076924,4454.358974358975,4427.6923076923085,4401.025641025642,4731.794871794872,4344.615384615385,4229.2307692307695,4216.923076923077,4491.794871794872
1242.6069,0.31035137,0.32162786,0.33333334,0.5522388,0,0.0,0.0,0.0,0.0,0.0,0,0,0.0,0.0,0,0,52.0,0.0,0.0,4628.717948717949,3926.666666666667,4492.307692307693,4442.564102564103,4240.512820512821,4542.564102564103,4442.564102564103,4420.000000000001,4397.948717948719,4725.641025641026,4346.666666666667,4229.74358974359,4232.307692307693,4509.743589743591
1242.9509,0.31035137,0.32162786,0.33333334,0.5522388,0,0.0,0.0,0.0,0.0,0.2915891,0,0,0.0,0.0,0,0,96.0,0.0,0.0,4643.589743589744,3940.0000000000005,4497.948717948719,4443.589743589744,4233.333333333334,4537.948717948719,4443.589743589744,4428.717948717949,4384.615384615385,4696.410256410257,4347.6923076923085,4238.461538461539,4192.820512820514,4432.820512820514
1243.1074,0.2890212,0.3145199,0.33333334,0.5522388,0,0.0,0.0,0.0,0.0,1.0,0,0,0.0,0.0,0,0,116.0,0.0,0.0,4617.435897435898,3941.538461538462,4494.871794871796,4443.589743589744,4235.8974358974365,4540.000000000001,4440.000000000001,4420.512820512821,4369.743589743591,4676.410256410257,4346.153846153847,4234.358974358975,4151.282051282052,4492.307692307693
1243.1074,0.2890212,0.3145199,0.33333334,0.5522388,0,0.0,0.0,0.0,0.0,1.0,0,0,0.0,0.0,0,0,116.0,0.0,0.0,4617.435897435898,3941.538461538462,4494.871794871796,4443.589743589744,4235.8974358974365,4540.000000000001,4440.000000000001,4420.512820512821,4369.743589743591,4676.410256410257,4346.153846153847,4234.358974358975,4151.282051282052,4492.307692307693
1243.7017,0.26843926,0.31259334,0.33333334,0.5522388,0,0.0,0.0,0.0,0.0,0.3494075,0,0,0.0,0.0,0,0,63.0,0.0,0.0,4639.48717948718,3963.589743589744,4506.153846153847,4443.589743589744,4244.102564102564,4539.48717948718,4442.564102564103,4425.128205128206,4378.461538461539,4704.102564102564,4346.153846153847,4251.282051282052,4182.564102564103,4456.410256410257
1243.9518,0.26843926,0.31259334,0.33333334,0.5522388,0,0.0,0.0,0.0,0.0,0.47603378,0,0,0.0,0.0,0,0,95.0,0.0,391.0,4630.256410256411,3960.0000000000005,4502.564102564103,4438.974358974359,4247.179487179487,4552.307692307693,4455.384615384616,4424.102564102564,4377.435897435898,4682.564102564103,4347.179487179487,4250.769230769231,4171.794871794872,4497.435897435898
1244.202,0.26255077,0.3246144,0.33333334,0.5522388,0,0.0,0.0,0.0,0.0,0.24936588,0,0,0.0,0.0,0,0,127.0,0.0,391.0,4597.948717948719,3956.9230769230776,4491.282051282052,4443.076923076924,4232.307692307693,4536.410256410257,4423.589743589744,4383.589743589744,4346.153846153847,4648.205128205129,4344.102564102564,4242.564102564103,4120.512820512821,4489.743589743591
1244.3271,0.26255077,0.3246144,0.33333334,0.5522388,0,0.0,0.0,0.0,0.0,1.0,0,0,0.0,0.0,0,0,14.0,0.0,586.0,4600.512820512821,3952.820512820513,4497.948717948719,4445.128205128206,4238.461538461539,4538.974358974359,4441.025641025642,4413.333333333334,4369.743589743591,4672.820512820514,4344.102564102564,4249.2307692307695,4143.589743589744,4473.846153846154
1244.6086,0.3255759,0.33277568,0.33333334,0.5522388,0,0.0,0.0,0.0,0.0,1.0,0,0,0.0,0.0,0,0,50.0,0.0,0.0,4612.820512820514,3961.0256410256416,4499.48717948718,4450.256410256411,4239.48717948718,4540.000000000001,4424.615384615385,4404.102564102564,4360.000000000001,4665.128205128206,4342.564102564103,4255.384615384616,4146.153846153847,4507.6923076923085
1244.9528,0.3255759,0.33277568,0.33333334,0.5522388,0,0.0,0.0,0.0,0.0,0.0891838,0,0,0.0,0.0,0,0,94.0,0.0,586.0,4631.282051282052,3955.8974358974365,4500.000000000001,4453.846153846154,4249.2307692307695,4552.820512820514,4443.589743589744,4415.384615384616,4373.333333333334,4682.564102564103,4346.153846153847,4254.358974358975,4160.512820512821,4505.641025641026
1245.1091,0.32792526,0.3324834,0.33333334,0.5522388,0,0.0,0.0,0.0,0.0,0.0,0,0,0.0,0.0,0,0,114.0,0.0,586.0,4637.435897435898,3954.358974358975,4502.051282051282,4446.153846153847,4243.589743589744,4546.153846153847,4437.435897435898,4411.282051282052,4379.48717948718,4701.538461538462,4346.153846153847,4271.282051282052,4181.025641025642,4522.051282051282
1245.1091,0.32792526,0.3324834,0.33333334,0.5522388,0,0.0,0.0,0.0,0.0,0.0,0,0,0.0,0.0,0,0,114.0,0.0,586.0,4637.435897435898,3954.358974358975,4502.051282051282,4446.153846153847,4243.589743589744,4546.153846153847,4437.435897435898,4411.282051282052,4379.48717948718,4701.538461538462,4346.153846153847,4271.282051282052,4181.025641025642,4522.051282051282
1245.7034,0.3270997,0.36755076,0.33333334,0.5522388,0,0.0,0.0,0.0,0.0,0.053558435,0,0,0.0,0.0,0,0,61.0,0.0,0.0,4632.307692307693,3928.717948717949,4495.8974358974365,4434.871794871796,4238.974358974359,4540.512820512821,4440.512820512821,4424.102564102564,4383.076923076924,4715.384615384616,4345.128205128206,4276.923076923077,4202.051282051282,4530.769230769231
1245.9536,0.3270997,0.36755076,0.33333334,0.5522388,0,0.0,0.0,0.0,0.0,0.071382016,0,0,0.0,0.0,0,0,93.0,0.0,157.0,4631.794871794872,3941.0256410256416,4506.153846153847,4442.051282051282,4242.564102564103,4541.538461538462,4471.794871794872,4453.333333333334,4396.923076923077,4734.358974358975,4344.615384615385,4289.74358974359,4227.179487179487,4537.948717948719
1246.2037,0.35447818,0.39799663,0.33333334,0.5522388,0,0.0,0.0,0.0,0.0,0.0,0,0,0.0,0.0,0,0,125.0,0.0,157.0,4630.769230769231,3941.538461538462,4502.564102564103,4437.435897435898,4234.358974358975,4538.974358974359,4458.974358974359,4451.794871794872,4395.8974358974365,4729.2307692307695,4345.128205128206,4292.307692307693,4214.358974358975,4528.717948717949
1246.2037,0.35447818,0.39799663,0.33333334,0.5522388,0,0.0,0.0,0.0,0.0,0.0,0,0,0.0,0.0,0,0,125.0,0.0,157.0,4630.769230769231,3941.538461538462,4502.564102564103,4437.435897435898,4234.358974358975,4538.974358974359,4458.974358974359,4451.794871794872,4395.8974358974365,4729.2307692307695,4345.128205128206,4292.307692307693,4214.358974358975,4528.717948717949
1246.6104,0.36019027,0.4245384,0.33333334,0.5522388,0,0.0,0.0,0.0,0.0,0.0,0,0,0.0,0.0,0,0,48.0,0.0,0.0,4634.871794871796,3950.7692307692314,4510.769230769231,4447.179487179487,4246.153846153847,4547.179487179488,4475.384615384616,4445.128205128206,4403.076923076924,4721.538461538462,4345.128205128206,4296.923076923077,4212.820512820514,4530.769230769231
1246.6104,0.36019027,0.4245384,0.33333334,0.5522388,0,0.0,0.0,0.0,0.0,0.0,0,0,0.0,0.0,0,0,48.0,0.0,0.0,4634.871794871796,3950.7692307692314,4510.769230769231,4447.179487179487,4246.153846153847,4547.179487179488,4475.384615384616,4445.128205128206,4403.076923076924,4721.538461538462,4345.128205128206,4296.923076923077,4212.820512820514,4530.769230769231
1247.2046,0.38874245,0.4344584,0.33333334,0.5522388,0,0.0,0.0,0.0,0.0,1.0,0,0,0.0,0.0,0,0,124.0,0.0,0.0,4619.48717948718,3944.1025641025644,4512.307692307693,4446.666666666667,4247.6923076923085,4554.358974358975,4457.435897435898,4429.743589743591,4394.358974358975,4724.615384615386,4344.615384615385,4293.333333333334,4196.410256410257,4526.153846153847
1247.4548,0.38874245,0.4344584,0.33333334,0.5522388,0,0.0,0.0,0.0,0.0,0.052919477,0,0,0.0,0.0,0,0,27.0,0.0,0.0,4613.333333333334,3944.1025641025644,4514.358974358975,4443.076923076924,4249.74358974359,4556.923076923077,4467.179487179487,4428.717948717949,4384.615384615385,4708.205128205129,4346.666666666667,4285.641025641026,4190.769230769231,4533.333333333334
1247.7051,0.3332701,0.42754558,0.33333334,0.5522388,0,0.0,0.0,0.0,0.0,0.0,0,0,0.0,0.0,0,0,59.0,0.0,0.0,4620.000000000001,3942.0512820512827,4507.179487179488,4438.461538461539,4243.589743589744,4541.025641025642,4447.6923076923085,4421.025641025642,4380.000000000001,4705.641025641026,4346.153846153847,4303.076923076924,4188.205128205129,4537.435897435898
1247.7051,0.3332701,0.42754558,0.33333334,0.5522388,0,0.0,0.0,0.0,0.0,0.0,0,0,0.0,0.0,0,0,59.0,0.0,0.0,4620.000000000001,3942.0512820512827,4507.179487179488,4438.461538461539,4243.589743589744,4541.025641025642,4447.6923076923085,4421.025641025642,4380.000000000001,4705.641025641026,4346.153846153847,4303.076923076924,4188.205128205129,4537.435897435898
1248.1117,0.2664612,0.42408022,0.33333334,0.5522388,0,0.0,0.0,0.0,0.0,0.0,0,0,0.0,0.0,0,0,111.0,0.0,392.0,4631.282051282052,3963.589743589744,4526.666666666667,4458.461538461539,4265.641025641026,4558.974358974359,4469.743589743591,4449.2307692307695,4394.358974358975,4730.769230769231,4345.641025641026,4301.538461538462,4183.589743589744,4534.871794871796
1248.1117,0.2664612,0.42408022,0.33333334,0.5522388,0,0.0,0.0,0.0,0.0,0.0,0,0,0.0,0.0,0,0,111.0,0.0,392.0,4631.282051282052,3963.589743589744,4526.666666666667,4458.461538461539,4265.641025641026,4558.974358974359,4469.743589743591,4449.2307692307695,4394.358974358975,4730.769230769231,4345.641025641026,4301.538461538462,4183.589743589744,4534.871794871796
1248.612,0.2772746,0.4094452,0.33333334,0.5522388,0,0.0,0.0,0.0,0.0,0.0,0,0,0.0,0.0,0,0,46.0,0.0,0.0,4623.589743589744,3941.538461538462,4508.717948717949,4444.102564102564,4247.6923076923085,4542.564102564103,4454.871794871796,4420.000000000001,4375.8974358974365,4712.820512820514,4347.179487179487,4283.589743589744,4157.435897435898,4520.512820512821
1248.612,0.2772746,0.4094452,0.33333334,0.5522388,0,0.0,0.0,0.0,0.0,0.0,0,0,0.0,0.0,0,0,46.0,0.0,0.0,4623.589743589744,3941.538461538462,4508.717948717949,4444.102564102564,4247.6923076923085,4542.564102564103,4454.871794871796,4420.000000000001,4375.8974358974365,4712.820512820514,4347.179487179487,4283.589743589744,4157.435897435898,4520.512820512821
1249.1125,0.293335,0.39744306,0.33333334,0.5522388,0,0.0,0.0,0.0,0.0,0.0,0,0,0.0,0.0,0,0,110.0,0.0,586.0,4640.000000000001,3948.205128205129,4507.6923076923085,4442.564102564103,4233.846153846154,4535.384615384616,4450.256410256411,4418.461538461539,4370.769230769231,4697.948717948719,4346.153846153847,4268.717948717949,4183.589743589744,4521.025641025642
1249.1125,0.293335,0.39744306,0.33333334,0.5522388,0,0.0,0.0,0.0,0.0,0.0,0,0,0.0,0.0,0,0,110.0,0.0,586.0,4640.000000000001,3948.205128205129,4507.6923076923085,4442.564102564103,4233.846153846154,4535.384615384616,4450.256410256411,4418.461538461539,4370.769230769231,4697.948717948719,4346.153846153847,4268.717948717949,4183.589743589744,4521.025641025642
1249.6129,0.2798571,0.38829473,0.33333334,0.5522388,0,0.0,0.0,0.0,0.0,0.0,0,0,0.0,0.0,0,0,45.0,0.0,0.0,4647.179487179488,3925.6410256410263,4499.48717948718,4428.717948717949,4231.282051282052,4536.410256410257,4458.974358974359,4414.871794871796,4381.538461538462,4722.564102564103,4347.179487179487,4266.153846153847,4200.512820512821,4505.128205128206
1249.957,0.2798571,0.38829473,0.33333334,0.5522388,1,0.0,0.0,0.0,0.0,0.0,0,0,0.0,0.0,0,0,89.0,0.0,154.0,4649.743589743591,3945.1282051282055,4499.48717948718,4440.000000000001,4231.282051282052,4537.435897435898,4448.205128205129,4396.923076923077,4375.384615384616,4706.153846153847,4345.641025641026,4255.8974358974365,4189.2307692307695,4519.48717948718
1250.1134,0.24962799,0.40495056,0.33333334,0.5522388,0,0.0,0.0,0.0,0.0,0.0,0,0,0.0,0.0,0,0,109.0,0.0,154.0,4637.435897435898,3938.461538461539,4496.923076923077,4431.282051282052,4230.769230769231,4528.205128205129,4441.025641025642,4422.051282051282,4378.974358974359,4715.8974358974365,4345.128205128206,4266.666666666667,4183.589743589744,4504.102564102564
1250.4574,0.24962799,0.40495056,0.33333334,0.5522388,0,0.0,0.0,0.0,0.0,1.0,0,0,0.0,0.0,0,0,24.0,0.0,0.0,4634.871794871796,3939.48717948718,4500.000000000001,4436.923076923077,4231.794871794872,4537.435897435898,4446.666666666667,4431.282051282052,4405.128205128206,4742.051282051282,4346.153846153847,4264.615384615385,4218.974358974359,4561.025641025642
1250.6138,0.2236464,0.41970193,0.33333334,0.5522388,0,0.0,0.0,0.0,1.0,0.0,0,0,0.0,0.0,0,0,44.0,0.0,0.0,4667.6923076923085,3958.9743589743593,4513.333333333334,4454.358974358975,4248.205128205129,4546.666666666667,4463.589743589744,4435.384615384616,4396.923076923077,4733.333333333334,4347.179487179487,4257.948717948719,4211.282051282052,4616.923076923077
1250.9579,0.2236464,0.41970193,0.33333334,0.5522388,0,0.0,0.0,0.0,0.30749622,0.0,0,0,0.0,0.0,0,0,88.0,0.0,0.0,4644.615384615385,3935.8974358974365,4499.48717948718,4431.794871794872,4234.358974358975,4536.923076923077,4444.102564102564,4416.410256410257,4373.846153846154,4703.589743589744,4344.615384615385,4245.641025641026,4171.282051282052,4623.076923076924
1251.2081,0.24914828,0.4428823,0.33333334,0.5522388,0,0.0,0.0,0.0,0.0,0.053094935,0,0,0.0,0.0,0,0,120.0,0.0,0.0,4643.076923076924,3935.3846153846157,4498.461538461539,4432.307692307693,4250.256410256411,4541.538461538462,4462.564102564103,4426.153846153847,4395.8974358974365,4717.435897435898,4347.179487179487,4245.128205128206,4182.564102564103,4621.538461538462
1251.3331,0.24914828,0.4428823,0.33333334,0.5522388,0,0.0,0.0,0.0,0.0,0.0,0,0,0.0,0.0,0,0,7.0,0.0,502.0,4635.384615384616,3940.0000000000005,4502.564102564103,4437.948717948719,4249.2307692307695,4540.000000000001,4461.025641025642,4430.256410256411,4387.6923076923085,4714.871794871796,4347.6923076923085,4238.461538461539,4177.948717948719,4611.282051282052
1251.6146,0.22431211,0.4516299,0.33333334,0.5522388,0,0.0,0.0,0.0,0.0,0.0,0,0,0.0,0.0,0,0,43.0,0.0,0.0,4632.307692307693,3932.820512820513,4506.153846153847,4442.564102564103,4249.74358974359,4543.589743589744,4445.641025641026,4427.179487179487,4383.589743589744,4713.846153846154,4346.153846153847,4234.358974358975,4171.282051282052,4606.666666666667
1251.6146,0.22431211,0.4516299,0.33333334,0.5522388,0,0.0,0.0,0.0,0.0,0.0,0,0,0.0,0.0,0,0,43.0,0.0,0.0,4632.307692307693,3932.820512820513,4506.153846153847,4442.564102564103,4249.74358974359,4543.589743589744,4445.641025641026,4427.179487179487,4383.589743589744,4713.846153846154,4346.153846153847,4234.358974358975,4171.282051282052,4606.666666666667
1252.1151,0.19108602,0.43860832,0.33333334,0.5522388,0,0.0,0.0,0.0,0.0,0.0,0,0,0.0,0.0,0,0,107.0,0.0,386.0,4643.589743589744,3945.1282051282055,4509.2307692307695,4450.769230769231,4247.179487179487,4544.615384615385,4444.615384615385,4427.179487179487,4395.8974358974365,4723.589743589744,4347.6923076923085,4241.025641025642,4192.820512820514,4599.48717948718
1252.1151,0.19108602,0.43860832,0.33333334,0.5522388,0,0.0,0.0,0.0,0.0,0.0,0,0,0.0,0.0,0,0,107.0,0.0,386.0,4643.589743589744,3945.1282051282055,4509.2307692307695,4450.769230769231,4247.179487179487,4544.615384615385,4444.615384615385,4427.179487179487,4395.8974358974365,4723.589743589744,4347.6923076923085,4241.025641025642,4192.820512820514,4599.48717948718
1252.6155,0.15557194,0.41809234,0.33333334,0.5522388,0,0.0,0.0,0.0,0.0,0.0,0,0,0.0,0.0,0,0,42.0,0.0,0.0,4648.205128205129,3942.0512820512827,4506.666666666667,4442.564102564103,4241.025641025642,4541.025641025642,4450.256410256411,4429.2307692307695,4400.512820512821,4730.256410256411,4346.153846153847,4239.48717948718,4187.6923076923085,4589.743589743591
1252.6155,0.15557194,0.41809234,0.33333334,0.5522388,0,0.0,0.0,0.0,0.0,0.0,0,0,0.0,0.0,0,0,42.0,0.0,0.0,4648.205128205129,3942.0512820512827,4506.666666666667,4442.564102564103,4241.025641025642,4541.025641025642,4450.256410256411,4429.2307692307695,4400.512820512821,4730.256410256411,4346.153846153847,4239.48717948718,4187.6923076923085,4589.743589743591
1253.116,0.162942,0.39361322,0.33333334,0.5522388,0,0.0,0.0,0.0,0.0,0.0,0,0,0.0,0.0,0,0,106.0,0.0,586.0,4619.48717948718,3948.205128205129,4502.564102564103,4438.974358974359,4237.948717948719,4537.435897435898,4429.743589743591,4415.384615384616,4377.435897435898,4693.846153846154,4346.153846153847,4229.74358974359,4156.410256410257,4565.128205128206
1253.116,0.162942,0.39361322,0.33333334,0.5522388,0,0.0,0.0,0.0,0.0,0.0,0,0,0.0,0.0,0,0,106.0,0.0,586.0,4619.48717948718,3948.205128205129,4502.564102564103,4438.974358974359,4237.948717948719,4537.435897435898,4429.743589743591,4415.384615384616,4377.435897435898,4693.846153846154,4346.153846153847,4229.74358974359,4156.410256410257,4565.128205128206
1253.7102,0.1836532,0.3855452,0.33333334,0.5522388,0,0.0,0.0,0.0,0.0,1.0,0,0,0.0,0.0,0,0,53.0,0.0,0.0,4631.282051282052,3927.1794871794878,4515.384615384616,4435.384615384616,4246.153846153847,4544.102564102564,4457.435897435898,4451.282051282052,4408.717948717949,4740.512820512821,4344.615384615385,4228.717948717949,4200.512820512821,4573.333333333334
1253.9604,0.1836532,0.3855452,0.33333334,0.5522388,0,0.0,0.0,0.0,0.0,0.061921433,0,0,0.0,0.0,0,0,85.0,0.0,154.0,4632.307692307693,3942.564102564103,4511.794871794872,4441.025641025642,4236.923076923077,4540.512820512821,4449.743589743591,4435.384615384616,4397.948717948719,4738.974358974359,4347.6923076923085,4233.846153846154,4217.948717948719,4593.333333333334
1254.2107,0.14206275,0.3815006,0.33333334,0.5522388,0,0.0,0.0,0.0,0.0,0.0,0,0,0.0,0.0,0,0,117.0,0.0,154.0,4635.384615384616,3944.1025641025644,4517.435897435898,4446.153846153847,4247.6923076923085,4552.307692307693,4455.8974358974365,4436.410256410257,4401.538461538462,4735.8974358974365,4346.666666666667,4243.589743589744,4209.2307692307695,4589.743589743591
1254.2107,0.14206275,0.3815006,0.33333334,0.5522388,0,0.0,0.0,0.0,0.0,0.0,0,0,0.0,0.0,0,0,117.0,0.0,154.0,4635.384615384616,3944.1025641025644,4517.435897435898,4446.153846153847,4247.6923076923085,4552.307692307693,4455.8974358974365,4436.410256410257,4401.538461538462,4735.8974358974365,4346.666666666667,4243.589743589744,4209.2307692307695,4589.743589743591
1254.6173,0.12579681,0.38099512,0.33333334,0.5522388,0,0.0,0.0,0.0,0.0,0.0,0,0,0.0,0.0,0,0,40.0,0.0,0.0,4628.717948717949,3934.358974358975,4509.743589743591,4442.051282051282,4236.923076923077,4541.025641025642,4444.102564102564,4429.2307692307695,4394.871794871796,4718.461538461539,4348.205128205129,4232.307692307693,4180.000000000001,4581.538461538462
1254.6173,0.12579681,0.38099512,0.33333334,0.5522388,0,0.0,0.0,0.0,0.0,0.0,0,0,0.0,0.0,0,0,40.0,0.0,0.0,4628.717948717949,3934.358974358975,4509.743589743591,4442.051282051282,4236.923076923077,4541.025641025642,4444.102564102564,4429.2307692307695,4394.871794871796,4718.461538461539,4348.205128205129,4232.307692307693,4180.000000000001,4581.538461538462
1255.1177,0.13990004,0.37105587,0.33333334,0.5522388,0,0.0,0.0,0.0,0.0,0.0,0,0,0.0,0.0,0,0,104.0,0.0,0.0,4615.8974358974365,3955.3846153846157,4507.6923076923085,4451.282051282052,4236.923076923077,4539.48717948718,4445.128205128206,4418.461538461539,4381.025641025642,4706.153846153847,4347.179487179487,4234.358974358975,4141.025641025642,4553.846153846154
1255.4617,0.13990004,0.37105587,0.33333334,0.5522388,0,0.0,0.0,0.0,0.0,0.16575563,0,0,0.0,0.0,0,0,19.0,0.0,0.0,4615.384615384616,3941.0256410256416,4505.641025641026,4445.641025641026,4248.205128205129,4554.871794871796,4455.8974358974365,4413.846153846154,4395.8974358974365,4722.564102564103,4350.256410256411,4216.410256410257,4197.435897435898,4563.076923076924
1255.7119,0.15737657,0.36079696,0.33333334,0.5522388,0,0.0,0.0,0.0,0.0,0.0,0,0,0.0,0.0,0,0,51.0,0.0,0.0,4617.435897435898,3941.0256410256416,4507.179487179488,4443.589743589744,4248.205128205129,4547.179487179488,4449.2307692307695,4424.102564102564,4408.717948717949,4735.8974358974365,4347.179487179487,4229.74358974359,4225.128205128206,4571.794871794872
1255.7119,0.15737657,0.36079696,0.33333334,0.5522388,0,0.0,0.0,0.0,0.0,0.0,0,0,0.0,0.0,0,0,51.0,0.0,0.0,4617.435897435898,3941.0256410256416,4507.179487179488,4443.589743589744,4248.205128205129,4547.179487179488,4449.2307692307695,4424.102564102564,4408.717948717949,4735.8974358974365,4347.179487179487,4229.74358974359,4225.128205128206,4571.794871794872
1256.1185,0.22832929,0.35170868,0.33333334,0.5522388,0,0.0,0.0,0.0,0.0,0.0,0,0,0.0,0.0,0,0,103.0,0.0,386.0,4623.076923076924,3964.615384615385,4518.461538461539,4461.025641025642,4250.769230769231,4554.358974358975,4451.282051282052,4426.666666666667,4391.794871794872,4688.205128205129,4346.666666666667,4220.512820512821,4153.846153846154,3962.564102564103
1256.4626,0.22832929,0.35170868,0.33333334,0.5522388,0,0.0,0.0,0.0,0.0,1.0,0,0,0.0,0.0,0,0,18.0,0.0,0.0,4631.794871794872,3958.9743589743593,4507.6923076923085,4451.282051282052,4229.74358974359,4535.8974358974365,4443.076923076924,4409.743589743591,4388.717948717949,4697.435897435898,4346.666666666667,4221.538461538462,4175.384615384616,4553.846153846154
1256.7128,0.2640865,0.3502992,0.33333334,0.5522388,0,0.0,0.0,0.0,0.0,0.19316478,0,0,0.0,0.0,0,0,50.0,0.0,0.0,4646.666666666667,3953.8461538461543,4508.717948717949,4446.666666666667,4229.74358974359,4536.410256410257,4449.2307692307695,4427.179487179487,4398.461538461539,4713.333333333334,4346.666666666667,4242.051282051282,4191.282051282052,4569.2307692307695
1256.8379,0.2640865,0.3502992,0.33333334,0.5522388,0,0.0,0.0,0.0,0.0,0.0,0,0,0.0,0.0,0,0,66.0,0.0,530.0,4648.205128205129,3945.6410256410263,4505.641025641026,4457.435897435898,4236.923076923077,4541.025641025642,4450.256410256411,4435.384615384616,4407.6923076923085,4718.461538461539,4346.666666666667,4236.410256410257,4192.307692307693,4566.666666666667
1257.1194,0.27118865,0.35365292,0.33333334,0.5522388,0,0.0,0.0,0.0,0.0,0.0,0,0,0.0,0.0,0,0,102.0,0.0,586.0,4648.717948717949,3960.0000000000005,4520.000000000001,4456.923076923077,4238.974358974359,4540.512820512821,4438.461538461539,4409.743589743591,4384.615384615385,4703.589743589744,4345.128205128206,4249.74358974359,4172.820512820514,4563.589743589744
1257.4635,0.27118865,0.35365292,0.33333334,0.5522388,0,0.0,0.0,0.0,0.0,0.07759877,0,0,0.0,0.0,0,0,17.0,0.0,0.0,4632.820512820514,3928.717948717949,4508.717948717949,4444.615384615385,4233.333333333334,4537.948717948719,4449.2307692307695,4426.153846153847,4383.076923076924,4704.102564102564,4344.102564102564,4231.794871794872,4178.974358974359,4551.794871794872
1257.7136,0.21470827,0.34259287,0.33333334,0.5522388,0,0.0,0.0,0.0,0.0,0.028660158,0,0,0.0,0.0,0,0,49.0,0.0,0.0,4640.000000000001,3942.564102564103,4507.6923076923085,4450.769230769231,4222.051282051282,4536.410256410257,4442.051282051282,4411.794871794872,4384.102564102564,4704.102564102564,4346.666666666667,4232.820512820514,4184.615384615385,4554.358974358975
1257.9639,0.21470827,0.34259287,0.33333334,0.5522388,0,0.0,0.0,0.0,0.0,0.047138274,0,0,0.0,0.0,0,0,81.0,0.0,154.0,4648.717948717949,3944.615384615385,4507.6923076923085,4449.743589743591,4232.307692307693,4537.435897435898,4445.128205128206,4426.666666666667,4397.948717948719,4711.794871794872,4346.153846153847,4228.205128205129,4193.846153846154,4552.820512820514
1258.2141,0.16840042,0.3438865,0.33333334,0.5522388,0,0.0,0.0,0.0,0.0,0.0,0,0,0.0,0.0,0,0,113.0,0.0,154.0,4643.076923076924,3950.2564102564106,4506.153846153847,4448.717948717949,4238.461538461539,4544.102564102564,4449.743589743591,4411.282051282052,4389.743589743591,4712.307692307693,4346.153846153847,4228.205128205129,4193.846153846154,4540.000000000001
1258.2141,0.16840042,0.3438865,0.33333334,0.5522388,0,0.0,0.0,0.0,0.0,0.0,0,0,0.0,0.0,0,0,113.0,0.0,154.0,4643.076923076924,3950.2564102564106,4506.153846153847,4448.717948717949,4238.461538461539,4544.102564102564,4449.743589743591,4411.282051282052,4389.743589743591,4712.307692307693,4346.153846153847,4228.205128205129,4193.846153846154,4540.000000000001
1258.6207,0.1497775,0.33542264,0.33333334,0.5522388,0,0.0,0.0,0.0,0.0,0.0,0,0,0.0,0.0,0,0,36.0,0.0,0.0,4625.128205128206,3942.564102564103,4505.128205128206,4445.128205128206,4240.000000000001,4538.974358974359,4450.256410256411,4413.846153846154,4377.948717948719,4684.615384615386,4346.153846153847,4215.8974358974365,4184.615384615385,4538.461538461539
1258.6207,0.1497775,0.33542264,0.33333334,0.5522388,0,0.0,0.0,0.0,0.0,0.0,0,0,0.0,0.0,0,0,36.0,0.0,0.0,4625.128205128206,3942.564102564103,4505.128205128206,4445.128205128206,4240.000000000001,4538.974358974359,4450.256410256411,4413.846153846154,4377.948717948719,4684.615384615386,4346.153846153847,4215.8974358974365,4184.615384615385,4538.461538461539
1259.215,0.11589473,0.33659256,0.33333334,0.5522388,0,0.0,0.0,0.0,1.0,0.0,0,0,0.0,0.0,0,0,112.0,0.0,0.0,4629.2307692307695,3946.1538461538466,4514.358974358975,4446.153846153847,4247.6923076923085,4545.128205128206,4451.794871794872,4427.179487179487,4401.538461538462,4718.974358974359,4347.6923076923085,4226.666666666667,4203.589743589744,4567.179487179488
1259.4652,0.11589473,0.33659256,0.33333334,0.5522388,0,0.0,0.0,0.0,0.068206064,0.0,0,0,0.0,0.0,0,0,15.0,0.0,390.0,4623.589743589744,3946.666666666667,4511.794871794872,4445.641025641026,4240.512820512821,4538.974358974359,4455.8974358974365,4435.384615384616,4408.205128205129,4724.102564102564,4345.641025641026,4217.948717948719,4209.74358974359,4569.743589743591
1259.7153,0.11873138,0.34763336,0.33333334,0.5522388,0,0.0,0.0,0.0,0.0,0.093654744,0,0,0.0,0.0,0,0,47.0,0.0,0.0,4621.025641025642,3951.2820512820517,4516.923076923077,4454.871794871796,4249.74358974359,4547.179487179488,4449.2307692307695,4424.102564102564,4404.102564102564,4728.205128205129,4347.6923076923085,4216.923076923077,4198.974358974359,4555.8974358974365
1259.8405,0.11873138,0.34763336,0.33333334,0.5522388,0,0.0,0.0,0.0,0.0,0.0,0,0,0.0,0.0,0,0,63.0,0.0,0.0,4629.2307692307695,3947.1794871794878,4517.435897435898,4457.435897435898,4248.205128205129,4548.205128205129,4447.179487179487,4431.794871794872,4414.358974358975,4740.000000000001,4346.666666666667,4218.461538461539,4206.666666666667,4569.2307692307695
1260.122,0.117246866,0.3473469,0.33333334,0.5522388,0,0.0,0.0,0.0,0.0,0.0,0,0,0.0,0.0,0,0,99.0,0.0,390.0,4617.435897435898,3940.5128205128212,4509.2307692307695,4446.666666666667,4248.205128205129,4539.48717948718,4453.333333333334,4423.589743589744,4392.820512820514,4714.871794871796,4347.179487179487,4216.923076923077,4191.794871794872,4541.538461538462
1260.122,0.117246866,0.3473469,0.33333334,0.5522388,0,0.0,0.0,0.0,0.0,0.0,0,0,0.0,0.0,0,0,99.0,0.0,390.0,4617.435897435898,3940.5128205128212,4509.2307692307695,4446.666666666667,4248.205128205129,4539.48717948718,4453.333333333334,4423.589743589744,4392.820512820514,4714.871794871796,4347.179487179487,4216.923076923077,4191.794871794872,4541.538461538462
1260.6224,0.1241247,0.33681294,0.33333334,0.5522388,0,0.0,0.0,0.0,0.0,0.0,0,0,0.0,0.0,0,0,34.0,0.0,0.0,4623.076923076924,3942.0512820512827,4512.307692307693,4446.153846153847,4245.641025641026,4545.641025641026,4451.282051282052,4428.205128205129,4407.6923076923085,4733.333333333334,4347.6923076923085,4235.8974358974365,4209.2307692307695,4538.974358974359
1260.8413,0.1241247,0.33681294,0.33333334,0.5522388,0,0.0,0.0,0.0,0.0,1.0,0,0,0.0,0.0,0,0,62.0,0.0,0.0,4610.256410256411,3926.1538461538466,4505.641025641026,4432.820512820514,4234.871794871796,4535.8974358974365,4443.589743589744,4426.666666666667,4400.000000000001,4712.307692307693,4348.205128205129,4233.846153846154,4200.000000000001,4531.282051282052
1261.2167,0.106370464,0.34972343,0.33333334,0.5522388,0,0.0,0.0,0.0,0.0,0.0,0,0,0.0,0.0,0,0,110.0,0.0,587.0,4616.923076923077,3927.1794871794878,4501.025641025642,4430.769230769231,4234.358974358975,4537.435897435898,4435.8974358974365,4426.666666666667,4401.025641025642,4715.8974358974365,4346.666666666667,4250.256410256411,4209.74358974359,4522.564102564103
1261.2167,0.106370464,0.34972343,0.33333334,0.5522388,0,0.0,0.0,0.0,0.0,0.0,0,0,0.0,0.0,0,0,110.0,0.0,587.0,4616.923076923077,3927.1794871794878,4501.025641025642,4430.769230769231,4234.358974358975,4537.435897435898,4435.8974358974365,4426.666666666667,4401.025641025642,4715.8974358974365,4346.666666666667,4250.256410256411,4209.74358974359,4522.564102564103
1261.7172,0.13507192,0.3567912,0.33333334,0.5522388,0,0.0,0.0,0.0,0.0,1.0,0,0,0.0,0.0,0,0,45.0,0.0,0.0,4586.666666666667,3925.6410256410263,4488.205128205129,4426.666666666667,4228.205128205129,4526.666666666667,4415.384615384616,4402.051282051282,4377.948717948719,4695.8974358974365,4344.102564102564,4234.358974358975,4165.128205128206,4506.666666666667
1261.9673,0.13507192,0.3567912,0.33333334,0.5522388,0,0.0,0.0,0.0,1.0,0.0,0,0,0.0,0.0,0,0,77.0,0.0,154.0,4615.384615384616,3920.5128205128212,4511.282051282052,4432.307692307693,4246.153846153847,4541.025641025642,4445.128205128206,4421.025641025642,4398.461538461539,4721.538461538462,4349.2307692307695,4232.820512820514,4182.051282051282,4542.564102564103
1262.2175,0.14625378,0.35856363,0.33333334,0.5522388,0,0.0,0.0,0.0,0.0,0.12878716,0,0,0.0,0.0,0,0,109.0,0.0,154.0,4614.358974358975,3913.333333333334,4503.076923076924,4430.256410256411,4247.6923076923085,4549.743589743591,4458.974358974359,4429.743589743591,4394.358974358975,4718.461538461539,4346.666666666667,4237.435897435898,4180.000000000001,4535.8974358974365
1262.4678,0.14625378,0.35856363,0.33333334,0.5522388,0,0.0,0.0,0.0,0.0,0.0,0,0,0.0,0.0,0,0,12.0,0.0,0.0,4602.051282051282,3921.538461538462,4492.307692307693,4430.256410256411,4236.410256410257,4536.923076923077,4443.076923076924,4421.025641025642,4389.2307692307695,4701.025641025642,4345.128205128206,4230.769230769231,4167.6923076923085,4525.128205128206
1262.6241,0.1641716,0.37160435,0.33333334,0.5522388,0,0.0,0.0,0.0,0.0,0.0,0,0,0.0,0.0,0,0,32.0,0.0,0.0,4609.743589743591,3928.717948717949,4498.974358974359,4433.333333333334,4245.128205128206,4545.641025641026,4443.589743589744,4421.025641025642,4382.564102564103,4708.717948717949,4347.6923076923085,4236.410256410257,4171.794871794872,4526.153846153847
1262.6241,0.1641716,0.37160435,0.33333334,0.5522388,0,0.0,0.0,0.0,0.0,0.0,0,0,0.0,0.0,0,0,32.0,0.0,0.0,4609.743589743591,3928.717948717949,4498.974358974359,4433.333333333334,4245.128205128206,4545.641025641026,4443.589743589744,4421.025641025642,4382.564102564103,4708.717948717949,4347.6923076923085,4236.410256410257,4171.794871794872,4526.153846153847
1263.1245,0.15135059,0.3585308,0.33333334,0.5522388,0,0.0,0.0,0.0,0.0,0.0,0,0,0.0,0.0,0,0,96.0,0.0,0.0,4639.48717948718,3940.0000000000005,4495.384615384616,4443.589743589744,4249.74358974359,4549.743589743591,4455.384615384616,4439.48717948718,4398.974358974359,4722.564102564103,4346.666666666667,4253.333333333334,4180.512820512821,4521.025641025642
1263.1245,0.15135059,0.3585308,0.33333334,0.5522388,0,0.0,0.0,0.0,0.0,0.0,0,0,0.0,0.0,0,0,96.0,0.0,0.0,4639.48717948718,3940.0000000000005,4495.384615384616,4443.589743589744,4249.74358974359,4549.743589743591,4455.384615384616,4439.48717948718,4398.974358974359,4722.564102564103,4346.666666666667,4253.333333333334,4180.512820512821,4521.025641025642
1263.625,0.16290817,0.3446393,0.33333334,0.5522388,0,0.0,0.0,0.0,0.0,1.0,0,0,0.0,0.0,0,0,31.0,0.0,0.0,4643.589743589744,3944.615384615385,4499.48717948718,4446.153846153847,4249.2307692307695,4550.256410256411,4460.000000000001,4437.948717948719,4379.48717948718,4717.948717948719,4348.205128205129,4248.205128205129,4180.512820512821,4540.512820512821
1263.969,0.16290817,0.3446393,0.33333334,0.5522388,0,0.0,0.0,0.0,0.0,1.0,0,0,0.0,0.0,0,0,75.0,0.0,389.0,4628.717948717949,3938.461538461539,4495.8974358974365,4443.589743589744,4243.589743589744,4543.076923076924,4452.820512820514,4437.435897435898,4358.461538461539,4699.48717948718,4346.666666666667,4249.2307692307695,4163.076923076924,4540.000000000001
1264.2192,0.123081475,0.3396774,0.33333334,0.5522388,0,0.0,0.0,0.0,0.0,0.0,0,0,0.0,0.0,0,0,107.0,0.0,389.0,4644.102564102564,3946.1538461538466,4503.076923076924,4447.179487179487,4249.2307692307695,4546.666666666667,4461.025641025642,4433.333333333334,4363.589743589744,4715.8974358974365,4346.153846153847,4249.2307692307695,4172.820512820514,4553.333333333334
1264.2192,0.123081475,0.3396774,0.33333334,0.5522388,0,0.0,0.0,0.0,0.0,0.0,0,0,0.0,0.0,0,0,107.0,0.0,389.0,4644.102564102564,3946.1538461538466,4503.076923076924,4447.179487179487,4249.2307692307695,4546.666666666667,4461.025641025642,4433.333333333334,4363.589743589744,4715.8974358974365,4346.153846153847,4249.2307692307695,4172.820512820514,4553.333333333334
1264.6259,0.111135036,0.34684557,0.33333334,0.5522388,0,0.0,0.0,0.0,0.0,0.0,0,0,0.0,0.0,0,0,30.0,0.0,0.0,4655.384615384616,3953.8461538461543,4503.589743589744,4442.564102564103,4245.128205128206,4537.948717948719,4446.666666666667,4425.641025641026,4379.48717948718,4729.2307692307695,4345.128205128206,4234.358974358975,4197.948717948719,4555.384615384616
1264.6259,0.111135036,0.34684557,0.33333334,0.5522388,0,0.0,0.0,0.0,0.0,0.0,0,0,0.0,0.0,0,0,30.0,0.0,0.0,4655.384615384616,3953.8461538461543,4503.589743589744,4442.564102564103,4245.128205128206,4537.948717948719,4446.666666666667,4425.641025641026,4379.48717948718,4729.2307692307695,4345.128205128206,4234.358974358975,4197.948717948719,4555.384615384616
1265.1263,0.11518379,0.345135,0.33333334,0.5522388,0,0.0,0.0,0.0,0.0,0.0,0,0,0.0,0.0,0,0,94.0,0.0,587.0,4648.717948717949,3941.0256410256416,4497.948717948719,4436.410256410257,4232.307692307693,4536.410256410257,4441.538461538462,4422.051282051282,4370.769230769231,4714.358974358975,4347.179487179487,4230.769230769231,4181.025641025642,4529.2307692307695
1265.1263,0.11518379,0.345135,0.33333334,0.5522388,0,0.0,0.0,0.0,0.0,0.0,0,0,0.0,0.0,0,0,94.0,0.0,587.0,4648.717948717949,3941.0256410256416,4497.948717948719,4436.410256410257,4232.307692307693,4536.410256410257,4441.538461538462,4422.051282051282,4370.769230769231,4714.358974358975,4347.179487179487,4230.769230769231,4181.025641025642,4529.2307692307695
1265.6267,0.1269195,0.38507175,0.33333334,0.5522388,0,0.0,0.0,0.0,0.0,0.0,0,0,0.0,0.0,0,0,29.0,0.0,0.0,4663.076923076924,3956.410256410257,4507.179487179488,4455.8974358974365,4250.256410256411,4549.743589743591,4456.923076923077,4428.205128205129,4378.461538461539,4723.076923076924,4348.205128205129,4238.974358974359,4183.589743589744,4540.512820512821
1265.9707,0.1269195,0.38507175,0.33333334,0.5522388,0,0.0,0.0,0.0,0.0,1.0,0,0,0.0,0.0,0,1,73.0,0.0,511.0,4617.435897435898,3928.717948717949,4497.948717948719,4442.051282051282,4246.666666666667,4546.153846153847,4456.923076923077,4427.179487179487,4381.025641025642,4707.6923076923085,4345.128205128206,4239.48717948718,4161.538461538462,4518.461538461539
1266.221,0.12368056,0.43842426,0.33333334,0.5522388,0,0.0,0.0,0.0,0.0,0.0,0,0,0.0,0.0,0,0,105.0,0.0,154.0,4652.307692307693,3954.8717948717954,4502.051282051282,4447.179487179487,4243.589743589744,4542.564102564103,4440.000000000001,4396.923076923077,4362.051282051282,4712.820512820514,4347.6923076923085,4248.205128205129,4190.769230769231,4554.871794871796
1266.3461,0.12368056,0.43842426,0.33333334,0.5522388,0,0.0,0.0,0.0,0.0,0.0,0,0,0.0,0.0,0,0,121.0,0.0,154.0,4645.128205128206,3943.076923076924,4498.461538461539,4445.641025641026,4247.6923076923085,4550.256410256411,4465.641025641026,4415.8974358974365,4375.384615384616,4701.538461538462,4346.153846153847,4247.179487179487,4169.2307692307695,4554.871794871796
