timestamp,excitement,frustration,meditation,engagementBoredom,blink,clench,laugh,smile,eyebrow,furrowBrow,lookLeft,lookRight,smirkLeft,smirkRight,winkLeft,winkRight,eeg0,eeg1,eeg2,eeg3,eeg4,eeg5,eeg6,eeg7,eeg8,eeg9,eeg10,eeg11,eeg12,eeg13,eeg14,eeg15,eeg16
2001.8922,0.14661033,0.362427,0.33333334,0.5522388,0,0.0,0.0,0.0,0.0,0.14582016,0,0,0.0,0.0,0,0,42.0,0.0,0.0,4680.512820512821,3996.9230769230776,4535.8974358974365,4461.025641025642,4234.871794871796,4537.948717948719,4461.025641025642,4473.333333333334,4417.948717948719,4702.051282051282,4378.974358974359,4304.102564102564,4283.076923076924,4605.128205128206
2002.0173,0.14661033,0.362427,0.33333334,0.5522388,0,0.0,0.0,0.0,0.0,0.0,0,0,0.0,0.0,0,0,58.0,0.0,0.0,4660.512820512821,3973.333333333334,4545.641025641026,4454.871794871796,4245.641025641026,4545.128205128206,4462.051282051282,4475.8974358974365,4419.48717948718,4696.410256410257,4381.538461538462,4301.025641025642,4252.820512820514,4612.307692307693
2002.2988,0.14575535,0.36820513,0.33333334,0.5522388,0,0.0,0.0,0.0,0.0,0.0,0,0,0.0,0.0,0,0,94.0,0.0,551.0,4634.871794871796,3926.666666666667,4507.179487179488,4442.564102564103,4247.179487179487,4547.179487179488,4461.025641025642,4462.564102564103,4415.384615384616,4665.641025641026,4384.615384615385,4293.333333333334,4216.410256410257,4590.256410256411
2002.2988,0.14575535,0.36820513,0.33333334,0.5522388,0,0.0,0.0,0.0,0.0,0.0,0,0,0.0,0.0,0,0,94.0,0.0,551.0,4634.871794871796,3926.666666666667,4507.179487179488,4442.564102564103,4247.179487179487,4547.179487179488,4461.025641025642,4462.564102564103,4415.384615384616,4665.641025641026,4384.615384615385,4293.333333333334,4216.410256410257,4590.256410256411
2002.7993,0.21292812,0.36368123,0.33333334,0.5522388,0,0.0,0.0,0.0,0.0,0.0,0,0,0.0,0.0,0,0,29.0,0.0,0.0,4591.282051282052,3913.333333333334,4447.6923076923085,4431.282051282052,4233.846153846154,4549.2307692307695,4403.076923076924,4407.6923076923085,4361.025641025642,4626.153846153847,4366.153846153847,4301.025641025642,4137.435897435898,4531.282051282052
2003.1433,0.21292812,0.36368123,0.33333334,0.5522388,0,0.0,0.0,0.0,0.0,0.1834082,0,0,0.0,0.0,0,0,73.0,0.0,485.0,4586.153846153847,3892.820512820513,4460.000000000001,4427.179487179487,4231.794871794872,4552.307692307693,4436.923076923077,4436.923076923077,4393.333333333334,4700.512820512821,4372.307692307693,4317.948717948719,4184.615384615385,4583.076923076924
2003.3936,0.26232767,0.3708405,0.33333334,0.5522388,0,0.0,0.0,0.0,0.0,0.2321074,0,0,0.0,0.0,0,0,105.0,0.0,136.0,4587.179487179488,3905.6410256410263,4470.256410256411,4430.769230769231,4235.8974358974365,4552.307692307693,4427.179487179487,4424.102564102564,4393.333333333334,4738.461538461539,4372.820512820514,4322.564102564103,4191.282051282052,4600.512820512821
2003.6438,0.26232767,0.3708405,0.33333334,0.5522388,0,0.0,0.0,0.0,0.0,0.043423995,0,0,0.0,0.0,0,0,8.0,0.0,501.0,4592.307692307693,3907.692307692308,4477.435897435898,4428.717948717949,4231.282051282052,4542.564102564103,4441.538461538462,4428.717948717949,4405.641025641026,4746.666666666667,4373.846153846154,4324.102564102564,4201.025641025642,4614.358974358975
2003.8939,0.28126255,0.39264897,0.33333334,0.5522388,0,0.0,0.0,0.0,0.0,0.040789794,0,0,0.0,0.0,0,0,40.0,0.0,0.0,4591.282051282052,3914.358974358975,4473.333333333334,4438.461538461539,4235.384615384616,4552.820512820514,4453.333333333334,4461.025641025642,4418.974358974359,4749.743589743591,4370.256410256411,4320.512820512821,4170.256410256411,4609.743589743591
2004.1442,0.28126255,0.39264897,0.33333334,0.5522388,0,0.0,0.0,0.0,0.0,1.0,0,0,0.0,0.0,0,0,72.0,0.0,501.0,4604.102564102564,3926.666666666667,4476.410256410257,4443.589743589744,4235.384615384616,4556.923076923077,4461.025641025642,4444.615384615385,4417.948717948719,4748.717948717949,4378.461538461539,4311.794871794872,4186.153846153847,4466.153846153847
2004.3005,0.29749683,0.3903733,0.33333334,0.5522388,0,0.0,0.0,0.0,0.0,1.0,0,0,0.0,0.0,0,1,92.0,0.0,0.0,4605.128205128206,3921.538461538462,4492.820512820514,4439.48717948718,4234.358974358975,4549.743589743591,4456.923076923077,4447.6923076923085,4418.974358974359,4763.076923076924,4374.358974358975,4311.282051282052,4181.538461538462,4620.000000000001
2004.6447,0.29749683,0.3903733,0.33333334,0.5522388,0,0.0,0.0,0.0,0.0,0.124243304,0,0,0.0,0.0,0,0,7.0,0.0,498.0,4609.743589743591,3941.0256410256416,4492.820512820514,4443.589743589744,4243.589743589744,4541.025641025642,4457.948717948719,4452.820512820514,4437.948717948719,4777.948717948719,4376.410256410257,4316.923076923077,4210.769230769231,4601.538461538462
2004.8949,0.30489483,0.3861398,0.33333334,0.5522388,0,0.0,0.0,0.0,0.0,0.0605831,0,0,0.0,0.0,0,0,39.0,0.0,0.0,4609.743589743591,3924.615384615385,4489.2307692307695,4437.948717948719,4246.153846153847,4541.538461538462,4471.794871794872,4460.000000000001,4438.461538461539,4763.076923076924,4378.461538461539,4314.358974358975,4203.076923076924,4587.6923076923085
2005.145,0.30489483,0.3861398,0.33333334,0.5522388,0,0.0,0.0,0.0,0.0,0.057671845,0,0,0.0,0.0,0,0,71.0,0.0,498.0,4639.48717948718,3968.717948717949,4514.358974358975,4447.6923076923085,4230.256410256411,4535.8974358974365,4479.48717948718,4479.48717948718,4443.589743589744,4830.769230769231,4376.923076923077,4321.025641025642,4206.153846153847,4606.153846153847
2005.3953,0.3543031,0.37194687,0.33333334,0.5522388,0,0.0,0.0,0.0,0.0,0.0,0,0,0.0,0.0,0,0,103.0,0.0,515.0,4648.717948717949,3954.358974358975,4523.076923076924,4445.641025641026,4231.794871794872,4539.48717948718,4491.794871794872,4470.769230769231,4461.025641025642,4858.974358974359,4381.025641025642,4321.538461538462,4223.076923076924,4642.051282051282
2005.3953,0.3543031,0.37194687,0.33333334,0.5522388,0,0.0,0.0,0.0,0.0,0.0,0,0,0.0,0.0,0,0,103.0,0.0,515.0,4648.717948717949,3954.358974358975,4523.076923076924,4445.641025641026,4231.794871794872,4539.48717948718,4491.794871794872,4470.769230769231,4461.025641025642,4858.974358974359,4381.025641025642,4321.538461538462,4223.076923076924,4642.051282051282
2005.8958,0.40691996,0.36138278,0.33333334,0.5522388,0,0.0,0.0,0.0,0.0,0.051217895,0,0,0.0,0.0,0,0,38.0,0.0,0.0,4652.820512820514,3955.8974358974365,4527.6923076923085,4447.179487179487,4231.282051282052,4535.384615384616,4477.435897435898,4426.153846153847,4432.307692307693,4835.8974358974365,4375.8974358974365,4309.2307692307695,4226.666666666667,4602.051282051282
2006.1459,0.40691996,0.36138278,0.33333334,0.5522388,0,0.0,0.0,0.0,0.0,0.07331664,0,0,0.0,0.0,0,0,70.0,0.0,544.0,4637.435897435898,3961.538461538462,4521.538461538462,4445.641025641026,4230.256410256411,4535.8974358974365,4471.794871794872,4429.743589743591,4418.461538461539,4792.307692307693,4366.666666666667,4295.384615384616,4198.461538461539,4578.974358974359
2006.3961,0.4024466,0.36516985,0.33333334,0.5522388,0,0.0,0.0,0.0,0.0,0.1018117,0,0,0.0,0.0,0,0,102.0,0.0,551.0,4657.948717948719,3958.9743589743593,4540.000000000001,4445.641025641026,4227.179487179487,4527.6923076923085,4478.461538461539,4447.6923076923085,4433.333333333334,4765.641025641026,4376.923076923077,4311.794871794872,4221.025641025642,4536.410256410257
2006.5212,0.4024466,0.36516985,0.33333334,0.5522388,0,0.0,0.0,0.0,0.0,0.0,0,0,0.0,0.0,0,0,118.0,0.0,551.0,4636.923076923077,3960.5128205128212,4536.410256410257,4446.153846153847,4234.871794871796,4534.871794871796,4476.410256410257,4425.641025641026,4408.717948717949,4722.051282051282,4369.2307692307695,4307.6923076923085,4189.74358974359,4575.384615384616
2006.8027,0.4215633,0.36808687,0.33333334,0.5522388,0,0.0,0.0,0.0,0.0,0.0,0,0,0.0,0.0,0,0,25.0,0.0,0.0,4624.615384615385,3952.820512820513,4515.8974358974365,4444.102564102564,4230.769230769231,4534.358974358975,4470.256410256411,4421.025641025642,4393.333333333334,4702.564102564103,4368.205128205129,4302.564102564103,4175.384615384616,4580.000000000001
2006.8027,0.4215633,0.36808687,0.33333334,0.5522388,0,0.0,0.0,0.0,0.0,0.0,0,0,0.0,0.0,0,0,25.0,0.0,0.0,4624.615384615385,3952.820512820513,4515.8974358974365,4444.102564102564,4230.769230769231,4534.358974358975,4470.256410256411,4421.025641025642,4393.333333333334,4702.564102564103,4368.205128205129,4302.564102564103,4175.384615384616,4580.000000000001
2007.3031,0.40414402,0.38011077,0.33333334,0.5522388,0,0.0,0.0,0.0,0.0,0.0,0,0,0.0,0.0,0,0,89.0,0.0,136.0,4666.153846153847,3971.2820512820517,4538.461538461539,4450.769230769231,4231.794871794872,4536.923076923077,4475.384615384616,4456.923076923077,4418.461538461539,4731.794871794872,4370.769230769231,4312.820512820514,4222.051282051282,4609.743589743591
2007.6472,0.40414402,0.38011077,0.33333334,0.5522388,0,0.0,0.0,0.0,0.0,0.32402828,0,0,0.0,0.0,0,0,4.0,0.0,579.0,4600.000000000001,3950.7692307692314,4507.179487179488,4445.641025641026,4247.179487179487,4541.538461538462,4451.282051282052,4412.307692307693,4380.512820512821,4682.564102564103,4364.102564102564,4296.410256410257,4193.333333333334,4563.076923076924
2007.8975,0.43573985,0.3901557,0.33333334,0.5522388,0,0.0,0.0,0.0,0.0,0.090457566,0,0,0.0,0.0,0,0,36.0,0.0,0.0,4595.384615384616,3928.717948717949,4510.256410256411,4441.025641025642,4250.769230769231,4554.871794871796,4440.000000000001,4396.410256410257,4391.282051282052,4687.6923076923085,4368.205128205129,4285.641025641026,4192.820512820514,4568.205128205129
2008.0226,0.43573985,0.3901557,0.33333334,0.5522388,0,0.0,0.0,0.0,0.0,0.0,0,0,0.0,0.0,0,0,52.0,0.0,0.0,4570.769230769231,3910.7692307692314,4473.846153846154,4432.307692307693,4254.358974358975,4554.871794871796,4427.179487179487,4395.8974358974365,4366.153846153847,4649.743589743591,4360.000000000001,4278.974358974359,4153.333333333334,4524.615384615385
2008.3041,0.54485893,0.37495014,0.33333334,0.5522388,0,0.0,0.0,0.0,0.0,0.0,0,0,0.0,0.0,0,0,88.0,0.0,0.0,4607.179487179488,3955.8974358974365,4522.564102564103,4470.769230769231,4305.128205128206,4601.538461538462,4456.923076923077,4414.358974358975,4403.076923076924,4687.179487179488,4365.641025641026,4280.000000000001,4193.333333333334,4554.358974358975
2008.3041,0.54485893,0.37495014,0.33333334,0.5522388,0,0.0,0.0,0.0,0.0,0.0,0,0,0.0,0.0,0,0,88.0,0.0,0.0,4607.179487179488,3955.8974358974365,4522.564102564103,4470.769230769231,4305.128205128206,4601.538461538462,4456.923076923077,4414.358974358975,4403.076923076924,4687.179487179488,4365.641025641026,4280.000000000001,4193.333333333334,4554.358974358975
2008.8044,0.58515,0.3788336,0.33333334,0.5522388,0,0.0,0.0,0.0,0.0,0.0,0,0,0.0,0.0,0,0,23.0,0.0,0.0,4591.794871794872,3892.820512820513,4489.743589743591,4422.564102564103,4247.179487179487,4540.000000000001,4428.205128205129,4412.307692307693,4372.820512820514,4722.051282051282,4362.564102564103,4297.948717948719,4171.282051282052,4524.102564102564
2008.8044,0.58515,0.3788336,0.33333334,0.5522388,0,0.0,0.0,0.0,0.0,0.0,0,0,0.0,0.0,0,0,23.0,0.0,0.0,4591.794871794872,3892.820512820513,4489.743589743591,4422.564102564103,4247.179487179487,4540.000000000001,4428.205128205129,4412.307692307693,4372.820512820514,4722.051282051282,4362.564102564103,4297.948717948719,4171.282051282052,4524.102564102564
2009.3987,0.58814985,0.36185104,0.33333334,0.5522388,0,0.0,0.0,0.0,0.0,0.032110903,0,0,0.0,0.0,0,0,99.0,0.0,515.0,4569.743589743591,3896.9230769230776,4471.282051282052,4414.871794871796,4247.6923076923085,4538.461538461539,4412.307692307693,4405.128205128206,4356.923076923077,4640.512820512821,4353.846153846154,4279.48717948718,4144.615384615385,4537.435897435898
2009.6489,0.58814985,0.36185104,0.33333334,0.5522388,0,0.0,0.0,0.0,0.0,0.01565946,0,0,0.0,0.0,0,0,2.0,0.0,449.0,4571.282051282052,3894.8717948717954,4476.410256410257,4413.333333333334,4256.410256410257,4538.461538461539,4441.538461538462,4443.589743589744,4374.871794871796,4649.2307692307695,4354.871794871796,4278.461538461539,4153.333333333334,4539.48717948718
2009.8992,0.63963664,0.35380393,0.33333334,0.5522388,0,0.0,0.0,0.0,0.0,0.0,0,0,0.0,0.0,0,0,34.0,0.0,0.0,4596.923076923077,3901.538461538462,4479.48717948718,4421.025641025642,4263.076923076924,4538.461538461539,4443.076923076924,4436.923076923077,4389.743589743591,4624.102564102564,4352.820512820514,4275.8974358974365,4182.564102564103,4560.512820512821
2009.8992,0.63963664,0.35380393,0.33333334,0.5522388,0,0.0,0.0,0.0,0.0,0.0,0,0,0.0,0.0,0,0,34.0,0.0,0.0,4596.923076923077,3901.538461538462,4479.48717948718,4421.025641025642,4263.076923076924,4538.461538461539,4443.076923076924,4436.923076923077,4389.743589743591,4624.102564102564,4352.820512820514,4275.8974358974365,4182.564102564103,4560.512820512821
2010.3995,0.5784384,0.37362763,0.33333334,0.5522388,0,0.0,0.0,0.0,0.0,0.47618428,0,0,0.0,0.0,0,0,98.0,0.0,551.0,4612.820512820514,3907.692307692308,4491.794871794872,4422.564102564103,4249.74358974359,4536.923076923077,4457.948717948719,4474.358974358975,4409.743589743591,4625.128205128206,4304.102564102564,4290.769230769231,4191.794871794872,4603.589743589744
2010.6498,0.5784384,0.37362763,0.33333334,0.5522388,0,0.0,0.0,0.0,0.0,0.5495361,0,0,0.0,0.0,0,0,1.0,0.0,452.0,4638.974358974359,3926.1538461538466,4501.538461538462,4422.051282051282,4232.820512820514,4524.615384615385,4445.641025641026,4444.615384615385,4402.564102564103,4677.948717948719,4304.102564102564,4293.846153846154,4220.000000000001,4606.666666666667
2010.9,0.5316514,0.40496987,0.33333334,0.5522388,0,0.0,0.0,0.0,0.0,0.0347199,0,0,0.0,0.0,0,0,33.0,0.0,0.0,4650.769230769231,3975.8974358974365,4525.641025641026,4444.102564102564,4226.153846153847,4523.076923076924,4469.2307692307695,4470.769230769231,4425.641025641026,4717.948717948719,4353.846153846154,4298.974358974359,4213.333333333334,4626.153846153847
2011.0251,0.5316514,0.40496987,0.33333334,0.5522388,0,0.0,0.0,0.0,0.0,0.0,0,0,0.0,0.0,0,0,49.0,0.0,0.0,4642.051282051282,3947.1794871794878,4526.153846153847,4438.461538461539,4223.589743589744,4525.128205128206,4461.538461538462,4447.6923076923085,4417.435897435898,4734.871794871796,4353.846153846154,4306.153846153847,4206.153846153847,4624.615384615385
2011.3066,0.55187285,0.42800382,0.33333334,0.5522388,0,0.0,0.0,0.0,0.0,0.0,0,0,0.0,0.0,0,0,85.0,0.0,136.0,4619.48717948718,3936.410256410257,4488.717948717949,4429.2307692307695,4218.974358974359,4526.153846153847,4441.538461538462,4426.666666666667,4385.128205128206,4723.589743589744,4353.846153846154,4303.589743589744,4160.512820512821,4571.282051282052
2011.3066,0.55187285,0.42800382,0.33333334,0.5522388,0,0.0,0.0,0.0,0.0,0.0,0,0,0.0,0.0,0,0,85.0,0.0,136.0,4619.48717948718,3936.410256410257,4488.717948717949,4429.2307692307695,4218.974358974359,4526.153846153847,4441.538461538462,4426.666666666667,4385.128205128206,4723.589743589744,4353.846153846154,4303.589743589744,4160.512820512821,4571.282051282052
2011.807,0.5971856,0.44620484,0.33333334,0.5522388,0,0.0,0.0,0.0,0.0,0.0,0,0,0.0,0.0,0,0,20.0,0.0,0.0,4634.871794871796,3945.6410256410263,4521.025641025642,4441.025641025642,4230.769230769231,4535.384615384616,4446.153846153847,4441.538461538462,4402.051282051282,4736.410256410257,4356.923076923077,4309.2307692307695,4210.769230769231,4603.589743589744
2011.807,0.5971856,0.44620484,0.33333334,0.5522388,0,0.0,0.0,0.0,0.0,0.0,0,0,0.0,0.0,0,0,20.0,0.0,0.0,4634.871794871796,3945.6410256410263,4521.025641025642,4441.025641025642,4230.769230769231,4535.384615384616,4446.153846153847,4441.538461538462,4402.051282051282,4736.410256410257,4356.923076923077,4309.2307692307695,4210.769230769231,4603.589743589744
2012.4012,0.5875249,0.41939595,0.33333334,0.5522388,0,0.0,0.0,0.0,0.0,0.056443967,0,0,0.0,0.0,0,0,96.0,0.0,0.0,4594.871794871796,3944.615384615385,4507.6923076923085,4442.051282051282,4243.589743589744,4539.48717948718,4436.923076923077,4424.615384615385,4380.000000000001,4665.128205128206,4346.153846153847,4306.153846153847,4161.538461538462,4540.512820512821
2012.6515,0.5875249,0.41939595,0.33333334,0.5522388,0,0.0,0.0,0.0,0.0,0.0,0,0,0.0,0.0,0,0,128.0,0.0,0.0,4586.666666666667,3924.1025641025644,4496.923076923077,4427.179487179487,4244.102564102564,4537.948717948719,4437.948717948719,4404.102564102564,4368.717948717949,4666.666666666667,4348.205128205129,4306.666666666667,4178.461538461539,4549.2307692307695
2012.8079,0.569063,0.37946954,0.33333334,0.5522388,0,0.0,0.0,0.0,0.0,0.0,0,0,0.0,0.0,0,0,19.0,0.0,0.0,4612.307692307693,3931.2820512820517,4512.307692307693,4437.435897435898,4247.179487179487,4541.025641025642,4442.051282051282,4430.769230769231,4400.512820512821,4703.076923076924,4349.743589743591,4314.358974358975,4221.025641025642,4583.076923076924
2012.8079,0.569063,0.37946954,0.33333334,0.5522388,0,0.0,0.0,0.0,0.0,0.0,0,0,0.0,0.0,0,0,19.0,0.0,0.0,4612.307692307693,3931.2820512820517,4512.307692307693,4437.435897435898,4247.179487179487,4541.025641025642,4442.051282051282,4430.769230769231,4400.512820512821,4703.076923076924,4349.743589743591,4314.358974358975,4221.025641025642,4583.076923076924
2013.3083,0.5458059,0.3465348,0.33333334,0.5522388,0,0.0,0.0,0.0,0.0,0.0,0,0,0.0,0.0,0,0,83.0,0.0,515.0,4584.615384615385,3925.1282051282055,4503.589743589744,4436.923076923077,4261.538461538462,4552.820512820514,4440.000000000001,4423.589743589744,4396.410256410257,4709.2307692307695,4348.205128205129,4301.025641025642,4199.48717948718,4566.666666666667
2013.3083,0.5458059,0.3465348,0.33333334,0.5522388,0,0.0,0.0,0.0,0.0,0.0,0,0,0.0,0.0,0,0,83.0,0.0,515.0,4584.615384615385,3925.1282051282055,4503.589743589744,4436.923076923077,4261.538461538462,4552.820512820514,4440.000000000001,4423.589743589744,4396.410256410257,4709.2307692307695,4348.205128205129,4301.025641025642,4199.48717948718,4566.666666666667
2013.9026,0.46499464,0.32437748,0.33333334,0.5522388,0,0.0,0.0,0.0,0.0,0.0,0,0,0.0,0.0,0,0,30.0,0.0,0.0,4626.666666666667,3938.9743589743593,4537.435897435898,4443.076923076924,4252.820512820514,4550.769230769231,4463.589743589744,4458.461538461539,4439.48717948718,4780.512820512821,4367.179487179487,4308.205128205129,4233.333333333334,4602.564102564103
2013.9026,0.46499464,0.32437748,0.33333334,0.5522388,0,0.0,0.0,0.0,0.0,0.0,0,0,0.0,0.0,0,0,30.0,0.0,0.0,4626.666666666667,3938.9743589743593,4537.435897435898,4443.076923076924,4252.820512820514,4550.769230769231,4463.589743589744,4458.461538461539,4439.48717948718,4780.512820512821,4367.179487179487,4308.205128205129,4233.333333333334,4602.564102564103
2014.3092,0.46328932,0.31762645,0.33333334,0.5522388,0,0.0,0.0,0.0,0.0,0.0,0,0,0.0,0.0,0,0,82.0,0.0,551.0,4630.256410256411,3946.1538461538466,4544.102564102564,4441.025641025642,4235.8974358974365,4540.512820512821,4487.6923076923085,4471.794871794872,4432.307692307693,4714.358974358975,4382.564102564103,4298.974358974359,4202.564102564103,4589.743589743591
2014.3092,0.46328932,0.31762645,0.33333334,0.5522388,0,0.0,0.0,0.0,0.0,0.0,0,0,0.0,0.0,0,0,82.0,0.0,551.0,4630.256410256411,3946.1538461538466,4544.102564102564,4441.025641025642,4235.8974358974365,4540.512820512821,4487.6923076923085,4471.794871794872,4432.307692307693,4714.358974358975,4382.564102564103,4298.974358974359,4202.564102564103,4589.743589743591
2014.8096,0.44003758,0.30427897,0.33333334,0.5522388,0,0.0,0.0,0.0,0.0,0.0,0,0,0.0,0.0,0,0,17.0,0.0,0.0,4597.435897435898,3930.2564102564106,4537.435897435898,4429.2307692307695,4247.179487179487,4525.128205128206,4457.948717948719,4465.641025641026,4433.333333333334,4643.589743589744,4377.948717948719,4296.923076923077,4192.307692307693,4568.205128205129
2014.8096,0.44003758,0.30427897,0.33333334,0.5522388,0,0.0,0.0,0.0,0.0,0.0,0,0,0.0,0.0,0,0,17.0,0.0,0.0,4597.435897435898,3930.2564102564106,4537.435897435898,4429.2307692307695,4247.179487179487,4525.128205128206,4457.948717948719,4465.641025641026,4433.333333333334,4643.589743589744,4377.948717948719,4296.923076923077,4192.307692307693,4568.205128205129
2015.31,0.45640635,0.29425034,0.33333334,0.5522388,0,0.0,0.0,0.0,0.0,0.0,0,0,0.0,0.0,0,0,81.0,0.0,136.0,4614.358974358975,3942.564102564103,4552.820512820514,4433.846153846154,4245.128205128206,4521.538461538462,4482.051282051282,4478.461538461539,4429.743589743591,4628.717948717949,4371.794871794872,4294.871794871796,4206.153846153847,4569.743589743591
2015.31,0.45640635,0.29425034,0.33333334,0.5522388,0,0.0,0.0,0.0,0.0,0.0,0,0,0.0,0.0,0,0,81.0,0.0,136.0,4614.358974358975,3942.564102564103,4552.820512820514,4433.846153846154,4245.128205128206,4521.538461538462,4482.051282051282,4478.461538461539,4429.743589743591,4628.717948717949,4371.794871794872,4294.871794871796,4206.153846153847,4569.743589743591
2015.8104,0.43861523,0.28343436,0.33333334,0.5522388,0,0.0,0.0,0.0,0.0,0.0,0,0,0.0,0.0,0,0,16.0,0.0,0.0,4630.769230769231,3957.9487179487182,4551.794871794872,4446.666666666667,4251.282051282052,4542.564102564103,4493.846153846154,4487.6923076923085,4433.333333333334,4663.076923076924,4371.794871794872,4307.179487179487,4232.820512820514,4588.205128205129
2015.8104,0.43861523,0.28343436,0.33333334,0.5522388,0,0.0,0.0,0.0,0.0,0.0,0,0,0.0,0.0,0,0,16.0,0.0,0.0,4630.769230769231,3957.9487179487182,4551.794871794872,4446.666666666667,4251.282051282052,4542.564102564103,4493.846153846154,4487.6923076923085,4433.333333333334,4663.076923076924,4371.794871794872,4307.179487179487,4232.820512820514,4588.205128205129
2016.3109,0.37750226,0.26069015,0.33333334,0.5522388,0,0.0,0.0,0.0,0.0,0.0,0,0,0.0,0.0,0,0,80.0,0.0,0.0,4600.512820512821,3947.1794871794878,4524.615384615385,4438.974358974359,4243.076923076924,4551.282051282052,4475.384615384616,4467.6923076923085,4418.974358974359,4673.846153846154,4367.6923076923085,4296.923076923077,4221.025641025642,4570.256410256411
2016.3109,0.37750226,0.26069015,0.33333334,0.5522388,0,0.0,0.0,0.0,0.0,0.0,0,0,0.0,0.0,0,0,80.0,0.0,0.0,4600.512820512821,3947.1794871794878,4524.615384615385,4438.974358974359,4243.076923076924,4551.282051282052,4475.384615384616,4467.6923076923085,4418.974358974359,4673.846153846154,4367.6923076923085,4296.923076923077,4221.025641025642,4570.256410256411
2016.9052,0.3831325,0.23812412,0.33333334,0.5522388,0,0.0,0.0,0.0,0.0,0.14061423,0,0,0.0,0.0,0,0,27.0,0.0,0.0,4596.410256410257,3928.717948717949,4505.128205128206,4440.512820512821,4264.102564102564,4565.641025641026,4446.153846153847,4439.48717948718,4392.307692307693,4721.538461538462,4361.538461538462,4296.923076923077,4187.179487179487,4566.666666666667
2017.1554,0.3831325,0.23812412,0.33333334,0.5522388,0,0.0,0.0,0.0,0.0,0.8346386,0,0,0.0,0.0,0,0,59.0,0.0,0.0,4583.076923076924,3931.7948717948725,4507.6923076923085,4442.051282051282,4262.564102564103,4563.076923076924,4445.128205128206,4429.2307692307695,4384.102564102564,4743.589743589744,4361.538461538462,4294.871794871796,4185.128205128206,4552.820512820514
2017.3118,0.37437508,0.23255828,0.33333334,0.5522388,0,0.0,0.0,0.0,0.0,1.0,0,0,0.0,0.0,0,0,79.0,0.0,515.0,4593.846153846154,3929.2307692307695,4504.615384615385,4437.435897435898,4261.025641025642,4556.923076923077,4442.564102564103,4415.384615384616,4374.871794871796,4761.025641025642,4361.025641025642,4295.384615384616,4174.871794871796,4569.2307692307695
2017.6558,0.37437508,0.23255828,0.33333334,0.5522388,0,0.0,0.0,0.0,0.0,0.060288996,0,0,0.0,0.0,0,0,123.0,0.0,515.0,4605.128205128206,3923.589743589744,4520.000000000001,4434.871794871796,4263.076923076924,4557.435897435898,4441.538461538462,4428.717948717949,4378.461538461539,4745.128205128206,4363.076923076924,4303.589743589744,4196.410256410257,4572.307692307693
2017.906,0.36176032,0.24714918,0.33333334,0.5522388,0,0.0,0.0,0.0,0.0,0.03537599,0,0,0.0,0.0,0,0,26.0,0.0,0.0,4602.051282051282,3916.9230769230776,4518.461538461539,4432.820512820514,4264.102564102564,4555.8974358974365,4472.307692307693,4461.025641025642,4392.307692307693,4737.435897435898,4366.153846153847,4305.641025641026,4213.333333333334,4585.641025641026
2018.1562,0.36176032,0.24714918,0.33333334,0.5522388,0,0.0,0.0,0.0,0.0,0.034471817,0,0,0.0,0.0,0,0,58.0,0.0,0.0,4616.410256410257,3927.692307692308,4522.564102564103,4436.923076923077,4264.102564102564,4555.8974358974365,4453.846153846154,4414.358974358975,4370.256410256411,4737.435897435898,4366.153846153847,4304.102564102564,4188.205128205129,4586.666666666667
2018.4065,0.3090029,0.2755799,0.33333334,0.5522388,0,0.0,0.0,0.0,0.0,0.037126154,0,0,0.0,0.0,0,0,90.0,0.0,551.0,4583.589743589744,3919.48717948718,4507.6923076923085,4429.2307692307695,4263.589743589744,4554.871794871796,4472.820512820514,4466.153846153847,4404.615384615385,4733.846153846154,4365.128205128206,4301.025641025642,4175.8974358974365,4573.333333333334
2018.6566,0.3090029,0.2755799,0.33333334,0.5522388,0,0.0,0.0,0.0,0.0,0.06785132,0,0,0.0,0.0,0,0,122.0,0.0,551.0,4587.6923076923085,3922.0512820512827,4513.846153846154,4427.179487179487,4249.2307692307695,4547.6923076923085,4470.769230769231,4450.769230769231,4391.282051282052,4721.025641025642,4363.589743589744,4299.48717948718,4191.794871794872,4573.333333333334
2018.9069,0.25612986,0.28722164,0.33333334,0.5522388,0,0.0,0.0,0.0,0.0,0.07429334,0,0,0.0,0.0,0,0,25.0,0.0,0.0,4603.076923076924,3923.589743589744,4523.076923076924,4436.923076923077,4261.025641025642,4552.307692307693,4477.435897435898,4456.410256410257,4408.717948717949,4732.307692307693,4368.205128205129,4303.589743589744,4212.307692307693,4592.820512820514
2019.032,0.25612986,0.28722164,0.33333334,0.5522388,0,0.0,0.0,0.0,0.0,0.0,0,0,0.0,0.0,0,0,41.0,0.0,0.0,4601.025641025642,3932.820512820513,4521.025641025642,4438.461538461539,4263.076923076924,4553.333333333334,4476.923076923077,4438.974358974359,4395.384615384616,4718.974358974359,4363.589743589744,4300.512820512821,4185.128205128206,4584.102564102564
2019.4073,0.23896557,0.2759677,0.33333334,0.5522388,0,0.0,0.0,0.0,0.0,0.10904781,0,0,0.0,0.0,0,0,89.0,0.0,137.0,4614.358974358975,3953.333333333334,4525.128205128206,4440.512820512821,4246.153846153847,4539.48717948718,4488.717948717949,4441.538461538462,4380.512820512821,4675.384615384616,4358.461538461539,4293.846153846154,4167.6923076923085,4586.153846153847
2019.6575,0.23896557,0.2759677,0.33333334,0.5522388,0,0.0,0.0,0.0,0.0,0.05935117,0,0,0.0,0.0,0,0,121.0,0.0,137.0,4611.794871794872,3945.1282051282055,4518.461538461539,4433.333333333334,4249.74358974359,4540.000000000001,4479.48717948718,4435.8974358974365,4386.666666666667,4690.256410256411,4361.025641025642,4281.538461538462,4164.615384615385,4571.282051282052
2019.9077,0.22481325,0.28021967,0.33333334,0.5522388,0,0.0,0.0,0.0,0.0,0.092923135,0,0,0.0,0.0,0,0,24.0,0.0,0.0,4625.128205128206,3946.1538461538466,4524.615384615385,4439.48717948718,4250.256410256411,4545.128205128206,4489.743589743591,4434.358974358975,4393.846153846154,4663.076923076924,4357.435897435898,4284.102564102564,4176.410256410257,4580.512820512821
2020.158,0.22481325,0.28021967,0.33333334,0.5522388,0,0.0,0.0,0.0,0.0,0.089098334,0,0,0.0,0.0,0,0,56.0,0.0,0.0,4619.48717948718,3959.48717948718,4525.641025641026,4445.641025641026,4256.410256410257,4553.333333333334,4475.8974358974365,4429.2307692307695,4391.282051282052,4637.435897435898,4360.000000000001,4284.615384615385,4165.128205128206,4568.205128205129
2020.4082,0.24430367,0.26566473,0.33333334,0.5522388,0,0.0,0.0,0.0,0.0,0.06649329,0,0,0.0,0.0,0,0,88.0,0.0,0.0,4596.923076923077,3955.8974358974365,4515.8974358974365,4441.025641025642,4254.358974358975,4540.000000000001,4460.000000000001,4411.794871794872,4371.282051282052,4630.769230769231,4357.435897435898,4282.051282051282,4137.435897435898,4550.256410256411
2020.5333,0.24430367,0.26566473,0.33333334,0.5522388,0,0.0,0.0,0.0,0.0,0.0,0,0,0.0,0.0,0,0,104.0,0.0,0.0,4608.205128205129,3931.7948717948725,4521.025641025642,4433.846153846154,4257.948717948719,4547.179487179488,4474.358974358975,4440.512820512821,4407.179487179487,4700.512820512821,4361.538461538462,4295.384615384616,4198.974358974359,4571.282051282052
2020.8148,0.2872227,0.26651323,0.33333334,0.5522388,0,0.0,0.0,0.0,0.0,0.0,0,0,0.0,0.0,0,0,11.0,0.0,515.0,4624.615384615385,3953.333333333334,4522.051282051282,4440.512820512821,4247.6923076923085,4537.948717948719,4472.307692307693,4434.871794871796,4396.410256410257,4676.410256410257,4359.48717948718,4295.8974358974365,4183.589743589744,4569.743589743591
2020.8148,0.2872227,0.26651323,0.33333334,0.5522388,0,0.0,0.0,0.0,0.0,0.0,0,0,0.0,0.0,0,0,11.0,0.0,515.0,4624.615384615385,3953.333333333334,4522.051282051282,4440.512820512821,4247.6923076923085,4537.948717948719,4472.307692307693,4434.871794871796,4396.410256410257,4676.410256410257,4359.48717948718,4295.8974358974365,4183.589743589744,4569.743589743591
2021.3152,0.26370808,0.2792527,0.33333334,0.5522388,0,0.0,0.0,0.0,0.0,0.0,0,0,0.0,0.0,0,0,75.0,0.0,515.0,4635.384615384616,3956.410256410257,4521.538461538462,4443.589743589744,4264.615384615385,4551.282051282052,4458.974358974359,4427.179487179487,4404.615384615385,4696.923076923077,4360.512820512821,4297.948717948719,4213.846153846154,4574.871794871796
2021.6593,0.26370808,0.2792527,0.33333334,0.5522388,0,0.0,0.0,0.0,0.0,0.14477615,0,0,0.0,0.0,0,0,119.0,0.0,515.0,4602.051282051282,3953.333333333334,4505.641025641026,4441.025641025642,4250.256410256411,4539.48717948718,4443.589743589744,4415.8974358974365,4381.025641025642,4673.333333333334,4357.435897435898,4286.666666666667,4169.74358974359,4538.974358974359
2021.9094,0.30475205,0.270258,0.33333334,0.5522388,0,0.0,0.0,0.0,0.0,0.056723885,0,0,0.0,0.0,0,0,22.0,0.0,0.0,4598.974358974359,3968.205128205129,4506.666666666667,4447.6923076923085,4247.179487179487,4547.6923076923085,4433.846153846154,4389.2307692307695,4357.948717948719,4633.846153846154,4348.717948717949,4277.948717948719,4131.794871794872,4536.923076923077
2022.1597,0.30475205,0.270258,0.33333334,0.5522388,0,0.0,0.0,0.0,0.0,0.0,0,0,0.3601699,0.0,0,0,54.0,0.0,0.0,4584.615384615385,3941.538461538462,4491.282051282052,4434.358974358975,4249.74358974359,4538.461538461539,4413.846153846154,4385.128205128206,4352.820512820514,4633.333333333334,4345.641025641026,4265.128205128206,4116.923076923077,4522.051282051282
2022.4099,0.40268248,0.2650339,0.33333334,0.5522388,0,0.0,0.0,0.0,0.0,0.0,0,0,0.66222054,0.0,0,0,86.0,0.0,551.0,4588.205128205129,3926.1538461538466,4490.769230769231,4431.794871794872,4261.025641025642,4553.846153846154,4426.666666666667,4397.948717948719,4354.358974358975,4653.846153846154,4346.666666666667,4265.128205128206,4121.025641025642,4520.512820512821
2022.6602,0.40268248,0.2650339,0.33333334,0.5522388,0,0.0,0.0,0.0,0.0,0.065499984,0,0,0.0,0.0,0,0,118.0,0.0,551.0,4577.435897435898,3924.615384615385,4476.923076923077,4429.743589743591,4250.769230769231,4547.6923076923085,4405.641025641026,4368.717948717949,4335.384615384616,4657.948717948719,4343.076923076924,4260.000000000001,4094.8717948717954,4510.256410256411
2022.8165,0.4803822,0.25863156,0.33333334,0.5522388,0,0.0,0.0,0.0,0.0,0.0,0,0,0.0,0.0,0,0,9.0,0.0,486.0,4591.794871794872,3922.564102564103,4489.743589743591,4430.256410256411,4263.076923076924,4555.8974358974365,4431.282051282052,4409.2307692307695,4364.615384615385,4691.282051282052,4346.666666666667,4261.538461538462,4137.435897435898,4535.384615384616
2022.8165,0.4803822,0.25863156,0.33333334,0.5522388,0,0.0,0.0,0.0,0.0,0.0,0,0,0.0,0.0,0,0,9.0,0.0,486.0,4591.794871794872,3922.564102564103,4489.743589743591,4430.256410256411,4263.076923076924,4555.8974358974365,4431.282051282052,4409.2307692307695,4364.615384615385,4691.282051282052,4346.666666666667,4261.538461538462,4137.435897435898,4535.384615384616
2023.3169,0.5048692,0.24061358,0.33333334,0.5522388,0,0.0,0.0,0.0,0.0,0.0,0,0,0.0,0.0,0,0,73.0,0.0,486.0,4612.820512820514,3929.7435897435903,4509.2307692307695,4432.307692307693,4252.307692307693,4553.846153846154,4457.948717948719,4462.051282051282,4416.410256410257,4736.410256410257,4353.333333333334,4263.076923076924,4181.538461538462,4553.846153846154
2023.3169,0.5048692,0.24061358,0.33333334,0.5522388,0,0.0,0.0,0.0,0.0,0.0,0,0,0.0,0.0,0,0,73.0,0.0,486.0,4612.820512820514,3929.7435897435903,4509.2307692307695,4432.307692307693,4252.307692307693,4553.846153846154,4457.948717948719,4462.051282051282,4416.410256410257,4736.410256410257,4353.333333333334,4263.076923076924,4181.538461538462,4553.846153846154
2023.9111,0.49177557,0.2436484,0.33333334,0.5522388,0,0.0,0.0,0.0,0.0,1.0,0,0,0.0,0.0,0,0,20.0,0.0,0.0,4620.512820512821,3941.538461538462,4522.564102564103,4440.512820512821,4250.256410256411,4539.48717948718,4460.512820512821,4460.512820512821,4421.538461538462,4737.435897435898,4356.410256410257,4303.589743589744,4202.564102564103,4583.076923076924
2023.9111,0.49177557,0.2436484,0.33333334,0.5522388,0,0.0,0.0,0.0,0.0,1.0,0,0,0.0,0.0,0,0,20.0,0.0,0.0,4620.512820512821,3941.538461538462,4522.564102564103,4440.512820512821,4250.256410256411,4539.48717948718,4460.512820512821,4460.512820512821,4421.538461538462,4737.435897435898,4356.410256410257,4303.589743589744,4202.564102564103,4583.076923076924
2024.4116,0.46858764,0.25154832,0.33333334,0.5522388,0,0.0,0.0,0.0,0.0,0.029403705,0,0,0.0,0.0,0,0,84.0,0.0,0.0,4628.717948717949,3957.9487179487182,4523.076923076924,4446.666666666667,4264.615384615385,4523.076923076924,4453.333333333334,4427.6923076923085,4387.179487179487,4694.358974358975,4358.974358974359,4306.153846153847,4180.512820512821,4583.589743589744
2024.6619,0.46858764,0.25154832,0.33333334,0.5522388,0,0.0,0.0,0.0,0.0,0.040103957,0,0,0.0,0.0,0,0,116.0,0.0,0.0,4605.641025641026,3956.9230769230776,4506.666666666667,4448.717948717949,4239.48717948718,4541.538461538462,4455.384615384616,4427.6923076923085,4380.000000000001,4678.974358974359,4349.743589743591,4290.769230769231,4148.205128205129,4551.794871794872
2024.8182,0.4586296,0.25186747,0.33333334,0.5522388,0,0.0,0.0,0.0,0.0,0.0,0,0,0.0,0.0,0,0,7.0,0.0,500.0,4613.333333333334,3956.410256410257,4513.846153846154,4445.641025641026,4229.74358974359,4537.435897435898,4449.743589743591,4428.205128205129,4389.743589743591,4692.307692307693,4353.333333333334,4291.794871794872,4168.717948717949,4562.564102564103
2024.8182,0.4586296,0.25186747,0.33333334,0.5522388,0,0.0,0.0,0.0,0.0,0.0,0,0,0.0,0.0,0,0,7.0,0.0,500.0,4613.333333333334,3956.410256410257,4513.846153846154,4445.641025641026,4229.74358974359,4537.435897435898,4449.743589743591,4428.205128205129,4389.743589743591,4692.307692307693,4353.333333333334,4291.794871794872,4168.717948717949,4562.564102564103
2025.3186,0.40471056,0.25059816,0.33333334,0.5522388,0,0.0,0.0,0.0,0.0,0.0,0,0,0.0,0.0,0,0,71.0,0.0,500.0,4615.384615384616,3956.9230769230776,4505.641025641026,4446.153846153847,4230.256410256411,4539.48717948718,4442.564102564103,4413.333333333334,4383.589743589744,4664.102564102564,4354.871794871796,4278.974358974359,4174.358974358975,4568.205128205129
2025.3186,0.40471056,0.25059816,0.33333334,0.5522388,0,0.0,0.0,0.0,0.0,0.0,0,0,0.0,0.0,0,0,71.0,0.0,500.0,4615.384615384616,3956.9230769230776,4505.641025641026,4446.153846153847,4230.256410256411,4539.48717948718,4442.564102564103,4413.333333333334,4383.589743589744,4664.102564102564,4354.871794871796,4278.974358974359,4174.358974358975,4568.205128205129
2025.8191,0.3934305,0.24754861,0.33333334,0.5522388,0,0.0,0.0,0.0,0.0,0.0,0,0,0.0,0.0,0,0,6.0,0.0,544.0,4633.846153846154,3958.461538461539,4527.6923076923085,4449.2307692307695,4232.307692307693,4540.512820512821,4460.000000000001,4426.666666666667,4394.358974358975,4696.410256410257,4356.923076923077,4277.948717948719,4183.076923076924,4585.641025641026
2025.8191,0.3934305,0.24754861,0.33333334,0.5522388,0,0.0,0.0,0.0,0.0,0.0,0,0,0.0,0.0,0,0,6.0,0.0,544.0,4633.846153846154,3958.461538461539,4527.6923076923085,4449.2307692307695,4232.307692307693,4540.512820512821,4460.000000000001,4426.666666666667,4394.358974358975,4696.410256410257,4356.923076923077,4277.948717948719,4183.076923076924,4585.641025641026
2026.3195,0.33344874,0.2431123,0.33333334,0.5522388,0,0.0,0.0,0.0,0.0,0.0,0,0,0.0,0.0,0,0,70.0,0.0,544.0,4623.076923076924,3957.435897435898,4525.128205128206,4444.615384615385,4236.923076923077,4547.179487179488,4446.666666666667,4426.153846153847,4396.410256410257,4695.8974358974365,4356.923076923077,4280.512820512821,4184.615384615385,4584.102564102564
2026.3195,0.33344874,0.2431123,0.33333334,0.5522388,0,0.0,0.0,0.0,0.0,0.0,0,0,0.0,0.0,0,0,70.0,0.0,544.0,4623.076923076924,3957.435897435898,4525.128205128206,4444.615384615385,4236.923076923077,4547.179487179488,4446.666666666667,4426.153846153847,4396.410256410257,4695.8974358974365,4356.923076923077,4280.512820512821,4184.615384615385,4584.102564102564
2026.82,0.31404865,0.23220895,0.33333334,0.5522388,0,0.0,0.0,0.0,0.0,0.0,0,0,0.0,0.0,0,0,5.0,0.0,573.0,4628.205128205129,3956.410256410257,4533.846153846154,4451.282051282052,4263.076923076924,4553.846153846154,4471.282051282052,4456.923076923077,4413.846153846154,4712.307692307693,4355.8974358974365,4275.384615384616,4178.974358974359,4597.948717948719
2026.82,0.31404865,0.23220895,0.33333334,0.5522388,0,0.0,0.0,0.0,0.0,0.0,0,0,0.0,0.0,0,0,5.0,0.0,573.0,4628.205128205129,3956.410256410257,4533.846153846154,4451.282051282052,4263.076923076924,4553.846153846154,4471.282051282052,4456.923076923077,4413.846153846154,4712.307692307693,4355.8974358974365,4275.384615384616,4178.974358974359,4597.948717948719
2027.3203,0.32156622,0.21515992,0.33333334,0.5522388,0,0.0,0.0,0.0,0.0,0.0,0,0,0.0,0.0,0,0,69.0,0.0,573.0,4621.538461538462,3935.8974358974365,4519.48717948718,4428.717948717949,4237.948717948719,4534.358974358975,4471.282051282052,4441.025641025642,4403.076923076924,4694.358974358975,4350.769230769231,4263.076923076924,4176.923076923077,4582.051282051282
2027.6644,0.32156622,0.21515992,0.33333334,0.5522388,0,0.0,0.0,0.0,0.0,1.0,0,0,0.0,0.0,0,0,113.0,0.0,138.0,4621.025641025642,3952.307692307693,4489.743589743591,4444.102564102564,4257.948717948719,4554.358974358975,4491.794871794872,4455.8974358974365,4406.666666666667,4692.307692307693,4351.794871794872,4264.102564102564,4184.102564102564,4581.538461538462
2027.9147,0.29140496,0.21069026,0.33333334,0.5522388,0,0.0,0.0,0.0,0.0,0.027563998,0,0,0.0,0.0,0,0,16.0,0.0,0.0,4636.923076923077,3958.9743589743593,4507.6923076923085,4445.641025641026,4262.051282051282,4555.384615384616,4477.948717948719,4462.564102564103,4423.076923076924,4716.410256410257,4358.461538461539,4265.641025641026,4208.205128205129,4589.743589743591
2028.1648,0.29140496,0.21069026,0.33333334,0.5522388,0,0.0,0.0,0.0,0.0,0.026896426,0,0,0.0,0.0,0,0,48.0,0.0,0.0,4615.8974358974365,3925.6410256410263,4500.000000000001,4426.666666666667,4237.435897435898,4537.435897435898,4458.974358974359,4438.461538461539,4405.128205128206,4696.410256410257,4348.717948717949,4253.846153846154,4203.589743589744,4569.743589743591
2028.415,0.2820316,0.21345249,0.33333334,0.5522388,0,0.0,0.0,0.0,0.0,0.0,0,0,0.0,0.0,0,0,80.0,0.0,0.0,4622.051282051282,3925.1282051282055,4490.769230769231,4427.179487179487,4248.717948717949,4545.641025641026,4458.461538461539,4427.6923076923085,4402.564102564103,4672.820512820514,4343.076923076924,4248.717948717949,4229.74358974359,4567.6923076923085
2028.415,0.2820316,0.21345249,0.33333334,0.5522388,0,0.0,0.0,0.0,0.0,0.0,0,0,0.0,0.0,0,0,80.0,0.0,0.0,4622.051282051282,3925.1282051282055,4490.769230769231,4427.179487179487,4248.717948717949,4545.641025641026,4458.461538461539,4427.6923076923085,4402.564102564103,4672.820512820514,4343.076923076924,4248.717948717949,4229.74358974359,4567.6923076923085
2028.8217,0.31545064,0.22041622,0.33333334,0.5522388,0,0.0,0.0,0.0,0.0,0.0,0,0,0.0,0.0,0,0,3.0,0.0,554.0,4646.153846153847,3940.0000000000005,4547.6923076923085,4430.256410256411,4234.871794871796,4538.974358974359,4506.666666666667,4461.538461538462,4440.512820512821,4717.948717948719,4304.102564102564,4265.128205128206,4289.74358974359,4588.717948717949
2028.8217,0.31545064,0.22041622,0.33333334,0.5522388,0,0.0,0.0,0.0,0.0,0.0,0,0,0.0,0.0,0,0,3.0,0.0,554.0,4646.153846153847,3940.0000000000005,4547.6923076923085,4430.256410256411,4234.871794871796,4538.974358974359,4506.666666666667,4461.538461538462,4440.512820512821,4717.948717948719,4304.102564102564,4265.128205128206,4289.74358974359,4588.717948717949
2029.3221,0.40470695,0.22165392,0.33333334,0.5522388,0,0.0,0.0,0.0,0.0,0.0,0,0,0.0,0.0,0,0,67.0,0.0,554.0,4655.384615384616,3969.7435897435903,4565.128205128206,4445.641025641026,4226.666666666667,4541.025641025642,4513.333333333334,4489.743589743591,4457.435897435898,4799.48717948718,4312.307692307693,4265.641025641026,4325.128205128206,4595.8974358974365
2029.6661,0.40470695,0.22165392,0.33333334,0.5522388,0,0.0,0.0,0.0,0.0,1.0,0,0,0.0,0.0,0,0,111.0,0.0,515.0,4645.128205128206,3956.410256410257,4557.435897435898,4440.000000000001,4229.2307692307695,4536.923076923077,4515.8974358974365,4493.846153846154,4453.846153846154,4797.435897435898,4312.307692307693,4264.102564102564,4319.48717948718,4610.769230769231
2029.8225,0.4632954,0.21313034,0.33333334,0.5522388,0,0.0,0.0,0.0,0.0,1.0,0,0,0.0,0.0,0,0,2.0,0.0,451.0,4634.358974358975,3958.9743589743593,4554.871794871796,4440.000000000001,4234.358974358975,4540.512820512821,4507.6923076923085,4476.923076923077,4439.48717948718,4799.48717948718,4311.282051282052,4266.153846153847,4306.666666666667,4601.538461538462
2030.1665,0.4632954,0.21313034,0.33333334,0.5522388,0,0.0,0.0,0.0,0.0,0.0,0,0,0.0,0.0,0,0,46.0,0.0,0.0,4614.358974358975,3940.5128205128212,4536.410256410257,4440.000000000001,4237.435897435898,4544.102564102564,4483.076923076924,4458.974358974359,4416.923076923077,4782.564102564103,4313.846153846154,4263.589743589744,4273.846153846154,4593.846153846154
2030.323,0.5309049,0.21831596,0.33333334,0.5522388,0,0.0,0.0,0.0,0.0,0.0,0,0,0.0,0.0,0,0,66.0,0.0,451.0,4621.538461538462,3943.589743589744,4541.538461538462,4442.051282051282,4249.74358974359,4551.282051282052,4475.384615384616,4457.948717948719,4420.000000000001,4779.48717948718,4313.846153846154,4265.128205128206,4277.435897435898,4597.435897435898
2030.323,0.5309049,0.21831596,0.33333334,0.5522388,0,0.0,0.0,0.0,0.0,0.0,0,0,0.0,0.0,0,0,66.0,0.0,451.0,4621.538461538462,3943.589743589744,4541.538461538462,4442.051282051282,4249.74358974359,4551.282051282052,4475.384615384616,4457.948717948719,4420.000000000001,4779.48717948718,4313.846153846154,4265.128205128206,4277.435897435898,4597.435897435898
2030.8234,0.5139001,0.21725121,0.33333334,0.5522388,0,0.0,0.0,0.0,0.0,0.0,0,0,0.0,0.0,0,0,1.0,0.0,452.0,4613.846153846154,3956.410256410257,4539.48717948718,4441.538461538462,4245.128205128206,4541.025641025642,4455.384615384616,4445.128205128206,4417.948717948719,4767.6923076923085,4315.384615384616,4261.538461538462,4256.410256410257,4586.153846153847
2030.8234,0.5139001,0.21725121,0.33333334,0.5522388,0,0.0,0.0,0.0,0.0,0.0,0,0,0.0,0.0,0,0,1.0,0.0,452.0,4613.846153846154,3956.410256410257,4539.48717948718,4441.538461538462,4245.128205128206,4541.025641025642,4455.384615384616,4445.128205128206,4417.948717948719,4767.6923076923085,4315.384615384616,4261.538461538462,4256.410256410257,4586.153846153847
2031.3239,0.44789782,0.2169806,0.33333334,0.5522388,0,0.0,0.0,0.0,0.0,0.0,0,0,0.0,0.0,0,0,65.0,0.0,452.0,4620.512820512821,3909.2307692307695,4538.974358974359,4424.102564102564,4240.000000000001,4536.923076923077,4461.538461538462,4447.179487179487,4396.923076923077,4720.512820512821,4317.948717948719,4251.282051282052,4233.333333333334,4575.384615384616
2031.3239,0.44789782,0.2169806,0.33333334,0.5522388,0,0.0,0.0,0.0,0.0,0.0,0,0,0.0,0.0,0,0,65.0,0.0,452.0,4620.512820512821,3909.2307692307695,4538.974358974359,4424.102564102564,4240.000000000001,4536.923076923077,4461.538461538462,4447.179487179487,4396.923076923077,4720.512820512821,4317.948717948719,4251.282051282052,4233.333333333334,4575.384615384616
2031.8242,0.42639208,0.22347246,0.33333334,0.5522388,0,0.0,0.0,0.0,0.0,0.0,0,0,0.0,0.0,0,0,0.0,0.0,547.0,4628.205128205129,3925.1282051282055,4538.974358974359,4431.282051282052,4248.205128205129,4538.974358974359,4458.461538461539,4458.461538461539,4400.512820512821,4728.717948717949,4318.461538461539,4249.2307692307695,4215.8974358974365,4585.128205128206
2032.1683,0.42639208,0.22347246,0.33333334,0.5522388,0,0.0,0.0,0.0,0.0,0.102760494,0,0,0.0,0.0,0,0,44.0,0.0,0.0,4606.153846153847,3932.307692307693,4518.461538461539,4431.794871794872,4248.205128205129,4542.564102564103,4463.076923076924,4421.025641025642,4370.769230769231,4694.871794871796,4313.846153846154,4236.410256410257,4149.2307692307695,4524.102564102564
2032.4185,0.45797473,0.22884251,0.33333334,0.5522388,0,0.0,0.0,0.0,0.0,0.13973688,0,0,0.0,0.0,0,0,76.0,0.0,0.0,4612.820512820514,3922.0512820512827,4511.794871794872,4428.717948717949,4248.717948717949,4540.000000000001,4455.8974358974365,4413.333333333334,4374.358974358975,4710.769230769231,4314.358974358975,4247.6923076923085,4159.48717948718,4524.102564102564
2032.6687,0.45797473,0.22884251,0.33333334,0.5522388,0,0.0,0.0,0.0,0.0,0.12816882,0,0,0.0,0.0,0,0,108.0,0.0,0.0,4626.153846153847,3848.205128205129,4527.179487179488,4412.820512820514,4266.153846153847,4556.923076923077,4478.461538461539,4463.589743589744,4417.948717948719,4735.384615384616,4317.948717948719,4250.769230769231,4174.358974358975,4571.282051282052
2032.919,0.52828556,0.24639261,0.33333334,0.5522388,0,0.0,0.0,0.0,0.0,0.14891897,0,0,0.0,0.0,0,0,11.0,0.0,515.0,4642.051282051282,3896.9230769230776,4544.102564102564,4424.102564102564,4249.74358974359,4539.48717948718,4468.205128205129,4438.461538461539,4405.128205128206,4730.256410256411,4315.8974358974365,4255.384615384616,4166.666666666667,4593.333333333334
2033.1692,0.52828556,0.24639261,0.33333334,0.5522388,0,0.0,0.0,0.0,0.0,0.09001043,0,0,0.0,0.0,0,0,43.0,0.0,0.0,4650.256410256411,3913.8461538461543,4537.435897435898,4431.794871794872,4250.256410256411,4548.717948717949,4472.307692307693,4442.564102564103,4403.076923076924,4748.205128205129,4323.589743589744,4252.820512820514,4170.256410256411,4588.717948717949
2033.4193,0.5523306,0.26436526,0.33333334,0.5522388,0,0.0,0.0,0.0,0.0,0.039704625,0,0,0.0,0.0,0,0,75.0,0.0,515.0,4649.743589743591,3912.307692307693,4538.461538461539,4431.794871794872,4250.256410256411,4551.282051282052,4470.769230769231,4438.974358974359,4400.000000000001,4731.794871794872,4331.282051282052,4253.333333333334,4161.025641025642,4590.769230769231
2033.5444,0.5523306,0.26436526,0.33333334,0.5522388,0,0.0,0.0,0.0,0.0,0.0,0,0,0.0,0.0,0,0,91.0,0.0,515.0,4648.717948717949,3926.666666666667,4538.974358974359,4438.461538461539,4250.769230769231,4552.307692307693,4457.948717948719,4444.102564102564,4409.743589743591,4725.128205128206,4328.717948717949,4250.769230769231,4167.179487179487,4602.051282051282
2033.9198,0.525743,0.271272,0.33333334,0.5522388,0,0.0,0.0,0.0,0.0,1.0,0,0,0.0,0.0,0,0,10.0,0.0,551.0,4688.717948717949,3952.307692307693,4553.846153846154,4442.564102564103,4232.820512820514,4536.923076923077,4469.2307692307695,4463.589743589744,4422.051282051282,4747.179487179488,4341.025641025642,4262.564102564103,4217.435897435898,4473.333333333334
2034.17,0.525743,0.271272,0.33333334,0.5522388,0,0.0,0.0,0.0,0.0,0.46444952,0,0,0.0,0.0,0,0,42.0,0.0,0.0,4659.48717948718,3938.9743589743593,4543.076923076924,4437.948717948719,4238.461538461539,4540.512820512821,4481.538461538462,4479.48717948718,4429.743589743591,4705.128205128206,4336.923076923077,4252.307692307693,4208.205128205129,4611.794871794872
2034.4202,0.48287874,0.28589845,0.33333334,0.5522388,0,0.0,0.0,0.0,0.0,0.12683249,0,0,0.0,0.0,0,0,74.0,0.0,551.0,4642.564102564103,3940.5128205128212,4538.974358974359,4437.435897435898,4235.8974358974365,4539.48717948718,4466.666666666667,4460.000000000001,4419.48717948718,4718.974358974359,4333.333333333334,4255.8974358974365,4178.461538461539,4604.102564102564
2034.6704,0.48287874,0.28589845,0.33333334,0.5522388,0,0.0,0.0,0.0,0.0,0.059352178,0,0,0.0,0.0,0,0,106.0,0.0,551.0,4626.153846153847,3936.9230769230776,4524.615384615385,4433.846153846154,4248.717948717949,4541.025641025642,4443.076923076924,4426.153846153847,4400.000000000001,4702.564102564103,4333.846153846154,4250.256410256411,4137.948717948719,4565.128205128206
2034.9207,0.48247358,0.27042422,0.33333334,0.5522388,0,0.0,0.0,0.0,0.0,0.0,0,0,0.5323126,0.0,0,0,9.0,0.0,486.0,4607.179487179488,3924.615384615385,4501.025641025642,4426.153846153847,4247.179487179487,4540.512820512821,4437.948717948719,4428.205128205129,4389.743589743591,4694.358974358975,4332.820512820514,4247.179487179487,4120.000000000001,4548.717948717949
2035.1709,0.48247358,0.27042422,0.33333334,0.5522388,0,0.0,0.0,0.0,0.0,0.15386854,0,0,0.0,0.0,0,0,41.0,0.0,0.0,4617.948717948719,3925.1282051282055,4507.6923076923085,4431.794871794872,4250.769230769231,4544.102564102564,4442.564102564103,4416.923076923077,4398.974358974359,4704.615384615386,4334.358974358975,4248.205128205129,4138.461538461539,4570.256410256411
2035.421,0.4960911,0.24644464,0.33333334,0.5522388,0,0.0,0.0,0.0,0.0,0.029122587,0,0,0.0,0.0,0,0,73.0,0.0,486.0,4618.974358974359,3911.7948717948725,4508.717948717949,4426.666666666667,4248.717948717949,4541.025641025642,4461.025641025642,4448.717948717949,4407.6923076923085,4705.128205128206,4337.435897435898,4248.205128205129,4143.076923076924,4567.179487179488
2035.5461,0.4960911,0.24644464,0.33333334,0.5522388,0,0.0,0.0,0.0,0.0,0.0,0,0,0.0,0.0,0,0,89.0,0.0,140.0,4627.6923076923085,3925.1282051282055,4508.205128205129,4430.769230769231,4250.769230769231,4548.717948717949,4444.102564102564,4430.769230769231,4407.179487179487,4703.076923076924,4336.410256410257,4249.74358974359,4158.974358974359,4576.410256410257
2035.8276,0.4896811,0.24758433,0.33333334,0.5522388,0,0.0,0.0,0.0,0.0,0.0,0,0,0.0,0.0,0,0,125.0,0.0,140.0,4636.923076923077,3939.48717948718,4513.846153846154,4436.410256410257,4246.666666666667,4538.461538461539,4426.666666666667,4409.2307692307695,4402.564102564103,4706.666666666667,4338.461538461539,4248.205128205129,4137.435897435898,4406.153846153847
2036.0466,0.4896811,0.24758433,0.33333334,0.5522388,0,0.0,0.0,0.0,0.0,1.0,0,0,0.0,0.0,0,0,24.0,0.0,0.0,4617.435897435898,3937.435897435898,4491.282051282052,4433.846153846154,4246.153846153847,4538.461538461539,4432.307692307693,4399.48717948718,4393.333333333334,4698.461538461539,4334.358974358975,4234.871794871796,4112.820512820514,4551.794871794872
2036.4219,0.49416983,0.25064433,0.33333334,0.5522388,0,0.0,0.0,0.0,0.0,0.052028645,0,0,0.0,0.0,0,0,72.0,0.0,501.0,4626.666666666667,3945.6410256410263,4513.333333333334,4438.974358974359,4244.102564102564,4537.435897435898,4442.564102564103,4414.871794871796,4407.6923076923085,4713.846153846154,4335.8974358974365,4246.666666666667,4155.8974358974365,4571.794871794872
2036.6721,0.49416983,0.25064433,0.33333334,0.5522388,0,0.0,0.0,0.0,0.0,0.0,0,0,0.0,0.0,0,0,104.0,0.0,0.0,4633.333333333334,3942.564102564103,4520.000000000001,4437.948717948719,4244.615384615385,4540.000000000001,4442.564102564103,4426.666666666667,4402.564102564103,4692.307692307693,4340.000000000001,4245.128205128206,4167.6923076923085,4581.538461538462
2036.8285,0.46313396,0.2453921,0.33333334,0.5522388,0,0.0,0.0,0.0,0.0,0.0,0,0,0.0,0.0,0,0,124.0,0.0,0.0,4645.128205128206,3943.076923076924,4519.48717948718,4435.384615384616,4235.8974358974365,4533.333333333334,4441.025641025642,4411.282051282052,4393.333333333334,4685.641025641026,4336.923076923077,4250.769230769231,4153.846153846154,4583.589743589744
2036.8285,0.46313396,0.2453921,0.33333334,0.5522388,0,0.0,0.0,0.0,0.0,0.0,0,0,0.0,0.0,0,0,124.0,0.0,0.0,4645.128205128206,3943.076923076924,4519.48717948718,4435.384615384616,4235.8974358974365,4533.333333333334,4441.025641025642,4411.282051282052,4393.333333333334,4685.641025641026,4336.923076923077,4250.769230769231,4153.846153846154,4583.589743589744
2037.329,0.4727315,0.24656332,0.33333334,0.5522388,0,0.0,0.0,0.0,0.0,0.0,0,0,0.0,0.0,0,0,59.0,0.0,0.0,4654.871794871796,3943.076923076924,4529.2307692307695,4443.589743589744,4249.74358974359,4543.076923076924,4459.48717948718,4442.051282051282,4412.307692307693,4736.410256410257,4342.564102564103,4257.435897435898,4186.153846153847,4601.025641025642
2037.329,0.4727315,0.24656332,0.33333334,0.5522388,0,0.0,0.0,0.0,0.0,0.0,0,0,0.0,0.0,0,0,59.0,0.0,0.0,4654.871794871796,3943.076923076924,4529.2307692307695,4443.589743589744,4249.74358974359,4543.076923076924,4459.48717948718,4442.051282051282,4412.307692307693,4736.410256410257,4342.564102564103,4257.435897435898,4186.153846153847,4601.025641025642
2037.8293,0.38483226,0.23992056,0.33333334,0.5522388,0,0.0,0.0,0.0,0.0,0.0,0,0,0.0,0.0,0,0,123.0,0.0,515.0,4654.871794871796,3941.538461538462,4518.974358974359,4440.000000000001,4231.282051282052,4538.461538461539,4455.8974358974365,4444.102564102564,4408.205128205129,4722.051282051282,4343.076923076924,4247.6923076923085,4186.666666666667,4588.717948717949
2037.8293,0.38483226,0.23992056,0.33333334,0.5522388,0,0.0,0.0,0.0,0.0,0.0,0,0,0.0,0.0,0,0,123.0,0.0,515.0,4654.871794871796,3941.538461538462,4518.974358974359,4440.000000000001,4231.282051282052,4538.461538461539,4455.8974358974365,4444.102564102564,4408.205128205129,4722.051282051282,4343.076923076924,4247.6923076923085,4186.666666666667,4588.717948717949
2038.3298,0.36082384,0.23401882,0.33333334,0.5522388,0,0.0,0.0,0.0,0.0,0.0,0,0,0.0,0.0,0,0,58.0,0.0,0.0,4648.205128205129,3948.717948717949,4505.128205128206,4447.6923076923085,4247.179487179487,4553.846153846154,4457.435897435898,4457.435897435898,4407.179487179487,4707.179487179488,4344.102564102564,4245.128205128206,4169.2307692307695,4571.282051282052
2038.3298,0.36082384,0.23401882,0.33333334,0.5522388,0,0.0,0.0,0.0,0.0,0.0,0,0,0.0,0.0,0,0,58.0,0.0,0.0,4648.205128205129,3948.717948717949,4505.128205128206,4447.6923076923085,4247.179487179487,4553.846153846154,4457.435897435898,4457.435897435898,4407.179487179487,4707.179487179488,4344.102564102564,4245.128205128206,4169.2307692307695,4571.282051282052
2038.8302,0.31925845,0.23191243,0.33333334,0.5522388,0,0.0,0.0,0.0,0.0,0.0,0,0,0.0,0.0,0,0,122.0,0.0,551.0,4654.358974358975,3945.1282051282055,4525.128205128206,4444.615384615385,4247.6923076923085,4537.948717948719,4460.512820512821,4441.538461538462,4416.410256410257,4738.461538461539,4345.128205128206,4260.512820512821,4204.615384615385,4595.8974358974365
2038.8302,0.31925845,0.23191243,0.33333334,0.5522388,0,0.0,0.0,0.0,0.0,0.0,0,0,0.0,0.0,0,0,122.0,0.0,551.0,4654.358974358975,3945.1282051282055,4525.128205128206,4444.615384615385,4247.6923076923085,4537.948717948719,4460.512820512821,4441.538461538462,4416.410256410257,4738.461538461539,4345.128205128206,4260.512820512821,4204.615384615385,4595.8974358974365
2039.3307,0.3117555,0.23272605,0.33333334,0.5522388,0,0.0,0.0,0.0,0.0,0.0,0,0,0.0,0.0,0,0,57.0,0.0,0.0,4650.769230769231,3965.1282051282055,4517.948717948719,4444.102564102564,4230.256410256411,4525.128205128206,4444.102564102564,4397.948717948719,4385.641025641026,4711.282051282052,4345.128205128206,4259.48717948718,4180.512820512821,4572.820512820514
2039.5497,0.3117555,0.23272605,0.33333334,0.5522388,0,0.0,0.0,0.0,0.0,1.0,0,0,0.0,0.0,0,0,85.0,0.0,140.0,4641.025641025642,3945.6410256410263,4516.923076923077,4442.564102564103,4234.358974358975,4539.48717948718,4460.000000000001,4422.564102564103,4397.948717948719,4711.282051282052,4342.564102564103,4263.589743589744,4183.589743589744,4569.2307692307695
2039.9249,0.30822888,0.23247927,0.33333334,0.5522388,0,0.0,0.0,0.0,0.0,0.08717101,0,0,0.0,0.0,0,0,4.0,0.0,579.0,4669.743589743591,3957.435897435898,4521.538461538462,4455.8974358974365,4249.2307692307695,4555.8974358974365,4473.846153846154,4425.641025641026,4414.358974358975,4722.051282051282,4345.641025641026,4267.6923076923085,4188.205128205129,4568.717948717949
2040.1752,0.30822888,0.23247927,0.33333334,0.5522388,0,0.0,0.0,0.0,0.0,0.11365543,0,0,0.0,0.0,0,0,36.0,0.0,0.0,4665.128205128206,3948.205128205129,4511.794871794872,4444.615384615385,4233.333333333334,4538.974358974359,4461.538461538462,4415.384615384616,4397.435897435898,4713.333333333334,4347.6923076923085,4263.589743589744,4168.205128205129,4569.2307692307695
2040.3315,0.32819128,0.23439834,0.33333334,0.5522388,0,0.0,0.0,0.0,0.0,0.0,0,0,0.0,0.0,0,0,56.0,0.0,0.0,4650.256410256411,3940.0000000000005,4504.102564102564,4443.589743589744,4249.74358974359,4544.102564102564,4460.000000000001,4410.769230769231,4391.794871794872,4705.128205128206,4345.641025641026,4262.564102564103,4167.179487179487,4568.205128205129
2040.3315,0.32819128,0.23439834,0.33333334,0.5522388,0,0.0,0.0,0.0,0.0,0.0,0,0,0.0,0.0,0,0,56.0,0.0,0.0,4650.256410256411,3940.0000000000005,4504.102564102564,4443.589743589744,4249.74358974359,4544.102564102564,4460.000000000001,4410.769230769231,4391.794871794872,4705.128205128206,4345.641025641026,4262.564102564103,4167.179487179487,4568.205128205129
2040.832,0.27705604,0.23888826,0.33333334,0.5522388,0,0.0,0.0,0.0,0.0,0.0,0,0,0.0,0.0,0,0,120.0,0.0,0.0,4662.051282051282,3943.589743589744,4513.846153846154,4444.615384615385,4235.8974358974365,4543.589743589744,4456.923076923077,4431.794871794872,4409.2307692307695,4723.589743589744,4346.666666666667,4250.256410256411,4201.025641025642,4582.564102564103
2040.832,0.27705604,0.23888826,0.33333334,0.5522388,0,0.0,0.0,0.0,0.0,0.0,0,0,0.0,0.0,0,0,120.0,0.0,0.0,4662.051282051282,3943.589743589744,4513.846153846154,4444.615384615385,4235.8974358974365,4543.589743589744,4456.923076923077,4431.794871794872,4409.2307692307695,4723.589743589744,4346.666666666667,4250.256410256411,4201.025641025642,4582.564102564103
2041.3324,0.26680633,0.23594366,0.33333334,0.5522388,0,0.0,0.0,0.0,0.0,0.0,0,0,0.0,0.0,0,0,55.0,0.0,0.0,4642.564102564103,3940.5128205128212,4523.076923076924,4441.025641025642,4250.256410256411,4548.717948717949,4455.8974358974365,4443.589743589744,4408.717948717949,4733.846153846154,4348.205128205129,4260.000000000001,4208.205128205129,4589.2307692307695
2041.3324,0.26680633,0.23594366,0.33333334,0.5522388,0,0.0,0.0,0.0,0.0,0.0,0,0,0.0,0.0,0,0,55.0,0.0,0.0,4642.564102564103,3940.5128205128212,4523.076923076924,4441.025641025642,4250.256410256411,4548.717948717949,4455.8974358974365,4443.589743589744,4408.717948717949,4733.846153846154,4348.205128205129,4260.000000000001,4208.205128205129,4589.2307692307695
2041.8329,0.28471497,0.23877299,0.33333334,0.5522388,0,0.0,0.0,0.0,0.0,0.0,0,0,0.0,0.0,0,0,119.0,0.0,515.0,4627.179487179488,3949.2307692307695,4509.2307692307695,4445.128205128206,4248.717948717949,4543.589743589744,4450.769230769231,4440.000000000001,4396.410256410257,4706.153846153847,4346.153846153847,4266.153846153847,4173.846153846154,4564.102564102564
2041.8329,0.28471497,0.23877299,0.33333334,0.5522388,0,0.0,0.0,0.0,0.0,0.0,0,0,0.0,0.0,0,0,119.0,0.0,515.0,4627.179487179488,3949.2307692307695,4509.2307692307695,4445.128205128206,4248.717948717949,4543.589743589744,4450.769230769231,4440.000000000001,4396.410256410257,4706.153846153847,4346.153846153847,4266.153846153847,4173.846153846154,4564.102564102564
2042.3333,0.24555005,0.22795351,0.33333334,0.5522388,0,0.0,0.0,0.0,0.0,0.0,0,0,0.0,0.0,0,0,54.0,0.0,0.0,4619.48717948718,3948.205128205129,4510.256410256411,4435.384615384616,4246.666666666667,4533.333333333334,4434.871794871796,4412.307692307693,4375.8974358974365,4705.641025641026,4347.179487179487,4264.102564102564,4148.717948717949,4555.384615384616
2042.6774,0.24555005,0.22795351,0.33333334,0.5522388,0,0.0,0.0,0.0,0.0,0.0,0,0,0.18087658,0.0,0,0,98.0,0.0,551.0,4623.076923076924,3947.692307692308,4508.717948717949,4437.435897435898,4247.179487179487,4539.48717948718,4441.538461538462,4418.974358974359,4391.794871794872,4713.846153846154,4348.717948717949,4268.205128205129,4181.025641025642,4558.461538461539
2042.9275,0.23876497,0.21459293,0.33333334,0.5522388,0,0.0,0.0,0.0,0.0,0.03947647,0,0,0.0,0.0,0,0,1.0,0.0,452.0,4634.358974358975,3952.820512820513,4520.512820512821,4447.6923076923085,4260.000000000001,4554.871794871796,4453.333333333334,4432.820512820514,4403.589743589744,4729.743589743591,4352.820512820514,4269.2307692307695,4188.205128205129,4577.435897435898
2043.0526,0.23876497,0.21459293,0.33333334,0.5522388,0,0.0,0.0,0.0,0.0,0.0,0,0,0.0,0.0,0,0,17.0,0.0,0.0,4633.846153846154,3947.1794871794878,4524.615384615385,4446.153846153847,4250.769230769231,4553.846153846154,4446.153846153847,4426.666666666667,4399.48717948718,4737.435897435898,4350.256410256411,4268.205128205129,4184.615384615385,4587.6923076923085
2043.3341,0.20942901,0.19532824,0.33333334,0.5522388,0,0.0,0.0,0.0,0.0,0.0,0,0,0.0,0.0,0,0,53.0,0.0,0.0,4635.8974358974365,3945.1282051282055,4527.179487179488,4445.128205128206,4246.666666666667,4541.538461538462,4445.128205128206,4431.794871794872,4404.102564102564,4722.051282051282,4353.333333333334,4265.641025641026,4202.564102564103,4587.179487179488
2043.3341,0.20942901,0.19532824,0.33333334,0.5522388,0,0.0,0.0,0.0,0.0,0.0,0,0,0.0,0.0,0,0,53.0,0.0,0.0,4635.8974358974365,3945.1282051282055,4527.179487179488,4445.128205128206,4246.666666666667,4541.538461538462,4445.128205128206,4431.794871794872,4404.102564102564,4722.051282051282,4353.333333333334,4265.641025641026,4202.564102564103,4587.179487179488
2043.8346,0.15943752,0.19061781,0.33333334,0.5522388,0,0.0,0.0,0.0,0.0,0.0,0,0,0.0,0.0,0,0,117.0,0.0,140.0,4634.358974358975,3944.615384615385,4524.102564102564,4441.538461538462,4236.410256410257,4540.512820512821,4447.6923076923085,4452.307692307693,4425.128205128206,4755.8974358974365,4354.358974358975,4265.128205128206,4223.589743589744,4582.564102564103
2043.8346,0.15943752,0.19061781,0.33333334,0.5522388,0,0.0,0.0,0.0,0.0,0.0,0,0,0.0,0.0,0,0,117.0,0.0,140.0,4634.358974358975,3944.615384615385,4524.102564102564,4441.538461538462,4236.410256410257,4540.512820512821,4447.6923076923085,4452.307692307693,4425.128205128206,4755.8974358974365,4354.358974358975,4265.128205128206,4223.589743589744,4582.564102564103
2044.335,0.1401312,0.20252027,0.33333334,0.5522388,0,0.0,0.0,0.0,0.0,0.0,0,0,0.0,0.0,0,0,52.0,0.0,0.0,4630.256410256411,3943.589743589744,4525.128205128206,4443.589743589744,4243.589743589744,4551.794871794872,4465.128205128206,4471.282051282052,4435.8974358974365,4752.307692307693,4354.871794871796,4261.025641025642,4221.538461538462,4575.384615384616
2044.335,0.1401312,0.20252027,0.33333334,0.5522388,0,0.0,0.0,0.0,0.0,0.0,0,0,0.0,0.0,0,0,52.0,0.0,0.0,4630.256410256411,3943.589743589744,4525.128205128206,4443.589743589744,4243.589743589744,4551.794871794872,4465.128205128206,4471.282051282052,4435.8974358974365,4752.307692307693,4354.871794871796,4261.025641025642,4221.538461538462,4575.384615384616
2044.8354,0.17920554,0.20809367,0.33333334,0.5522388,0,0.0,0.0,0.0,0.0,0.0,0,0,0.0,0.0,0,0,116.0,0.0,0.0,4621.025641025642,3956.9230769230776,4521.025641025642,4447.179487179487,4247.6923076923085,4551.794871794872,4456.923076923077,4449.2307692307695,4421.025641025642,4721.025641025642,4350.769230769231,4248.717948717949,4200.000000000001,4570.256410256411
2044.8354,0.17920554,0.20809367,0.33333334,0.5522388,0,0.0,0.0,0.0,0.0,0.0,0,0,0.0,0.0,0,0,116.0,0.0,0.0,4621.025641025642,3956.9230769230776,4521.025641025642,4447.179487179487,4247.6923076923085,4551.794871794872,4456.923076923077,4449.2307692307695,4421.025641025642,4721.025641025642,4350.769230769231,4248.717948717949,4200.000000000001,4570.256410256411
2045.4297,0.19185367,0.21262811,0.33333334,0.5522388,0,0.0,0.0,0.0,0.0,0.047995046,0,0,0.0,0.0,0,0,63.0,0.0,0.0,4629.743589743591,3969.7435897435903,4522.051282051282,4460.000000000001,4265.128205128206,4554.358974358975,4444.615384615385,4423.589743589744,4424.615384615385,4737.435897435898,4356.923076923077,4250.256410256411,4196.923076923077,4561.538461538462
2045.6799,0.19185367,0.21262811,0.33333334,0.5522388,0,0.0,0.0,0.0,0.0,0.086947314,0,0,0.0,0.0,0,0,95.0,0.0,515.0,4635.8974358974365,3971.7948717948725,4512.820512820514,4443.076923076924,4245.128205128206,4524.102564102564,4427.179487179487,4394.358974358975,4393.333333333334,4705.641025641026,4351.282051282052,4248.717948717949,4202.564102564103,4572.307692307693
2045.93,0.17291273,0.23996916,0.33333334,0.5522388,0,0.0,0.0,0.0,0.0,0.0,0,0,0.0,0.0,0,0,127.0,0.0,515.0,4620.512820512821,3963.589743589744,4522.564102564103,4449.743589743591,4260.000000000001,4542.564102564103,4442.564102564103,4428.205128205129,4407.6923076923085,4692.820512820514,4351.794871794872,4248.205128205129,4197.948717948719,4572.820512820514
2045.93,0.17291273,0.23996916,0.33333334,0.5522388,0,0.0,0.0,0.0,0.0,0.0,0,0,0.0,0.0,0,0,127.0,0.0,515.0,4620.512820512821,3963.589743589744,4522.564102564103,4449.743589743591,4260.000000000001,4542.564102564103,4442.564102564103,4428.205128205129,4407.6923076923085,4692.820512820514,4351.794871794872,4248.205128205129,4197.948717948719,4572.820512820514
2046.3367,0.20038794,0.2392998,0.33333334,0.5522388,0,0.0,0.0,0.0,0.0,0.0,0,0,0.0,0.0,0,0,50.0,0.0,0.0,4586.153846153847,3926.666666666667,4484.102564102564,4434.871794871796,4260.512820512821,4551.282051282052,4420.512820512821,4390.769230769231,4385.128205128206,4662.051282051282,4351.282051282052,4233.333333333334,4135.384615384616,4527.6923076923085
2046.6808,0.20038794,0.2392998,0.33333334,0.5522388,1,0.0,0.0,0.0,0.0,1.0,0,0,0.0,0.0,0,0,94.0,0.0,551.0,4581.025641025642,3924.615384615385,4475.384615384616,4441.025641025642,4260.512820512821,4553.333333333334,4415.384615384616,4388.205128205129,4387.179487179487,4695.8974358974365,4346.666666666667,4232.820512820514,4136.410256410257,4533.846153846154
2046.8372,0.31593347,0.2643292,0.33333334,0.5522388,0,0.0,0.0,0.0,0.0,1.0,0,0,0.0,0.0,0,0,114.0,0.0,551.0,4601.025641025642,3940.0000000000005,4490.256410256411,4439.48717948718,4250.256410256411,4543.589743589744,4416.410256410257,4393.333333333334,4390.769230769231,4667.179487179488,4346.666666666667,4232.820512820514,4152.307692307693,4539.48717948718
2047.1812,0.31593347,0.2643292,0.33333334,0.5522388,0,0.0,0.0,0.0,0.0,0.06191712,0,0,0.0,0.0,0,0,29.0,0.0,0.0,4583.076923076924,3930.7692307692314,4469.2307692307695,4442.564102564103,4245.641025641026,4540.000000000001,4428.205128205129,4391.794871794872,4380.512820512821,4637.435897435898,4344.102564102564,4232.820512820514,4115.8974358974365,4539.48717948718
2047.4314,0.29080153,0.28522286,0.33333334,0.5522388,0,0.0,0.0,0.0,0.0,0.02559918,0,0,0.0,0.0,0,0,61.0,0.0,0.0,4577.948717948719,3943.076923076924,4471.282051282052,4450.769230769231,4263.076923076924,4553.846153846154,4412.820512820514,4393.846153846154,4372.307692307693,4618.461538461539,4345.641025641026,4243.076923076924,4058.461538461539,4535.8974358974365
2047.6816,0.29080153,0.28522286,0.33333334,0.5522388,0,0.0,0.0,0.0,0.0,1.0,0,0,0.0,0.0,0,0,93.0,0.0,143.0,4420.512820512821,4562.051282051282,4212.307692307693,4580.000000000001,4021.0256410256416,4375.8974358974365,4281.538461538462,4179.48717948718,4219.48717948718,4561.025641025642,4299.48717948718,4205.128205128206,3876.410256410257,3807.1794871794878
2047.9005,0.46590537,0.30398053,0.33333334,0.5522388,0,0.0,0.0,0.0,0.0,1.0,0,0,0.0,0.0,0,0,121.0,0.0,143.0,4580.512820512821,4058.461538461539,4488.205128205129,4472.307692307693,4203.589743589744,4504.102564102564,4457.435897435898,4423.076923076924,4489.2307692307695,4980.512820512821,4395.384615384616,4266.666666666667,4113.333333333334,4431.282051282052
2048.057,0.46590537,0.30398053,0.33333334,0.5522388,0,0.0,0.0,0.0,0.0,1.0,0,1,0.0,0.0,0,0,12.0,0.0,0.0,4582.564102564103,4024.615384615385,4505.128205128206,4459.48717948718,4234.871794871796,4522.051282051282,4505.128205128206,4506.153846153847,4521.538461538462,4967.179487179488,4390.256410256411,4268.717948717949,4160.512820512821,4527.6923076923085
2048.4324,0.61999667,0.32086244,0.33333334,0.5522388,0,0.0,0.0,0.0,0.0,0.05705764,0,0,0.0,0.0,0,0,60.0,0.0,0.0,4604.102564102564,3996.410256410257,4519.48717948718,4457.948717948719,4242.051282051282,4530.769230769231,4492.820512820514,4571.282051282052,4484.615384615385,4837.435897435898,4383.076923076924,4263.076923076924,4176.923076923077,4613.846153846154
2048.6824,0.61999667,0.32086244,0.33333334,0.5522388,0,0.0,0.0,0.08883665,0.0,0.0,0,0,0.0,0.0,0,0,92.0,0.0,0.0,4631.282051282052,3982.564102564103,4536.923076923077,4460.000000000001,4248.717948717949,4544.102564102564,4506.666666666667,4533.846153846154,4470.256410256411,4781.025641025642,4387.6923076923085,4267.179487179487,4202.051282051282,4621.025641025642
2048.9326,0.58427846,0.33605614,0.33333334,0.5522388,0,0.0,0.0,0.0,0.0,0.13073216,0,0,0.0,0.0,0,0,124.0,0.0,0.0,4628.205128205129,3969.2307692307695,4552.820512820514,4461.025641025642,4258.974358974359,4555.384615384616,4527.179487179488,4598.974358974359,4469.2307692307695,4759.48717948718,4386.153846153847,4277.435897435898,4194.358974358975,4633.846153846154
2049.1829,0.58427846,0.33605614,0.33333334,0.5522388,0,0.0,0.0,0.0,0.0,0.10652963,0,0,0.0,0.0,0,0,27.0,0.0,0.0,4613.846153846154,3955.8974358974365,4526.153846153847,4454.358974358975,4261.025641025642,4557.948717948719,4522.051282051282,4508.717948717949,4453.846153846154,4706.666666666667,4384.615384615385,4264.102564102564,4173.846153846154,4611.794871794872
2049.433,0.67083275,0.3497305,0.33333334,0.5522388,0,0.0,0.0,0.0,0.0,0.12161295,0,0,0.0,0.0,0,0,59.0,0.0,0.0,4578.974358974359,3941.538461538462,4518.974358974359,4446.153846153847,4265.641025641026,4557.435897435898,4518.974358974359,4534.871794871796,4451.282051282052,4698.974358974359,4388.205128205129,4266.153846153847,4196.923076923077,4593.846153846154
2049.6833,0.67083275,0.3497305,0.33333334,0.5522388,0,0.0,0.0,0.0,0.0,0.07734069,0,0,0.0,0.0,0,0,91.0,0.0,511.0,4548.205128205129,3891.2820512820517,4459.48717948718,4431.282051282052,4216.923076923077,4513.846153846154,4483.076923076924,4580.512820512821,4434.871794871796,4637.948717948719,4340.512820512821,4242.564102564103,4111.794871794872,4552.307692307693
2049.9336,0.74360985,0.42925116,0.33333334,0.5522388,0,0.0,0.0,0.0,0.0,0.0023161946,0,0,0.0,0.0,0,0,123.0,0.0,511.0,4578.461538461539,3943.589743589744,4527.6923076923085,4443.076923076924,4263.589743589744,4553.846153846154,4504.102564102564,4445.641025641026,4454.871794871796,4689.743589743591,4349.2307692307695,4266.666666666667,4198.974358974359,4608.205128205129
2050.1838,0.74360985,0.42925116,0.33333334,0.5522388,0,0.0,0.0,0.0,0.0,0.0030779918,0,0,0.0,0.0,0,0,26.0,0.0,0.0,4598.974358974359,3956.410256410257,4538.461538461539,4445.641025641026,4267.6923076923085,4556.923076923077,4507.179487179488,4445.128205128206,4455.384615384616,4658.461538461539,4348.205128205129,4275.8974358974365,4242.564102564103,4623.076923076924
2050.434,0.7174892,0.40541372,0.33333334,0.5522388,0,0.0,0.0,0.0,0.0,0.14319399,0,0,0.0,0.0,0,0,58.0,0.0,0.0,4617.435897435898,3944.1025641025644,4526.153846153847,4440.512820512821,4251.282051282052,4542.051282051282,4506.666666666667,4461.538461538462,4454.358974358975,4672.307692307693,4353.846153846154,4272.820512820514,4226.666666666667,4604.102564102564
2050.684,0.7174892,0.40541372,0.33333334,0.5522388,0,0.0,0.0,0.0,0.0,0.07447934,0,0,0.0,0.0,0,0,90.0,0.0,551.0,4621.538461538462,3955.8974358974365,4536.410256410257,4446.666666666667,4250.769230769231,4550.256410256411,4517.948717948719,4441.025641025642,4455.8974358974365,4696.923076923077,4355.8974358974365,4269.74358974359,4234.358974358975,4625.128205128206
2050.8406,0.73314923,0.37846497,0.33333334,0.5522388,0,0.0,0.0,0.0,0.0,0.0,0,0,0.0,0.0,0,0,110.0,0.0,551.0,4628.717948717949,3954.8717948717954,4542.564102564103,4452.307692307693,4247.179487179487,4548.717948717949,4522.564102564103,4456.410256410257,4463.076923076924,4717.948717948719,4355.384615384616,4270.256410256411,4236.410256410257,4649.743589743591
2050.8406,0.73314923,0.37846497,0.33333334,0.5522388,0,0.0,0.0,0.0,0.0,0.0,0,0,0.0,0.0,0,0,110.0,0.0,551.0,4628.717948717949,3954.8717948717954,4542.564102564103,4452.307692307693,4247.179487179487,4548.717948717949,4522.564102564103,4456.410256410257,4463.076923076924,4717.948717948719,4355.384615384616,4270.256410256411,4236.410256410257,4649.743589743591
2051.341,0.7552143,0.38202754,0.33333334,0.5522388,0,0.0,0.0,0.0,0.0,0.0,0,0,0.0,0.0,0,0,45.0,0.0,0.0,4667.6923076923085,3968.717948717949,4551.282051282052,4452.820512820514,4217.435897435898,4540.512820512821,4519.48717948718,4456.923076923077,4467.179487179487,4807.6923076923085,4365.128205128206,4298.974358974359,4251.794871794872,4635.384615384616
2051.341,0.7552143,0.38202754,0.33333334,0.5522388,0,0.0,0.0,0.0,0.0,0.0,0,0,0.0,0.0,0,0,45.0,0.0,0.0,4667.6923076923085,3968.717948717949,4551.282051282052,4452.820512820514,4217.435897435898,4540.512820512821,4519.48717948718,4456.923076923077,4467.179487179487,4807.6923076923085,4365.128205128206,4298.974358974359,4251.794871794872,4635.384615384616
2051.8416,0.74261606,0.38501176,0.33333334,0.5522388,0,0.0,0.0,0.0,0.0,0.0,0,0,0.0,0.0,0,0,109.0,0.0,143.0,4660.512820512821,3983.589743589744,4540.000000000001,4457.435897435898,4222.564102564103,4540.512820512821,4506.666666666667,4456.923076923077,4463.589743589744,4814.358974358975,4365.641025641026,4291.282051282052,4251.794871794872,4649.2307692307695
2051.8416,0.74261606,0.38501176,0.33333334,0.5522388,0,0.0,0.0,0.0,0.0,0.0,0,0,0.0,0.0,0,0,109.0,0.0,143.0,4660.512820512821,3983.589743589744,4540.000000000001,4457.435897435898,4222.564102564103,4540.512820512821,4506.666666666667,4456.923076923077,4463.589743589744,4814.358974358975,4365.641025641026,4291.282051282052,4251.794871794872,4649.2307692307695
2052.4358,0.6985272,0.3982133,0.33333334,0.5522388,0,0.0,0.0,0.0,0.0,1.0,0,0,0.0,0.0,0,0,56.0,0.0,0.0,4659.48717948718,3962.0512820512827,4536.410256410257,4445.641025641026,4217.435897435898,4536.410256410257,4490.769230769231,4438.974358974359,4459.48717948718,4785.128205128206,4365.128205128206,4290.769230769231,4239.48717948718,4620.000000000001
2052.6858,0.6985272,0.3982133,0.33333334,0.5522388,0,0.0,0.0,0.0,0.0,0.750883,0,0,0.0,0.0,0,0,88.0,0.0,0.0,4668.205128205129,3956.9230769230776,4541.025641025642,4446.666666666667,4232.307692307693,4540.000000000001,4492.820512820514,4449.743589743591,4450.769230769231,4793.333333333334,4367.6923076923085,4282.051282051282,4235.8974358974365,4628.717948717949
2052.936,0.6770201,0.40588623,0.33333334,0.5522388,0,0.0,0.0,0.0,0.0,0.02450644,0,0,0.0,0.0,0,0,120.0,0.0,0.0,4664.102564102564,3962.564102564103,4532.307692307693,4447.6923076923085,4233.333333333334,4538.461538461539,4472.307692307693,4442.564102564103,4454.358974358975,4790.256410256411,4368.205128205129,4277.948717948719,4236.410256410257,4607.6923076923085
2053.1863,0.6770201,0.40588623,0.33333334,0.5522388,0,0.0,0.0,0.0,0.0,0.076615624,0,0,0.0,0.0,0,0,23.0,0.0,0.0,4633.333333333334,3941.0256410256416,4505.128205128206,4433.333333333334,4229.2307692307695,4537.435897435898,4462.564102564103,4435.384615384616,4434.358974358975,4772.820512820514,4368.205128205129,4267.6923076923085,4220.000000000001,4583.589743589744
2053.3428,0.6776219,0.3876282,0.33333334,0.5522388,0,0.0,0.0,0.0,0.0,0.0,0,0,0.0,0.0,0,0,43.0,0.0,0.0,4633.333333333334,3940.5128205128212,4506.153846153847,4437.948717948719,4233.846153846154,4539.48717948718,4465.128205128206,4428.205128205129,4421.538461538462,4768.205128205129,4364.102564102564,4267.179487179487,4209.74358974359,4583.076923076924
2053.3428,0.6776219,0.3876282,0.33333334,0.5522388,0,0.0,0.0,0.0,0.0,0.0,0,0,0.0,0.0,0,0,43.0,0.0,0.0,4633.333333333334,3940.5128205128212,4506.153846153847,4437.948717948719,4233.846153846154,4539.48717948718,4465.128205128206,4428.205128205129,4421.538461538462,4768.205128205129,4364.102564102564,4267.179487179487,4209.74358974359,4583.076923076924
2053.937,0.6044917,0.38250145,0.33333334,0.5522388,0,0.0,0.0,0.0,0.0,0.2529975,0,0,0.0,0.0,0,0,119.0,0.0,511.0,4712.820512820514,3997.435897435898,4540.512820512821,4456.410256410257,4232.307692307693,4535.8974358974365,4447.6923076923085,4426.153846153847,4428.205128205129,4737.435897435898,4364.615384615385,4266.153846153847,4263.589743589744,4627.179487179488
2054.1873,0.6044917,0.38250145,0.33333334,0.5522388,0,0.0,0.0,0.0,0.0,0.04046455,0,0,0.0,0.0,0,0,22.0,0.0,0.0,4672.820512820514,3956.9230769230776,4537.948717948719,4442.564102564103,4229.74358974359,4528.717948717949,4472.820512820514,4452.307692307693,4421.538461538462,4712.820512820514,4363.589743589744,4264.102564102564,4231.282051282052,4600.000000000001
2054.4375,0.56692475,0.3798422,0.33333334,0.5522388,0,0.0,0.0,0.0,0.0,0.0,0,0,0.0,0.0,0,0,54.0,0.0,0.0,4647.6923076923085,3948.205128205129,4524.615384615385,4445.641025641026,4246.153846153847,4552.307692307693,4455.8974358974365,4416.923076923077,4403.589743589744,4687.6923076923085,4358.974358974359,4260.512820512821,4195.8974358974365,4580.000000000001
2054.4375,0.56692475,0.3798422,0.33333334,0.5522388,0,0.0,0.0,0.0,0.0,0.0,0,0,0.0,0.0,0,0,54.0,0.0,0.0,4647.6923076923085,3948.205128205129,4524.615384615385,4445.641025641026,4246.153846153847,4552.307692307693,4455.8974358974365,4416.923076923077,4403.589743589744,4687.6923076923085,4358.974358974359,4260.512820512821,4195.8974358974365,4580.000000000001
2054.844,0.6481784,0.38436067,0.33333334,0.5522388,0,0.0,0.0,0.0,0.0,0.0,0,0,0.0,0.0,0,0,106.0,0.0,551.0,4624.102564102564,3926.666666666667,4506.666666666667,4434.871794871796,4246.666666666667,4551.794871794872,4445.641025641026,4403.589743589744,4383.589743589744,4691.282051282052,4355.384615384616,4261.025641025642,4158.974358974359,4557.948717948719
2054.844,0.6481784,0.38436067,0.33333334,0.5522388,0,0.0,0.0,0.0,0.0,0.0,0,0,0.0,0.0,0,0,106.0,0.0,551.0,4624.102564102564,3926.666666666667,4506.666666666667,4434.871794871796,4246.666666666667,4551.794871794872,4445.641025641026,4403.589743589744,4383.589743589744,4691.282051282052,4355.384615384616,4261.025641025642,4158.974358974359,4557.948717948719
2055.3445,0.71517646,0.38732067,0.33333334,0.5522388,0,0.0,0.0,0.0,0.0,0.0,0,0,0.0,0.0,0,0,41.0,0.0,0.0,4605.641025641026,3924.615384615385,4482.564102564103,4432.820512820514,4246.666666666667,4539.48717948718,4428.205128205129,4390.256410256411,4374.358974358975,4689.2307692307695,4352.307692307693,4250.769230769231,4142.051282051282,4522.051282051282
2055.3445,0.71517646,0.38732067,0.33333334,0.5522388,0,0.0,0.0,0.0,0.0,0.0,0,0,0.0,0.0,0,0,41.0,0.0,0.0,4605.641025641026,3924.615384615385,4482.564102564103,4432.820512820514,4246.666666666667,4539.48717948718,4428.205128205129,4390.256410256411,4374.358974358975,4689.2307692307695,4352.307692307693,4250.769230769231,4142.051282051282,4522.051282051282
2055.845,0.76092327,0.3766624,0.33333334,0.5522388,0,0.0,0.0,0.0,0.0,0.0,0,0,0.0,0.0,0,0,105.0,0.0,143.0,4655.8974358974365,3944.1025641025644,4526.153846153847,4456.923076923077,4265.641025641026,4567.6923076923085,4462.051282051282,4416.410256410257,4417.948717948719,4732.307692307693,4364.615384615385,4265.641025641026,4193.846153846154,4589.743589743591
2055.845,0.76092327,0.3766624,0.33333334,0.5522388,0,0.0,0.0,0.0,0.0,0.0,0,0,0.0,0.0,0,0,105.0,0.0,143.0,4655.8974358974365,3944.1025641025644,4526.153846153847,4456.923076923077,4265.641025641026,4567.6923076923085,4462.051282051282,4416.410256410257,4417.948717948719,4732.307692307693,4364.615384615385,4265.641025641026,4193.846153846154,4589.743589743591
2056.3452,0.7660354,0.37629238,0.33333334,0.5522388,0,0.0,0.0,0.0,0.0,0.0,0,0,0.0,0.0,0,0,40.0,0.0,0.0,4635.384615384616,3924.1025641025644,4493.846153846154,4430.769230769231,4241.025641025642,4543.076923076924,4444.102564102564,4412.820512820514,4413.333333333334,4733.846153846154,4365.128205128206,4263.589743589744,4189.2307692307695,4556.923076923077
2056.3452,0.7660354,0.37629238,0.33333334,0.5522388,0,0.0,0.0,0.0,0.0,0.0,0,0,0.0,0.0,0,0,40.0,0.0,0.0,4635.384615384616,3924.1025641025644,4493.846153846154,4430.769230769231,4241.025641025642,4543.076923076924,4444.102564102564,4412.820512820514,4413.333333333334,4733.846153846154,4365.128205128206,4263.589743589744,4189.2307692307695,4556.923076923077
2056.8457,0.7081557,0.37936616,0.33333334,0.5522388,0,0.0,0.0,0.0,0.0,0.0,0,0,0.0,0.0,0,0,104.0,0.0,0.0,4650.256410256411,3942.0512820512827,4513.846153846154,4444.102564102564,4233.333333333334,4540.000000000001,4446.153846153847,4414.358974358975,4424.615384615385,4743.076923076924,4368.717948717949,4266.666666666667,4207.179487179487,4587.6923076923085
2056.8457,0.7081557,0.37936616,0.33333334,0.5522388,0,0.0,0.0,0.0,0.0,0.0,0,0,0.0,0.0,0,0,104.0,0.0,0.0,4650.256410256411,3942.0512820512827,4513.846153846154,4444.102564102564,4233.333333333334,4540.000000000001,4446.153846153847,4414.358974358975,4424.615384615385,4743.076923076924,4368.717948717949,4266.666666666667,4207.179487179487,4587.6923076923085
2057.3462,0.64124227,0.38478732,0.33333334,0.5522388,0,0.0,0.0,0.0,0.0,0.0,0,0,0.0,0.0,0,0,39.0,0.0,0.0,4649.2307692307695,3954.358974358975,4532.307692307693,4442.564102564103,4231.282051282052,4533.846153846154,4466.153846153847,4425.641025641026,4425.641025641026,4732.307692307693,4366.153846153847,4265.641025641026,4200.000000000001,4586.666666666667
2057.3462,0.64124227,0.38478732,0.33333334,0.5522388,0,0.0,0.0,0.0,0.0,0.0,0,0,0.0,0.0,0,0,39.0,0.0,0.0,4649.2307692307695,3954.358974358975,4532.307692307693,4442.564102564103,4231.282051282052,4533.846153846154,4466.153846153847,4425.641025641026,4425.641025641026,4732.307692307693,4366.153846153847,4265.641025641026,4200.000000000001,4586.666666666667
2057.9404,0.6339855,0.36539987,0.33333334,0.5522388,0,0.0,0.0,0.0,0.0,0.0,0,0,0.0,0.0,0,0,115.0,0.0,511.0,4643.589743589744,3952.307692307693,4536.410256410257,4441.538461538462,4232.307692307693,4527.179487179488,4472.820512820514,4326.153846153847,4421.538461538462,4749.743589743591,4367.179487179487,4268.717948717949,4224.102564102564,4587.6923076923085
2058.1907,0.6339855,0.36539987,0.33333334,0.5522388,0,0.0,0.0,0.0,0.0,0.016149102,0,0,0.0,0.0,0,0,18.0,0.0,0.0,4645.641025641026,3958.461538461539,4536.923076923077,4444.102564102564,4231.794871794872,4534.871794871796,4486.153846153847,4351.282051282052,4424.102564102564,4742.564102564103,4367.179487179487,4266.153846153847,4224.102564102564,4456.410256410257
2058.441,0.6478508,0.33340907,0.33333334,0.5522388,0,0.0,0.0,0.0,0.0,0.97003,0,0,0.0,0.0,0,0,50.0,0.0,0.0,4647.179487179488,3961.538461538462,4542.564102564103,4444.615384615385,4233.333333333334,4534.871794871796,4492.820512820514,4377.435897435898,4435.8974358974365,4755.384615384616,4368.717948717949,4272.820512820514,4246.666666666667,4602.564102564103
2058.566,0.6478508,0.33340907,0.33333334,0.5522388,0,0.0,0.0,0.0,0.0,1.0,0,0,0.0,0.0,0,0,66.0,0.0,453.0,4624.102564102564,3955.8974358974365,4521.538461538462,4443.076923076924,4233.846153846154,4536.923076923077,4490.769230769231,4375.8974358974365,4429.743589743591,4748.205128205129,4361.538461538462,4266.666666666667,4234.358974358975,4586.153846153847
2058.9414,0.61801076,0.30231568,0.33333334,0.5522388,0,0.0,0.0,0.0,0.0,0.02995325,0,0,0.0,0.0,0,0,114.0,0.0,551.0,4636.923076923077,3939.48717948718,4528.205128205129,4440.512820512821,4232.820512820514,4532.307692307693,4492.820512820514,4406.666666666667,4429.743589743591,4757.435897435898,4368.717948717949,4266.153846153847,4223.589743589744,4595.8974358974365
2059.0664,0.61801076,0.30231568,0.33333334,0.5522388,0,0.0,0.0,0.0,0.0,0.0,0,0,0.0,0.0,0,0,1.0,0.0,452.0,4635.384615384616,3965.1282051282055,4532.307692307693,4442.564102564103,4225.128205128206,4525.128205128206,4479.48717948718,4390.769230769231,4416.410256410257,4751.794871794872,4358.974358974359,4264.615384615385,4205.641025641026,4592.820512820514
2059.348,0.53756416,0.27712703,0.33333334,0.5522388,0,0.0,0.0,0.0,0.0,0.0,0,0,0.0,0.0,0,0,37.0,0.0,0.0,4636.923076923077,3955.8974358974365,4536.410256410257,4445.641025641026,4233.846153846154,4536.923076923077,4476.410256410257,4403.589743589744,4420.000000000001,4751.794871794872,4367.179487179487,4264.102564102564,4210.769230769231,4586.666666666667
2059.5981,0.53756416,0.27712703,0.33333334,0.5522388,1,0.0,0.0,0.0,0.0,0.0,0,0,0.0,0.0,0,0,69.0,0.0,573.0,4688.205128205129,3970.2564102564106,4567.6923076923085,4453.846153846154,4234.871794871796,4538.974358974359,4487.179487179488,4427.6923076923085,4451.794871794872,4772.307692307693,4371.282051282052,4280.000000000001,4273.333333333334,4637.435897435898
2059.8484,0.55753595,0.29882756,0.33333334,0.5522388,0,0.0,0.0,0.0,0.0,0.0,0,0,0.0,0.0,0,0,101.0,0.0,143.0,4658.461538461539,3951.7948717948725,4537.948717948719,4446.153846153847,4247.6923076923085,4541.025641025642,4495.384615384616,4462.051282051282,4462.051282051282,4769.2307692307695,4372.820512820514,4275.8974358974365,4244.102564102564,4600.512820512821
2059.8484,0.55753595,0.29882756,0.33333334,0.5522388,0,0.0,0.0,0.0,0.0,0.0,0,0,0.0,0.0,0,0,101.0,0.0,143.0,4658.461538461539,3951.7948717948725,4537.948717948719,4446.153846153847,4247.6923076923085,4541.025641025642,4495.384615384616,4462.051282051282,4462.051282051282,4769.2307692307695,4372.820512820514,4275.8974358974365,4244.102564102564,4600.512820512821
2060.3486,0.5572966,0.29794458,0.33333334,0.5522388,0,0.0,0.0,0.0,0.0,0.0,0,0,0.0,0.0,0,0,36.0,0.0,0.0,4656.410256410257,3954.8717948717954,4537.435897435898,4449.2307692307695,4234.358974358975,4536.410256410257,4488.205128205129,4465.128205128206,4452.820512820514,4758.974358974359,4370.256410256411,4269.74358974359,4240.512820512821,4603.076923076924
2060.3486,0.5572966,0.29794458,0.33333334,0.5522388,0,0.0,0.0,0.0,0.0,0.0,0,0,0.0,0.0,0,0,36.0,0.0,0.0,4656.410256410257,3954.8717948717954,4537.435897435898,4449.2307692307695,4234.358974358975,4536.410256410257,4488.205128205129,4465.128205128206,4452.820512820514,4758.974358974359,4370.256410256411,4269.74358974359,4240.512820512821,4603.076923076924
2060.943,0.54309535,0.29433596,0.33333334,0.5522388,0,0.0,0.0,0.0,0.0,0.040631454,0,0,0.0,0.0,0,0,112.0,0.0,0.0,4640.512820512821,3957.9487179487182,4523.589743589744,4452.307692307693,4242.051282051282,4540.512820512821,4463.076923076924,4430.769230769231,4429.743589743591,4745.641025641026,4366.153846153847,4278.974358974359,4190.769230769231,4570.256410256411
2061.193,0.54309535,0.29433596,0.33333334,0.5522388,0,0.0,0.0,0.0,0.0,0.07258173,0,0,0.0,0.0,0,0,15.0,0.0,511.0,4632.820512820514,3959.48717948718,4523.589743589744,4451.794871794872,4237.948717948719,4545.128205128206,4456.410256410257,4412.820512820514,4418.461538461539,4715.8974358974365,4370.256410256411,4283.076923076924,4181.538461538462,4558.974358974359
2061.4434,0.49125805,0.28644133,0.33333334,0.5522388,0,0.0,0.0,0.0,0.0,0.0,0,0,0.0,0.0,0,0,47.0,0.0,0.0,4621.538461538462,3952.820512820513,4520.000000000001,4443.076923076924,4234.358974358975,4537.948717948719,4450.256410256411,4401.538461538462,4416.923076923077,4729.743589743591,4366.153846153847,4301.025641025642,4186.153846153847,4570.769230769231
2061.4434,0.49125805,0.28644133,0.33333334,0.5522388,0,0.0,0.0,0.0,0.0,0.0,0,0,0.0,0.0,0,0,47.0,0.0,0.0,4621.538461538462,3952.820512820513,4520.000000000001,4443.076923076924,4234.358974358975,4537.948717948719,4450.256410256411,4401.538461538462,4416.923076923077,4729.743589743591,4366.153846153847,4301.025641025642,4186.153846153847,4570.769230769231
2061.85,0.4779522,0.26358983,0.33333334,0.5522388,0,0.0,0.0,0.0,0.0,0.0,0,0,0.0,0.0,0,0,99.0,0.0,511.0,4628.717948717949,3964.1025641025644,4526.153846153847,4448.717948717949,4253.333333333334,4543.589743589744,4476.923076923077,4440.000000000001,4429.2307692307695,4731.794871794872,4370.769230769231,4308.205128205129,4192.820512820514,4583.076923076924
2061.85,0.4779522,0.26358983,0.33333334,0.5522388,0,0.0,0.0,0.0,0.0,0.0,0,0,0.0,0.0,0,0,99.0,0.0,511.0,4628.717948717949,3964.1025641025644,4526.153846153847,4448.717948717949,4253.333333333334,4543.589743589744,4476.923076923077,4440.000000000001,4429.2307692307695,4731.794871794872,4370.769230769231,4308.205128205129,4192.820512820514,4583.076923076924
2062.3506,0.43761274,0.25130442,0.33333334,0.5522388,0,0.0,0.0,0.0,0.0,0.0,0,0,0.0,0.0,0,0,34.0,0.0,0.0,4616.923076923077,3936.410256410257,4521.538461538462,4443.076923076924,4251.282051282052,4540.512820512821,4456.923076923077,4423.589743589744,4410.769230769231,4716.923076923077,4372.820512820514,4294.871794871796,4194.871794871796,4581.538461538462
2062.3506,0.43761274,0.25130442,0.33333334,0.5522388,0,0.0,0.0,0.0,0.0,0.0,0,0,0.0,0.0,0,0,34.0,0.0,0.0,4616.923076923077,3936.410256410257,4521.538461538462,4443.076923076924,4251.282051282052,4540.512820512821,4456.923076923077,4423.589743589744,4410.769230769231,4716.923076923077,4372.820512820514,4294.871794871796,4194.871794871796,4581.538461538462
2062.8508,0.41178977,0.24442035,0.33333334,0.5522388,0,0.0,0.0,0.0,0.0,0.0,0,0,0.0,0.0,0,0,98.0,0.0,551.0,4623.589743589744,3945.1282051282055,4523.589743589744,4441.025641025642,4245.641025641026,4536.410256410257,4457.435897435898,4425.128205128206,4410.256410256411,4736.410256410257,4369.2307692307695,4284.615384615385,4185.128205128206,4576.923076923077
2062.8508,0.41178977,0.24442035,0.33333334,0.5522388,0,0.0,0.0,0.0,0.0,0.0,0,0,0.0,0.0,0,0,98.0,0.0,551.0,4623.589743589744,3945.1282051282055,4523.589743589744,4441.025641025642,4245.641025641026,4536.410256410257,4457.435897435898,4425.128205128206,4410.256410256411,4736.410256410257,4369.2307692307695,4284.615384615385,4185.128205128206,4576.923076923077
2063.445,0.3446721,0.23646343,0.33333334,0.5522388,0,0.0,0.0,0.0,0.0,0.3889546,0,0,0.0,0.0,0,0,45.0,0.0,0.0,4623.076923076924,3954.358974358975,4511.282051282052,4440.512820512821,4242.564102564103,4538.461538461539,4451.794871794872,4444.615384615385,4421.025641025642,4745.641025641026,4369.743589743591,4283.589743589744,4200.512820512821,4551.794871794872
2063.6953,0.3446721,0.23646343,0.33333334,0.5522388,0,0.0,0.0,0.0,0.0,0.131808,0,0,0.0,0.0,0,0,77.0,0.0,143.0,4613.846153846154,3951.2820512820517,4505.641025641026,4442.564102564103,4244.615384615385,4538.974358974359,4448.717948717949,4426.153846153847,4415.384615384616,4731.794871794872,4366.153846153847,4283.589743589744,4191.282051282052,4557.948717948719
2063.8518,0.3184109,0.22478096,0.33333334,0.5522388,0,0.0,0.0,0.0,0.0,0.0,0,0,0.0,0.0,0,0,97.0,0.0,143.0,4609.743589743591,3956.9230769230776,4503.076923076924,4442.051282051282,4235.8974358974365,4534.871794871796,4444.102564102564,4412.307692307693,4404.102564102564,4731.794871794872,4367.179487179487,4280.512820512821,4179.48717948718,4541.025641025642
2064.1958,0.3184109,0.22478096,0.33333334,0.5522388,0,0.0,0.0,0.0,0.0,0.70517933,0,0,0.0,0.0,0,0,12.0,0.0,0.0,4605.128205128206,3953.333333333334,4504.102564102564,4432.820512820514,4232.820512820514,4528.717948717949,4432.307692307693,4395.384615384616,4381.025641025642,4714.871794871796,4362.051282051282,4278.974358974359,4164.615384615385,4605.641025641026
2064.446,0.3088213,0.21120794,0.33333334,0.5522388,0,0.0,0.0,0.0,0.0,0.28192332,0,0,0.0,0.0,0,0,44.0,0.0,0.0,4616.410256410257,3960.5128205128212,4506.666666666667,4444.615384615385,4243.589743589744,4539.48717948718,4438.461538461539,4407.179487179487,4403.589743589744,4735.8974358974365,4367.179487179487,4286.666666666667,4187.6923076923085,4616.923076923077
2064.6963,0.3088213,0.21120794,0.33333334,0.5522388,0,0.0,0.0,0.0,0.0,0.041406445,0,0,0.0,0.0,0,0,76.0,0.0,0.0,4632.820512820514,3972.307692307693,4524.102564102564,4458.974358974359,4249.74358974359,4560.512820512821,4458.974358974359,4428.717948717949,4413.846153846154,4744.615384615386,4367.6923076923085,4298.974358974359,4193.333333333334,4636.410256410257
2064.8525,0.33361003,0.203575,0.33333334,0.5522388,0,0.0,0.0,0.0,0.0,0.0,0,0,0.0,0.0,0,0,96.0,0.0,0.0,4618.461538461539,3955.8974358974365,4513.333333333334,4452.820512820514,4237.948717948719,4549.743589743591,4457.948717948719,4437.435897435898,4411.794871794872,4740.000000000001,4372.307692307693,4292.820512820514,4178.461538461539,4607.6923076923085
2065.1968,0.33361003,0.203575,0.33333334,0.5522388,0,0.0,0.0,0.0,0.0,0.102258466,0,0,0.0,0.0,0,0,11.0,0.0,511.0,4605.641025641026,3957.435897435898,4506.666666666667,4434.871794871796,4222.564102564103,4538.974358974359,4452.820512820514,4440.512820512821,4410.256410256411,4766.666666666667,4357.948717948719,4288.717948717949,4177.435897435898,4615.384615384616
2065.4468,0.3534484,0.19590351,0.33333334,0.5522388,0,0.0,0.0,0.0,0.0,0.78021467,0,0,0.0,0.0,0,0,43.0,0.0,0.0,4626.153846153847,3965.6410256410263,4506.666666666667,4441.025641025642,4231.282051282052,4535.384615384616,4466.153846153847,4446.666666666667,4422.564102564103,4765.641025641026,4366.153846153847,4288.717948717949,4195.8974358974365,4673.333333333334
2065.697,0.3534484,0.19590351,0.33333334,0.5522388,0,0.0,0.0,0.0,0.0,0.4590572,0,0,0.0,0.0,0,0,75.0,0.0,511.0,4625.641025641026,3955.3846153846157,4497.435897435898,4441.538461538462,4228.717948717949,4532.307692307693,4465.128205128206,4442.564102564103,4429.2307692307695,4756.923076923077,4367.179487179487,4285.128205128206,4209.2307692307695,4660.512820512821
2065.9473,0.3259662,0.20088594,0.33333334,0.5522388,0,0.0,0.0,0.0,0.0,0.4122551,0,0,0.0,0.0,0,0,107.0,0.0,511.0,4637.435897435898,3955.3846153846157,4526.666666666667,4442.564102564103,4232.820512820514,4535.384615384616,4462.051282051282,4454.871794871796,4430.256410256411,4756.410256410257,4362.564102564103,4291.794871794872,4209.74358974359,4651.794871794872
2066.1975,0.3259662,0.20088594,0.33333334,0.5522388,0,0.0,0.0,0.0,0.0,0.39771217,0,0,0.0,0.0,0,0,10.0,0.0,551.0,4658.974358974359,3908.717948717949,4474.871794871796,4439.48717948718,4204.615384615385,4499.48717948718,4440.512820512821,4416.410256410257,4419.48717948718,4694.358974358975,4408.205128205129,4307.179487179487,4193.333333333334,4608.205128205129
2066.4478,0.35232234,0.2080583,0.33333334,0.5522388,0,0.0,0.0,0.0,0.0,0.32772997,0,0,0.0,0.0,0,0,42.0,0.0,0.0,4649.2307692307695,3944.615384615385,4510.769230769231,4445.128205128206,4241.538461538462,4537.948717948719,4452.307692307693,4433.333333333334,4408.717948717949,4721.538461538462,4368.205128205129,4294.358974358975,4190.256410256411,4684.102564102564
2066.5728,0.35232234,0.2080583,0.33333334,0.5522388,0,0.0,0.0,0.0,0.0,0.0,0,0,0.0,0.0,0,0,58.0,0.0,0.0,4636.410256410257,3940.5128205128212,4522.051282051282,4433.333333333334,4247.179487179487,4549.2307692307695,4467.6923076923085,4467.179487179487,4430.256410256411,4755.384615384616,4359.48717948718,4292.820512820514,4201.538461538462,4689.2307692307695
2066.8542,0.37779355,0.20173828,0.33333334,0.5522388,0,0.0,0.0,0.0,0.0,0.0,0,0,0.0,0.0,0,0,94.0,0.0,551.0,4633.846153846154,3947.1794871794878,4494.871794871796,4442.564102564103,4245.128205128206,4543.589743589744,4456.410256410257,4436.923076923077,4413.333333333334,4738.974358974359,4367.6923076923085,4287.6923076923085,4176.410256410257,4624.615384615385
2067.0732,0.37779355,0.20173828,0.33333334,0.5522388,0,0.0,0.0,0.0,0.0,1.0,0,0,0.0,0.0,0,0,122.0,0.0,551.0,4618.974358974359,3950.2564102564106,4511.282051282052,4448.205128205129,4254.358974358975,4552.820512820514,4450.256410256411,4445.641025641026,4406.153846153847,4729.743589743591,4353.333333333334,4289.74358974359,4173.846153846154,4541.025641025642
2067.4485,0.36179984,0.18966949,0.33333334,0.5522388,0,0.0,0.0,0.0,0.0,0.55066097,0,0,0.0,0.0,0,0,41.0,0.0,0.0,4621.025641025642,3952.307692307693,4504.615384615385,4442.564102564103,4230.256410256411,4537.435897435898,4442.564102564103,4437.435897435898,4406.153846153847,4744.102564102564,4361.025641025642,4296.410256410257,4183.589743589744,4566.153846153847
2067.5737,0.36179984,0.18966949,0.33333334,0.5522388,0,0.0,0.0,0.0,0.0,1.0,0,0,0.0,0.0,0,0,57.0,0.0,0.0,4617.435897435898,3951.2820512820517,4511.282051282052,4444.615384615385,4238.461538461539,4544.102564102564,4446.666666666667,4431.282051282052,4406.666666666667,4746.666666666667,4361.025641025642,4295.384615384616,4178.461538461539,4485.128205128206
2067.8552,0.32502994,0.1725545,0.33333334,0.5522388,0,0.0,0.0,0.0,0.0,1.0,0,0,0.0,0.0,0,0,93.0,0.0,143.0,4624.615384615385,3940.0000000000005,4501.025641025642,4436.923076923077,4229.2307692307695,4532.307692307693,4444.615384615385,4422.564102564103,4397.435897435898,4734.358974358975,4358.974358974359,4293.333333333334,4182.564102564103,4525.128205128206
2068.1992,0.32502994,0.1725545,0.33333334,0.5522388,0,0.0,0.0,0.0,0.0,0.20976752,0,0,0.0,0.0,0,0,8.0,0.0,503.0,4630.769230769231,3946.1538461538466,4517.948717948719,4444.615384615385,4240.000000000001,4540.000000000001,4453.846153846154,4441.538461538462,4418.974358974359,4741.025641025642,4363.076923076924,4294.871794871796,4208.205128205129,4528.205128205129
2068.3557,0.3322719,0.163043,0.33333334,0.5522388,0,0.0,0.0,0.0,0.0,0.0,0,0,0.0,0.0,0,0,28.0,0.0,0.0,4637.948717948719,3936.9230769230776,4514.871794871796,4435.8974358974365,4233.846153846154,4538.461538461539,4451.794871794872,4463.589743589744,4434.871794871796,4762.051282051282,4365.641025641026,4295.8974358974365,4222.564102564103,4551.794871794872
2068.3557,0.3322719,0.163043,0.33333334,0.5522388,0,0.0,0.0,0.0,0.0,0.0,0,0,0.0,0.0,0,0,28.0,0.0,0.0,4637.948717948719,3936.9230769230776,4514.871794871796,4435.8974358974365,4233.846153846154,4538.461538461539,4451.794871794872,4463.589743589744,4434.871794871796,4762.051282051282,4365.641025641026,4295.8974358974365,4222.564102564103,4551.794871794872
2068.856,0.3094013,0.17509092,0.33333334,0.5522388,0,0.0,0.0,0.0,0.0,0.0,0,0,0.0,0.0,0,0,92.0,0.0,0.0,4624.102564102564,3950.2564102564106,4514.358974358975,4444.615384615385,4255.8974358974365,4538.974358974359,4451.794871794872,4423.076923076924,4391.282051282052,4711.794871794872,4361.538461538462,4285.128205128206,4175.8974358974365,4548.717948717949
2068.856,0.3094013,0.17509092,0.33333334,0.5522388,0,0.0,0.0,0.0,0.0,0.0,0,0,0.0,0.0,0,0,92.0,0.0,0.0,4624.102564102564,3950.2564102564106,4514.358974358975,4444.615384615385,4255.8974358974365,4538.974358974359,4451.794871794872,4423.076923076924,4391.282051282052,4711.794871794872,4361.538461538462,4285.128205128206,4175.8974358974365,4548.717948717949
2069.3564,0.2492688,0.19977167,0.33333334,0.5522388,0,0.0,0.0,0.0,0.0,0.0,0,0,0.0,0.0,0,0,27.0,0.0,0.0,4618.461538461539,3971.7948717948725,4511.282051282052,4448.717948717949,4256.410256410257,4542.564102564103,4440.512820512821,4410.256410256411,4384.615384615385,4703.589743589744,4351.794871794872,4278.461538461539,4161.025641025642,4556.923076923077
2069.7004,0.2492688,0.19977167,0.33333334,0.5522388,0,0.0,0.0,0.0,0.0,0.10533031,0,0,0.0,0.0,0,0,71.0,0.0,499.0,4631.282051282052,3957.435897435898,4526.153846153847,4451.794871794872,4252.820512820514,4542.564102564103,4434.871794871796,4417.435897435898,4404.615384615385,4734.871794871796,4363.589743589744,4282.051282051282,4192.307692307693,4591.282051282052
2069.9507,0.20245418,0.22133154,0.33333334,0.5522388,0,0.0,0.0,0.0,0.0,0.73003316,0,0,0.0,0.0,0,0,103.0,0.0,510.0,4614.871794871796,3954.358974358975,4513.846153846154,4442.564102564103,4246.666666666667,4537.948717948719,4424.102564102564,4420.000000000001,4400.512820512821,4739.48717948718,4357.948717948719,4278.461538461539,4184.615384615385,4417.435897435898
2070.1384,0.20245418,0.22133154,0.33333334,0.5522388,1,0.0,0.0,0.0,0.0,1.0,0,0,0.0,0.0,0,0,127.0,0.0,510.0,4610.769230769231,3957.9487179487182,4511.282051282052,4445.128205128206,4248.205128205129,4538.974358974359,4442.564102564103,4423.076923076924,4405.641025641026,4735.384615384616,4361.025641025642,4268.717948717949,4189.2307692307695,4576.923076923077
2070.4512,0.16316274,0.22803727,0.33333334,0.5522388,0,0.0,0.0,0.0,0.0,0.9441162,0,0,0.0,0.0,0,0,38.0,0.0,0.0,4632.820512820514,3955.8974358974365,4518.974358974359,4443.589743589744,4237.435897435898,4535.384615384616,4434.358974358975,4427.179487179487,4418.974358974359,4751.794871794872,4362.564102564103,4273.846153846154,4219.48717948718,4603.589743589744
2070.7014,0.16316274,0.22803727,0.33333334,0.5522388,0,0.0,0.0,0.0,0.0,0.07245031,0,0,0.0,0.0,0,0,70.0,0.0,545.0,4611.794871794872,3933.333333333334,4524.102564102564,4441.538461538462,4249.74358974359,4541.538461538462,4453.846153846154,4450.256410256411,4420.512820512821,4754.871794871796,4362.564102564103,4276.410256410257,4216.410256410257,4607.179487179488
2070.9517,0.17661795,0.25101992,0.33333334,0.5522388,0,0.0,0.0,0.0,0.0,0.0602536,0,0,0.0,0.0,0,0,102.0,0.0,551.0,4606.666666666667,3943.076923076924,4524.102564102564,4438.974358974359,4240.000000000001,4535.8974358974365,4461.025641025642,4452.307692307693,4417.948717948719,4754.358974358975,4361.025641025642,4276.923076923077,4200.512820512821,4595.384615384616
2071.202,0.17661795,0.25101992,0.33333334,0.5522388,0,0.0,0.0,0.0,0.0,0.054822017,0,0,0.0,0.0,0,0,5.0,0.0,573.0,4585.641025641026,3954.8717948717954,4507.179487179488,4442.051282051282,4238.974358974359,4538.974358974359,4443.076923076924,4425.641025641026,4386.153846153847,4716.923076923077,4358.974358974359,4263.076923076924,4145.641025641026,4544.102564102564
2071.4521,0.20211166,0.2656205,0.33333334,0.5522388,0,0.0,0.0,0.0,0.0,0.031626098,0,0,0.0,0.0,0,0,37.0,0.0,0.0,4595.8974358974365,3954.8717948717954,4518.974358974359,4444.102564102564,4242.564102564103,4538.974358974359,4453.846153846154,4441.538461538462,4418.974358974359,4740.512820512821,4363.589743589744,4265.128205128206,4183.076923076924,4575.384615384616
2071.5771,0.20211166,0.2656205,0.33333334,0.5522388,0,0.0,0.0,0.0,0.0,0.0,0,0,0.0,0.0,0,0,53.0,0.0,0.0,4609.2307692307695,3958.9743589743593,4510.256410256411,4442.564102564103,4234.358974358975,4530.256410256411,4441.025641025642,4420.512820512821,4408.205128205129,4741.025641025642,4362.051282051282,4261.538461538462,4188.717948717949,4575.8974358974365
2071.8586,0.18800548,0.26480237,0.33333334,0.5522388,0,0.0,0.0,0.0,0.0,0.0,0,0,0.0,0.0,0,0,89.0,0.0,143.0,4611.282051282052,3946.1538461538466,4510.256410256411,4441.025641025642,4237.435897435898,4529.743589743591,4447.6923076923085,4415.8974358974365,4404.615384615385,4727.179487179488,4360.512820512821,4263.589743589744,4189.2307692307695,4568.717948717949
2071.8586,0.18800548,0.26480237,0.33333334,0.5522388,0,0.0,0.0,0.0,0.0,0.0,0,0,0.0,0.0,0,0,89.0,0.0,143.0,4611.282051282052,3946.1538461538466,4510.256410256411,4441.025641025642,4237.435897435898,4529.743589743591,4447.6923076923085,4415.8974358974365,4404.615384615385,4727.179487179488,4360.512820512821,4263.589743589744,4189.2307692307695,4568.717948717949
2072.3591,0.19441038,0.2554427,0.33333334,0.5522388,0,0.0,0.0,0.0,0.0,0.0,0,0,0.0,0.0,0,0,24.0,0.0,0.0,4612.307692307693,3962.564102564103,4526.153846153847,4452.820512820514,4250.256410256411,4543.076923076924,4463.589743589744,4440.512820512821,4427.6923076923085,4754.358974358975,4359.48717948718,4266.153846153847,4209.74358974359,4589.743589743591
2072.3591,0.19441038,0.2554427,0.33333334,0.5522388,0,0.0,0.0,0.0,0.0,0.0,0,0,0.0,0.0,0,0,24.0,0.0,0.0,4612.307692307693,3962.564102564103,4526.153846153847,4452.820512820514,4250.256410256411,4543.076923076924,4463.589743589744,4440.512820512821,4427.6923076923085,4754.358974358975,4359.48717948718,4266.153846153847,4209.74358974359,4589.743589743591
2072.8596,0.18563777,0.23150274,0.33333334,0.5522388,0,0.0,0.0,0.0,0.0,0.0,0,0,0.0,0.0,0,0,88.0,0.0,0.0,4610.256410256411,3957.9487179487182,4510.769230769231,4444.615384615385,4245.128205128206,4537.435897435898,4447.179487179487,4412.820512820514,4413.846153846154,4752.307692307693,4364.102564102564,4265.641025641026,4185.128205128206,4562.051282051282
2072.8596,0.18563777,0.23150274,0.33333334,0.5522388,0,0.0,0.0,0.0,0.0,0.0,0,0,0.0,0.0,0,0,88.0,0.0,0.0,4610.256410256411,3957.9487179487182,4510.769230769231,4444.615384615385,4245.128205128206,4537.435897435898,4447.179487179487,4412.820512820514,4413.846153846154,4752.307692307693,4364.102564102564,4265.641025641026,4185.128205128206,4562.051282051282
2073.3599,0.16153114,0.21410857,0.33333334,0.5522388,0,0.0,0.0,0.0,0.0,0.0,0,0,0.0,0.0,0,0,23.0,0.0,0.0,4610.769230769231,3956.410256410257,4520.512820512821,4450.256410256411,4249.74358974359,4553.333333333334,4464.615384615385,4448.717948717949,4425.641025641026,4754.358974358975,4363.076923076924,4266.153846153847,4197.948717948719,4574.358974358975
2073.3599,0.16153114,0.21410857,0.33333334,0.5522388,0,0.0,0.0,0.0,0.0,0.0,0,0,0.0,0.0,0,0,23.0,0.0,0.0,4610.769230769231,3956.410256410257,4520.512820512821,4450.256410256411,4249.74358974359,4553.333333333334,4464.615384615385,4448.717948717949,4425.641025641026,4754.358974358975,4363.076923076924,4266.153846153847,4197.948717948719,4574.358974358975
2073.8604,0.16727278,0.21932094,0.33333334,0.5522388,0,0.0,0.0,0.0,0.0,0.0,0,0,0.0,0.0,0,0,87.0,0.0,510.0,4611.282051282052,3950.7692307692314,4505.641025641026,4441.538461538462,4248.205128205129,4544.615384615385,4452.307692307693,4433.333333333334,4404.615384615385,4741.025641025642,4361.538461538462,4264.102564102564,4178.461538461539,4545.128205128206
2073.8604,0.16727278,0.21932094,0.33333334,0.5522388,0,0.0,0.0,0.0,0.0,0.0,0,0,0.0,0.0,0,0,87.0,0.0,510.0,4611.282051282052,3950.7692307692314,4505.641025641026,4441.538461538462,4248.205128205129,4544.615384615385,4452.307692307693,4433.333333333334,4404.615384615385,4741.025641025642,4361.538461538462,4264.102564102564,4178.461538461539,4545.128205128206
2074.3608,0.1940842,0.23728162,0.33333334,0.5522388,0,0.0,0.0,0.0,0.0,0.0,0,0,0.0,0.0,0,0,22.0,0.0,0.0,4629.2307692307695,3947.692307692308,4530.769230769231,4445.641025641026,4249.74358974359,4548.205128205129,4470.256410256411,4448.717948717949,4428.205128205129,4769.2307692307695,4360.000000000001,4272.307692307693,4224.615384615385,4581.025641025642
2074.3608,0.1940842,0.23728162,0.33333334,0.5522388,0,0.0,0.0,0.0,0.0,0.0,0,0,0.0,0.0,0,0,22.0,0.0,0.0,4629.2307692307695,3947.692307692308,4530.769230769231,4445.641025641026,4249.74358974359,4548.205128205129,4470.256410256411,4448.717948717949,4428.205128205129,4769.2307692307695,4360.000000000001,4272.307692307693,4224.615384615385,4581.025641025642
2074.8613,0.17260353,0.2451486,0.33333334,0.5522388,0,0.0,0.0,0.0,0.0,0.0,0,0,0.0,0.0,0,0,86.0,0.0,551.0,4613.333333333334,3930.7692307692314,4510.769230769231,4433.333333333334,4246.666666666667,4541.538461538462,4463.589743589744,4445.128205128206,4427.6923076923085,4779.48717948718,4363.076923076924,4266.153846153847,4220.512820512821,4560.512820512821
2074.8613,0.17260353,0.2451486,0.33333334,0.5522388,0,0.0,0.0,0.0,0.0,0.0,0,0,0.0,0.0,0,0,86.0,0.0,551.0,4613.333333333334,3930.7692307692314,4510.769230769231,4433.333333333334,4246.666666666667,4541.538461538462,4463.589743589744,4445.128205128206,4427.6923076923085,4779.48717948718,4363.076923076924,4266.153846153847,4220.512820512821,4560.512820512821
2075.3616,0.19030043,0.24965431,0.33333334,0.5522388,0,0.0,0.0,0.0,0.0,0.0,0,0,0.0,0.0,0,0,21.0,0.0,0.0,4623.076923076924,3942.0512820512827,4527.6923076923085,4443.076923076924,4248.717948717949,4538.974358974359,4464.102564102564,4440.512820512821,4429.2307692307695,4756.410256410257,4361.538461538462,4267.6923076923085,4226.153846153847,4573.846153846154
2075.3616,0.19030043,0.24965431,0.33333334,0.5522388,0,0.0,0.0,0.0,0.0,0.0,0,0,0.0,0.0,0,0,21.0,0.0,0.0,4623.076923076924,3942.0512820512827,4527.6923076923085,4443.076923076924,4248.717948717949,4538.974358974359,4464.102564102564,4440.512820512821,4429.2307692307695,4756.410256410257,4361.538461538462,4267.6923076923085,4226.153846153847,4573.846153846154
2075.862,0.14225017,0.24051398,0.33333334,0.5522388,0,0.0,0.0,0.0,0.0,0.0,0,0,0.0,0.0,0,0,85.0,0.0,143.0,4602.051282051282,3929.7435897435903,4522.564102564103,4437.435897435898,4245.641025641026,4538.974358974359,4473.333333333334,4451.794871794872,4431.794871794872,4751.794871794872,4362.051282051282,4271.282051282052,4224.615384615385,4552.307692307693
2076.206,0.14225017,0.24051398,0.33333334,0.5522388,0,0.0,0.0,0.0,0.0,0.0,0,0,0.0,0.0,0,0,0.0,0.0,550.0,4615.8974358974365,3965.6410256410263,4514.871794871796,4446.666666666667,4247.179487179487,4545.128205128206,4443.076923076924,4406.666666666667,4399.48717948718,4702.564102564103,4358.461538461539,4266.153846153847,4174.871794871796,4539.48717948718
2076.3625,0.13528438,0.23432523,0.33333334,0.5522388,0,0.0,0.0,0.0,0.0,0.0,0,0,0.0,0.0,0,0,20.0,0.0,0.0,4589.743589743591,3964.615384615385,4491.794871794872,4446.153846153847,4247.6923076923085,4544.615384615385,4427.179487179487,4381.025641025642,4366.153846153847,4663.589743589744,4352.820512820514,4250.769230769231,4117.948717948719,4504.102564102564
2076.3625,0.13528438,0.23432523,0.33333334,0.5522388,0,0.0,0.0,0.0,0.0,0.0,0,0,0.0,0.0,0,0,20.0,0.0,0.0,4589.743589743591,3964.615384615385,4491.794871794872,4446.153846153847,4247.6923076923085,4544.615384615385,4427.179487179487,4381.025641025642,4366.153846153847,4663.589743589744,4352.820512820514,4250.769230769231,4117.948717948719,4504.102564102564
2076.863,0.18644807,0.22723614,0.33333334,0.5522388,0,0.0,0.0,0.0,0.0,0.0,0,0,0.0,0.0,0,0,84.0,0.0,0.0,4609.743589743591,3931.2820512820517,4491.282051282052,4442.051282051282,4255.384615384616,4553.846153846154,4444.615384615385,4423.589743589744,4409.743589743591,4718.974358974359,4355.384615384616,4258.461538461539,4164.102564102564,4522.051282051282
2076.863,0.18644807,0.22723614,0.33333334,0.5522388,0,0.0,0.0,0.0,0.0,0.0,0,0,0.0,0.0,0,0,84.0,0.0,0.0,4609.743589743591,3931.2820512820517,4491.282051282052,4442.051282051282,4255.384615384616,4553.846153846154,4444.615384615385,4423.589743589744,4409.743589743591,4718.974358974359,4355.384615384616,4258.461538461539,4164.102564102564,4522.051282051282
2077.3633,0.2330555,0.2373667,0.33333334,0.5522388,0,0.0,0.0,0.0,0.0,0.0,0,0,0.0,0.0,0,0,19.0,0.0,0.0,4637.435897435898,3937.9487179487182,4512.307692307693,4441.025641025642,4248.205128205129,4543.589743589744,4449.2307692307695,4432.307692307693,4425.128205128206,4768.717948717949,4359.48717948718,4266.666666666667,4207.6923076923085,4556.410256410257
2077.3633,0.2330555,0.2373667,0.33333334,0.5522388,0,0.0,0.0,0.0,0.0,0.0,0,0,0.0,0.0,0,0,19.0,0.0,0.0,4637.435897435898,3937.9487179487182,4512.307692307693,4441.025641025642,4248.205128205129,4543.589743589744,4449.2307692307695,4432.307692307693,4425.128205128206,4768.717948717949,4359.48717948718,4266.666666666667,4207.6923076923085,4556.410256410257
2077.8638,0.23182638,0.2485398,0.33333334,0.5522388,0,0.0,0.0,0.0,0.0,0.0,0,0,0.0,0.0,0,0,83.0,0.0,510.0,4640.000000000001,3941.538461538462,4503.076923076924,4429.743589743591,4228.205128205129,4522.051282051282,4458.461538461539,4430.256410256411,4396.923076923077,4704.615384615386,4355.384615384616,4262.051282051282,4164.102564102564,4537.948717948719
2078.2078,0.23182638,0.2485398,0.33333334,0.5522388,0,0.0,0.0,0.0,0.0,0.07925677,0,0,0.0,0.0,0,0,127.0,0.0,510.0,4635.8974358974365,3957.435897435898,4520.512820512821,4442.564102564103,4240.000000000001,4535.384615384616,4461.025641025642,4447.179487179487,4420.512820512821,4754.871794871796,4361.538461538462,4251.282051282052,4196.410256410257,4553.333333333334
2078.3643,0.23772445,0.26067317,0.33333334,0.5522388,0,0.0,0.0,0.0,0.0,0.0,0,0,0.0,0.0,0,0,18.0,0.0,0.0,4629.743589743591,3961.0256410256416,4507.179487179488,4446.153846153847,4245.641025641026,4538.974358974359,4457.948717948719,4435.8974358974365,4406.666666666667,4730.769230769231,4357.435897435898,4248.205128205129,4186.666666666667,4554.358974358975
2078.3643,0.23772445,0.26067317,0.33333334,0.5522388,0,0.0,0.0,0.0,0.0,0.0,0,0,0.0,0.0,0,0,18.0,0.0,0.0,4629.743589743591,3961.0256410256416,4507.179487179488,4446.153846153847,4245.641025641026,4538.974358974359,4457.948717948719,4435.8974358974365,4406.666666666667,4730.769230769231,4357.435897435898,4248.205128205129,4186.666666666667,4554.358974358975
2078.8647,0.20959544,0.27503482,0.33333334,0.5522388,0,0.0,0.0,0.0,0.0,0.0,0,0,0.0,0.0,0,0,82.0,0.0,551.0,4638.974358974359,3951.7948717948725,4514.358974358975,4438.974358974359,4233.846153846154,4536.410256410257,4463.076923076924,4440.512820512821,4408.717948717949,4739.48717948718,4356.923076923077,4251.282051282052,4204.615384615385,4568.205128205129
2078.8647,0.20959544,0.27503482,0.33333334,0.5522388,0,0.0,0.0,0.0,0.0,0.0,0,0,0.0,0.0,0,0,82.0,0.0,551.0,4638.974358974359,3951.7948717948725,4514.358974358975,4438.974358974359,4233.846153846154,4536.410256410257,4463.076923076924,4440.512820512821,4408.717948717949,4739.48717948718,4356.923076923077,4251.282051282052,4204.615384615385,4568.205128205129
2079.365,0.193453,0.2612678,0.33333334,0.5522388,0,0.0,0.0,0.0,0.0,0.0,0,0,0.0,0.0,0,0,17.0,0.0,0.0,4636.923076923077,3960.0000000000005,4512.820512820514,4442.564102564103,4230.256410256411,4533.846153846154,4464.615384615385,4431.282051282052,4411.282051282052,4740.512820512821,4358.461538461539,4246.666666666667,4191.282051282052,4552.820512820514
2079.365,0.193453,0.2612678,0.33333334,0.5522388,0,0.0,0.0,0.0,0.0,0.0,0,0,0.0,0.0,0,0,17.0,0.0,0.0,4636.923076923077,3960.0000000000005,4512.820512820514,4442.564102564103,4230.256410256411,4533.846153846154,4464.615384615385,4431.282051282052,4411.282051282052,4740.512820512821,4358.461538461539,4246.666666666667,4191.282051282052,4552.820512820514
2079.8655,0.15088317,0.24213965,0.33333334,0.5522388,0,0.0,0.0,0.0,0.0,0.0,0,0,0.0,0.0,0,0,81.0,0.0,143.0,4633.333333333334,3952.307692307693,4507.6923076923085,4440.512820512821,4233.333333333334,4536.410256410257,4474.871794871796,4463.076923076924,4418.461538461539,4753.333333333334,4355.8974358974365,4248.717948717949,4206.153846153847,4565.641025641026
2079.8655,0.15088317,0.24213965,0.33333334,0.5522388,0,0.0,0.0,0.0,0.0,0.0,0,0,0.0,0.0,0,0,81.0,0.0,143.0,4633.333333333334,3952.307692307693,4507.6923076923085,4440.512820512821,4233.333333333334,4536.410256410257,4474.871794871796,4463.076923076924,4418.461538461539,4753.333333333334,4355.8974358974365,4248.717948717949,4206.153846153847,4565.641025641026
2080.366,0.1424121,0.2190357,0.33333334,0.5522388,0,0.0,0.0,0.0,0.0,0.0,0,0,0.0,0.0,0,0,16.0,0.0,0.0,4624.615384615385,3951.7948717948725,4511.282051282052,4443.589743589744,4232.307692307693,4536.923076923077,4466.666666666667,4427.6923076923085,4403.076923076924,4737.948717948719,4356.410256410257,4246.153846153847,4208.205128205129,4552.820512820514
2080.366,0.1424121,0.2190357,0.33333334,0.5522388,0,0.0,0.0,0.0,0.0,0.0,0,0,0.0,0.0,0,0,16.0,0.0,0.0,4624.615384615385,3951.7948717948725,4511.282051282052,4443.589743589744,4232.307692307693,4536.923076923077,4466.666666666667,4427.6923076923085,4403.076923076924,4737.948717948719,4356.410256410257,4246.153846153847,4208.205128205129,4552.820512820514
2080.8665,0.13668278,0.19120766,0.33333334,0.5522388,0,0.0,0.0,0.0,0.0,0.0,0,0,0.0,0.0,0,0,80.0,0.0,0.0,4625.641025641026,3952.307692307693,4506.666666666667,4442.051282051282,4227.6923076923085,4535.8974358974365,4442.564102564103,4413.333333333334,4400.000000000001,4719.48717948718,4356.410256410257,4247.6923076923085,4188.205128205129,4554.871794871796
2080.8665,0.13668278,0.19120766,0.33333334,0.5522388,0,0.0,0.0,0.0,0.0,0.0,0,0,0.0,0.0,0,0,80.0,0.0,0.0,4625.641025641026,3952.307692307693,4506.666666666667,4442.051282051282,4227.6923076923085,4535.8974358974365,4442.564102564103,4413.333333333334,4400.000000000001,4719.48717948718,4356.410256410257,4247.6923076923085,4188.205128205129,4554.871794871796
2081.3667,0.1674012,0.16021279,0.33333334,0.5522388,0,0.0,0.0,0.0,0.0,0.0,0,0,0.0,0.0,0,0,15.0,0.0,510.0,4620.512820512821,3950.7692307692314,4501.538461538462,4442.051282051282,4224.102564102564,4534.358974358975,4429.743589743591,4390.769230769231,4388.717948717949,4669.2307692307695,4349.2307692307695,4233.846153846154,4170.256410256411,4540.000000000001
2081.3667,0.1674012,0.16021279,0.33333334,0.5522388,0,0.0,0.0,0.0,0.0,0.0,0,0,0.0,0.0,0,0,15.0,0.0,510.0,4620.512820512821,3950.7692307692314,4501.538461538462,4442.051282051282,4224.102564102564,4534.358974358975,4429.743589743591,4390.769230769231,4388.717948717949,4669.2307692307695,4349.2307692307695,4233.846153846154,4170.256410256411,4540.000000000001
2081.8672,0.16936524,0.1392113,0.33333334,0.5522388,0,0.0,0.0,0.0,0.0,0.0,0,0,0.0,0.0,0,0,79.0,0.0,510.0,4624.615384615385,3952.307692307693,4506.153846153847,4443.589743589744,4232.307692307693,4538.974358974359,4458.461538461539,4426.666666666667,4407.6923076923085,4734.358974358975,4355.384615384616,4241.538461538462,4181.025641025642,4558.974358974359
2082.2112,0.16936524,0.1392113,0.33333334,0.5522388,0,0.0,0.0,0.0,0.0,1.0,0,0,0.0,0.0,0,0,123.0,0.0,510.0,4587.6923076923085,3953.8461538461543,4476.923076923077,4445.128205128206,4233.333333333334,4537.435897435898,4455.384615384616,4410.769230769231,4376.410256410257,4697.948717948719,4354.871794871796,4229.74358974359,4159.48717948718,4311.282051282052
2082.3677,0.1493881,0.13222122,0.33333334,0.5522388,0,0.0,0.0,0.0,0.0,1.0,0,0,0.0,0.0,0,0,14.0,0.0,551.0,4615.8974358974365,3960.5128205128212,4517.948717948719,4447.179487179487,4230.256410256411,4536.923076923077,4448.717948717949,4416.923076923077,4402.051282051282,4752.307692307693,4363.589743589744,4240.000000000001,4223.589743589744,4598.461538461539
2082.7117,0.1493881,0.13222122,0.33333334,0.5522388,0,0.0,0.0,0.0,0.0,0.32152897,0,0,0.0,0.0,0,0,58.0,0.0,0.0,4610.769230769231,3943.589743589744,4518.974358974359,4442.051282051282,4248.717948717949,4539.48717948718,4443.589743589744,4408.717948717949,4390.256410256411,4723.589743589744,4362.564102564103,4247.6923076923085,4181.538461538462,4576.923076923077
2082.962,0.1702894,0.15150417,0.33333334,0.5522388,0,0.0,0.0,0.0,0.0,0.019088132,0,0,0.0,0.0,0,0,90.0,0.0,551.0,4610.769230769231,3918.461538461539,4509.743589743591,4426.153846153847,4252.307692307693,4545.641025641026,4437.435897435898,4398.974358974359,4382.051282051282,4693.333333333334,4358.974358974359,4248.717948717949,4158.461538461539,4574.358974358975
2083.2122,0.1702894,0.15150417,0.33333334,0.5522388,0,0.0,0.0,0.0,0.0,0.0,0,0,0.0,0.0,0,0,122.0,0.0,551.0,4601.025641025642,3929.2307692307695,4487.6923076923085,4430.256410256411,4264.615384615385,4558.461538461539,4436.410256410257,4407.179487179487,4391.794871794872,4722.051282051282,4360.512820512821,4250.769230769231,4163.589743589744,4566.153846153847
2083.3684,0.22469002,0.16159318,0.33333334,0.5522388,0,0.0,0.0,0.0,0.0,0.0,0,0,0.0,0.0,0,0,13.0,0.0,143.0,4601.025641025642,3926.666666666667,4489.743589743591,4427.6923076923085,4261.025641025642,4553.846153846154,4436.410256410257,4407.179487179487,4389.743589743591,4727.6923076923085,4358.974358974359,4249.74358974359,4161.538461538462,4553.846153846154
2083.3684,0.22469002,0.16159318,0.33333334,0.5522388,0,0.0,0.0,0.0,0.0,0.0,0,0,0.0,0.0,0,0,13.0,0.0,143.0,4601.025641025642,3926.666666666667,4489.743589743591,4427.6923076923085,4261.025641025642,4553.846153846154,4436.410256410257,4407.179487179487,4389.743589743591,4727.6923076923085,4358.974358974359,4249.74358974359,4161.538461538462,4553.846153846154
2083.963,0.20957085,0.16424546,0.33333334,0.5522388,0,0.0,0.0,0.0,0.0,0.030927857,0,0,0.0,0.0,0,0,89.0,0.0,143.0,4629.2307692307695,3929.2307692307695,4484.102564102564,4437.948717948719,4262.564102564103,4560.000000000001,4456.923076923077,4435.8974358974365,4417.948717948719,4756.923076923077,4358.461538461539,4263.076923076924,4173.846153846154,4569.2307692307695
2084.088,0.20957085,0.16424546,0.33333334,0.5522388,0,0.0,0.0,0.0,0.0,0.0,0,0,0.0,0.0,0,0,105.0,0.0,143.0,4620.000000000001,3911.2820512820517,4469.2307692307695,4429.743589743591,4262.051282051282,4557.948717948719,4455.8974358974365,4421.025641025642,4405.641025641026,4742.051282051282,4358.974358974359,4258.461538461539,4152.307692307693,4549.743589743591
2084.3694,0.22761752,0.16669936,0.33333334,0.5522388,0,0.0,0.0,0.0,0.0,0.0,0,0,0.0,0.0,0,0,12.0,0.0,0.0,4629.743589743591,3900.0000000000005,4474.358974358975,4429.743589743591,4261.025641025642,4561.538461538462,4463.589743589744,4425.641025641026,4411.282051282052,4761.025641025642,4359.48717948718,4265.128205128206,4176.410256410257,4554.358974358975
2084.3694,0.22761752,0.16669936,0.33333334,0.5522388,0,0.0,0.0,0.0,0.0,0.0,0,0,0.0,0.0,0,0,12.0,0.0,0.0,4629.743589743591,3900.0000000000005,4474.358974358975,4429.743589743591,4261.025641025642,4561.538461538462,4463.589743589744,4425.641025641026,4411.282051282052,4761.025641025642,4359.48717948718,4265.128205128206,4176.410256410257,4554.358974358975
