timestamp,excitement,frustration,meditation,engagementBoredom,blink,clench,laugh,smile,eyebrow,furrowBrow,lookLeft,lookRight,smirkLeft,smirkRight,winkLeft,winkRight,eeg0,eeg1,eeg2,eeg3,eeg4,eeg5,eeg6,eeg7,eeg8,eeg9,eeg10,eeg11,eeg12,eeg13,eeg14,eeg15,eeg16
2189.9602,0.63309604,0.54609776,0.33333334,0.5522388,0,0.0,0.0,0.0,0.0,0.0,0,0,0.0,0.0,0,0,100.0,0.0,0.0,4621.538461538462,3918.461538461539,4510.769230769231,4431.282051282052,4254.871794871796,4563.589743589744,4449.743589743591,4417.435897435898,4420.512820512821,4757.948717948719,4384.615384615385,4262.564102564103,4214.871794871796,4571.794871794872
2190.179,0.63309604,0.54609776,0.33333334,0.5522388,0,0.0,0.0,0.0,0.0,0.18317932,0,0,0.0,0.0,0,0,128.0,0.0,0.0,4628.717948717949,3987.692307692308,4527.6923076923085,4461.538461538462,4271.282051282052,4574.871794871796,4465.128205128206,4449.2307692307695,4436.923076923077,4762.051282051282,4385.128205128206,4258.974358974359,4212.820512820514,4541.538461538462
2190.4604,0.5606857,0.5475417,0.33333334,0.5522388,0,0.0,0.0,0.0,0.0,0.6394782,0,0,0.0,0.0,0,0,35.0,0.0,0.0,4652.820512820514,4067.692307692308,4530.256410256411,4473.333333333334,4270.256410256411,4560.512820512821,4450.256410256411,4438.461538461539,4427.179487179487,4735.8974358974365,4361.538461538462,4261.538461538462,4179.48717948718,4423.076923076924
2190.5544,0.5606857,0.5475417,0.33333334,0.5522388,0,0.0,0.0,0.0,0.0,1.0,0,0,0.0,0.0,0,0,47.0,0.0,0.0,4707.6923076923085,4064.615384615385,4557.948717948719,4468.205128205129,4269.74358974359,4558.974358974359,4482.051282051282,4471.794871794872,4459.48717948718,4786.153846153847,4367.179487179487,4291.794871794872,4233.333333333334,4361.025641025642
2190.961,0.64888346,0.5830658,0.33333334,0.5522388,0,0.0,0.0,0.0,0.0,1.0,0,0,0.0,0.0,0,0,99.0,0.0,508.0,4741.538461538462,4047.692307692308,4602.564102564103,4472.307692307693,4280.000000000001,4544.615384615385,4484.102564102564,4520.000000000001,4500.512820512821,4863.589743589744,4366.153846153847,4305.641025641026,4295.8974358974365,4203.589743589744
2191.18,0.64888346,0.5830658,0.33333334,0.5522388,0,0.0,0.0,0.0,0.0,1.0,0,0,0.0,0.0,0,0,127.0,0.0,508.0,4696.410256410257,4004.1025641025644,4574.871794871796,4459.48717948718,4257.435897435898,4537.435897435898,4496.410256410257,4517.948717948719,4485.641025641026,4824.102564102564,4364.102564102564,4298.974358974359,4252.307692307693,4392.820512820514
2191.4614,0.6739191,0.58188564,0.33333334,0.5522388,0,0.0,0.0,0.0,0.0,1.0,0,0,0.0,0.0,0,0,34.0,0.0,0.0,4716.923076923077,3990.7692307692314,4602.564102564103,4458.974358974359,4211.794871794872,4516.923076923077,4512.307692307693,4527.179487179488,4491.282051282052,5032.820512820514,4357.435897435898,4309.743589743591,4257.435897435898,4737.435897435898
2191.4614,0.6739191,0.58188564,0.33333334,0.5522388,0,0.0,0.0,0.0,0.0,1.0,0,0,0.0,0.0,0,0,34.0,0.0,0.0,4716.923076923077,3990.7692307692314,4602.564102564103,4458.974358974359,4211.794871794872,4516.923076923077,4512.307692307693,4527.179487179488,4491.282051282052,5032.820512820514,4357.435897435898,4309.743589743591,4257.435897435898,4737.435897435898
2191.962,0.74152803,0.59105575,0.33333334,0.5522388,0,0.0,0.0,0.0,0.0,0.21925099,0,0,0.0,0.0,0,0,98.0,0.0,551.0,4767.179487179488,3985.6410256410263,4606.666666666667,4444.102564102564,4183.076923076924,4511.282051282052,4543.589743589744,4530.256410256411,4502.051282051282,4888.205128205129,4383.589743589744,4326.666666666667,4261.538461538462,4780.000000000001
2192.0557,0.74152803,0.59105575,0.33333334,0.5522388,0,0.0,0.0,1.0,0.0,0.0,0,0,0.0,0.0,0,0,110.0,0.0,551.0,4776.923076923077,3990.2564102564106,4598.461538461539,4446.153846153847,4194.358974358975,4518.461538461539,4543.076923076924,4536.923076923077,4499.48717948718,4874.358974358975,4385.641025641026,4334.358974358975,4278.461538461539,4763.076923076924
2192.4624,0.8625447,0.58339924,0.33333334,0.5522388,0,0.0,0.0,0.0,0.0,0.0,0,0,0.0,0.0,0,0,33.0,0.0,0.0,4757.435897435898,3982.564102564103,4586.666666666667,4446.666666666667,4201.025641025642,4519.48717948718,4543.589743589744,4513.333333333334,4480.000000000001,4845.128205128206,4391.282051282052,4342.051282051282,4267.6923076923085,4717.435897435898
2192.4624,0.8625447,0.58339924,0.33333334,0.5522388,0,0.0,0.0,0.0,0.0,0.0,0,0,0.0,0.0,0,0,33.0,0.0,0.0,4757.435897435898,3982.564102564103,4586.666666666667,4446.666666666667,4201.025641025642,4519.48717948718,4543.589743589744,4513.333333333334,4480.000000000001,4845.128205128206,4391.282051282052,4342.051282051282,4267.6923076923085,4717.435897435898
2192.9626,0.8757477,0.5407139,0.33333334,0.5522388,0,0.0,0.0,0.0,0.0,0.0,0,0,0.0,0.0,0,0,97.0,0.0,146.0,4710.256410256411,3975.3846153846157,4575.8974358974365,4442.564102564103,4223.076923076924,4528.205128205129,4521.538461538462,4485.128205128206,4454.358974358975,4810.769230769231,4386.153846153847,4326.153846153847,4249.74358974359,4674.871794871796
2192.9626,0.8757477,0.5407139,0.33333334,0.5522388,0,0.0,0.0,0.0,0.0,0.0,0,0,0.0,0.0,0,0,97.0,0.0,146.0,4710.256410256411,3975.3846153846157,4575.8974358974365,4442.564102564103,4223.076923076924,4528.205128205129,4521.538461538462,4485.128205128206,4454.358974358975,4810.769230769231,4386.153846153847,4326.153846153847,4249.74358974359,4674.871794871796
2193.4631,0.8248118,0.5151481,0.33333334,0.5522388,0,0.0,0.0,0.0,0.0,0.06980864,0,0,0.0,0.0,0,0,32.0,0.0,0.0,4671.282051282052,3985.6410256410263,4555.384615384616,4450.256410256411,4234.871794871796,4548.717948717949,4531.282051282052,4476.923076923077,4451.282051282052,4821.538461538462,4386.153846153847,4310.256410256411,4222.564102564103,4664.102564102564
2193.557,0.8248118,0.5151481,0.33333334,0.5522388,0,0.0,0.0,0.0,0.0,0.0,0,0,0.0,0.0,0,0,44.0,0.0,0.0,4665.641025641026,3978.9743589743593,4557.435897435898,4449.2307692307695,4227.6923076923085,4546.666666666667,4527.179487179488,4483.589743589744,4451.794871794872,4838.461538461539,4391.794871794872,4303.076923076924,4233.846153846154,4677.435897435898
2193.9636,0.7852113,0.4622784,0.33333334,0.5522388,0,0.0,0.0,0.0,0.0,0.053495776,0,0,0.0,0.0,0,0,96.0,0.0,0.0,4657.948717948719,3983.076923076924,4547.6923076923085,4445.128205128206,4229.2307692307695,4541.538461538462,4518.461538461539,4466.153846153847,4448.717948717949,4837.948717948719,4387.6923076923085,4310.256410256411,4224.615384615385,4668.205128205129
2194.1826,0.7852113,0.4622784,0.33333334,0.5522388,0,0.0,0.0,0.0,0.0,0.1607469,0,0,0.0,0.0,0,0,124.0,0.0,0.0,4686.666666666667,3983.589743589744,4569.743589743591,4446.153846153847,4217.948717948719,4525.128205128206,4515.384615384616,4478.461538461539,4458.974358974359,4825.128205128206,4399.48717948718,4313.846153846154,4247.179487179487,4691.282051282052
2194.464,0.74512464,0.4507249,0.33333334,0.5522388,0,0.0,0.0,0.0,0.0,0.079032466,0,0,0.0,0.0,0,0,31.0,0.0,0.0,4637.435897435898,3967.692307692308,4550.769230769231,4443.076923076924,4246.666666666667,4543.076923076924,4518.461538461539,4476.410256410257,4452.307692307693,4817.435897435898,4388.205128205129,4312.820512820514,4228.717948717949,4630.769230769231
2194.6829,0.74512464,0.4507249,0.33333334,0.5522388,0,0.0,0.0,0.0,0.0,0.14747015,0,0,0.0,0.0,0,0,59.0,0.0,0.0,4661.538461538462,3973.8461538461543,4586.153846153847,4445.128205128206,4230.769230769231,4532.307692307693,4563.076923076924,4527.6923076923085,4494.871794871796,4854.358974358975,4389.743589743591,4319.48717948718,4273.333333333334,4646.666666666667
2194.9644,0.69925004,0.47017792,0.33333334,0.5522388,0,0.0,0.0,0.0,0.0,0.035594586,0,0,0.0,0.0,0,0,95.0,0.0,500.0,4650.769230769231,4005.1282051282055,4580.000000000001,4447.179487179487,4231.282051282052,4530.769230769231,4516.923076923077,4487.179487179488,4466.153846153847,4833.333333333334,4387.6923076923085,4330.256410256411,4263.076923076924,4626.666666666667
2195.1833,0.69925004,0.47017792,0.33333334,0.5522388,0,0.0,0.0,0.0,0.0,0.044064898,0,0,0.0,0.0,0,0,123.0,0.0,500.0,4646.153846153847,3985.1282051282055,4570.769230769231,4445.641025641026,4246.666666666667,4542.564102564103,4529.2307692307695,4480.512820512821,4442.051282051282,4795.384615384616,4388.717948717949,4334.871794871796,4241.025641025642,4614.871794871796
2195.4648,0.67381036,0.4965875,0.33333334,0.5522388,0,0.0,0.0,0.0,0.0,0.0,0,0,0.0,0.0,0,0,30.0,0.0,0.0,4622.051282051282,3978.9743589743593,4545.641025641026,4438.974358974359,4253.846153846154,4544.102564102564,4514.871794871796,4469.2307692307695,4438.974358974359,4773.333333333334,4386.666666666667,4312.307692307693,4228.717948717949,4593.333333333334
2195.4648,0.67381036,0.4965875,0.33333334,0.5522388,0,0.0,0.0,0.0,0.0,0.0,0,0,0.0,0.0,0,0,30.0,0.0,0.0,4622.051282051282,3978.9743589743593,4545.641025641026,4438.974358974359,4253.846153846154,4544.102564102564,4514.871794871796,4469.2307692307695,4438.974358974359,4773.333333333334,4386.666666666667,4312.307692307693,4228.717948717949,4593.333333333334
2195.9653,0.75103617,0.5395998,0.33333334,0.5522388,0,0.0,0.0,0.0,0.0,0.0,0,0,0.0,0.0,0,0,94.0,0.0,551.0,4620.512820512821,3969.7435897435903,4535.8974358974365,4432.820512820514,4244.102564102564,4534.871794871796,4472.820512820514,4431.794871794872,4413.333333333334,4740.512820512821,4387.179487179487,4296.923076923077,4211.282051282052,4569.2307692307695
2195.9653,0.75103617,0.5395998,0.33333334,0.5522388,0,0.0,0.0,0.0,0.0,0.0,0,0,0.0,0.0,0,0,94.0,0.0,551.0,4620.512820512821,3969.7435897435903,4535.8974358974365,4432.820512820514,4244.102564102564,4534.871794871796,4472.820512820514,4431.794871794872,4413.333333333334,4740.512820512821,4387.179487179487,4296.923076923077,4211.282051282052,4569.2307692307695
2196.4658,0.76846856,0.5205459,0.33333334,0.5522388,0,0.0,0.0,0.0,0.0,0.117636785,0,0,0.0,0.0,0,0,29.0,0.0,0.0,4626.153846153847,3976.410256410257,4546.666666666667,4443.076923076924,4258.974358974359,4550.256410256411,4483.589743589744,4439.48717948718,4423.589743589744,4756.410256410257,4393.846153846154,4293.333333333334,4210.769230769231,4573.333333333334
2196.6846,0.76846856,0.5205459,0.33333334,0.5522388,0,0.0,0.0,0.0,0.0,0.0888899,0,0,0.0,0.0,0,0,57.0,0.0,0.0,4620.000000000001,3972.820512820513,4533.846153846154,4438.974358974359,4251.282051282052,4547.179487179488,4477.435897435898,4416.410256410257,4392.307692307693,4730.769230769231,4384.102564102564,4283.589743589744,4181.025641025642,4555.384615384616
2196.966,0.72407454,0.5046256,0.33333334,0.5522388,0,0.0,0.0,0.0,0.0,0.0,0,0,0.0,0.0,0,0,93.0,0.0,146.0,4629.2307692307695,3966.1538461538466,4543.589743589744,4443.589743589744,4250.256410256411,4547.6923076923085,4481.025641025642,4436.923076923077,4426.153846153847,4757.435897435898,4387.6923076923085,4288.717948717949,4205.641025641026,4549.2307692307695
2196.966,0.72407454,0.5046256,0.33333334,0.5522388,0,0.0,0.0,0.0,0.0,0.0,0,0,0.0,0.0,0,0,93.0,0.0,146.0,4629.2307692307695,3966.1538461538466,4543.589743589744,4443.589743589744,4250.256410256411,4547.6923076923085,4481.025641025642,4436.923076923077,4426.153846153847,4757.435897435898,4387.6923076923085,4288.717948717949,4205.641025641026,4549.2307692307695
2197.4666,0.685487,0.48847637,0.33333334,0.5522388,0,0.0,0.0,0.0,0.0,1.0,0,0,0.0,0.0,0,0,28.0,0.0,0.0,4620.000000000001,3971.2820512820517,4529.2307692307695,4441.538461538462,4257.948717948719,4549.743589743591,4467.179487179487,4420.512820512821,4410.769230769231,4749.743589743591,4384.615384615385,4268.717948717949,4224.615384615385,4566.153846153847
2197.6855,0.685487,0.48847637,0.33333334,0.5522388,0,0.0,0.0,0.0,0.0,1.0,0,0,0.0,0.0,0,0,56.0,0.0,0.0,4611.282051282052,3967.692307692308,4528.717948717949,4443.589743589744,4252.307692307693,4547.179487179488,4450.256410256411,4412.307692307693,4390.256410256411,4715.8974358974365,4384.102564102564,4267.6923076923085,4198.974358974359,4567.6923076923085
2197.967,0.71209764,0.47137088,0.33333334,0.5522388,0,0.0,0.0,0.0,0.0,0.044111654,0,0,0.0,0.0,0,0,92.0,0.0,0.0,4623.076923076924,3978.9743589743593,4544.615384615385,4448.205128205129,4258.974358974359,4554.358974358975,4465.128205128206,4430.769230769231,4409.743589743591,4747.179487179488,4386.153846153847,4279.48717948718,4211.282051282052,4589.2307692307695
2198.0608,0.71209764,0.47137088,0.33333334,0.5522388,0,0.0,0.0,0.0,0.0,0.0,0,0,0.0,0.0,0,0,104.0,0.0,0.0,4648.205128205129,3964.615384615385,4532.820512820514,4444.102564102564,4262.564102564103,4554.871794871796,4454.871794871796,4425.128205128206,4393.333333333334,4729.2307692307695,4384.102564102564,4273.333333333334,4187.6923076923085,4576.923076923077
2198.4675,0.77873224,0.4617518,0.33333334,0.5522388,0,0.0,0.0,0.0,0.0,0.0,0,0,0.0,0.0,0,0,27.0,0.0,0.0,4611.794871794872,3946.666666666667,4522.564102564103,4437.948717948719,4258.974358974359,4549.743589743591,4454.358974358975,4442.051282051282,4390.256410256411,4731.282051282052,4384.615384615385,4267.6923076923085,4166.666666666667,4568.205128205129
2198.4675,0.77873224,0.4617518,0.33333334,0.5522388,0,0.0,0.0,0.0,0.0,0.0,0,0,0.0,0.0,0,0,27.0,0.0,0.0,4611.794871794872,3946.666666666667,4522.564102564103,4437.948717948719,4258.974358974359,4549.743589743591,4454.358974358975,4442.051282051282,4390.256410256411,4731.282051282052,4384.615384615385,4267.6923076923085,4166.666666666667,4568.205128205129
2198.9678,0.7608913,0.44934037,0.33333334,0.5522388,0,0.0,0.0,0.0,0.0,0.0,0,0,0.0,0.0,0,0,91.0,0.0,504.0,4615.8974358974365,3928.717948717949,4510.769230769231,4434.871794871796,4252.820512820514,4548.205128205129,4454.358974358975,4450.256410256411,4391.794871794872,4741.025641025642,4383.076923076924,4267.179487179487,4175.384615384616,4556.923076923077
2198.9678,0.7608913,0.44934037,0.33333334,0.5522388,0,0.0,0.0,0.0,0.0,0.0,0,0,0.0,0.0,0,0,91.0,0.0,504.0,4615.8974358974365,3928.717948717949,4510.769230769231,4434.871794871796,4252.820512820514,4548.205128205129,4454.358974358975,4450.256410256411,4391.794871794872,4741.025641025642,4383.076923076924,4267.179487179487,4175.384615384616,4556.923076923077
2199.4683,0.7774421,0.43334195,0.33333334,0.5522388,0,0.0,0.0,0.0,0.0,0.0,0,0,0.0,0.0,0,0,26.0,0.0,0.0,4704.615384615386,3979.48717948718,4543.076923076924,4455.8974358974365,4240.512820512821,4542.051282051282,4434.358974358975,4413.846153846154,4402.051282051282,4771.282051282052,4384.102564102564,4273.333333333334,4239.48717948718,4622.051282051282
2199.6873,0.7774421,0.43334195,0.33333334,0.5522388,0,0.0,0.0,0.0,0.0,0.12422998,0,0,0.0,0.0,0,0,54.0,0.0,0.0,4658.461538461539,3943.076923076924,4535.384615384616,4445.641025641026,4249.74358974359,4548.205128205129,4460.512820512821,4460.000000000001,4416.923076923077,4762.564102564103,4386.153846153847,4268.717948717949,4215.384615384616,4602.051282051282
2199.9688,0.6819654,0.45375693,0.33333334,0.5522388,0,0.0,0.0,0.0,0.0,0.0790936,0,0,0.0,0.0,0,0,90.0,0.0,552.0,4650.256410256411,3956.9230769230776,4525.641025641026,4446.666666666667,4247.6923076923085,4547.6923076923085,4474.871794871796,4502.051282051282,4438.461538461539,4833.333333333334,4381.025641025642,4277.435897435898,4209.74358974359,4576.923076923077
2200.1877,0.6819654,0.45375693,0.33333334,0.5522388,0,0.0,0.0,0.0,0.0,0.0,0,0,0.0,0.0,0,0,118.0,0.0,552.0,4664.102564102564,3945.6410256410263,4525.641025641026,4435.384615384616,4232.307692307693,4540.000000000001,4462.051282051282,4472.820512820514,4426.666666666667,4841.025641025642,4383.076923076924,4282.051282051282,4225.641025641026,4608.717948717949
2200.4692,0.63782096,0.47453758,0.33333334,0.5522388,0,0.0,0.0,0.0,0.0,0.0,0,0,0.0,0.0,0,0,25.0,0.0,0.0,4671.282051282052,3929.2307692307695,4535.8974358974365,4439.48717948718,4230.256410256411,4544.102564102564,4474.358974358975,4463.076923076924,4422.564102564103,4835.8974358974365,4386.153846153847,4265.641025641026,4221.538461538462,4632.307692307693
2200.4692,0.63782096,0.47453758,0.33333334,0.5522388,0,0.0,0.0,0.0,0.0,0.0,0,0,0.0,0.0,0,0,25.0,0.0,0.0,4671.282051282052,3929.2307692307695,4535.8974358974365,4439.48717948718,4230.256410256411,4544.102564102564,4474.358974358975,4463.076923076924,4422.564102564103,4835.8974358974365,4386.153846153847,4265.641025641026,4221.538461538462,4632.307692307693
2200.9695,0.6090835,0.51669073,0.33333334,0.5522388,0,0.0,0.0,0.0,0.0,0.0,0,0,0.0,0.0,0,0,89.0,0.0,146.0,4655.8974358974365,3968.717948717949,4515.384615384616,4443.589743589744,4243.076923076924,4547.179487179488,4453.846153846154,4450.769230769231,4416.410256410257,4782.564102564103,4383.076923076924,4273.846153846154,4189.74358974359,4571.794871794872
2200.9695,0.6090835,0.51669073,0.33333334,0.5522388,0,0.0,0.0,0.0,0.0,0.0,0,0,0.0,0.0,0,0,89.0,0.0,146.0,4655.8974358974365,3968.717948717949,4515.384615384616,4443.589743589744,4243.076923076924,4547.179487179488,4453.846153846154,4450.769230769231,4416.410256410257,4782.564102564103,4383.076923076924,4273.846153846154,4189.74358974359,4571.794871794872
2201.47,0.5836105,0.56335104,0.33333334,0.5522388,0,0.0,0.0,0.0,0.0,0.6937325,0,0,0.0,0.0,0,0,24.0,0.0,0.0,4679.48717948718,4028.717948717949,4553.846153846154,4452.307692307693,4273.846153846154,4562.051282051282,4469.743589743591,4470.769230769231,4426.666666666667,4752.307692307693,4385.128205128206,4280.000000000001,4225.641025641026,4497.948717948719
2201.689,0.5836105,0.56335104,0.33333334,0.5522388,0,0.0,0.0,0.0,0.0,0.24637032,0,0,0.0,0.0,0,0,52.0,0.0,0.0,4676.923076923077,3989.23076923077,4547.179487179488,4444.615384615385,4252.820512820514,4544.615384615385,4469.743589743591,4508.205128205129,4448.717948717949,4783.076923076924,4380.512820512821,4277.948717948719,4257.435897435898,4546.666666666667
2201.9705,0.51697344,0.5713368,0.33333334,0.5522388,0,0.0,0.0,0.0,0.0,0.5296559,0,0,0.0,0.0,0,0,88.0,0.0,0.0,4662.564102564103,3960.0000000000005,4547.179487179488,4435.8974358974365,4250.769230769231,4539.48717948718,4457.435897435898,4434.358974358975,4409.743589743591,4791.794871794872,4381.538461538462,4267.179487179487,4211.282051282052,4560.512820512821
2202.1895,0.51697344,0.5713368,0.33333334,0.5522388,0,0.0,0.0,0.0,0.0,0.07137403,0,0,0.0,0.0,0,0,116.0,0.0,0.0,4647.179487179488,3932.820512820513,4528.205128205129,4429.743589743591,4240.000000000001,4532.307692307693,4471.794871794872,4482.564102564103,4425.641025641026,4788.717948717949,4383.076923076924,4270.256410256411,4206.153846153847,4563.076923076924
2202.471,0.46709728,0.6019121,0.33333334,0.5522388,0,0.0,0.0,0.0,0.0,0.06098906,0,0,0.0,0.0,0,0,23.0,0.0,0.0,4633.846153846154,3904.615384615385,4514.871794871796,4430.769230769231,4231.282051282052,4530.769230769231,4455.8974358974365,4455.8974358974365,4420.000000000001,4769.2307692307695,4382.564102564103,4265.641025641026,4200.512820512821,4591.282051282052
2202.69,0.46709728,0.6019121,0.33333334,0.5522388,0,0.0,0.0,0.0,0.0,0.14546372,0,0,0.0,0.0,0,0,51.0,0.0,0.0,4614.871794871796,3900.0000000000005,4500.000000000001,4426.153846153847,4236.923076923077,4531.794871794872,4447.179487179487,4446.666666666667,4405.641025641026,4733.846153846154,4380.000000000001,4264.102564102564,4158.461538461539,4571.794871794872
2202.9714,0.50795895,0.62363786,0.33333334,0.5522388,0,0.0,0.0,0.0,0.0,0.105816744,0,0,0.0,0.0,0,0,87.0,0.0,504.0,4618.974358974359,3911.7948717948725,4500.512820512821,4435.8974358974365,4251.794871794872,4541.538461538462,4462.051282051282,4440.512820512821,4400.000000000001,4682.564102564103,4382.564102564103,4266.666666666667,4179.48717948718,4573.846153846154
2203.2214,0.50795895,0.62363786,0.33333334,0.5522388,1,0.0,0.0,0.0,0.0,0.1896551,0,0,0.0,0.0,0,0,119.0,0.0,504.0,4684.615384615386,3968.717948717949,4576.923076923077,4491.794871794872,4306.666666666667,4600.512820512821,4519.48717948718,4532.820512820514,4480.512820512821,4768.205128205129,4388.205128205129,4296.923076923077,4264.102564102564,4652.307692307693
2203.4717,0.6299923,0.73445785,0.33333334,0.5522388,0,0.0,0.0,0.0,0.0,0.0,0,0,0.0,0.0,0,0,22.0,0.0,0.0,4645.128205128206,3964.1025641025644,4526.153846153847,4474.358974358975,4269.74358974359,4575.384615384616,4469.2307692307695,4460.512820512821,4438.974358974359,4744.102564102564,4389.743589743591,4281.025641025642,4226.666666666667,4635.384615384616
2203.4717,0.6299923,0.73445785,0.33333334,0.5522388,0,0.0,0.0,0.0,0.0,0.0,0,0,0.0,0.0,0,0,22.0,0.0,0.0,4645.128205128206,3964.1025641025644,4526.153846153847,4474.358974358975,4269.74358974359,4575.384615384616,4469.2307692307695,4460.512820512821,4438.974358974359,4744.102564102564,4389.743589743591,4281.025641025642,4226.666666666667,4635.384615384616
2203.9722,0.7406739,0.7773273,0.33333334,0.5522388,0,0.0,0.0,0.0,0.0,0.0,0,0,0.0,0.0,0,0,86.0,0.0,552.0,4574.358974358975,3887.692307692308,4427.6923076923085,4412.820512820514,4208.717948717949,4522.051282051282,4401.025641025642,4389.743589743591,4364.615384615385,4599.48717948718,4386.666666666667,4216.923076923077,4158.461538461539,4603.589743589744
2203.9722,0.7406739,0.7773273,0.33333334,0.5522388,0,0.0,0.0,0.0,0.0,0.0,0,0,0.0,0.0,0,0,86.0,0.0,552.0,4574.358974358975,3887.692307692308,4427.6923076923085,4412.820512820514,4208.717948717949,4522.051282051282,4401.025641025642,4389.743589743591,4364.615384615385,4599.48717948718,4386.666666666667,4216.923076923077,4158.461538461539,4603.589743589744
2204.4727,0.674199,0.8436588,0.33333334,0.5522388,0,0.0,0.0,0.0,0.0,1.0,0,0,0.0,0.0,0,0,21.0,0.0,0.0,4608.205128205129,3949.7435897435903,4472.307692307693,4437.435897435898,4253.333333333334,4540.512820512821,4414.358974358975,4401.025641025642,4384.102564102564,4630.769230769231,4376.923076923077,4292.307692307693,4186.153846153847,4495.8974358974365
2204.6917,0.674199,0.8436588,0.33333334,0.5522388,0,0.0,0.0,0.0,0.0,0.7164472,0,0,0.0,0.0,0,0,49.0,0.0,0.0,4627.6923076923085,3998.461538461539,4478.974358974359,4442.051282051282,4236.923076923077,4537.435897435898,4437.948717948719,4440.512820512821,4463.589743589744,4662.564102564103,4400.512820512821,4298.461538461539,4234.871794871796,4552.307692307693
2204.9731,0.71580374,0.8474207,0.33333334,0.5522388,0,0.0,0.0,0.0,0.0,0.07338364,0,0,0.0,0.0,0,0,85.0,0.0,146.0,4620.512820512821,3957.435897435898,4471.794871794872,4439.48717948718,4264.615384615385,4541.025641025642,4444.102564102564,4433.333333333334,4425.128205128206,4749.2307692307695,4401.538461538462,4306.153846153847,4229.74358974359,4573.333333333334
2205.192,0.71580374,0.8474207,0.33333334,0.5522388,0,0.0,0.0,0.0,0.0,0.22852746,0,0,0.0,0.0,0,0,113.0,0.0,146.0,4655.8974358974365,4022.564102564103,4496.410256410257,4452.820512820514,4281.025641025642,4536.923076923077,4437.948717948719,4434.871794871796,4385.641025641026,4721.538461538462,4400.512820512821,4301.538461538462,4204.615384615385,4437.948717948719
2205.4734,0.64902043,0.8346601,0.33333334,0.5522388,0,0.0,0.0,0.0,0.0,1.0,0,0,0.0,0.0,0,0,20.0,0.0,0.0,4651.794871794872,4008.205128205129,4520.512820512821,4441.025641025642,4285.641025641026,4530.256410256411,4444.615384615385,4457.948717948719,4380.000000000001,4746.666666666667,4397.948717948719,4303.589743589744,4186.153846153847,4281.025641025642
2205.6924,0.64902043,0.8346601,0.33333334,0.5522388,0,0.0,0.0,0.0,0.0,0.40222874,0,0,0.0,0.0,0,0,48.0,0.0,0.0,4672.307692307693,4025.1282051282055,4545.641025641026,4445.641025641026,4269.2307692307695,4524.615384615385,4439.48717948718,4465.641025641026,4368.205128205129,4730.769230769231,4389.2307692307695,4327.179487179487,4197.435897435898,4241.025641025642
2205.9739,0.6435704,0.83847284,0.33333334,0.5522388,0,0.0,0.0,0.0,0.0,0.26601702,0,0,0.0,0.0,0,0,84.0,0.0,0.0,4673.333333333334,4021.538461538462,4545.128205128206,4452.307692307693,4265.641025641026,4531.282051282052,4440.512820512821,4445.128205128206,4367.6923076923085,4743.076923076924,4388.205128205129,4330.769230769231,4191.794871794872,4125.641025641026
2206.1929,0.6435704,0.83847284,0.33333334,0.5522388,1,0.0,0.0,0.0,0.0,0.59175885,0,0,0.0,0.0,0,0,112.0,0.0,0.0,4676.923076923077,4003.076923076924,4553.333333333334,4446.153846153847,4262.051282051282,4527.6923076923085,4454.871794871796,4430.256410256411,4381.538461538462,4735.8974358974365,4387.6923076923085,4331.794871794872,4209.2307692307695,4231.794871794872
2206.4744,0.65441144,0.7907245,0.33333334,0.5522388,0,0.0,0.0,0.0,0.0,0.7828268,0,0,0.0,0.0,0,0,19.0,0.0,0.0,4694.871794871796,3994.8717948717954,4555.8974358974365,4456.923076923077,4251.794871794872,4527.6923076923085,4463.076923076924,4438.974358974359,4387.6923076923085,4764.615384615386,4385.641025641026,4341.538461538462,4225.128205128206,4340.512820512821
2206.568,0.65441144,0.7907245,0.33333334,0.5522388,0,0.0,0.0,0.0,0.0,1.0,0,0,0.0,0.0,0,0,31.0,0.0,0.0,4677.435897435898,3989.23076923077,4543.076923076924,4450.256410256411,4263.589743589744,4537.948717948719,4444.102564102564,4411.794871794872,4361.538461538462,4763.076923076924,4385.128205128206,4332.820512820514,4201.025641025642,4280.000000000001
2206.9749,0.584449,0.74047947,0.33333334,0.5522388,0,0.0,0.0,0.0,0.0,0.2861656,0,0,0.0,0.0,0,0,83.0,0.0,512.0,4645.128205128206,3960.0000000000005,4525.128205128206,4459.48717948718,4269.74358974359,4555.384615384616,4475.384615384616,4474.358974358975,4414.871794871796,4803.589743589744,4379.48717948718,4343.589743589744,4195.384615384616,4232.307692307693
2207.1936,0.584449,0.74047947,0.33333334,0.5522388,0,0.0,0.0,0.0,0.0,1.0,0,0,0.0,0.0,0,0,111.0,0.0,512.0,4604.102564102564,3892.307692307693,4491.794871794872,4439.48717948718,4226.666666666667,4538.974358974359,4458.461538461539,4469.743589743591,4401.025641025642,4737.435897435898,4382.564102564103,4325.128205128206,4163.076923076924,4603.589743589744
2207.475,0.6848837,0.6565823,0.33333334,0.5522388,0,0.0,0.0,0.0,0.0,1.0,0,0,0.0,0.0,0,0,18.0,0.0,0.0,4624.102564102564,3865.6410256410263,4473.333333333334,4426.666666666667,4183.589743589744,4531.282051282052,4446.666666666667,4423.076923076924,4399.48717948718,4707.179487179488,4377.435897435898,4297.948717948719,4174.871794871796,4826.153846153847
2207.475,0.6848837,0.6565823,0.33333334,0.5522388,0,0.0,0.0,0.0,0.0,1.0,0,0,0.0,0.0,0,0,18.0,0.0,0.0,4624.102564102564,3865.6410256410263,4473.333333333334,4426.666666666667,4183.589743589744,4531.282051282052,4446.666666666667,4423.076923076924,4399.48717948718,4707.179487179488,4377.435897435898,4297.948717948719,4174.871794871796,4826.153846153847
2207.9756,0.7887729,0.5922543,0.33333334,0.5522388,0,0.0,0.0,0.0,0.0,0.08188503,0,0,0.0,0.0,0,0,82.0,0.0,552.0,4624.615384615385,3922.0512820512827,4464.615384615385,4443.589743589744,4198.974358974359,4541.538461538462,4448.205128205129,4424.615384615385,4397.948717948719,4742.051282051282,4377.435897435898,4292.307692307693,4182.564102564103,4824.102564102564
2208.1946,0.7887729,0.5922543,0.33333334,0.5522388,0,0.0,0.0,0.0,0.0,0.47137472,0,0,0.0,0.0,0,0,110.0,0.0,552.0,4632.307692307693,3927.1794871794878,4477.948717948719,4442.564102564103,4224.615384615385,4546.666666666667,4444.615384615385,4408.717948717949,4397.948717948719,4733.333333333334,4365.128205128206,4310.256410256411,4205.128205128206,4796.923076923077
2208.476,0.84427416,0.5495237,0.33333334,0.5522388,0,0.0,0.0,0.0,0.0,0.40504712,0,0,0.0,0.0,0,0,17.0,0.0,0.0,4627.179487179488,3904.1025641025644,4484.102564102564,4431.282051282052,4226.666666666667,4545.641025641026,4456.410256410257,4457.435897435898,4410.256410256411,4733.333333333334,4368.205128205129,4325.128205128206,4216.410256410257,4763.076923076924
2208.695,0.84427416,0.5495237,0.33333334,0.5522388,0,0.0,0.0,0.0,0.0,0.12729591,0,0,0.0,0.0,0,0,45.0,0.0,0.0,4640.512820512821,3943.076923076924,4497.435897435898,4447.6923076923085,4248.205128205129,4556.923076923077,4462.051282051282,4449.743589743591,4416.923076923077,4732.307692307693,4365.641025641026,4309.743589743591,4198.461538461539,4739.48717948718
2208.9766,0.8450874,0.51773167,0.33333334,0.5522388,0,0.0,0.0,0.0,0.0,0.31670064,0,0,0.0,0.0,0,0,81.0,0.0,146.0,4627.179487179488,3928.205128205129,4481.025641025642,4443.076923076924,4244.102564102564,4551.282051282052,4443.076923076924,4393.333333333334,4374.358974358975,4707.6923076923085,4363.589743589744,4299.48717948718,4164.102564102564,4675.8974358974365
2209.1953,0.8450874,0.51773167,0.33333334,0.5522388,0,0.0,0.0,0.0,0.0,0.28377575,0,0,0.0,0.0,0,0,109.0,0.0,146.0,4631.794871794872,3943.076923076924,4493.846153846154,4439.48717948718,4244.102564102564,4548.717948717949,4443.589743589744,4411.282051282052,4397.948717948719,4735.384615384616,4368.205128205129,4302.564102564103,4183.589743589744,4670.769230769231
2209.4768,0.7995769,0.5031074,0.33333334,0.5522388,0,0.0,0.0,0.0,0.0,0.23586264,0,0,0.0,0.0,0,0,16.0,0.0,0.0,4646.153846153847,3944.1025641025644,4500.000000000001,4440.000000000001,4241.538461538462,4545.128205128206,4453.846153846154,4423.589743589744,4395.384615384616,4741.538461538462,4371.794871794872,4301.025641025642,4204.615384615385,4647.6923076923085
2209.6958,0.7995769,0.5031074,0.33333334,0.5522388,0,0.0,0.0,0.0,0.0,0.103583924,0,0,0.0,0.0,0,0,44.0,0.0,0.0,4625.641025641026,3944.615384615385,4491.794871794872,4441.025641025642,4240.000000000001,4545.128205128206,4458.461538461539,4415.384615384616,4396.923076923077,4747.6923076923085,4368.205128205129,4301.025641025642,4187.6923076923085,4634.358974358975
2209.9773,0.6905272,0.48337054,0.33333334,0.5522388,0,0.0,0.0,0.0,0.0,0.0,0,0,0.0,0.0,0,0,80.0,0.0,0.0,4624.102564102564,3949.7435897435903,4500.512820512821,4440.000000000001,4243.589743589744,4545.641025641026,4456.410256410257,4409.743589743591,4389.2307692307695,4772.307692307693,4369.743589743591,4294.358974358975,4190.769230769231,4601.538461538462
2209.9773,0.6905272,0.48337054,0.33333334,0.5522388,0,0.0,0.0,0.0,0.0,0.0,0,0,0.0,0.0,0,0,80.0,0.0,0.0,4624.102564102564,3949.7435897435903,4500.512820512821,4440.000000000001,4243.589743589744,4545.641025641026,4456.410256410257,4409.743589743591,4389.2307692307695,4772.307692307693,4369.743589743591,4294.358974358975,4190.769230769231,4601.538461538462
2210.4778,0.5658164,0.47068226,0.33333334,0.5522388,0,0.0,0.0,0.0,0.0,0.0,0,0,0.0,0.0,0,0,15.0,0.0,498.0,4640.000000000001,3950.2564102564106,4503.589743589744,4435.384615384616,4246.153846153847,4538.461538461539,4458.461538461539,4438.461538461539,4409.2307692307695,4768.717948717949,4365.641025641026,4298.461538461539,4212.820512820514,4585.128205128206
2210.4778,0.5658164,0.47068226,0.33333334,0.5522388,0,0.0,0.0,0.0,0.0,0.0,0,0,0.0,0.0,0,0,15.0,0.0,498.0,4640.000000000001,3950.2564102564106,4503.589743589744,4435.384615384616,4246.153846153847,4538.461538461539,4458.461538461539,4438.461538461539,4409.2307692307695,4768.717948717949,4365.641025641026,4298.461538461539,4212.820512820514,4585.128205128206
2210.9783,0.59538895,0.4584179,0.33333334,0.5522388,0,0.0,0.0,0.0,0.0,0.8622103,0,0,0.0,0.0,0,0,79.0,0.0,501.0,4620.512820512821,3909.7435897435903,4471.794871794872,4440.512820512821,4199.48717948718,4524.615384615385,4456.923076923077,4418.461538461539,4374.358974358975,4641.538461538462,4380.512820512821,4280.512820512821,4163.589743589744,4606.666666666667
2211.072,0.59538895,0.4584179,0.33333334,0.5522388,0,0.0,0.0,0.0,0.0,1.0,0,0,0.0,0.0,0,0,91.0,0.0,501.0,4635.384615384616,3902.0512820512827,4462.051282051282,4429.2307692307695,4200.000000000001,4527.179487179488,4453.846153846154,4426.666666666667,4387.6923076923085,4682.051282051282,4381.538461538462,4282.051282051282,4174.871794871796,4602.564102564103
2211.4785,0.6378592,0.47701845,0.33333334,0.5522388,0,0.0,0.0,0.0,0.0,0.28641656,0,0,0.0,0.0,0,0,14.0,0.0,552.0,4669.743589743591,3953.8461538461543,4488.205128205129,4444.102564102564,4226.153846153847,4537.435897435898,4455.8974358974365,4441.538461538462,4415.384615384616,4729.743589743591,4382.564102564103,4293.333333333334,4191.282051282052,4571.282051282052
2211.6975,0.6378592,0.47701845,0.33333334,0.5522388,0,0.0,0.0,0.0,0.0,0.17320487,0,0,0.0,0.0,0,0,42.0,0.0,0.0,4676.410256410257,3960.5128205128212,4516.923076923077,4449.2307692307695,4244.102564102564,4550.769230769231,4472.307692307693,4440.512820512821,4428.205128205129,4770.769230769231,4377.435897435898,4300.000000000001,4234.358974358975,4601.538461538462
2211.979,0.61037356,0.49102128,0.33333334,0.5522388,0,0.0,0.0,0.0,0.0,0.09349917,0,0,0.0,0.0,0,0,78.0,0.0,552.0,4649.743589743591,3957.435897435898,4505.128205128206,4446.666666666667,4250.256410256411,4552.307692307693,4461.025641025642,4446.153846153847,4427.6923076923085,4769.743589743591,4374.358974358975,4296.410256410257,4212.820512820514,4567.6923076923085
2212.073,0.61037356,0.49102128,0.33333334,0.5522388,0,0.0,0.0,0.0,0.0,0.0,0,0,0.0,0.0,0,0,90.0,0.0,552.0,4652.307692307693,3958.461538461539,4522.564102564103,4451.282051282052,4246.666666666667,4551.794871794872,4468.717948717949,4448.717948717949,4427.6923076923085,4759.48717948718,4377.948717948719,4308.205128205129,4229.2307692307695,4581.025641025642
2212.4795,0.6531829,0.49784386,0.33333334,0.5522388,0,0.0,0.0,0.0,0.0,0.0,0,0,0.0,0.0,0,0,13.0,0.0,146.0,4623.589743589744,3953.8461538461543,4502.564102564103,4443.589743589744,4234.358974358975,4535.8974358974365,4445.128205128206,4431.794871794872,4403.589743589744,4769.743589743591,4382.051282051282,4282.564102564103,4213.846153846154,4554.871794871796
2212.6985,0.6531829,0.49784386,0.33333334,0.5522388,0,0.0,0.0,0.0,0.0,1.0,0,0,0.0,0.0,0,0,41.0,0.0,0.0,4610.769230769231,3956.9230769230776,4506.153846153847,4443.589743589744,4249.74358974359,4549.743589743591,4458.461538461539,4454.871794871796,4418.461538461539,4784.615384615386,4374.871794871796,4282.564102564103,4207.179487179487,4557.948717948719
2212.98,0.660133,0.49117446,0.33333334,0.5522388,1,0.0,0.0,0.0,0.0,1.0,0,0,0.0,0.0,0,0,77.0,0.0,146.0,4635.8974358974365,3981.538461538462,4533.333333333334,4452.307692307693,4246.666666666667,4543.076923076924,4456.410256410257,4427.179487179487,4404.615384615385,4773.846153846154,4383.589743589744,4287.6923076923085,4220.000000000001,4548.205128205129
2213.199,0.660133,0.49117446,0.33333334,0.5522388,0,0.0,0.0,0.0,0.0,0.20014335,0,0,0.0,0.0,0,0,105.0,0.0,146.0,4648.717948717949,3963.076923076924,4534.358974358975,4447.179487179487,4254.871794871796,4545.128205128206,4477.948717948719,4463.076923076924,4423.076923076924,4792.307692307693,4383.076923076924,4298.461538461539,4248.205128205129,4563.076923076924
2213.4802,0.56150246,0.458711,0.33333334,0.5522388,0,0.0,0.0,0.0,0.0,0.055740014,0,0,0.0,0.0,0,0,12.0,0.0,0.0,4625.641025641026,3955.8974358974365,4524.615384615385,4446.666666666667,4246.153846153847,4538.461538461539,4476.410256410257,4453.846153846154,4423.076923076924,4803.076923076924,4383.076923076924,4295.8974358974365,4264.102564102564,4556.410256410257
2213.6992,0.56150246,0.458711,0.33333334,0.5522388,0,0.0,0.0,0.0,0.0,0.20923702,0,0,0.0,0.0,0,0,40.0,0.0,0.0,4631.282051282052,3983.076923076924,4507.6923076923085,4455.8974358974365,4247.179487179487,4537.948717948719,4453.333333333334,4424.615384615385,4400.000000000001,4780.512820512821,4382.051282051282,4296.923076923077,4255.384615384616,4521.538461538462
2213.9807,0.5826036,0.44399068,0.33333334,0.5522388,0,0.0,0.0,0.0,0.0,0.14927012,0,0,0.0,0.0,0,0,76.0,0.0,0.0,4618.461538461539,3958.9743589743593,4515.384615384616,4444.615384615385,4242.564102564103,4547.179487179488,4483.589743589744,4477.435897435898,4432.307692307693,4774.358974358975,4381.025641025642,4290.256410256411,4220.512820512821,4504.615384615385
2214.1997,0.5826036,0.44399068,0.33333334,0.5522388,0,0.0,0.0,0.0,0.0,0.061168503,0,0,0.0,0.0,0,0,104.0,0.0,0.0,4603.589743589744,3946.1538461538466,4506.666666666667,4442.564102564103,4212.307692307693,4544.615384615385,4454.358974358975,4411.794871794872,4392.307692307693,4755.384615384616,4381.538461538462,4281.025641025642,4212.820512820514,4525.128205128206
2214.4812,0.52371544,0.44499037,0.33333334,0.5522388,0,0.0,0.0,0.0,0.0,0.0,0,0,0.0,0.0,0,0,11.0,0.0,504.0,4648.717948717949,3967.1794871794878,4545.641025641026,4451.794871794872,4217.435897435898,4544.102564102564,4460.000000000001,4418.461538461539,4408.205128205129,4755.384615384616,4382.564102564103,4298.974358974359,4246.666666666667,4573.333333333334
2214.4812,0.52371544,0.44499037,0.33333334,0.5522388,0,0.0,0.0,0.0,0.0,0.0,0,0,0.0,0.0,0,0,11.0,0.0,504.0,4648.717948717949,3967.1794871794878,4545.641025641026,4451.794871794872,4217.435897435898,4544.102564102564,4460.000000000001,4418.461538461539,4408.205128205129,4755.384615384616,4382.564102564103,4298.974358974359,4246.666666666667,4573.333333333334
2214.9817,0.44560155,0.44619226,0.33333334,0.5522388,0,0.0,0.0,0.0,0.0,0.0,0,0,0.0,0.0,0,0,75.0,0.0,504.0,4626.153846153847,3958.461538461539,4515.384615384616,4445.641025641026,4236.410256410257,4551.282051282052,4469.2307692307695,4436.923076923077,4416.410256410257,4769.743589743591,4379.48717948718,4284.615384615385,4210.769230769231,4469.2307692307695
2215.2007,0.44560155,0.44619226,0.33333334,0.5522388,1,0.0,0.0,0.0,0.0,1.0,0,0,0.0,0.0,0,0,103.0,0.0,504.0,4630.256410256411,3958.9743589743593,4522.564102564103,4444.102564102564,4229.74358974359,4544.615384615385,4452.307692307693,4412.307692307693,4403.076923076924,4744.102564102564,4381.538461538462,4292.820512820514,4204.615384615385,4659.48717948718
2215.4822,0.41006842,0.45436242,0.33333334,0.5522388,0,0.0,0.0,0.0,0.0,1.0,0,0,0.0,0.0,0,0,10.0,0.0,552.0,4615.8974358974365,3950.7692307692314,4512.820512820514,4448.205128205129,4232.307692307693,4539.48717948718,4447.179487179487,4429.743589743591,4408.205128205129,4738.974358974359,4382.051282051282,4279.48717948718,4176.410256410257,4623.589743589744
2215.701,0.41006842,0.45436242,0.33333334,0.5522388,0,0.0,0.0,0.0,0.0,0.080280416,0,0,0.0,0.0,0,0,38.0,0.0,0.0,4630.769230769231,3962.564102564103,4512.307692307693,4454.358974358975,4222.564102564103,4531.794871794872,4454.871794871796,4437.435897435898,4411.282051282052,4722.051282051282,4382.051282051282,4286.666666666667,4187.179487179487,4608.205128205129
2215.9824,0.3764356,0.45214137,0.33333334,0.5522388,0,0.0,0.0,0.0,0.0,0.0,0,0,0.0,0.0,0,0,74.0,0.0,552.0,4644.102564102564,3964.1025641025644,4517.435897435898,4452.307692307693,4224.615384615385,4538.974358974359,4460.512820512821,4451.794871794872,4422.051282051282,4725.641025641026,4383.076923076924,4294.358974358975,4190.256410256411,4598.974358974359
2215.9824,0.3764356,0.45214137,0.33333334,0.5522388,0,0.0,0.0,0.0,0.0,0.0,0,0,0.0,0.0,0,0,74.0,0.0,552.0,4644.102564102564,3964.1025641025644,4517.435897435898,4452.307692307693,4224.615384615385,4538.974358974359,4460.512820512821,4451.794871794872,4422.051282051282,4725.641025641026,4383.076923076924,4294.358974358975,4190.256410256411,4598.974358974359
2216.483,0.3402242,0.43438518,0.33333334,0.5522388,0,0.0,0.0,0.0,0.0,0.0,0,0,0.0,0.0,0,0,9.0,0.0,487.0,4636.410256410257,3960.0000000000005,4517.948717948719,4448.205128205129,4227.6923076923085,4540.000000000001,4468.205128205129,4449.2307692307695,4420.512820512821,4747.179487179488,4384.615384615385,4300.512820512821,4202.564102564103,4618.974358974359
2216.702,0.3402242,0.43438518,0.33333334,0.5522388,0,0.0,0.0,0.0,0.0,0.17223386,0,0,0.0,0.0,0,0,37.0,0.0,0.0,4661.538461538462,3966.666666666667,4524.615384615385,4453.846153846154,4235.384615384616,4541.025641025642,4455.384615384616,4429.2307692307695,4411.282051282052,4732.820512820514,4385.641025641026,4301.538461538462,4213.333333333334,4602.564102564103
2216.9521,0.2881944,0.40965828,0.33333334,0.5522388,0,0.0,0.0,0.0,0.0,1.0,0,0,0.0,0.0,0,0,69.0,0.0,574.0,4635.384615384616,3937.435897435898,4516.410256410257,4443.589743589744,4243.589743589744,4544.615384615385,4465.641025641026,4447.179487179487,4407.179487179487,4727.6923076923085,4381.025641025642,4291.282051282052,4181.538461538462,4585.128205128206
2216.9834,0.2881944,0.40965828,0.33333334,0.5522388,0,0.0,0.0,0.0,0.0,1.0,0,0,0.0,0.0,0,0,73.0,0.0,487.0,4645.641025641026,3947.1794871794878,4520.000000000001,4450.256410256411,4245.128205128206,4548.205128205129,4465.128205128206,4456.923076923077,4415.384615384616,4734.871794871796,4382.051282051282,4287.179487179487,4192.307692307693,4589.743589743591
2217.4524,0.27790052,0.38655588,0.33333334,0.5522388,0,0.0,0.0,0.0,0.0,1.0,0,0,0.0,0.0,0,0,4.0,0.0,579.0,4641.025641025642,3958.9743589743593,4523.589743589744,4444.615384615385,4254.358974358975,4537.948717948719,4458.461538461539,4432.307692307693,4416.410256410257,4752.820512820514,4383.589743589744,4284.615384615385,4207.179487179487,4642.051282051282
2217.7026,0.27790052,0.38655588,0.33333334,0.5522388,0,0.0,0.0,0.0,0.0,0.048602197,0,0,0.0,0.0,0,0,36.0,0.0,0.0,4648.205128205129,3965.6410256410263,4528.205128205129,4458.974358974359,4265.128205128206,4549.2307692307695,4465.641025641026,4433.846153846154,4420.512820512821,4761.538461538462,4382.051282051282,4285.641025641026,4201.025641025642,4605.641025641026
2217.953,0.25144932,0.36827812,0.33333334,0.5522388,0,0.0,0.0,0.0,0.0,0.204669,0,0,0.0,0.0,0,0,68.0,0.0,579.0,4622.564102564103,3955.8974358974365,4516.410256410257,4443.589743589744,4263.589743589744,4544.615384615385,4456.410256410257,4434.871794871796,4409.743589743591,4756.410256410257,4382.051282051282,4281.025641025642,4183.589743589744,4652.307692307693
2218.2031,0.25144932,0.36827812,0.33333334,0.5522388,0,0.0,0.0,0.0,0.0,0.3663688,0,0,0.0,0.0,0,0,100.0,0.0,0.0,4631.794871794872,3966.666666666667,4512.820512820514,4445.128205128206,4265.641025641026,4543.589743589744,4453.846153846154,4412.307692307693,4396.923076923077,4737.435897435898,4382.051282051282,4280.512820512821,4184.102564102564,4649.743589743591
2218.4534,0.26726943,0.35176972,0.33333334,0.5522388,0,0.0,0.0,0.0,0.0,0.06646168,0,0,0.0,0.0,0,0,3.0,0.0,555.0,4630.256410256411,3958.461538461539,4517.435897435898,4440.000000000001,4258.974358974359,4537.948717948719,4449.743589743591,4424.102564102564,4400.512820512821,4757.948717948719,4381.538461538462,4277.948717948719,4185.641025641026,4623.076923076924
2218.7036,0.26726943,0.35176972,0.33333334,0.5522388,0,0.0,0.0,0.0,0.0,0.037700094,0,0,0.0,0.0,0,0,35.0,0.0,0.0,4620.512820512821,3953.8461538461543,4513.846153846154,4442.051282051282,4260.000000000001,4542.051282051282,4462.051282051282,4468.717948717949,4428.205128205129,4767.179487179488,4384.615384615385,4280.512820512821,4204.615384615385,4616.410256410257
2218.9539,0.23432332,0.32337812,0.33333334,0.5522388,0,0.0,0.0,0.0,0.0,0.020691132,0,0,0.0,0.0,0,0,67.0,0.0,555.0,4622.564102564103,3972.307692307693,4530.256410256411,4459.48717948718,4268.717948717949,4551.794871794872,4469.743589743591,4442.051282051282,4418.974358974359,4742.051282051282,4383.589743589744,4280.000000000001,4202.051282051282,4615.8974358974365
2219.0789,0.23432332,0.32337812,0.33333334,0.5522388,0,0.0,0.0,0.0,0.0,0.0,0,0,0.0,0.0,0,0,83.0,0.0,507.0,4617.948717948719,3975.3846153846157,4502.564102564103,4451.282051282052,4253.333333333334,4545.128205128206,4453.333333333334,4418.461538461539,4395.384615384616,4713.333333333334,4381.538461538462,4265.641025641026,4181.025641025642,4585.128205128206
2219.4543,0.21563831,0.2988177,0.33333334,0.5522388,0,0.0,0.0,0.0,0.0,0.049976982,0,0,0.0,0.0,0,0,2.0,0.0,457.0,4606.666666666667,3952.820512820513,4514.871794871796,4446.666666666667,4257.948717948719,4549.743589743591,4478.974358974359,4468.717948717949,4417.948717948719,4720.000000000001,4382.051282051282,4271.794871794872,4187.179487179487,4568.205128205129
2219.7043,0.21563831,0.2988177,0.33333334,0.5522388,0,0.0,0.0,0.0,0.0,0.04262456,0,0,0.0,0.0,0,0,34.0,0.0,0.0,4631.282051282052,3957.9487179487182,4512.820512820514,4448.717948717949,4253.846153846154,4542.564102564103,4460.000000000001,4427.6923076923085,4404.102564102564,4709.2307692307695,4383.076923076924,4264.102564102564,4205.641025641026,4580.512820512821
2219.9546,0.18060586,0.28761634,0.33333334,0.5522388,0,0.0,0.0,0.0,0.0,0.0,0,0,0.0,0.0,0,0,66.0,0.0,457.0,4639.48717948718,3957.435897435898,4535.384615384616,4449.2307692307695,4248.205128205129,4541.538461538462,4456.923076923077,4435.384615384616,4413.333333333334,4725.641025641026,4383.076923076924,4272.307692307693,4213.846153846154,4589.743589743591
2219.9858,0.18060586,0.28761634,0.33333334,0.5522388,0,0.0,0.0,0.0,0.0,0.0,0,0,0.0,0.0,0,0,70.0,0.0,547.0,4634.871794871796,3957.435897435898,4522.564102564103,4450.256410256411,4248.205128205129,4538.974358974359,4458.461538461539,4428.717948717949,4409.2307692307695,4714.358974358975,4381.025641025642,4271.794871794872,4206.666666666667,4582.051282051282
2220.455,0.16004705,0.28003663,0.33333334,0.5522388,0,0.0,0.0,0.0,0.0,0.0,0,0,0.0,0.0,0,0,1.0,0.0,452.0,4640.512820512821,3983.589743589744,4532.820512820514,4458.461538461539,4242.051282051282,4536.923076923077,4443.589743589744,4417.948717948719,4398.974358974359,4724.102564102564,4382.051282051282,4264.615384615385,4206.153846153847,4578.461538461539
2220.4863,0.16004705,0.28003663,0.33333334,0.5522388,0,0.0,0.0,0.0,0.0,0.0,0,0,0.0,0.0,0,0,5.0,0.0,574.0,4635.8974358974365,3974.8717948717954,4525.641025641026,4451.282051282052,4240.512820512821,4536.923076923077,4447.179487179487,4428.205128205129,4402.564102564103,4724.102564102564,4381.538461538462,4267.6923076923085,4207.6923076923085,4575.384615384616
2220.9556,0.130467,0.2844574,0.33333334,0.5522388,0,0.0,0.0,0.0,0.0,0.0,0,0,0.0,0.0,0,0,65.0,0.0,452.0,4610.256410256411,3952.307692307693,4508.717948717949,4443.589743589744,4241.538461538462,4539.48717948718,4460.512820512821,4453.333333333334,4416.410256410257,4725.641025641026,4381.538461538462,4265.641025641026,4216.923076923077,4552.820512820514
2220.9868,0.130467,0.2844574,0.33333334,0.5522388,0,0.0,0.0,0.0,0.0,0.0,0,0,0.0,0.0,0,0,69.0,0.0,574.0,4623.076923076924,3961.0256410256416,4521.538461538462,4447.179487179487,4238.974358974359,4536.410256410257,4462.564102564103,4442.564102564103,4412.307692307693,4706.666666666667,4376.923076923077,4269.74358974359,4229.74358974359,4567.6923076923085
2221.456,0.11889263,0.28363678,0.33333334,0.5522388,0,0.0,0.0,0.0,0.0,0.0,0,0,0.0,0.0,0,0,0.0,0.0,551.0,4627.179487179488,3973.8461538461543,4537.948717948719,4445.641025641026,4238.974358974359,4535.384615384616,4465.641025641026,4433.846153846154,4402.564102564103,4686.153846153847,4397.948717948719,4269.2307692307695,4273.333333333334,4546.666666666667
2221.4873,0.11889263,0.28363678,0.33333334,0.5522388,0,0.0,0.0,0.0,0.0,0.0,0,0,0.0,0.0,0,0,4.0,0.0,579.0,4618.461538461539,3958.461538461539,4523.589743589744,4440.512820512821,4238.461538461539,4538.974358974359,4472.307692307693,4436.410256410257,4399.48717948718,4683.589743589744,4394.358974358975,4273.333333333334,4268.717948717949,4533.846153846154
2221.9563,0.1231122,0.26893893,0.33333334,0.5522388,0,0.0,0.0,0.0,0.0,0.0,0,0,0.0,0.0,0,0,64.0,0.0,551.0,4628.205128205129,3971.7948717948725,4520.000000000001,4446.666666666667,4237.435897435898,4536.410256410257,4471.282051282052,4439.48717948718,4394.871794871796,4717.435897435898,4386.153846153847,4263.589743589744,4254.358974358975,4538.461538461539
2221.9875,0.1231122,0.26893893,0.33333334,0.5522388,0,0.0,0.0,0.0,0.0,0.0,0,0,0.0,0.0,0,0,68.0,0.0,579.0,4625.641025641026,3980.0000000000005,4516.410256410257,4446.153846153847,4235.384615384616,4533.333333333334,4469.2307692307695,4449.743589743591,4388.205128205129,4711.794871794872,4386.153846153847,4264.615384615385,4232.307692307693,4521.025641025642
2222.4568,0.22434859,0.25569507,0.33333334,0.5522388,0,0.0,0.0,0.0,0.0,0.0,0,0,0.0,0.0,0,0,128.0,0.0,0.0,4599.48717948718,3965.1282051282055,4523.589743589744,4443.076923076924,4242.564102564103,4546.153846153847,4458.974358974359,4414.871794871796,4367.179487179487,4670.256410256411,4384.102564102564,4261.025641025642,4215.8974358974365,4510.256410256411
2222.488,0.22434859,0.25569507,0.33333334,0.5522388,0,0.0,0.0,0.0,0.0,0.0,0,0,0.0,0.0,0,0,3.0,0.0,555.0,4612.307692307693,3957.9487179487182,4536.410256410257,4442.051282051282,4231.282051282052,4536.410256410257,4444.615384615385,4417.435897435898,4376.410256410257,4688.205128205129,4385.641025641026,4266.666666666667,4240.000000000001,4529.2307692307695
2222.9573,0.23470113,0.24560736,0.33333334,0.5522388,0,0.0,0.0,0.0,0.0,0.0,0,0,0.0,0.0,0,0,63.0,0.0,0.0,4618.461538461539,3937.9487179487182,4515.384615384616,4438.461538461539,4253.846153846154,4547.6923076923085,4456.410256410257,4452.820512820514,4393.846153846154,4672.307692307693,4385.641025641026,4263.076923076924,4219.48717948718,4537.948717948719
2223.2075,0.23470113,0.24560736,0.33333334,0.5522388,0,0.0,0.0,0.0,0.0,0.06492208,0,0,0.0,0.0,0,0,95.0,0.0,507.0,4636.923076923077,3914.8717948717954,4500.512820512821,4428.717948717949,4259.48717948718,4556.923076923077,4449.743589743591,4450.256410256411,4391.794871794872,4674.871794871796,4383.076923076924,4263.589743589744,4212.820512820514,4552.307692307693
2223.4578,0.24669269,0.2467243,0.33333334,0.5522388,0,0.0,0.0,0.0,0.0,0.62552685,0,0,0.0,0.0,0,0,127.0,0.0,507.0,4644.615384615385,3926.666666666667,4489.743589743591,4440.512820512821,4264.615384615385,4561.538461538462,4438.461538461539,4410.769230769231,4360.512820512821,4636.410256410257,4381.025641025642,4248.205128205129,4157.435897435898,4233.333333333334
2223.5828,0.24669269,0.2467243,0.33333334,0.5522388,0,0.0,0.0,0.0,0.0,1.0,0,0,0.0,0.0,0,0,14.0,0.0,552.0,4642.564102564103,3917.435897435898,4483.076923076924,4434.871794871796,4269.2307692307695,4559.48717948718,4438.974358974359,4428.205128205129,4384.615384615385,4666.666666666667,4380.512820512821,4249.2307692307695,4155.384615384616,4539.48717948718
2223.958,0.27413473,0.24954017,0.33333334,0.5522388,0,0.0,0.0,0.0,0.0,1.0,0,0,0.0,0.0,0,0,62.0,0.0,0.0,4654.358974358975,3896.410256410257,4489.743589743591,4428.205128205129,4274.358974358975,4572.820512820514,4449.2307692307695,4438.461538461539,4395.8974358974365,4692.820512820514,4380.512820512821,4264.615384615385,4187.179487179487,4570.256410256411
2224.2083,0.27413473,0.24954017,0.33333334,0.5522388,0,0.0,0.0,0.0,0.0,0.10282481,0,0,0.0,0.0,0,0,94.0,0.0,552.0,4639.48717948718,3893.333333333334,4487.179487179488,4432.820512820514,4276.923076923077,4581.025641025642,4466.666666666667,4475.384615384616,4426.153846153847,4714.871794871796,4360.512820512821,4256.923076923077,4185.641025641026,4587.179487179488
2224.4585,0.29002285,0.25994042,0.33333334,0.5522388,0,0.0,0.0,0.0,0.0,0.034949433,0,0,0.0,0.0,0,0,126.0,0.0,552.0,4637.435897435898,3912.820512820513,4487.179487179488,4440.000000000001,4272.307692307693,4569.2307692307695,4464.615384615385,4463.076923076924,4417.948717948719,4714.358974358975,4364.102564102564,4262.564102564103,4158.974358974359,4582.051282051282
2224.7087,0.29002285,0.25994042,0.33333334,0.5522388,0,0.0,0.0,0.0,0.0,0.06583954,0,0,0.0,0.0,0,0,29.0,0.0,0.0,4630.769230769231,3913.333333333334,4490.769230769231,4430.256410256411,4256.923076923077,4552.820512820514,4447.6923076923085,4431.794871794872,4405.128205128206,4717.948717948719,4366.666666666667,4249.74358974359,4164.102564102564,4582.051282051282
2224.959,0.31430218,0.28820342,0.33333334,0.5522388,0,0.0,0.0,0.0,0.0,0.04990133,0,0,0.0,0.0,0,0,61.0,0.0,0.0,4632.820512820514,3914.8717948717954,4501.538461538462,4438.974358974359,4252.820512820514,4552.820512820514,4446.153846153847,4414.358974358975,4397.435897435898,4711.794871794872,4365.641025641026,4248.717948717949,4147.179487179487,4572.820512820514
2225.2092,0.31430218,0.28820342,0.33333334,0.5522388,0,0.0,0.0,0.0,0.0,0.0,0,0,0.0,0.0,0,0,93.0,0.0,146.0,4642.564102564103,3941.538461538462,4521.025641025642,4450.769230769231,4262.564102564103,4564.102564102564,4464.615384615385,4436.410256410257,4417.948717948719,4728.205128205129,4368.717948717949,4261.025641025642,4170.256410256411,4594.358974358975
2225.4595,0.32535642,0.3108685,0.33333334,0.5522388,0,0.0,0.0,0.0,0.0,0.0,0,0,0.0,0.0,0,0,125.0,0.0,146.0,4623.589743589744,3934.358974358975,4492.307692307693,4440.512820512821,4252.307692307693,4546.666666666667,4443.076923076924,4416.410256410257,4402.051282051282,4725.128205128206,4369.2307692307695,4247.6923076923085,4149.2307692307695,4567.6923076923085
2225.4907,0.32535642,0.3108685,0.33333334,0.5522388,0,0.0,0.0,0.0,0.0,0.0,0,0,0.0,0.0,0,0,0.0,0.0,551.0,4627.179487179488,3943.076923076924,4504.102564102564,4442.564102564103,4247.6923076923085,4546.153846153847,4440.000000000001,4424.615384615385,4393.846153846154,4716.410256410257,4370.256410256411,4249.74358974359,4152.820512820514,4571.794871794872
2225.9597,0.33670232,0.33812407,0.33333334,0.5522388,0,0.0,0.0,0.0,0.0,0.0,0,0,0.0,0.0,0,0,60.0,0.0,0.0,4622.051282051282,3938.9743589743593,4509.2307692307695,4443.076923076924,4249.2307692307695,4541.538461538462,4454.358974358975,4436.923076923077,4418.461538461539,4742.051282051282,4374.358974358975,4249.2307692307695,4170.256410256411,4574.358974358975
2225.9912,0.33670232,0.33812407,0.33333334,0.5522388,0,0.0,0.0,0.0,0.0,0.0,0,0,0.0,0.0,0,0,64.0,0.0,551.0,4625.128205128206,3942.564102564103,4519.48717948718,4445.641025641026,4247.179487179487,4537.948717948719,4447.179487179487,4428.717948717949,4406.666666666667,4724.102564102564,4372.307692307693,4250.256410256411,4168.717948717949,4582.564102564103
2226.4602,0.2941311,0.34413487,0.33333334,0.5522388,0,0.0,0.0,0.0,0.0,0.0,0,0,0.0,0.0,0,0,124.0,0.0,0.0,4619.48717948718,3941.538461538462,4522.564102564103,4443.076923076924,4249.74358974359,4543.076923076924,4474.871794871796,4448.205128205129,4416.923076923077,4736.923076923077,4377.435897435898,4247.6923076923085,4178.461538461539,4577.435897435898
2226.4915,0.2941311,0.34413487,0.33333334,0.5522388,0,0.0,0.0,0.0,0.0,0.0,0,0,0.0,0.0,0,0,128.0,0.0,0.0,4607.6923076923085,3939.48717948718,4503.076923076924,4444.102564102564,4246.666666666667,4538.974358974359,4464.102564102564,4436.410256410257,4414.871794871796,4746.666666666667,4371.794871794872,4248.717948717949,4180.000000000001,4562.564102564103
2226.9607,0.31085396,0.32825395,0.33333334,0.5522388,0,0.0,0.0,0.0,0.0,0.0,0,0,0.0,0.0,0,0,59.0,0.0,0.0,4608.717948717949,3960.0000000000005,4496.410256410257,4444.102564102564,4246.153846153847,4542.564102564103,4461.538461538462,4449.2307692307695,4401.538461538462,4705.128205128206,4371.282051282052,4232.307692307693,4145.641025641026,4529.743589743591
2226.992,0.31085396,0.32825395,0.33333334,0.5522388,0,0.0,0.0,0.0,0.0,0.0,0,0,0.0,0.0,0,0,63.0,0.0,0.0,4608.717948717949,3956.9230769230776,4507.179487179488,4450.769230769231,4254.358974358975,4552.307692307693,4456.410256410257,4421.025641025642,4401.025641025642,4701.025641025642,4370.256410256411,4234.871794871796,4151.282051282052,4540.512820512821
2227.4612,0.2629158,0.3119972,0.33333334,0.5522388,0,0.0,0.0,0.0,0.0,0.0,0,0,0.0,0.0,0,0,123.0,0.0,507.0,4634.871794871796,3959.48717948718,4519.48717948718,4444.615384615385,4245.641025641026,4534.871794871796,4446.666666666667,4405.641025641026,4393.333333333334,4709.2307692307695,4371.282051282052,4250.256410256411,4158.461538461539,4560.512820512821
2227.4924,0.2629158,0.3119972,0.33333334,0.5522388,0,0.0,0.0,0.0,0.0,0.0,0,0,0.0,0.0,0,0,127.0,0.0,507.0,4623.076923076924,3955.8974358974365,4517.948717948719,4445.128205128206,4245.128205128206,4537.435897435898,4452.307692307693,4417.435897435898,4395.8974358974365,4718.461538461539,4374.358974358975,4244.615384615385,4153.333333333334,4556.923076923077
2227.9614,0.23886107,0.29884347,0.33333334,0.5522388,0,0.0,0.0,0.0,0.0,0.0,0,0,0.0,0.0,0,0,58.0,0.0,0.0,4609.2307692307695,3960.0000000000005,4509.743589743591,4447.179487179487,4256.923076923077,4547.6923076923085,4449.2307692307695,4433.846153846154,4409.743589743591,4721.538461538462,4369.743589743591,4246.666666666667,4168.717948717949,4556.410256410257
2228.2117,0.23886107,0.29884347,0.33333334,0.5522388,0,0.0,0.0,0.0,0.0,0.1276409,0,0,0.0,0.0,0,0,90.0,0.0,552.0,4612.820512820514,3955.8974358974365,4513.333333333334,4446.666666666667,4254.871794871796,4543.076923076924,4455.384615384616,4438.461538461539,4412.307692307693,4744.102564102564,4373.333333333334,4251.282051282052,4176.923076923077,4552.820512820514
2228.462,0.27099004,0.2870925,0.33333334,0.5522388,0,0.0,0.0,0.0,0.0,0.0,0,0,0.0,0.0,0,0,122.0,0.0,552.0,4616.410256410257,3943.589743589744,4522.564102564103,4441.025641025642,4250.256410256411,4540.000000000001,4456.410256410257,4440.512820512821,4405.641025641026,4745.641025641026,4370.769230769231,4247.6923076923085,4173.846153846154,4555.384615384616
2228.4932,0.27099004,0.2870925,0.33333334,0.5522388,0,0.0,0.0,0.0,0.0,0.0,0,0,0.0,0.0,0,0,126.0,0.0,552.0,4624.102564102564,3940.0000000000005,4522.051282051282,4445.641025641026,4253.333333333334,4547.6923076923085,4461.538461538462,4440.000000000001,4414.871794871796,4749.743589743591,4373.846153846154,4254.358974358975,4182.051282051282,4554.358974358975
2228.9624,0.26779127,0.27894413,0.33333334,0.5522388,0,0.0,0.0,0.0,0.0,0.0,0,0,0.0,0.0,0,0,57.0,0.0,0.0,4620.000000000001,3952.820512820513,4537.948717948719,4445.128205128206,4251.794871794872,4546.666666666667,4458.974358974359,4448.205128205129,4420.000000000001,4741.538461538462,4372.307692307693,4263.589743589744,4201.025641025642,4564.102564102564
2228.9937,0.26779127,0.27894413,0.33333334,0.5522388,0,0.0,0.0,0.0,0.0,0.0,0,0,0.0,0.0,0,0,61.0,0.0,0.0,4622.051282051282,3956.410256410257,4538.461538461539,4443.589743589744,4245.641025641026,4541.538461538462,4461.538461538462,4457.948717948719,4424.102564102564,4740.000000000001,4374.871794871796,4265.641025641026,4199.48717948718,4568.717948717949
2229.463,0.263199,0.27743152,0.33333334,0.5522388,0,0.0,0.0,0.0,0.0,0.059398055,0,0,0.0,0.0,0,0,121.0,0.0,146.0,4641.538461538462,3962.564102564103,4548.205128205129,4454.871794871796,4256.923076923077,4550.256410256411,4486.153846153847,4464.615384615385,4430.769230769231,4782.564102564103,4373.333333333334,4266.153846153847,4205.641025641026,4573.333333333334
2229.7131,0.263199,0.27743152,0.33333334,0.5522388,0,0.0,0.0,0.0,0.0,0.024079757,0,0,0.0,0.0,0,0,24.0,0.0,0.0,4617.948717948719,3938.461538461539,4508.205128205129,4444.102564102564,4253.846153846154,4548.205128205129,4479.48717948718,4448.717948717949,4415.8974358974365,4790.256410256411,4370.256410256411,4250.256410256411,4176.923076923077,4535.8974358974365
2229.9634,0.26924592,0.28614086,0.33333334,0.5522388,0,0.0,0.0,0.0,0.0,0.024439555,0,0,0.0,0.0,0,0,56.0,0.0,0.0,4621.538461538462,3943.589743589744,4524.615384615385,4441.538461538462,4249.2307692307695,4543.589743589744,4484.615384615385,4452.307692307693,4418.461538461539,4793.333333333334,4370.256410256411,4262.564102564103,4182.564102564103,4553.846153846154
2230.0884,0.26924592,0.28614086,0.33333334,0.5522388,0,0.0,0.0,0.0,0.0,0.0,0,0,0.0,0.0,0,0,72.0,0.0,511.0,4634.871794871796,3954.358974358975,4522.051282051282,4443.076923076924,4246.666666666667,4547.6923076923085,4491.282051282052,4451.794871794872,4415.8974358974365,4780.000000000001,4372.307692307693,4264.102564102564,4213.333333333334,4557.435897435898
2230.4636,0.28876197,0.28369176,0.33333334,0.5522388,0,0.0,0.0,0.0,0.0,0.0,0,0,0.0,0.0,0,0,120.0,0.0,0.0,4624.102564102564,3956.410256410257,4527.179487179488,4445.641025641026,4249.74358974359,4546.666666666667,4484.102564102564,4432.307692307693,4410.769230769231,4780.000000000001,4370.256410256411,4263.589743589744,4210.769230769231,4552.820512820514
2230.4949,0.28876197,0.28369176,0.33333334,0.5522388,0,0.0,0.0,0.0,0.0,0.0,0,0,0.0,0.0,0,0,124.0,0.0,0.0,4620.000000000001,3956.9230769230776,4523.589743589744,4444.615384615385,4249.74358974359,4545.128205128206,4480.512820512821,4424.102564102564,4404.615384615385,4771.282051282052,4371.282051282052,4254.871794871796,4208.205128205129,4553.333333333334
2230.964,0.24025154,0.2696327,0.33333334,0.5522388,0,0.0,0.0,0.0,0.0,0.0,0,0,0.0,0.0,0,0,55.0,0.0,0.0,4628.205128205129,3950.7692307692314,4530.256410256411,4442.564102564103,4245.128205128206,4541.025641025642,4488.717948717949,4440.000000000001,4403.076923076924,4774.358974358975,4368.205128205129,4250.769230769231,4200.512820512821,4550.256410256411
2230.9954,0.24025154,0.2696327,0.33333334,0.5522388,0,0.0,0.0,0.0,0.0,0.0,0,0,0.0,0.0,0,0,59.0,0.0,0.0,4613.846153846154,3946.1538461538466,4518.461538461539,4438.974358974359,4245.641025641026,4541.538461538462,4477.435897435898,4425.128205128206,4391.794871794872,4757.435897435898,4367.6923076923085,4250.256410256411,4190.256410256411,4540.000000000001
2231.4646,0.18263812,0.266061,0.33333334,0.5522388,0,0.0,0.0,0.0,0.0,0.0,0,0,0.0,0.0,0,0,119.0,0.0,507.0,4633.333333333334,3962.564102564103,4520.512820512821,4445.128205128206,4241.025641025642,4545.641025641026,4485.641025641026,4436.923076923077,4413.846153846154,4740.000000000001,4371.794871794872,4249.74358974359,4205.128205128206,4534.871794871796
2231.4958,0.18263812,0.266061,0.33333334,0.5522388,0,0.0,0.0,0.0,0.0,0.0,0,0,0.0,0.0,0,0,123.0,0.0,507.0,4627.6923076923085,3954.8717948717954,4514.871794871796,4441.538461538462,4233.333333333334,4535.384615384616,4476.410256410257,4429.743589743591,4402.564102564103,4735.8974358974365,4370.769230769231,4248.717948717949,4191.794871794872,4526.153846153847
2231.965,0.15582803,0.2562747,0.33333334,0.5522388,0,0.0,0.0,0.0,0.0,0.0,0,0,0.0,0.0,0,0,54.0,0.0,0.0,4637.435897435898,3963.076923076924,4529.743589743591,4444.615384615385,4238.974358974359,4534.358974358975,4483.076923076924,4414.358974358975,4389.743589743591,4688.717948717949,4369.2307692307695,4237.435897435898,4160.000000000001,4537.435897435898
2231.9963,0.15582803,0.2562747,0.33333334,0.5522388,0,0.0,0.0,0.0,0.0,0.0,0,0,0.0,0.0,0,0,58.0,0.0,0.0,4649.2307692307695,3976.410256410257,4543.589743589744,4456.923076923077,4244.102564102564,4540.000000000001,4481.025641025642,4421.538461538462,4399.48717948718,4695.384615384616,4370.256410256411,4246.153846153847,4173.333333333334,4548.717948717949
2232.4653,0.20309842,0.26281476,0.33333334,0.5522388,0,0.0,0.0,0.0,0.0,0.0,0,0,0.0,0.0,0,0,118.0,0.0,552.0,4650.769230769231,3948.205128205129,4534.871794871796,4444.615384615385,4245.128205128206,4544.615384615385,4479.48717948718,4440.000000000001,4415.384615384616,4756.923076923077,4370.769230769231,4242.051282051282,4207.179487179487,4584.615384615385
2232.4966,0.20309842,0.26281476,0.33333334,0.5522388,0,0.0,0.0,0.0,0.0,0.0,0,0,0.0,0.0,0,0,122.0,0.0,552.0,4653.846153846154,3946.1538461538466,4531.794871794872,4443.589743589744,4242.051282051282,4543.589743589744,4482.564102564103,4435.384615384616,4417.435897435898,4752.307692307693,4371.282051282052,4243.589743589744,4202.564102564103,4586.153846153847
2232.9658,0.19147582,0.28528035,0.33333334,0.5522388,0,0.0,0.0,0.0,0.0,0.0,0,0,0.0,0.0,0,0,53.0,0.0,0.0,4657.948717948719,3954.358974358975,4532.820512820514,4444.615384615385,4253.333333333334,4536.410256410257,4474.871794871796,4437.435897435898,4411.282051282052,4717.435897435898,4372.307692307693,4236.410256410257,4219.48717948718,4574.358974358975
2232.997,0.19147582,0.28528035,0.33333334,0.5522388,0,0.0,0.0,0.0,0.0,0.0,0,0,0.0,0.0,0,0,57.0,0.0,0.0,4651.794871794872,3956.9230769230776,4531.282051282052,4444.102564102564,4251.794871794872,4538.461538461539,4475.8974358974365,4442.564102564103,4405.641025641026,4712.820512820514,4371.282051282052,4232.307692307693,4201.025641025642,4564.102564102564
2233.4663,0.24193232,0.2995742,0.33333334,0.5522388,0,0.0,0.0,0.0,0.0,0.0,0,0,0.0,0.0,0,0,117.0,0.0,146.0,4625.641025641026,3942.0512820512827,4516.410256410257,4440.000000000001,4248.717948717949,4536.923076923077,4467.179487179487,4422.051282051282,4406.666666666667,4721.538461538462,4367.179487179487,4233.846153846154,4198.974358974359,4537.948717948719
2233.4976,0.24193232,0.2995742,0.33333334,0.5522388,0,0.0,0.0,0.0,0.0,0.0,0,0,0.0,0.0,0,0,121.0,0.0,146.0,4632.820512820514,3948.205128205129,4531.794871794872,4443.076923076924,4249.74358974359,4538.974358974359,4471.282051282052,4443.589743589744,4410.769230769231,4724.102564102564,4370.256410256411,4237.435897435898,4206.666666666667,4552.307692307693
2233.9668,0.22320016,0.3092446,0.33333334,0.5522388,0,0.0,0.0,0.0,0.0,0.0,0,0,0.0,0.0,0,0,52.0,0.0,0.0,4630.769230769231,3943.076923076924,4521.025641025642,4443.076923076924,4256.923076923077,4550.256410256411,4482.051282051282,4428.717948717949,4407.179487179487,4714.358974358975,4369.743589743591,4255.8974358974365,4181.538461538462,4551.282051282052
2233.998,0.22320016,0.3092446,0.33333334,0.5522388,0,0.0,0.0,0.0,0.0,0.0,0,0,0.0,0.0,0,0,56.0,0.0,0.0,4626.666666666667,3942.564102564103,4521.538461538462,4442.564102564103,4256.923076923077,4548.205128205129,4478.461538461539,4432.820512820514,4404.615384615385,4708.717948717949,4368.205128205129,4258.974358974359,4187.6923076923085,4552.307692307693
2234.467,0.19589035,0.3017197,0.33333334,0.5522388,0,0.0,0.0,0.0,0.0,0.0,0,0,0.0,0.0,0,0,116.0,0.0,0.0,4631.282051282052,3950.2564102564106,4522.051282051282,4444.615384615385,4247.179487179487,4537.948717948719,4475.8974358974365,4442.564102564103,4411.794871794872,4678.974358974359,4370.256410256411,4278.974358974359,4178.974358974359,4538.461538461539
2234.4983,0.19589035,0.3017197,0.33333334,0.5522388,0,0.0,0.0,0.0,0.0,0.0,0,0,0.0,0.0,0,0,120.0,0.0,0.0,4628.717948717949,3945.6410256410263,4525.641025641026,4443.589743589744,4252.307692307693,4545.128205128206,4476.923076923077,4435.384615384616,4408.717948717949,4681.538461538462,4369.743589743591,4278.461538461539,4174.871794871796,4535.384615384616
2234.9675,0.18731715,0.2844255,0.33333334,0.5522388,0,0.0,0.0,0.0,0.0,0.0,0,0,0.0,0.0,0,0,51.0,0.0,0.0,4643.076923076924,3952.307692307693,4516.923076923077,4445.128205128206,4249.2307692307695,4542.564102564103,4473.846153846154,4432.820512820514,4418.461538461539,4691.282051282052,4374.358974358975,4265.641025641026,4185.641025641026,4535.8974358974365
2234.9988,0.18731715,0.2844255,0.33333334,0.5522388,0,0.0,0.0,0.0,0.0,0.0,0,0,0.0,0.0,0,0,55.0,0.0,0.0,4644.615384615385,3951.2820512820517,4517.435897435898,4444.102564102564,4253.333333333334,4544.615384615385,4478.461538461539,4432.820512820514,4420.512820512821,4701.538461538462,4375.8974358974365,4269.74358974359,4187.6923076923085,4538.461538461539
2235.468,0.1391578,0.27258506,0.33333334,0.5522388,0,0.0,0.0,0.0,0.0,0.051429763,0,0,0.0,0.0,0,0,115.0,0.0,506.0,4638.461538461539,3951.2820512820517,4509.2307692307695,4444.615384615385,4248.205128205129,4538.461538461539,4465.641025641026,4440.512820512821,4409.743589743591,4737.435897435898,4373.846153846154,4266.153846153847,4169.74358974359,4536.410256410257
2235.593,0.1391578,0.27258506,0.33333334,0.5522388,0,0.0,0.0,0.0,0.0,1.0,0,0,0.0,0.0,0,0,2.0,0.0,458.0,4615.384615384616,3943.076923076924,4504.615384615385,4440.512820512821,4248.717948717949,4537.435897435898,4466.666666666667,4414.871794871796,4381.025641025642,4720.000000000001,4384.102564102564,4258.974358974359,4157.948717948719,4077.9487179487187
2235.9685,0.121915095,0.28610405,0.33333334,0.5522388,0,0.0,0.0,0.0,0.0,1.0,0,0,0.0,0.0,0,0,50.0,0.0,0.0,4624.102564102564,3954.358974358975,4504.102564102564,4445.128205128206,4254.358974358975,4546.666666666667,4472.820512820514,4439.48717948718,4416.923076923077,4765.641025641026,4387.179487179487,4263.589743589744,4184.615384615385,4510.256410256411
2235.9998,0.121915095,0.28610405,0.33333334,0.5522388,0,0.0,0.0,0.0,0.0,1.0,0,0,0.0,0.0,0,0,54.0,0.0,0.0,4620.512820512821,3952.820512820513,4498.974358974359,4443.589743589744,4248.717948717949,4539.48717948718,4461.538461538462,4441.025641025642,4426.666666666667,4787.179487179488,4386.153846153847,4264.102564102564,4202.564102564103,4483.589743589744
2236.4688,0.15424423,0.31091452,0.33333334,0.5522388,0,0.0,0.0,0.0,0.0,1.0,0,0,0.0,0.0,0,1,114.0,0.0,552.0,4623.076923076924,3953.333333333334,4518.974358974359,4443.589743589744,4242.564102564103,4536.410256410257,4464.615384615385,4407.179487179487,4373.846153846154,4743.076923076924,4385.641025641026,4259.48717948718,4158.461538461539,2880.0000000000005
2236.594,0.15424423,0.31091452,0.33333334,0.5522388,0,0.0,0.0,0.0,1.0,0.0,0,0,0.0,0.0,0,1,1.0,0.0,452.0,4626.666666666667,3949.2307692307695,4522.051282051282,4443.589743589744,4253.333333333334,4545.641025641026,4465.641025641026,4438.974358974359,4411.282051282052,4761.538461538462,4385.128205128206,4259.48717948718,4201.538461538462,3441.0256410256416
2236.9692,0.20645358,0.2050276,0.33333334,0.5522388,0,0.0,0.0,0.0,0.0,1.0,0,0,0.0,0.0,0,0,49.0,0.0,0.0,4622.564102564103,3955.8974358974365,4517.948717948719,4451.794871794872,4260.512820512821,4550.256410256411,4463.589743589744,4422.051282051282,4438.461538461539,4746.153846153847,4385.128205128206,4252.307692307693,4236.923076923077,5383.589743589744
2237.0005,0.20645358,0.2050276,0.33333334,0.5522388,0,0.0,0.0,0.0,0.0,1.0,0,0,0.0,0.0,0,0,53.0,0.0,0.0,4618.461538461539,3955.8974358974365,4512.307692307693,4453.846153846154,4258.461538461539,4549.2307692307695,4463.076923076924,4416.923076923077,4436.923076923077,4751.794871794872,4388.205128205129,4255.384615384616,4234.871794871796,5374.871794871796
2237.4697,0.18489093,0.07654606,0.33333334,0.5522388,0,0.0,0.0,0.0,0.0,1.0,0,0,0.0,0.0,0,0,113.0,0.0,146.0,4601.538461538462,3947.1794871794878,4498.974358974359,4444.615384615385,4253.333333333334,4543.589743589744,4455.384615384616,4422.051282051282,4418.974358974359,4744.102564102564,4385.128205128206,4247.179487179487,4206.666666666667,5107.179487179488
2237.72,0.18489093,0.07654606,0.33333334,0.5522388,0,0.0,0.0,0.0,0.0,1.0,0,0,0.0,0.0,0,0,16.0,0.0,0.0,4623.589743589744,3972.820512820513,4538.974358974359,4461.025641025642,4268.205128205129,4558.974358974359,4473.846153846154,4424.615384615385,4429.2307692307695,4769.2307692307695,4384.615384615385,4261.538461538462,4216.923076923077,5041.538461538462
2237.9702,0.24362208,0.0,0.33333334,0.5522388,0,0.0,0.0,0.0,0.0,1.0,0,0,0.0,0.0,0,0,48.0,0.0,0.0,4613.333333333334,3965.1282051282055,4521.025641025642,4449.2307692307695,4240.000000000001,4537.435897435898,4455.384615384616,4421.025641025642,4418.974358974359,4774.871794871796,4385.641025641026,4251.282051282052,4219.48717948718,4936.923076923077
2238.2205,0.24362208,0.0,0.33333334,0.5522388,0,0.0,0.0,0.0,0.0,0.93660134,0,0,0.0,0.0,0,0,80.0,0.0,0.0,4615.8974358974365,3957.9487179487182,4521.538461538462,4445.128205128206,4241.025641025642,4537.435897435898,4451.794871794872,4410.769230769231,4409.2307692307695,4752.820512820514,4381.538461538462,4249.74358974359,4203.076923076924,4875.8974358974365
2238.4705,0.21890394,0.0,0.33333334,0.5522388,0,0.0,0.0,0.0,0.0,0.2731105,0,0,0.0,0.0,0,0,112.0,0.0,0.0,4604.615384615385,3944.1025641025644,4513.846153846154,4445.128205128206,4246.666666666667,4540.000000000001,4456.923076923077,4427.6923076923085,4409.2307692307695,4755.384615384616,4384.615384615385,4249.74358974359,4192.820512820514,4814.358974358975
2238.7207,0.21890394,0.0,0.33333334,0.5522388,0,0.0,0.0,0.0,0.0,0.7363245,0,0,0.0,0.0,0,0,15.0,0.0,486.0,4616.923076923077,3942.564102564103,4507.179487179488,4441.025641025642,4247.6923076923085,4541.538461538462,4441.025641025642,4407.179487179487,4391.794871794872,4720.512820512821,4378.461538461539,4247.6923076923085,4167.6923076923085,4766.153846153847
2238.971,0.23428534,0.0,0.33333334,0.5522388,0,0.0,0.0,0.0,0.0,0.6239529,0,0,0.0,0.0,0,0,47.0,0.0,0.0,4615.8974358974365,3929.2307692307695,4504.615384615385,4437.435897435898,4247.179487179487,4537.435897435898,4453.333333333334,4410.769230769231,4385.641025641026,4702.051282051282,4382.051282051282,4246.153846153847,4171.282051282052,4718.974358974359
2239.2212,0.23428534,0.0,0.33333334,0.5522388,0,0.0,0.0,0.0,0.0,0.5072114,0,0,0.0,0.0,0,0,79.0,0.0,489.0,4625.641025641026,3933.333333333334,4505.128205128206,4434.871794871796,4245.128205128206,4536.923076923077,4442.051282051282,4403.589743589744,4380.512820512821,4720.512820512821,4383.589743589744,4238.974358974359,4173.333333333334,4690.256410256411
2239.4714,0.20282453,0.0,0.33333334,0.5522388,0,0.0,0.0,0.0,0.0,0.42545658,0,0,0.0,0.0,0,0,111.0,0.0,489.0,4638.974358974359,3942.0512820512827,4506.666666666667,4446.153846153847,4256.410256410257,4554.358974358975,4456.410256410257,4418.974358974359,4395.384615384616,4735.8974358974365,4381.538461538462,4232.820512820514,4170.769230769231,4657.435897435898
2239.7217,0.20282453,0.0,0.33333334,0.5522388,0,0.0,0.0,0.0,0.0,0.5092585,0,0,0.0,0.0,0,0,14.0,0.0,554.0,4642.051282051282,3933.8461538461543,4501.025641025642,4439.48717948718,4244.102564102564,4540.512820512821,4442.564102564103,4410.256410256411,4386.153846153847,4733.333333333334,4379.48717948718,4231.282051282052,4168.205128205129,4632.307692307693
2239.972,0.18209188,0.0,0.33333334,0.5522388,0,0.0,0.0,0.0,0.0,0.17070766,0,0,0.0,0.0,0,0,46.0,0.0,0.0,4656.410256410257,3966.666666666667,4488.205128205129,4444.615384615385,4234.358974358975,4538.461538461539,4435.384615384616,4390.769230769231,4374.358974358975,4722.051282051282,4381.538461538462,4215.8974358974365,4177.435897435898,4611.794871794872
2240.2222,0.18209188,0.0,0.33333334,0.5522388,0,0.0,0.0,0.0,0.0,0.07220301,0,0,0.0,0.0,0,0,78.0,0.0,554.0,4622.564102564103,3934.358974358975,4501.538461538462,4438.974358974359,4245.128205128206,4538.974358974359,4444.102564102564,4418.974358974359,4398.974358974359,4729.743589743591,4380.000000000001,4227.179487179487,4168.717948717949,4600.512820512821
2240.4724,0.15501079,0.0,0.33333334,0.5522388,0,0.0,0.0,0.0,0.0,0.07383534,0,0,0.0,0.0,0,0,110.0,0.0,554.0,4640.000000000001,3961.538461538462,4523.076923076924,4452.820512820514,4250.256410256411,4549.743589743591,4450.256410256411,4436.410256410257,4421.025641025642,4717.435897435898,4381.025641025642,4231.794871794872,4195.8974358974365,4613.333333333334
2240.5974,0.15501079,0.0,0.33333334,0.5522388,0,0.0,0.0,0.0,0.0,0.0,0,0,0.0,0.0,0,0,126.0,0.0,554.0,4644.102564102564,3960.0000000000005,4526.153846153847,4457.435897435898,4255.8974358974365,4555.384615384616,4456.923076923077,4443.589743589744,4425.128205128206,4731.794871794872,4384.615384615385,4232.820512820514,4204.615384615385,4602.051282051282
2240.9727,0.18780676,0.02941495,0.33333334,0.5522388,0,0.0,0.0,0.0,0.0,0.0,0,0,0.0,0.0,0,0,45.0,0.0,0.0,4651.282051282052,3970.7692307692314,4527.6923076923085,4450.769230769231,4249.74358974359,4541.538461538462,4450.769230769231,4420.000000000001,4404.615384615385,4751.794871794872,4383.076923076924,4234.871794871796,4217.435897435898,4589.2307692307695
2241.004,0.18780676,0.02941495,0.33333334,0.5522388,0,0.0,0.0,0.0,0.0,0.0,0,0,0.0,0.0,0,0,49.0,0.0,0.0,4643.589743589744,3961.0256410256416,4530.769230769231,4449.743589743591,4253.333333333334,4545.641025641026,4453.846153846154,4440.512820512821,4411.794871794872,4762.564102564103,4385.641025641026,4233.846153846154,4224.102564102564,4585.641025641026
2241.4731,0.2228055,0.049585048,0.33333334,0.5522388,0,0.0,0.0,0.0,0.0,0.0,0,0,0.0,0.0,0,0,105.0,0.0,146.0,4631.794871794872,3957.435897435898,4503.589743589744,4444.102564102564,4240.512820512821,4536.923076923077,4438.974358974359,4408.717948717949,4393.333333333334,4740.512820512821,4383.076923076924,4232.820512820514,4202.051282051282,4549.743589743591
2241.7234,0.2228055,0.049585048,0.33333334,0.5522388,0,0.0,0.0,0.0,0.0,0.0,0,0,0.0,0.0,0,0,12.0,0.0,0.0,4627.6923076923085,3957.435897435898,4514.358974358975,4444.615384615385,4248.205128205129,4536.923076923077,4456.923076923077,4421.538461538462,4394.871794871796,4736.923076923077,4381.538461538462,4235.384615384616,4193.846153846154,4539.48717948718
2241.9736,0.21118565,0.07133078,0.33333334,0.5522388,0,0.0,0.0,0.0,0.0,0.0,0,0,0.0,0.0,0,0,44.0,0.0,0.0,4632.820512820514,3957.435897435898,4509.743589743591,4438.974358974359,4236.410256410257,4530.769230769231,4478.461538461539,4430.769230769231,4407.179487179487,4748.205128205129,4382.564102564103,4233.846153846154,4202.051282051282,4550.769230769231
2242.005,0.21118565,0.07133078,0.33333334,0.5522388,0,0.0,0.0,0.0,0.0,0.0,0,0,0.0,0.0,0,0,48.0,0.0,0.0,4640.512820512821,3962.564102564103,4520.512820512821,4445.641025641026,4243.076923076924,4535.8974358974365,4494.871794871796,4434.358974358975,4410.769230769231,4757.948717948719,4381.538461538462,4236.410256410257,4211.794871794872,4555.384615384616
2242.474,0.27676547,0.085674584,0.33333334,0.5522388,0,0.0,0.0,0.0,0.0,0.0,0,0,0.0,0.0,0,0,94.0,0.0,554.0,4641.025641025642,3963.076923076924,4537.435897435898,4448.205128205129,4248.205128205129,4542.564102564103,4501.025641025642,4434.358974358975,4416.923076923077,4734.358974358975,4381.538461538462,4240.000000000001,4194.871794871796,4554.358974358975
2242.5054,0.27676547,0.085674584,0.33333334,0.5522388,0,0.0,0.0,0.0,0.0,0.0,0,0,0.0,0.0,0,0,112.0,0.0,0.0,4651.282051282052,3970.2564102564106,4545.128205128206,4449.743589743591,4248.717948717949,4537.435897435898,4491.282051282052,4441.025641025642,4425.128205128206,4749.743589743591,4383.076923076924,4245.641025641026,4217.948717948719,4556.923076923077
2242.9744,0.29202265,0.08812117,0.33333334,0.5522388,0,0.0,0.0,0.0,0.0,0.0,0,0,0.0,0.0,0,0,35.0,0.0,0.0,4616.410256410257,3960.0000000000005,4525.128205128206,4449.743589743591,4264.102564102564,4540.000000000001,4506.666666666667,4454.358974358975,4426.666666666667,4753.846153846154,4382.051282051282,4233.846153846154,4203.589743589744,4538.461538461539
2243.2246,0.29202265,0.08812117,0.33333334,0.5522388,0,0.0,0.0,0.0,0.0,0.0,0,0,0.0,0.0,0,0,75.0,0.0,498.0,4632.307692307693,3984.615384615385,4546.666666666667,4474.358974358975,4271.794871794872,4562.051282051282,4511.282051282052,4448.205128205129,4428.205128205129,4741.025641025642,4384.102564102564,4244.615384615385,4241.538461538462,4537.435897435898
2243.4749,0.4332688,0.094375625,0.33333334,0.5522388,0,0.0,0.0,0.0,0.0,0.0,0,0,0.0,0.0,0,0,107.0,0.0,498.0,4633.333333333334,3974.8717948717954,4549.743589743591,4470.769230769231,4280.512820512821,4569.2307692307695,4496.410256410257,4443.076923076924,4426.153846153847,4739.48717948718,4384.102564102564,4249.2307692307695,4235.8974358974365,4545.128205128206
2243.506,0.4332688,0.094375625,0.33333334,0.5522388,0,0.0,0.0,0.0,0.0,0.0,0,0,0.0,0.0,0,0,111.0,0.0,498.0,4635.384615384616,3976.9230769230776,4551.282051282052,4475.8974358974365,4283.589743589744,4567.179487179488,4500.512820512821,4454.871794871796,4430.769230769231,4742.564102564103,4384.102564102564,4245.641025641026,4236.923076923077,4552.307692307693
2243.9753,0.5547211,0.09320156,0.33333334,0.5522388,0,0.0,0.0,0.0,0.0,0.0,0,0,0.0,0.0,0,0,36.0,0.0,0.0,4604.615384615385,3937.9487179487182,4505.641025641026,4443.589743589744,4245.641025641026,4532.820512820514,4457.948717948719,4389.2307692307695,4369.743589743591,4649.743589743591,4381.025641025642,4234.358974358975,4185.641025641026,4509.2307692307695
2244.0066,0.5547211,0.09320156,0.33333334,0.5522388,0,0.0,0.0,0.0,0.0,0.0,0,0,0.0,0.0,0,0,46.0,0.0,0.0,4622.051282051282,3941.0256410256416,4513.333333333334,4447.179487179487,4242.051282051282,4533.333333333334,4452.820512820514,4378.461538461539,4377.948717948719,4660.000000000001,4382.564102564103,4234.358974358975,4184.102564102564,4520.000000000001
2244.4758,0.6410116,0.09028053,0.33333334,0.5522388,0,0.0,0.0,0.0,0.0,0.0,0,0,0.0,0.0,0,0,77.0,0.0,146.0,4623.589743589744,3917.9487179487182,4493.846153846154,4444.102564102564,4243.589743589744,4534.358974358975,4451.282051282052,4392.307692307693,4380.000000000001,4669.743589743591,4382.564102564103,4234.358974358975,4189.74358974359,4520.512820512821
2244.507,0.6410116,0.09028053,0.33333334,0.5522388,0,0.0,0.0,0.0,0.0,0.0,0,0,0.0,0.0,0,0,110.0,0.0,554.0,4626.666666666667,3938.461538461539,4488.717948717949,4444.615384615385,4242.051282051282,4535.8974358974365,4443.076923076924,4396.410256410257,4381.025641025642,4698.974358974359,4382.051282051282,4237.435897435898,4178.461538461539,4524.615384615385
2244.976,0.6859288,0.10520461,0.33333334,0.5522388,0,0.0,0.0,0.0,0.0,0.0,0,0,0.0,0.0,0,0,17.0,0.0,0.0,4617.948717948719,3932.820512820513,4469.2307692307695,4447.179487179487,4254.871794871796,4552.820512820514,4422.051282051282,4388.717948717949,4373.846153846154,4709.743589743591,4383.076923076924,4237.435897435898,4153.333333333334,4505.128205128206
2245.0073,0.6859288,0.10520461,0.33333334,0.5522388,0,0.0,0.0,0.0,0.0,0.0,0,0,0.0,0.0,0,0,45.0,0.0,0.0,4625.641025641026,3923.076923076924,4485.128205128206,4445.641025641026,4253.333333333334,4549.743589743591,4434.871794871796,4423.076923076924,4386.153846153847,4706.153846153847,4376.923076923077,4248.205128205129,4167.6923076923085,4514.871794871796
2245.4766,0.7549537,0.14508629,0.33333334,0.5522388,0,0.0,0.0,0.0,0.0,0.0,0,0,0.0,0.0,0,0,68.0,0.0,579.0,4627.6923076923085,3930.2564102564106,4489.2307692307695,4452.820512820514,4258.461538461539,4554.358974358975,4423.589743589744,4390.256410256411,4385.128205128206,4707.6923076923085,4381.538461538462,4248.717948717949,4169.2307692307695,4517.948717948719
2245.5078,0.7549537,0.14508629,0.33333334,0.5522388,0,0.0,0.0,0.0,0.0,0.0,0,0,0.0,0.0,0,0,109.0,0.0,146.0,4632.820512820514,3920.5128205128212,4494.871794871796,4448.205128205129,4260.512820512821,4558.461538461539,4482.051282051282,4470.256410256411,4429.2307692307695,4750.769230769231,4384.615384615385,4248.717948717949,4203.076923076924,4536.410256410257
2245.977,0.7038185,0.19805887,0.33333334,0.5522388,0,0.0,0.0,0.0,0.0,0.0,0,0,0.0,0.0,0,0,6.0,0.0,547.0,4622.564102564103,3920.5128205128212,4496.410256410257,4446.153846153847,4255.384615384616,4555.384615384616,4455.384615384616,4418.974358974359,4406.153846153847,4719.48717948718,4384.615384615385,4248.717948717949,4201.025641025642,4538.461538461539
2246.0083,0.7038185,0.19805887,0.33333334,0.5522388,0,0.0,0.0,0.0,0.0,0.0,0,0,0.0,0.0,0,0,44.0,0.0,0.0,4624.102564102564,3910.2564102564106,4501.025641025642,4436.410256410257,4250.769230769231,4550.769230769231,4455.8974358974365,4440.512820512821,4427.6923076923085,4761.538461538462,4384.102564102564,4247.6923076923085,4218.461538461539,4541.025641025642
2246.4775,0.6385118,0.24233107,0.33333334,0.5522388,0,0.0,0.0,0.0,0.0,0.0,0,0,0.0,0.0,0,0,74.0,0.0,554.0,4620.000000000001,3923.589743589744,4501.025641025642,4432.820512820514,4245.128205128206,4548.205128205129,4464.102564102564,4423.589743589744,4420.000000000001,4748.205128205129,4384.102564102564,4246.666666666667,4206.153846153847,4537.948717948719
2246.5088,0.6385118,0.24233107,0.33333334,0.5522388,0,0.0,0.0,0.0,0.0,0.0,0,0,0.0,0.0,0,0,108.0,0.0,0.0,4623.589743589744,3939.48717948718,4504.615384615385,4437.435897435898,4241.025641025642,4536.923076923077,4450.769230769231,4423.589743589744,4412.820512820514,4720.512820512821,4382.564102564103,4243.589743589744,4195.8974358974365,4540.000000000001
2246.9778,0.5822394,0.26607978,0.33333334,0.5522388,0,0.0,0.0,0.0,0.0,0.061048828,0,0,0.0,0.0,0,0,5.0,0.0,574.0,4625.128205128206,3945.6410256410263,4507.6923076923085,4437.435897435898,4240.000000000001,4530.769230769231,4452.307692307693,4425.641025641026,4414.871794871796,4727.179487179488,4382.051282051282,4247.6923076923085,4189.2307692307695,4525.641025641026
2247.228,0.5822394,0.26607978,0.33333334,0.5522388,0,0.0,0.0,0.0,0.0,0.054502204,0,0,0.0,0.0,0,0,71.0,0.0,500.0,4611.794871794872,3955.3846153846157,4500.000000000001,4443.076923076924,4245.128205128206,4540.512820512821,4456.410256410257,4424.102564102564,4406.153846153847,4710.256410256411,4382.051282051282,4251.282051282052,4185.641025641026,4520.000000000001
2247.4783,0.5173659,0.25387475,0.33333334,0.5522388,0,0.0,0.0,0.0,0.0,0.034472827,0,0,0.0,0.0,0,0,103.0,0.0,499.0,4615.384615384616,3947.692307692308,4511.282051282052,4441.538461538462,4241.538461538462,4539.48717948718,4461.025641025642,4426.666666666667,4419.48717948718,4723.589743589744,4380.512820512821,4261.025641025642,4207.6923076923085,4531.794871794872
2247.7285,0.5173659,0.25387475,0.33333334,0.5522388,0,0.0,0.0,0.0,0.0,0.0,0,0,0.0,0.0,0,0,6.0,0.0,547.0,4613.333333333334,3942.564102564103,4517.948717948719,4433.333333333334,4231.282051282052,4535.384615384616,4460.000000000001,4426.666666666667,4409.2307692307695,4716.923076923077,4380.512820512821,4256.410256410257,4199.48717948718,4535.8974358974365
2247.9788,0.4528792,0.24683617,0.33333334,0.5522388,0,0.0,0.0,0.0,0.0,0.0,0,0,0.0,0.0,0,0,19.0,0.0,0.0,4605.128205128206,3943.589743589744,4502.564102564103,4435.8974358974365,4236.410256410257,4537.948717948719,4472.820512820514,4450.256410256411,4420.512820512821,4728.717948717949,4382.564102564103,4257.435897435898,4201.025641025642,4509.2307692307695
2248.01,0.4528792,0.24683617,0.33333334,0.5522388,0,0.0,0.0,0.0,0.0,0.0,0,0,0.0,0.0,0,0,42.0,0.0,0.0,4607.179487179488,3949.2307692307695,4507.6923076923085,4436.923076923077,4238.461538461539,4540.512820512821,4471.282051282052,4442.051282051282,4429.743589743591,4746.153846153847,4383.076923076924,4254.358974358975,4210.256410256411,4536.410256410257
2248.4792,0.39573306,0.24566413,0.33333334,0.5522388,0,0.0,0.0,0.0,0.0,0.0,0,0,0.0,0.0,0,0,68.0,0.0,579.0,4635.8974358974365,3961.0256410256416,4524.615384615385,4441.538461538462,4230.769230769231,4535.384615384616,4457.948717948719,4422.051282051282,4416.923076923077,4740.000000000001,4382.051282051282,4259.48717948718,4212.307692307693,4556.923076923077
2248.6042,0.39573306,0.24566413,0.33333334,0.5522388,0,0.0,0.0,0.0,0.0,1.0,0,0,0.0,0.0,0,0,118.0,0.0,554.0,4636.923076923077,3970.7692307692314,4524.615384615385,4443.076923076924,4220.000000000001,4527.6923076923085,4441.538461538462,4412.307692307693,4408.717948717949,4751.282051282052,4381.538461538462,4253.846153846154,4212.307692307693,4521.538461538462
2248.6042,0.39573306,0.24566413,0.33333334,0.5522388,0,0.0,0.0,0.0,0.0,1.0,0,0,0.0,0.0,0,0,118.0,0.0,554.0,4636.923076923077,3970.7692307692314,4524.615384615385,4443.076923076924,4220.000000000001,4527.6923076923085,4441.538461538462,4412.307692307693,4408.717948717949,4751.282051282052,4381.538461538462,4253.846153846154,4212.307692307693,4521.538461538462
2249.2297,0.35670176,0.24034236,0.33333334,0.5522388,0,0.0,0.0,0.0,0.0,0.07795955,0,0,0.0,0.0,0,0,69.0,0.0,574.0,4611.794871794872,3954.8717948717954,4509.743589743591,4438.974358974359,4229.74358974359,4535.384615384616,4435.384615384616,4407.6923076923085,4400.000000000001,4707.179487179488,4380.512820512821,4253.846153846154,4168.717948717949,4518.974358974359
2249.355,0.35670176,0.24034236,0.33333334,0.5522388,0,0.0,0.0,0.0,0.0,0.101360254,0,0,0.0,0.0,0,0,85.0,0.0,147.0,4611.282051282052,3948.717948717949,4512.307692307693,4441.025641025642,4242.051282051282,4534.358974358975,4444.615384615385,4419.48717948718,4408.717948717949,4721.538461538462,4378.974358974359,4263.076923076924,4188.205128205129,4526.666666666667
2249.6052,0.33789366,0.22439685,0.33333334,0.5522388,0,0.0,0.0,0.0,0.0,0.0,0,0,0.0,0.0,0,0,117.0,0.0,147.0,4619.48717948718,3969.2307692307695,4518.461538461539,4448.717948717949,4244.102564102564,4535.8974358974365,4451.282051282052,4411.282051282052,4405.641025641026,4712.307692307693,4377.948717948719,4262.564102564103,4196.410256410257,4542.051282051282
2249.6052,0.33789366,0.22439685,0.33333334,0.5522388,0,0.0,0.0,0.0,0.0,0.0,0,0,0.0,0.0,0,0,117.0,0.0,147.0,4619.48717948718,3969.2307692307695,4518.461538461539,4448.717948717949,4244.102564102564,4535.8974358974365,4451.282051282052,4411.282051282052,4405.641025641026,4712.307692307693,4377.948717948719,4262.564102564103,4196.410256410257,4542.051282051282
2250.2307,0.3127329,0.22956777,0.33333334,0.5522388,0,0.0,0.0,0.0,0.0,0.038212016,0,0,0.0,0.0,0,0,68.0,0.0,579.0,4640.000000000001,3956.410256410257,4530.256410256411,4450.769230769231,4246.153846153847,4540.000000000001,4463.589743589744,4456.410256410257,4433.333333333334,4742.564102564103,4378.461538461539,4266.153846153847,4216.410256410257,4556.410256410257
2250.481,0.32502627,0.23766898,0.33333334,0.5522388,0,0.0,0.0,0.0,0.0,0.0,0,0,0.0,0.0,0,0,99.0,0.0,501.0,4646.666666666667,3964.1025641025644,4533.333333333334,4457.435897435898,4256.410256410257,4546.153846153847,4468.717948717949,4445.128205128206,4428.717948717949,4752.820512820514,4380.000000000001,4266.153846153847,4213.846153846154,4555.384615384616
2250.5122,0.32502627,0.23766898,0.33333334,0.5522388,0,0.0,0.0,0.0,0.0,0.0,0,0,0.0,0.0,0,0,104.0,0.0,0.0,4645.128205128206,3964.615384615385,4528.205128205129,4457.435897435898,4252.820512820514,4547.179487179488,4464.615384615385,4429.743589743591,4407.6923076923085,4741.538461538462,4377.435897435898,4265.641025641026,4206.153846153847,4543.589743589744
2250.8562,0.32502627,0.23766898,0.33333334,0.5522388,0,0.0,0.0,0.0,0.0,0.14432126,0,0,0.0,0.0,0,0,19.0,0.0,0.0,4611.282051282052,4016.9230769230776,4494.871794871796,4458.974358974359,4226.666666666667,4515.8974358974365,4434.358974358975,4407.6923076923085,4392.307692307693,4686.666666666667,4364.615384615385,4262.564102564103,4169.2307692307695,4524.615384615385
2251.2314,0.37417674,0.24949232,0.33333334,0.5522388,0,0.0,0.0,0.0,0.0,0.05671712,0,0,0.0,0.0,0,0,62.0,0.0,0.0,4630.769230769231,3955.8974358974365,4514.871794871796,4454.358974358975,4238.461538461539,4531.282051282052,4456.923076923077,4437.948717948719,4410.256410256411,4698.974358974359,4366.666666666667,4264.102564102564,4215.8974358974365,4541.538461538462
2251.3567,0.37417674,0.24949232,0.33333334,0.5522388,0,0.0,0.0,0.0,0.0,0.04175729,0,0,0.0,0.0,0,0,83.0,0.0,501.0,4629.743589743591,3935.8974358974365,4510.769230769231,4446.666666666667,4237.435897435898,4537.435897435898,4453.333333333334,4432.820512820514,4405.128205128206,4688.717948717949,4366.666666666667,4263.589743589744,4207.179487179487,4539.48717948718
2251.607,0.38290286,0.29546195,0.33333334,0.5522388,0,0.0,0.0,0.0,0.0,0.03156091,0,0,0.0,0.0,0,0,115.0,0.0,501.0,4636.410256410257,3932.820512820513,4520.512820512821,4447.179487179487,4237.948717948719,4535.384615384616,4458.461538461539,4440.000000000001,4423.589743589744,4712.820512820514,4368.205128205129,4263.076923076924,4214.871794871796,4550.769230769231
2251.732,0.38290286,0.29546195,0.33333334,0.5522388,0,0.0,0.0,0.0,0.0,0.0,0,0,0.0,0.0,0,0,2.0,0.0,458.0,4638.974358974359,3942.564102564103,4524.102564102564,4455.8974358974365,4252.820512820514,4546.153846153847,4463.076923076924,4448.205128205129,4430.256410256411,4723.589743589744,4366.153846153847,4255.8974358974365,4215.384615384616,4550.769230769231
2252.0134,0.34914604,0.31908906,0.33333334,0.5522388,0,0.0,0.0,0.0,0.0,0.0,0,0,0.0,0.0,0,0,38.0,0.0,0.0,4638.461538461539,3989.23076923077,4521.025641025642,4457.948717948719,4234.358974358975,4530.769230769231,4453.846153846154,4438.974358974359,4421.025641025642,4752.820512820514,4365.641025641026,4245.128205128206,4179.48717948718,4544.102564102564
2252.3574,0.34914604,0.31908906,0.33333334,0.5522388,0,0.0,0.0,0.0,0.0,0.10152421,0,0,0.0,0.0,0,0,82.0,0.0,560.0,4619.48717948718,3991.2820512820517,4493.333333333334,4456.923076923077,4231.794871794872,4529.743589743591,4435.8974358974365,4408.205128205129,4387.6923076923085,4708.205128205129,4356.410256410257,4246.666666666667,4129.74358974359,4529.2307692307695
2252.6077,0.4287466,0.3258315,0.33333334,0.5522388,0,0.0,0.0,0.0,0.0,0.105143405,0,0,0.0,0.0,0,0,114.0,0.0,560.0,4641.538461538462,3980.5128205128212,4521.538461538462,4455.384615384616,4231.794871794872,4535.8974358974365,4455.384615384616,4434.871794871796,4410.256410256411,4747.6923076923085,4366.666666666667,4249.2307692307695,4173.846153846154,4551.282051282052
2252.858,0.4287466,0.3258315,0.33333334,0.5522388,0,0.0,0.0,0.0,0.0,0.055876512,0,0,0.0,0.0,0,0,17.0,0.0,0.0,4639.48717948718,3968.717948717949,4531.794871794872,4457.948717948719,4239.48717948718,4552.820512820514,4474.358974358975,4448.717948717949,4439.48717948718,4771.794871794872,4367.179487179487,4249.74358974359,4198.461538461539,4564.102564102564
2253.0144,0.43222117,0.3261078,0.33333334,0.5522388,0,0.0,0.0,0.0,0.0,0.0,0,0,0.0,0.0,0,0,37.0,0.0,0.0,4629.743589743591,3958.461538461539,4510.256410256411,4450.256410256411,4231.794871794872,4548.205128205129,4467.179487179487,4428.717948717949,4412.820512820514,4737.948717948719,4381.538461538462,4244.102564102564,4175.384615384616,4547.6923076923085
2253.0144,0.43222117,0.3261078,0.33333334,0.5522388,0,0.0,0.0,0.0,0.0,0.0,0,0,0.0,0.0,0,0,37.0,0.0,0.0,4629.743589743591,3958.461538461539,4510.256410256411,4450.256410256411,4231.794871794872,4548.205128205129,4467.179487179487,4428.717948717949,4412.820512820514,4737.948717948719,4381.538461538462,4244.102564102564,4175.384615384616,4547.6923076923085
2253.5146,0.43177137,0.30642045,0.33333334,0.5522388,0,0.0,0.0,0.0,0.0,0.0,0,0,0.0,0.0,0,0,101.0,0.0,147.0,4614.871794871796,3956.9230769230776,4508.717948717949,4445.641025641026,4233.846153846154,4542.051282051282,4452.307692307693,4425.128205128206,4406.666666666667,4713.333333333334,4377.435897435898,4248.205128205129,4156.923076923077,4539.48717948718
2253.5146,0.43177137,0.30642045,0.33333334,0.5522388,0,0.0,0.0,0.0,0.0,0.0,0,0,0.0,0.0,0,0,101.0,0.0,147.0,4614.871794871796,3956.9230769230776,4508.717948717949,4445.641025641026,4233.846153846154,4542.051282051282,4452.307692307693,4425.128205128206,4406.666666666667,4713.333333333334,4377.435897435898,4248.205128205129,4156.923076923077,4539.48717948718
2254.0151,0.37985405,0.29215404,0.33333334,0.5522388,0,0.0,0.0,0.0,0.0,0.0,0,0,0.0,0.0,0,0,36.0,0.0,0.0,4625.641025641026,3961.538461538462,4511.282051282052,4445.128205128206,4252.307692307693,4541.025641025642,4455.384615384616,4411.282051282052,4415.384615384616,4705.641025641026,4380.000000000001,4231.794871794872,4178.461538461539,4536.410256410257
2254.0151,0.37985405,0.29215404,0.33333334,0.5522388,0,0.0,0.0,0.0,0.0,0.0,0,0,0.0,0.0,0,0,36.0,0.0,0.0,4625.641025641026,3961.538461538462,4511.282051282052,4445.128205128206,4252.307692307693,4541.025641025642,4455.384615384616,4411.282051282052,4415.384615384616,4705.641025641026,4380.000000000001,4231.794871794872,4178.461538461539,4536.410256410257
2254.5156,0.32888776,0.2758973,0.33333334,0.5522388,0,0.0,0.0,0.0,0.0,0.0,0,0,0.0,0.0,0,0,100.0,0.0,0.0,4627.6923076923085,3955.3846153846157,4521.538461538462,4444.102564102564,4245.641025641026,4546.153846153847,4464.102564102564,4433.333333333334,4425.641025641026,4712.307692307693,4381.538461538462,4247.6923076923085,4192.820512820514,4532.820512820514
2254.5156,0.32888776,0.2758973,0.33333334,0.5522388,0,0.0,0.0,0.0,0.0,0.0,0,0,0.0,0.0,0,0,100.0,0.0,0.0,4627.6923076923085,3955.3846153846157,4521.538461538462,4444.102564102564,4245.641025641026,4546.153846153847,4464.102564102564,4433.333333333334,4425.641025641026,4712.307692307693,4381.538461538462,4247.6923076923085,4192.820512820514,4532.820512820514
2255.016,0.2959328,0.26011324,0.33333334,0.5522388,0,0.0,0.0,0.0,0.0,0.0,0,0,0.0,0.0,0,0,35.0,0.0,0.0,4638.974358974359,3948.205128205129,4517.435897435898,4441.025641025642,4250.256410256411,4538.974358974359,4455.384615384616,4408.717948717949,4409.743589743591,4709.2307692307695,4381.538461538462,4249.74358974359,4190.769230769231,4524.102564102564
2255.36,0.2959328,0.26011324,0.33333334,0.5522388,0,0.0,0.0,0.0,0.0,0.0,0,0,0.0,0.0,0,0,79.0,0.0,501.0,4614.871794871796,3950.2564102564106,4501.538461538462,4440.512820512821,4248.205128205129,4537.435897435898,4236.410256410257,4401.025641025642,4386.153846153847,4682.051282051282,4380.000000000001,4243.076923076924,4152.307692307693,4504.102564102564
2255.5164,0.36800373,0.24941653,0.33333334,0.5522388,0,0.0,0.0,0.0,0.0,0.0,0,0,0.0,0.0,0,0,99.0,0.0,501.0,4632.820512820514,3952.307692307693,4517.435897435898,4440.000000000001,4248.717948717949,4538.461538461539,4277.948717948719,4427.179487179487,4407.179487179487,4705.128205128206,4381.025641025642,4250.256410256411,4188.205128205129,4524.102564102564
2255.8606,0.36800373,0.24941653,0.33333334,0.5522388,0,0.0,0.0,0.0,0.0,0.0,0,0,0.0,0.0,0,0,14.0,0.0,558.0,4640.512820512821,3955.3846153846157,4517.435897435898,4440.000000000001,4239.48717948718,4533.333333333334,4325.641025641026,4404.615384615385,4392.820512820514,4695.8974358974365,4377.948717948719,4250.256410256411,4188.205128205129,4520.512820512821
2256.0168,0.37673372,0.24053213,0.33333334,0.5522388,0,0.0,0.0,0.0,0.0,0.0,0,0,0.0,0.0,0,0,34.0,0.0,0.0,4640.000000000001,3951.7948717948725,4523.076923076924,4440.512820512821,4238.461538461539,4536.410256410257,4344.102564102564,4412.307692307693,4395.8974358974365,4712.820512820514,4377.435897435898,4249.2307692307695,4185.128205128206,4523.076923076924
2256.3608,0.37673372,0.24053213,0.33333334,0.5522388,0,0.0,0.0,0.0,0.0,0.8789524,0,0,0.0,0.0,0,0,78.0,0.0,558.0,4620.512820512821,3939.48717948718,4505.641025641026,4434.358974358975,4232.307692307693,4530.769230769231,4394.871794871796,4431.794871794872,4386.153846153847,4713.333333333334,4377.435897435898,4248.205128205129,4162.564102564103,4011.2820512820517
2256.5173,0.34981117,0.23118763,0.33333334,0.5522388,0,0.0,0.0,0.0,0.0,1.0,0,0,0.0,0.0,0,0,98.0,0.0,558.0,4630.256410256411,3950.7692307692314,4510.256410256411,4442.051282051282,4241.025641025642,4540.512820512821,4412.307692307693,4442.051282051282,4409.743589743591,4734.358974358975,4381.538461538462,4249.74358974359,4202.051282051282,4538.974358974359
2256.8613,0.34981117,0.23118763,0.33333334,0.5522388,0,0.0,0.0,0.0,0.0,1.0,0,0,0.0,0.0,0,0,13.0,0.0,147.0,4627.6923076923085,3943.589743589744,4511.282051282052,4441.538461538462,4238.461538461539,4541.025641025642,4429.743589743591,4454.358974358975,4412.307692307693,4732.820512820514,4384.615384615385,4249.2307692307695,4195.8974358974365,4537.435897435898
2257.1116,0.3481675,0.23670836,0.33333334,0.5522388,0,0.0,0.0,0.0,0.0,0.07803538,0,0,0.0,0.0,0,0,45.0,0.0,0.0,4655.384615384616,3964.615384615385,4542.564102564103,4445.641025641026,4231.282051282052,4537.948717948719,4450.256410256411,4466.666666666667,4418.974358974359,4754.358974358975,4381.025641025642,4263.589743589744,4209.2307692307695,4571.282051282052
2257.3618,0.3481675,0.23670836,0.33333334,0.5522388,0,0.0,0.0,0.0,0.0,0.022940576,0,0,0.0,0.0,0,0,77.0,0.0,147.0,4635.384615384616,3949.7435897435903,4516.410256410257,4441.025641025642,4245.128205128206,4539.48717948718,4456.923076923077,4425.128205128206,4391.282051282052,4716.923076923077,4379.48717948718,4248.717948717949,4188.205128205129,4536.410256410257
2257.5183,0.35559005,0.27212772,0.33333334,0.5522388,0,0.0,0.0,0.0,0.0,0.0,0,0,0.0,0.0,0,0,97.0,0.0,147.0,4653.333333333334,3965.1282051282055,4545.641025641026,4458.461538461539,4266.666666666667,4553.846153846154,4473.333333333334,4455.384615384616,4424.615384615385,4750.256410256411,4381.538461538462,4260.512820512821,4217.948717948719,4568.205128205129
2257.5183,0.35559005,0.27212772,0.33333334,0.5522388,0,0.0,0.0,0.0,0.0,0.0,0,0,0.0,0.0,0,0,97.0,0.0,147.0,4653.333333333334,3965.1282051282055,4545.641025641026,4458.461538461539,4266.666666666667,4553.846153846154,4473.333333333334,4455.384615384616,4424.615384615385,4750.256410256411,4381.538461538462,4260.512820512821,4217.948717948719,4568.205128205129
2258.0186,0.43223533,0.2922391,0.33333334,0.5522388,0,0.0,0.0,0.0,0.0,0.0,0,0,0.0,0.0,0,0,32.0,0.0,0.0,4624.102564102564,3956.410256410257,4522.051282051282,4443.589743589744,4245.641025641026,4538.461538461539,4467.6923076923085,4417.948717948719,4390.256410256411,4715.384615384616,4374.358974358975,4251.282051282052,4170.256410256411,4535.384615384616
2258.0186,0.43223533,0.2922391,0.33333334,0.5522388,0,0.0,0.0,0.0,0.0,0.0,0,0,0.0,0.0,0,0,32.0,0.0,0.0,4624.102564102564,3956.410256410257,4522.051282051282,4443.589743589744,4245.641025641026,4538.461538461539,4467.6923076923085,4417.948717948719,4390.256410256411,4715.384615384616,4374.358974358975,4251.282051282052,4170.256410256411,4535.384615384616
2258.519,0.39172128,0.29771113,0.33333334,0.5522388,0,0.0,0.0,0.0,0.0,0.0,0,0,0.0,0.0,0,0,96.0,0.0,0.0,4644.615384615385,3961.0256410256416,4541.538461538462,4445.641025641026,4249.2307692307695,4542.051282051282,4476.410256410257,4425.641025641026,4401.538461538462,4747.179487179488,4382.051282051282,4249.74358974359,4213.846153846154,4569.743589743591
2258.519,0.39172128,0.29771113,0.33333334,0.5522388,0,0.0,0.0,0.0,0.0,0.0,0,0,0.0,0.0,0,0,96.0,0.0,0.0,4644.615384615385,3961.0256410256416,4541.538461538462,4445.641025641026,4249.2307692307695,4542.051282051282,4476.410256410257,4425.641025641026,4401.538461538462,4747.179487179488,4382.051282051282,4249.74358974359,4213.846153846154,4569.743589743591
2259.0195,0.38087574,0.289934,0.33333334,0.5522388,0,0.0,0.0,0.0,0.0,0.0,0,0,0.0,0.0,0,0,31.0,0.0,0.0,4637.435897435898,3947.692307692308,4535.8974358974365,4445.641025641026,4241.025641025642,4537.948717948719,4489.2307692307695,4449.743589743591,4420.512820512821,4753.333333333334,4380.000000000001,4258.974358974359,4217.435897435898,4572.820512820514
2259.0195,0.38087574,0.289934,0.33333334,0.5522388,0,0.0,0.0,0.0,0.0,0.0,0,0,0.0,0.0,0,0,31.0,0.0,0.0,4637.435897435898,3947.692307692308,4535.8974358974365,4445.641025641026,4241.025641025642,4537.948717948719,4489.2307692307695,4449.743589743591,4420.512820512821,4753.333333333334,4380.000000000001,4258.974358974359,4217.435897435898,4572.820512820514
2259.52,0.3776351,0.27146617,0.33333334,0.5522388,0,0.0,0.0,0.0,0.0,0.0,0,0,0.0,0.0,0,0,95.0,0.0,507.0,4622.564102564103,3955.3846153846157,4514.871794871796,4443.076923076924,4226.666666666667,4528.717948717949,4463.589743589744,4414.871794871796,4373.333333333334,4695.384615384616,4377.435897435898,4258.461538461539,4172.307692307693,4535.8974358974365
2259.52,0.3776351,0.27146617,0.33333334,0.5522388,0,0.0,0.0,0.0,0.0,0.0,0,0,0.0,0.0,0,0,95.0,0.0,507.0,4622.564102564103,3955.3846153846157,4514.871794871796,4443.076923076924,4226.666666666667,4528.717948717949,4463.589743589744,4414.871794871796,4373.333333333334,4695.384615384616,4377.435897435898,4258.461538461539,4172.307692307693,4535.8974358974365
2260.0203,0.36172915,0.25230855,0.33333334,0.5522388,0,0.0,0.0,0.0,0.0,0.0,0,0,0.0,0.0,0,0,30.0,0.0,0.0,4625.641025641026,3956.410256410257,4524.102564102564,4442.051282051282,4234.358974358975,4537.948717948719,4471.282051282052,4455.8974358974365,4400.000000000001,4729.743589743591,4381.538461538462,4262.564102564103,4204.615384615385,4553.333333333334
2260.0203,0.36172915,0.25230855,0.33333334,0.5522388,0,0.0,0.0,0.0,0.0,0.0,0,0,0.0,0.0,0,0,30.0,0.0,0.0,4625.641025641026,3956.410256410257,4524.102564102564,4442.051282051282,4234.358974358975,4537.948717948719,4471.282051282052,4455.8974358974365,4400.000000000001,4729.743589743591,4381.538461538462,4262.564102564103,4204.615384615385,4553.333333333334
2260.5208,0.35041296,0.25628594,0.33333334,0.5522388,0,0.0,0.0,0.0,0.0,0.0,0,0,0.0,0.0,0,0,94.0,0.0,558.0,4642.051282051282,3975.8974358974365,4548.717948717949,4461.538461538462,4257.435897435898,4557.435897435898,4474.358974358975,4452.820512820514,4428.717948717949,4761.025641025642,4383.076923076924,4266.153846153847,4230.256410256411,4574.871794871796
2260.5208,0.35041296,0.25628594,0.33333334,0.5522388,0,0.0,0.0,0.0,0.0,0.0,0,0,0.0,0.0,0,0,94.0,0.0,558.0,4642.051282051282,3975.8974358974365,4548.717948717949,4461.538461538462,4257.435897435898,4557.435897435898,4474.358974358975,4452.820512820514,4428.717948717949,4761.025641025642,4383.076923076924,4266.153846153847,4230.256410256411,4574.871794871796
2261.0212,0.39090368,0.26041606,0.33333334,0.5522388,0,0.0,0.0,0.0,0.0,0.0,0,0,0.0,0.0,0,0,29.0,0.0,0.0,4619.48717948718,3950.7692307692314,4517.435897435898,4443.076923076924,4232.307692307693,4536.410256410257,4456.923076923077,4432.307692307693,4399.48717948718,4732.307692307693,4375.8974358974365,4268.205128205129,4211.794871794872,4554.358974358975
2261.0212,0.39090368,0.26041606,0.33333334,0.5522388,0,0.0,0.0,0.0,0.0,0.0,0,0,0.0,0.0,0,0,29.0,0.0,0.0,4619.48717948718,3950.7692307692314,4517.435897435898,4443.076923076924,4232.307692307693,4536.410256410257,4456.923076923077,4432.307692307693,4399.48717948718,4732.307692307693,4375.8974358974365,4268.205128205129,4211.794871794872,4554.358974358975
2261.5217,0.40122318,0.26335528,0.33333334,0.5522388,0,0.0,0.0,0.0,0.0,0.0,0,0,0.0,0.0,0,0,93.0,0.0,147.0,4605.128205128206,3940.5128205128212,4508.205128205129,4435.384615384616,4236.410256410257,4536.923076923077,4440.512820512821,4404.615384615385,4377.435897435898,4692.820512820514,4376.923076923077,4265.641025641026,4182.051282051282,4529.743589743591
2261.5217,0.40122318,0.26335528,0.33333334,0.5522388,0,0.0,0.0,0.0,0.0,0.0,0,0,0.0,0.0,0,0,93.0,0.0,147.0,4605.128205128206,3940.5128205128212,4508.205128205129,4435.384615384616,4236.410256410257,4536.923076923077,4440.512820512821,4404.615384615385,4377.435897435898,4692.820512820514,4376.923076923077,4265.641025641026,4182.051282051282,4529.743589743591
2262.022,0.3635826,0.2738454,0.33333334,0.5522388,0,0.0,0.0,0.0,0.0,0.0,0,0,0.0,0.0,0,0,28.0,0.0,0.0,4606.153846153847,3950.2564102564106,4501.538461538462,4435.8974358974365,4247.179487179487,4533.333333333334,4438.461538461539,4403.589743589744,4362.051282051282,4672.820512820514,4377.435897435898,4266.666666666667,4164.615384615385,4505.641025641026
2262.022,0.3635826,0.2738454,0.33333334,0.5522388,0,0.0,0.0,0.0,0.0,0.0,0,0,0.0,0.0,0,0,28.0,0.0,0.0,4606.153846153847,3950.2564102564106,4501.538461538462,4435.8974358974365,4247.179487179487,4533.333333333334,4438.461538461539,4403.589743589744,4362.051282051282,4672.820512820514,4377.435897435898,4266.666666666667,4164.615384615385,4505.641025641026
2262.5225,0.35342392,0.27624106,0.33333334,0.5522388,0,0.0,0.0,0.0,0.0,0.0,0,0,0.0,0.0,0,0,92.0,0.0,0.0,4596.410256410257,3938.9743589743593,4502.051282051282,4436.923076923077,4245.128205128206,4536.923076923077,4454.358974358975,4420.512820512821,4388.717948717949,4709.2307692307695,4375.8974358974365,4267.179487179487,4209.2307692307695,4564.615384615385
2262.8665,0.35342392,0.27624106,0.33333334,0.5522388,0,0.0,0.0,0.0,0.0,0.052680437,0,0,0.0,0.0,0,0,7.0,0.0,500.0,4618.974358974359,3958.9743589743593,4509.743589743591,4442.564102564103,4248.205128205129,4538.461538461539,4449.2307692307695,4417.948717948719,4398.974358974359,4726.153846153847,4372.820512820514,4266.153846153847,4211.794871794872,4570.769230769231
2263.1167,0.31630245,0.26864684,0.33333334,0.5522388,0,0.0,0.0,0.0,0.0,0.12814538,0,0,0.0,0.0,0,0,39.0,0.0,0.0,4608.205128205129,3948.717948717949,4506.153846153847,4438.461538461539,4244.102564102564,4534.358974358975,4455.384615384616,4417.435897435898,4382.051282051282,4678.974358974359,4371.794871794872,4263.589743589744,4183.589743589744,4566.666666666667
2263.367,0.31630245,0.26864684,0.33333334,0.5522388,0,0.0,0.0,0.0,0.0,0.0532133,0,0,0.0,0.0,0,0,71.0,0.0,500.0,4619.48717948718,3958.9743589743593,4523.076923076924,4450.769230769231,4249.2307692307695,4544.102564102564,4466.666666666667,4440.000000000001,4404.102564102564,4707.6923076923085,4376.410256410257,4264.102564102564,4211.282051282052,4581.025641025642
2263.6172,0.26676863,0.27455118,0.33333334,0.5522388,0,0.0,0.0,0.0,0.0,0.031964347,0,0,0.0,0.0,0,0,103.0,0.0,506.0,4603.076923076924,3940.0000000000005,4507.179487179488,4434.358974358975,4235.8974358974365,4534.358974358975,4455.8974358974365,4403.589743589744,4371.794871794872,4690.256410256411,4374.358974358975,4266.153846153847,4180.512820512821,4551.794871794872
2263.7422,0.26676863,0.27455118,0.33333334,0.5522388,0,0.0,0.0,0.0,0.0,0.0,0,0,0.0,0.0,0,0,119.0,0.0,506.0,4617.948717948719,3949.7435897435903,4503.589743589744,4437.948717948719,4237.435897435898,4533.333333333334,4456.923076923077,4406.153846153847,4377.435897435898,4695.8974358974365,4368.717948717949,4262.564102564103,4188.717948717949,4549.2307692307695
2264.0237,0.23334193,0.27946004,0.33333334,0.5522388,0,0.0,0.0,0.0,0.0,0.0,0,0,0.0,0.0,0,0,26.0,0.0,0.0,4607.179487179488,3964.615384615385,4498.974358974359,4444.102564102564,4237.435897435898,4537.948717948719,4451.282051282052,4398.974358974359,4365.641025641026,4671.282051282052,4368.717948717949,4262.564102564103,4151.282051282052,4521.025641025642
2264.0237,0.23334193,0.27946004,0.33333334,0.5522388,0,0.0,0.0,0.0,0.0,0.0,0,0,0.0,0.0,0,0,26.0,0.0,0.0,4607.179487179488,3964.615384615385,4498.974358974359,4444.102564102564,4237.435897435898,4537.948717948719,4451.282051282052,4398.974358974359,4365.641025641026,4671.282051282052,4368.717948717949,4262.564102564103,4151.282051282052,4521.025641025642
2264.5242,0.23541826,0.2865678,0.33333334,0.5522388,0,0.0,0.0,0.0,0.0,0.0,0,0,0.0,0.0,0,0,90.0,0.0,558.0,4612.307692307693,3959.48717948718,4516.410256410257,4445.128205128206,4245.641025641026,4544.615384615385,4463.589743589744,4429.2307692307695,4392.820512820514,4719.48717948718,4372.307692307693,4264.615384615385,4185.641025641026,4536.923076923077
2264.5242,0.23541826,0.2865678,0.33333334,0.5522388,0,0.0,0.0,0.0,0.0,0.0,0,0,0.0,0.0,0,0,90.0,0.0,558.0,4612.307692307693,3959.48717948718,4516.410256410257,4445.128205128206,4245.641025641026,4544.615384615385,4463.589743589744,4429.2307692307695,4392.820512820514,4719.48717948718,4372.307692307693,4264.615384615385,4185.641025641026,4536.923076923077
2265.0247,0.17995916,0.29351968,0.33333334,0.5522388,0,0.0,0.0,0.0,0.0,0.0,0,0,0.0,0.0,0,0,25.0,0.0,0.0,4623.076923076924,3945.1282051282055,4512.307692307693,4434.871794871796,4231.794871794872,4537.948717948719,4475.384615384616,4431.282051282052,4415.384615384616,4745.128205128206,4372.307692307693,4282.051282051282,4222.564102564103,4543.076923076924
2265.0247,0.17995916,0.29351968,0.33333334,0.5522388,0,0.0,0.0,0.0,0.0,0.0,0,0,0.0,0.0,0,0,25.0,0.0,0.0,4623.076923076924,3945.1282051282055,4512.307692307693,4434.871794871796,4231.794871794872,4537.948717948719,4475.384615384616,4431.282051282052,4415.384615384616,4745.128205128206,4372.307692307693,4282.051282051282,4222.564102564103,4543.076923076924
2265.5251,0.18835644,0.29181036,0.33333334,0.5522388,0,0.0,0.0,0.0,0.0,0.0,0,0,0.0,0.0,0,0,89.0,0.0,147.0,4623.076923076924,3961.0256410256416,4521.025641025642,4442.051282051282,4230.769230769231,4537.435897435898,4510.769230769231,4417.948717948719,4402.051282051282,4738.461538461539,4371.794871794872,4280.512820512821,4203.589743589744,4536.410256410257
2265.5251,0.18835644,0.29181036,0.33333334,0.5522388,0,0.0,0.0,0.0,0.0,0.0,0,0,0.0,0.0,0,0,89.0,0.0,147.0,4623.076923076924,3961.0256410256416,4521.025641025642,4442.051282051282,4230.769230769231,4537.435897435898,4510.769230769231,4417.948717948719,4402.051282051282,4738.461538461539,4371.794871794872,4280.512820512821,4203.589743589744,4536.410256410257
2266.0254,0.14436834,0.29700676,0.33333334,0.5522388,0,0.0,0.0,0.0,0.0,0.0,0,0,0.0,0.0,0,0,24.0,0.0,0.0,4629.743589743591,3949.2307692307695,4505.641025641026,4431.794871794872,4231.282051282052,4523.589743589744,4512.820512820514,4434.871794871796,4401.025641025642,4725.641025641026,4371.282051282052,4268.717948717949,4192.307692307693,4535.8974358974365
2266.0254,0.14436834,0.29700676,0.33333334,0.5522388,0,0.0,0.0,0.0,0.0,0.0,0,0,0.0,0.0,0,0,24.0,0.0,0.0,4629.743589743591,3949.2307692307695,4505.641025641026,4431.794871794872,4231.282051282052,4523.589743589744,4512.820512820514,4434.871794871796,4401.025641025642,4725.641025641026,4371.282051282052,4268.717948717949,4192.307692307693,4535.8974358974365
2266.526,0.16336659,0.2915177,0.33333334,0.5522388,0,0.0,0.0,0.0,0.0,0.0,0,0,0.0,0.0,0,0,88.0,0.0,0.0,4621.538461538462,3958.9743589743593,4500.000000000001,4435.8974358974365,4240.000000000001,4532.820512820514,4477.435897435898,4407.179487179487,4377.435897435898,4706.666666666667,4371.282051282052,4264.615384615385,4174.358974358975,4501.025641025642
2266.526,0.16336659,0.2915177,0.33333334,0.5522388,0,0.0,0.0,0.0,0.0,0.0,0,0,0.0,0.0,0,0,88.0,0.0,0.0,4621.538461538462,3958.9743589743593,4500.000000000001,4435.8974358974365,4240.000000000001,4532.820512820514,4477.435897435898,4407.179487179487,4377.435897435898,4706.666666666667,4371.282051282052,4264.615384615385,4174.358974358975,4501.025641025642
2267.0264,0.16199316,0.28599232,0.33333334,0.5522388,0,0.0,0.0,0.0,0.0,0.0,0,0,0.0,0.0,0,0,23.0,0.0,0.0,4653.846153846154,3949.7435897435903,4531.794871794872,4444.615384615385,4249.74358974359,4542.564102564103,4491.794871794872,4429.743589743591,4402.564102564103,4730.256410256411,4370.256410256411,4279.48717948718,4232.820512820514,4516.410256410257
2267.3704,0.16199316,0.28599232,0.33333334,0.5522388,0,0.0,0.0,0.0,0.0,1.0,0,0,0.0,0.0,0,0,67.0,0.0,555.0,4633.333333333334,3956.9230769230776,4512.307692307693,4440.512820512821,4242.051282051282,4542.051282051282,4460.512820512821,4391.282051282052,4360.512820512821,4698.974358974359,4370.256410256411,4264.102564102564,4189.2307692307695,4118.461538461539
2267.5269,0.22911742,0.28661624,0.33333334,0.5522388,0,0.0,0.0,0.0,0.0,1.0,0,0,0.0,0.0,0,0,87.0,0.0,506.0,4632.307692307693,3952.820512820513,4497.435897435898,4429.743589743591,4232.307692307693,4528.717948717949,4459.48717948718,4404.102564102564,4374.871794871796,4694.358974358975,4365.641025641026,4261.025641025642,4188.205128205129,4539.48717948718
2267.5269,0.22911742,0.28661624,0.33333334,0.5522388,0,0.0,0.0,0.0,0.0,1.0,0,0,0.0,0.0,0,0,87.0,0.0,506.0,4632.307692307693,3952.820512820513,4497.435897435898,4429.743589743591,4232.307692307693,4528.717948717949,4459.48717948718,4404.102564102564,4374.871794871796,4694.358974358975,4365.641025641026,4261.025641025642,4188.205128205129,4539.48717948718
2268.121,0.20399392,0.28093624,0.33333334,0.5522388,0,0.0,0.0,0.0,0.0,0.049768146,0,0,0.0,0.0,0,0,34.0,0.0,0.0,4622.564102564103,3940.5128205128212,4503.076923076924,4434.871794871796,4244.102564102564,4543.076923076924,4446.153846153847,4425.641025641026,4390.769230769231,4729.743589743591,4368.717948717949,4249.74358974359,4212.307692307693,4552.820512820514
2268.246,0.20399392,0.28093624,0.33333334,0.5522388,0,0.0,0.0,0.0,0.0,0.0,0,0,0.0,0.0,0,0,50.0,0.0,0.0,4626.666666666667,3943.076923076924,4501.025641025642,4432.820512820514,4242.051282051282,4540.512820512821,4445.641025641026,4411.282051282052,4388.717948717949,4715.384615384616,4370.769230769231,4249.2307692307695,4218.974358974359,4560.512820512821
2268.5276,0.20674026,0.27782553,0.33333334,0.5522388,0,0.0,0.0,0.0,0.0,0.0,0,0,0.0,0.0,0,0,86.0,0.0,558.0,4620.000000000001,3947.1794871794878,4507.6923076923085,4429.743589743591,4242.051282051282,4531.282051282052,4448.205128205129,4401.025641025642,4384.102564102564,4709.2307692307695,4368.717948717949,4249.2307692307695,4217.435897435898,4573.333333333334
2268.5276,0.20674026,0.27782553,0.33333334,0.5522388,0,0.0,0.0,0.0,0.0,0.0,0,0,0.0,0.0,0,0,86.0,0.0,558.0,4620.000000000001,3947.1794871794878,4507.6923076923085,4429.743589743591,4242.051282051282,4531.282051282052,4448.205128205129,4401.025641025642,4384.102564102564,4709.2307692307695,4368.717948717949,4249.2307692307695,4217.435897435898,4573.333333333334
2269.028,0.23903067,0.26798812,0.33333334,0.5522388,0,0.0,0.0,0.0,0.0,0.0,0,0,0.0,0.0,0,0,21.0,0.0,0.0,4634.871794871796,3944.1025641025644,4524.102564102564,4441.025641025642,4262.051282051282,4549.743589743591,4462.564102564103,4436.923076923077,4413.333333333334,4731.282051282052,4371.282051282052,4240.000000000001,4209.2307692307695,4585.128205128206
2269.028,0.23903067,0.26798812,0.33333334,0.5522388,0,0.0,0.0,0.0,0.0,0.0,0,0,0.0,0.0,0,0,21.0,0.0,0.0,4634.871794871796,3944.1025641025644,4524.102564102564,4441.025641025642,4262.051282051282,4549.743589743591,4462.564102564103,4436.923076923077,4413.333333333334,4731.282051282052,4371.282051282052,4240.000000000001,4209.2307692307695,4585.128205128206
2269.5286,0.20846468,0.26381785,0.33333334,0.5522388,0,0.0,0.0,0.0,0.0,0.0,0,0,0.0,0.0,0,0,85.0,0.0,147.0,4625.641025641026,3955.8974358974365,4521.025641025642,4441.025641025642,4252.307692307693,4546.153846153847,4466.666666666667,4441.538461538462,4408.717948717949,4732.820512820514,4364.615384615385,4230.256410256411,4217.948717948719,4570.769230769231
2269.5286,0.20846468,0.26381785,0.33333334,0.5522388,0,0.0,0.0,0.0,0.0,0.0,0,0,0.0,0.0,0,0,85.0,0.0,147.0,4625.641025641026,3955.8974358974365,4521.025641025642,4441.025641025642,4252.307692307693,4546.153846153847,4466.666666666667,4441.538461538462,4408.717948717949,4732.820512820514,4364.615384615385,4230.256410256411,4217.948717948719,4570.769230769231
2270.029,0.22273341,0.26254553,0.33333334,0.5522388,0,0.0,0.0,0.0,0.0,0.0,0,0,0.0,0.0,0,0,20.0,0.0,0.0,4636.410256410257,3956.9230769230776,4524.615384615385,4440.000000000001,4244.102564102564,4539.48717948718,4500.000000000001,4439.48717948718,4420.512820512821,4731.282051282052,4365.641025641026,4233.846153846154,4233.333333333334,4554.358974358975
2270.029,0.22273341,0.26254553,0.33333334,0.5522388,0,0.0,0.0,0.0,0.0,0.0,0,0,0.0,0.0,0,0,20.0,0.0,0.0,4636.410256410257,3956.9230769230776,4524.615384615385,4440.000000000001,4244.102564102564,4539.48717948718,4500.000000000001,4439.48717948718,4420.512820512821,4731.282051282052,4365.641025641026,4233.846153846154,4233.333333333334,4554.358974358975
2270.5293,0.22379358,0.2656669,0.33333334,0.5522388,0,0.0,0.0,0.0,0.0,0.0,0,0,0.0,0.0,0,0,84.0,0.0,0.0,4648.205128205129,3962.564102564103,4530.256410256411,4444.615384615385,4248.717948717949,4542.564102564103,4503.589743589744,4469.2307692307695,4420.000000000001,4712.307692307693,4368.205128205129,4246.153846153847,4231.794871794872,4585.641025641026
2270.5293,0.22379358,0.2656669,0.33333334,0.5522388,0,0.0,0.0,0.0,0.0,0.0,0,0,0.0,0.0,0,0,84.0,0.0,0.0,4648.205128205129,3962.564102564103,4530.256410256411,4444.615384615385,4248.717948717949,4542.564102564103,4503.589743589744,4469.2307692307695,4420.000000000001,4712.307692307693,4368.205128205129,4246.153846153847,4231.794871794872,4585.641025641026
2271.0298,0.2203331,0.26084375,0.33333334,0.5522388,0,0.0,0.0,0.0,0.0,0.0,0,0,0.0,0.0,0,0,19.0,0.0,0.0,4617.435897435898,3950.7692307692314,4511.282051282052,4438.974358974359,4239.48717948718,4546.153846153847,4473.846153846154,4428.205128205129,4391.282051282052,4716.410256410257,4367.179487179487,4247.179487179487,4205.641025641026,4558.974358974359
2271.0298,0.2203331,0.26084375,0.33333334,0.5522388,0,0.0,0.0,0.0,0.0,0.0,0,0,0.0,0.0,0,0,19.0,0.0,0.0,4617.435897435898,3950.7692307692314,4511.282051282052,4438.974358974359,4239.48717948718,4546.153846153847,4473.846153846154,4428.205128205129,4391.282051282052,4716.410256410257,4367.179487179487,4247.179487179487,4205.641025641026,4558.974358974359
2271.624,0.19119075,0.25713864,0.33333334,0.5522388,0,0.0,0.0,0.0,0.0,0.08444517,0,0,0.0,0.0,0,0,95.0,0.0,506.0,4646.153846153847,3962.564102564103,4536.923076923077,4443.589743589744,4248.205128205129,4545.128205128206,4483.589743589744,4446.666666666667,4398.974358974359,4695.8974358974365,4349.743589743591,4269.2307692307695,4236.410256410257,4560.000000000001
2271.8743,0.19119075,0.25713864,0.33333334,0.5522388,0,0.0,0.0,0.0,0.0,0.0329321,0,0,0.0,0.0,0,0,127.0,0.0,506.0,4635.384615384616,3931.7948717948725,4525.641025641026,4438.974358974359,4262.564102564103,4554.871794871796,4497.948717948719,4450.256410256411,4405.128205128206,4751.794871794872,4369.2307692307695,4269.74358974359,4265.641025641026,4546.666666666667
2272.1245,0.19732046,0.25236905,0.33333334,0.5522388,0,0.0,0.0,0.0,0.0,0.0,0,0,0.0,0.0,0,0,30.0,0.0,0.0,4634.358974358975,3911.7948717948725,4508.717948717949,4415.384615384616,4255.8974358974365,4552.820512820514,4459.48717948718,4435.384615384616,4380.512820512821,4792.820512820514,4386.666666666667,4263.076923076924,4255.384615384616,4532.820512820514
2272.1245,0.19732046,0.25236905,0.33333334,0.5522388,0,0.0,0.0,0.0,0.0,0.0,0,0,0.0,0.0,0,0,30.0,0.0,0.0,4634.358974358975,3911.7948717948725,4508.717948717949,4415.384615384616,4255.8974358974365,4552.820512820514,4459.48717948718,4435.384615384616,4380.512820512821,4792.820512820514,4386.666666666667,4263.076923076924,4255.384615384616,4532.820512820514
2272.531,0.22791135,0.253471,0.33333334,0.5522388,0,0.0,0.0,0.0,0.0,0.0,0,0,0.0,0.0,0,0,82.0,0.0,557.0,4601.025641025642,3921.538461538462,4463.076923076924,4420.512820512821,4252.307692307693,4555.8974358974365,4417.948717948719,4383.076923076924,4316.410256410257,4764.615384615386,4387.179487179487,4249.2307692307695,4220.000000000001,4504.615384615385
2272.531,0.22791135,0.253471,0.33333334,0.5522388,0,0.0,0.0,0.0,0.0,0.0,0,0,0.0,0.0,0,0,82.0,0.0,557.0,4601.025641025642,3921.538461538462,4463.076923076924,4420.512820512821,4252.307692307693,4555.8974358974365,4417.948717948719,4383.076923076924,4316.410256410257,4764.615384615386,4387.179487179487,4249.2307692307695,4220.000000000001,4504.615384615385
