timestamp,excitement,frustration,meditation,engagementBoredom,blink,clench,laugh,smile,eyebrow,furrowBrow,lookLeft,lookRight,smirkLeft,smirkRight,winkLeft,winkRight,eeg0,eeg1,eeg2,eeg3,eeg4,eeg5,eeg6,eeg7,eeg8,eeg9,eeg10,eeg11,eeg12,eeg13,eeg14,eeg15,eeg16
749.1829,0.41673988,0.64053315,0.33333334,0.5522388,0,0.0,0.0,0.0,0.0,0.36376256,0,0,0.0,0.0,0,0,29.0,0.0,0.0,4650.256410256411,3960.5128205128212,4502.564102564103,4426.666666666667,4230.769230769231,4534.358974358975,4452.307692307693,4439.48717948718,4372.820512820514,4712.307692307693,4352.307692307693,4280.512820512821,4182.564102564103,4527.179487179488
749.40186,0.41673988,0.64053315,0.33333334,0.5522388,0,0.0,0.0,0.0,0.0,0.018157039,0,0,0.0,0.0,0,0,57.0,0.0,0.0,4642.564102564103,3943.589743589744,4498.974358974359,4412.820512820514,4227.179487179487,4530.769230769231,4448.717948717949,4436.923076923077,4385.641025641026,4728.205128205129,4354.358974358975,4285.641025641026,4204.102564102564,4530.769230769231
749.68335,0.35560992,0.64154875,0.33333334,0.5522388,0,0.0,0.0,0.0,0.0,0.059616562,0,0,0.0,0.0,0,0,93.0,0.0,227.0,4636.923076923077,3944.1025641025644,4501.025641025642,4459.48717948718,4245.641025641026,4538.461538461539,4435.384615384616,4420.512820512821,4373.333333333334,4691.282051282052,4353.846153846154,4262.564102564103,4190.769230769231,4535.384615384616
749.77716,0.35560992,0.64154875,0.33333334,0.5522388,0,0.0,0.0,0.0,0.0,0.0,0,0,0.0,0.0,0,0,105.0,0.0,227.0,4598.461538461539,3903.589743589744,4497.435897435898,4456.410256410257,4252.307692307693,4539.48717948718,4452.820512820514,4440.000000000001,4388.717948717949,4724.615384615386,4357.948717948719,4260.000000000001,4207.179487179487,4514.871794871796
750.1838,0.329054,0.6137341,0.33333334,0.5522388,0,0.0,0.0,0.0,0.0,0.0,0,0,0.0,0.0,0,0,28.0,0.0,0.0,4596.410256410257,3903.589743589744,4487.179487179488,4435.384615384616,4240.512820512821,4531.794871794872,4427.6923076923085,4401.025641025642,4380.512820512821,4731.794871794872,4355.8974358974365,4257.948717948719,4208.205128205129,4512.820512820514
750.4027,0.329054,0.6137341,0.33333334,0.5522388,0,0.0,0.0,0.0,0.0,0.06467167,0,0,0.0,0.0,0,0,56.0,0.0,0.0,4603.076923076924,3919.48717948718,4492.820512820514,4429.2307692307695,4251.794871794872,4541.025641025642,4441.025641025642,4416.410256410257,4385.128205128206,4725.128205128206,4354.871794871796,4265.128205128206,4191.794871794872,4522.564102564103
750.6842,0.2782936,0.6015588,0.33333334,0.5522388,0,0.0,0.0,0.0,0.0,0.0,0,0,0.0,0.0,0,0,92.0,0.0,0.0,4636.410256410257,3941.0256410256416,4501.538461538462,4426.666666666667,4250.769230769231,4545.641025641026,4446.153846153847,4423.589743589744,4375.384615384616,4735.8974358974365,4355.384615384616,4271.794871794872,4196.410256410257,4539.48717948718
750.6842,0.2782936,0.6015588,0.33333334,0.5522388,0,0.0,0.0,0.0,0.0,0.0,0,0,0.0,0.0,0,0,92.0,0.0,0.0,4636.410256410257,3941.0256410256416,4501.538461538462,4426.666666666667,4250.769230769231,4545.641025641026,4446.153846153847,4423.589743589744,4375.384615384616,4735.8974358974365,4355.384615384616,4271.794871794872,4196.410256410257,4539.48717948718
751.18463,0.24292603,0.57924044,0.33333334,0.5522388,0,0.0,0.0,0.0,0.0,0.0,0,0,0.0,0.0,0,0,27.0,0.0,0.0,4642.051282051282,3934.8717948717954,4500.512820512821,4389.2307692307695,4241.538461538462,4543.589743589744,4472.307692307693,4435.384615384616,4394.358974358975,4746.153846153847,4356.923076923077,4263.589743589744,4193.333333333334,4533.333333333334
751.18463,0.24292603,0.57924044,0.33333334,0.5522388,0,0.0,0.0,0.0,0.0,0.0,0,0,0.0,0.0,0,0,27.0,0.0,0.0,4642.051282051282,3934.8717948717954,4500.512820512821,4389.2307692307695,4241.538461538462,4543.589743589744,4472.307692307693,4435.384615384616,4394.358974358975,4746.153846153847,4356.923076923077,4263.589743589744,4193.333333333334,4533.333333333334
751.68506,0.20602377,0.55942434,0.33333334,0.5522388,0,0.0,0.0,0.0,0.0,0.0,0,0,0.0,0.0,0,0,91.0,0.0,375.0,4698.461538461539,3984.615384615385,4517.948717948719,4431.282051282052,4224.615384615385,4529.743589743591,4531.282051282052,4494.358974358975,4447.6923076923085,4813.333333333334,4367.179487179487,4267.6923076923085,4240.000000000001,4598.461538461539
751.84143,0.20602377,0.55942434,0.33333334,0.5522388,1,0.0,0.0,0.0,0.0,0.0,0,0,0.0,0.0,0,0,111.0,0.0,375.0,4737.948717948719,4017.9487179487182,4525.641025641026,4431.282051282052,4213.333333333334,4510.769230769231,4576.923076923077,4537.948717948719,4483.076923076924,4860.512820512821,4371.794871794872,4271.282051282052,4283.076923076924,4616.923076923077
752.1855,0.39130095,0.5943491,0.33333334,0.5522388,0,0.0,0.0,0.0,0.0,0.0,0,0,0.0,0.0,0,0,26.0,0.0,0.0,4716.923076923077,3991.7948717948725,4526.666666666667,4442.564102564103,4233.846153846154,4531.794871794872,4565.641025641026,4545.641025641026,4495.8974358974365,4855.8974358974365,4370.769230769231,4265.641025641026,4298.461538461539,4604.615384615385
752.1855,0.39130095,0.5943491,0.33333334,0.5522388,0,0.0,0.0,0.0,0.0,0.0,0,0,0.0,0.0,0,0,26.0,0.0,0.0,4716.923076923077,3991.7948717948725,4526.666666666667,4442.564102564103,4233.846153846154,4531.794871794872,4565.641025641026,4545.641025641026,4495.8974358974365,4855.8974358974365,4370.769230769231,4265.641025641026,4298.461538461539,4604.615384615385
752.6859,0.52253294,0.65632683,0.33333334,0.5522388,0,0.0,0.0,0.0,0.0,0.0,0,0,0.0,0.0,0,0,90.0,0.0,593.0,4651.282051282052,3967.692307692308,4510.256410256411,4421.538461538462,4245.641025641026,4543.076923076924,4525.128205128206,4498.461538461539,4464.615384615385,4795.8974358974365,4370.769230769231,4250.256410256411,4221.538461538462,4574.871794871796
752.6859,0.52253294,0.65632683,0.33333334,0.5522388,0,0.0,0.0,0.0,0.0,0.0,0,0,0.0,0.0,0,0,90.0,0.0,593.0,4651.282051282052,3967.692307692308,4510.256410256411,4421.538461538462,4245.641025641026,4543.076923076924,4525.128205128206,4498.461538461539,4464.615384615385,4795.8974358974365,4370.769230769231,4250.256410256411,4221.538461538462,4574.871794871796
753.18634,0.4906365,0.733891,0.33333334,0.5522388,0,0.0,0.0,0.0,0.0,0.0,0,0,0.0,0.0,0,0,25.0,0.0,0.0,4690.256410256411,4006.666666666667,4510.769230769231,4324.615384615385,4254.871794871796,4556.923076923077,4526.153846153847,4479.48717948718,4441.025641025642,4771.282051282052,4372.307692307693,4280.000000000001,4207.179487179487,4566.666666666667
753.18634,0.4906365,0.733891,0.33333334,0.5522388,0,0.0,0.0,0.0,0.0,0.0,0,0,0.0,0.0,0,0,25.0,0.0,0.0,4690.256410256411,4006.666666666667,4510.769230769231,4324.615384615385,4254.871794871796,4556.923076923077,4526.153846153847,4479.48717948718,4441.025641025642,4771.282051282052,4372.307692307693,4280.000000000001,4207.179487179487,4566.666666666667
753.68677,0.51139504,0.80290365,0.33333334,0.5522388,0,0.0,0.0,0.0,0.0,0.0,0,0,0.0,0.0,0,0,89.0,0.0,227.0,4720.512820512821,3964.1025641025644,4516.410256410257,4394.871794871796,4237.948717948719,4547.6923076923085,4525.128205128206,4491.794871794872,4417.948717948719,4768.717948717949,4377.435897435898,4290.256410256411,4234.358974358975,4591.282051282052
753.68677,0.51139504,0.80290365,0.33333334,0.5522388,0,0.0,0.0,0.0,0.0,0.0,0,0,0.0,0.0,0,0,89.0,0.0,227.0,4720.512820512821,3964.1025641025644,4516.410256410257,4394.871794871796,4237.948717948719,4547.6923076923085,4525.128205128206,4491.794871794872,4417.948717948719,4768.717948717949,4377.435897435898,4290.256410256411,4234.358974358975,4591.282051282052
754.1872,0.5130888,0.84754795,0.33333334,0.5522388,0,0.0,0.0,0.0,0.0,0.2090923,0,0,0.0,0.0,0,0,24.0,0.0,0.0,4674.871794871796,3945.1282051282055,4515.384615384616,4510.256410256411,4230.256410256411,4531.794871794872,4496.923076923077,4468.717948717949,4408.717948717949,4743.589743589744,4377.948717948719,4278.461538461539,4196.410256410257,4580.000000000001
754.4061,0.5130888,0.84754795,0.33333334,0.5522388,0,0.0,0.0,0.0,0.0,0.5350385,0,0,0.0,0.0,0,0,52.0,0.0,0.0,4680.512820512821,3945.1282051282055,4517.948717948719,4534.358974358975,4233.846153846154,4530.256410256411,4485.128205128206,4484.102564102564,4415.384615384616,4771.282051282052,4376.923076923077,4289.74358974359,4226.153846153847,4611.794871794872
754.6876,0.47460046,0.8396047,0.33333334,0.5522388,0,0.0,0.0,0.0,0.0,0.23412606,0,0,0.0,0.0,0,0,88.0,0.0,0.0,4663.589743589744,3945.6410256410263,4515.8974358974365,4518.974358974359,4242.564102564103,4531.282051282052,4485.128205128206,4464.102564102564,4407.6923076923085,4753.846153846154,4373.846153846154,4292.307692307693,4207.179487179487,4589.2307692307695
754.90656,0.47460046,0.8396047,0.33333334,0.5522388,0,0.0,0.0,0.0,0.0,0.089959204,0,0,0.0,0.0,0,0,116.0,0.0,0.0,4672.307692307693,3948.205128205129,4521.025641025642,4510.256410256411,4248.205128205129,4534.358974358975,4489.743589743591,4477.435897435898,4424.102564102564,4767.6923076923085,4376.410256410257,4295.384615384616,4211.282051282052,4591.282051282052
755.18805,0.4611441,0.7996775,0.33333334,0.5522388,0,0.0,0.0,0.0,0.0,0.0,0,0,0.0,0.0,0,0,23.0,0.0,0.0,4660.512820512821,3917.435897435898,4512.820512820514,4511.794871794872,4237.948717948719,4529.743589743591,4485.641025641026,4480.512820512821,4436.410256410257,4781.538461538462,4373.846153846154,4293.333333333334,4210.256410256411,4575.8974358974365
755.18805,0.4611441,0.7996775,0.33333334,0.5522388,0,0.0,0.0,0.0,0.0,0.0,0,0,0.0,0.0,0,0,23.0,0.0,0.0,4660.512820512821,3917.435897435898,4512.820512820514,4511.794871794872,4237.948717948719,4529.743589743591,4485.641025641026,4480.512820512821,4436.410256410257,4781.538461538462,4373.846153846154,4293.333333333334,4210.256410256411,4575.8974358974365
755.6885,0.46029702,0.76306313,0.33333334,0.5522388,0,0.0,0.0,0.0,0.0,0.0,0,0,0.0,0.0,0,0,87.0,0.0,375.0,4656.410256410257,3937.435897435898,4517.948717948719,4536.923076923077,4233.333333333334,4529.2307692307695,4465.641025641026,4461.538461538462,4408.717948717949,4750.769230769231,4378.974358974359,4313.846153846154,4178.461538461539,4565.128205128206
755.6885,0.46029702,0.76306313,0.33333334,0.5522388,0,0.0,0.0,0.0,0.0,0.0,0,0,0.0,0.0,0,0,87.0,0.0,375.0,4656.410256410257,3937.435897435898,4517.948717948719,4536.923076923077,4233.333333333334,4529.2307692307695,4465.641025641026,4461.538461538462,4408.717948717949,4750.769230769231,4378.974358974359,4313.846153846154,4178.461538461539,4565.128205128206
756.1889,0.45124212,0.7133047,0.33333334,0.5522388,0,0.0,0.0,0.0,0.0,0.0,0,0,0.0,0.0,0,0,22.0,0.0,0.0,4634.358974358975,3931.7948717948725,4513.846153846154,4490.769230769231,4236.923076923077,4531.794871794872,4457.435897435898,4452.307692307693,4408.205128205129,4755.8974358974365,4375.8974358974365,4297.435897435898,4164.102564102564,4552.820512820514
756.1889,0.45124212,0.7133047,0.33333334,0.5522388,0,0.0,0.0,0.0,0.0,0.0,0,0,0.0,0.0,0,0,22.0,0.0,0.0,4634.358974358975,3931.7948717948725,4513.846153846154,4490.769230769231,4236.923076923077,4531.794871794872,4457.435897435898,4452.307692307693,4408.205128205129,4755.8974358974365,4375.8974358974365,4297.435897435898,4164.102564102564,4552.820512820514
756.68933,0.44558504,0.66390795,0.33333334,0.5522388,0,0.0,0.0,0.0,0.0,0.0,0,0,0.0,0.0,0,0,86.0,0.0,593.0,4598.974358974359,3927.692307692308,4505.128205128206,4476.923076923077,4248.205128205129,4544.615384615385,4469.2307692307695,4445.128205128206,4395.384615384616,4749.743589743591,4376.923076923077,4277.948717948719,4172.820512820514,4516.923076923077
756.68933,0.44558504,0.66390795,0.33333334,0.5522388,0,0.0,0.0,0.0,0.0,0.0,0,0,0.0,0.0,0,0,86.0,0.0,593.0,4598.974358974359,3927.692307692308,4505.128205128206,4476.923076923077,4248.205128205129,4544.615384615385,4469.2307692307695,4445.128205128206,4395.384615384616,4749.743589743591,4376.923076923077,4277.948717948719,4172.820512820514,4516.923076923077
757.18976,0.42761523,0.640953,0.33333334,0.5522388,0,0.0,0.0,0.0,0.0,0.0,0,0,0.0,0.0,0,0,21.0,0.0,0.0,4620.000000000001,3936.9230769230776,4516.410256410257,4476.410256410257,4253.333333333334,4552.820512820514,4474.358974358975,4448.205128205129,4394.358974358975,4721.538461538462,4377.435897435898,4276.410256410257,4171.282051282052,4529.743589743591
757.18976,0.42761523,0.640953,0.33333334,0.5522388,0,0.0,0.0,0.0,0.0,0.0,0,0,0.0,0.0,0,0,21.0,0.0,0.0,4620.000000000001,3936.9230769230776,4516.410256410257,4476.410256410257,4253.333333333334,4552.820512820514,4474.358974358975,4448.205128205129,4394.358974358975,4721.538461538462,4377.435897435898,4276.410256410257,4171.282051282052,4529.743589743591
757.6902,0.43075922,0.6178863,0.33333334,0.5522388,0,0.0,0.0,0.0,0.0,0.0,0,0,0.0,0.0,0,0,85.0,0.0,227.0,4637.948717948719,3941.0256410256416,4521.025641025642,4491.282051282052,4256.923076923077,4557.948717948719,4482.051282051282,4449.2307692307695,4413.333333333334,4754.358974358975,4374.871794871796,4296.923076923077,4210.769230769231,4532.820512820514
757.6902,0.43075922,0.6178863,0.33333334,0.5522388,0,0.0,0.0,0.0,0.0,0.0,0,0,0.0,0.0,0,0,85.0,0.0,227.0,4637.948717948719,3941.0256410256416,4521.025641025642,4491.282051282052,4256.923076923077,4557.948717948719,4482.051282051282,4449.2307692307695,4413.333333333334,4754.358974358975,4374.871794871796,4296.923076923077,4210.769230769231,4532.820512820514
758.1906,0.44301608,0.63175297,0.33333334,0.5522388,1,0.0,0.0,0.0,0.0,0.0,0,0,0.0,0.0,0,0,20.0,0.0,0.0,4662.564102564103,3962.0512820512827,4517.948717948719,4427.179487179487,4254.358974358975,4556.923076923077,4490.769230769231,4473.333333333334,4419.48717948718,4756.923076923077,4381.025641025642,4319.48717948718,4223.589743589744,4548.205128205129
758.2532,0.44301608,0.63175297,0.33333334,0.5522388,0,0.0,0.0,0.0,0.0,0.0,0,0,0.0,0.0,0,0,28.0,0.0,0.0,4659.48717948718,3960.0000000000005,4523.076923076924,4430.769230769231,4264.615384615385,4564.102564102564,4507.6923076923085,4472.820512820514,4425.128205128206,4762.051282051282,4377.948717948719,4321.025641025642,4216.410256410257,4542.051282051282
758.69104,0.3734198,0.6661223,0.33333334,0.5522388,0,0.0,0.0,0.0,0.0,0.0,0,0,0.0,0.0,0,0,84.0,0.0,0.0,4623.589743589744,3946.666666666667,4518.461538461539,4415.8974358974365,4265.641025641026,4566.153846153847,4496.410256410257,4461.538461538462,4435.8974358974365,4771.794871794872,4381.025641025642,4334.871794871796,4223.076923076924,4520.512820512821
758.91003,0.3734198,0.6661223,0.33333334,0.5522388,0,0.0,0.0,0.0,0.0,0.17227331,0,0,0.0,0.0,0,0,112.0,0.0,0.0,4651.282051282052,3987.1794871794878,4515.384615384616,4292.820512820514,4265.128205128206,4573.333333333334,4502.564102564103,4465.128205128206,4433.846153846154,4754.871794871796,4375.384615384616,4352.307692307693,4203.589743589744,4516.410256410257
759.19147,0.39392692,0.698405,0.33333334,0.5522388,0,0.0,0.0,0.0,0.0,0.22199036,0,0,0.0,0.0,0,0,19.0,0.0,0.0,4680.000000000001,4043.076923076924,4517.435897435898,4202.564102564103,4274.358974358975,4574.871794871796,4499.48717948718,4479.48717948718,4438.974358974359,4761.025641025642,4377.435897435898,4323.589743589744,4237.435897435898,4555.8974358974365
759.28534,0.39392692,0.698405,0.33333334,0.5522388,0,0.0,0.0,0.0,0.0,0.0,0,0,0.0,0.0,0,0,31.0,0.0,0.0,4677.435897435898,4027.692307692308,4514.871794871796,4196.923076923077,4270.769230769231,4566.666666666667,4501.538461538462,4473.846153846154,4426.666666666667,4752.307692307693,4381.025641025642,4304.615384615385,4218.974358974359,4553.333333333334
759.69196,0.43274778,0.7249378,0.33333334,0.5522388,0,0.0,0.0,0.0,0.0,0.0,0,0,0.0,0.0,0,0,83.0,0.0,375.0,4723.589743589744,4174.871794871796,4507.6923076923085,3672.307692307693,4316.410256410257,4617.435897435898,4578.974358974359,4547.6923076923085,4501.025641025642,4836.923076923077,4389.743589743591,4363.076923076924,4280.000000000001,4597.948717948719
759.9109,0.43274778,0.7249378,0.33333334,0.5522388,0,0.0,0.18750213,0.0,0.0,0.0,0,0,0.0,0.0,0,0,111.0,0.0,375.0,4736.410256410257,4163.076923076924,4517.948717948719,3784.615384615385,4318.461538461539,4618.461538461539,4574.358974358975,4545.128205128206,4505.641025641026,4853.846153846154,4390.256410256411,4366.666666666667,4312.820512820514,4611.794871794872
760.1924,0.59081805,0.75188905,0.33333334,0.5522388,0,0.0,0.11291898,0.0,0.0,0.0,0,0,0.0,0.0,0,0,18.0,0.0,0.0,4717.948717948719,4121.025641025642,4516.923076923077,3917.435897435898,4297.435897435898,4592.820512820514,4541.025641025642,4513.846153846154,4482.051282051282,4823.076923076924,4390.769230769231,4344.102564102564,4316.923076923077,4611.794871794872
760.4113,0.59081805,0.75188905,0.33333334,0.5522388,0,0.0,0.19466552,0.0,0.0,0.0,0,0,0.0,0.0,0,0,46.0,0.0,0.0,4666.153846153847,4060.0000000000005,4511.282051282052,4012.307692307693,4291.282051282052,4593.333333333334,4531.794871794872,4500.512820512821,4468.205128205129,4804.615384615386,4389.2307692307695,4344.615384615385,4269.74358974359,4581.538461538462
760.6928,0.7022628,0.7744374,0.33333334,0.5522388,0,0.0,0.28765392,0.0,0.0,0.0,0,0,0.0,0.0,0,0,82.0,0.0,593.0,4687.179487179488,4052.307692307693,4514.871794871796,4107.6923076923085,4283.076923076924,4585.128205128206,4532.307692307693,4495.384615384616,4451.282051282052,4776.923076923077,4387.179487179487,4329.2307692307695,4256.410256410257,4584.615384615385
760.91174,0.7022628,0.7744374,0.33333334,0.5522388,0,0.0,0.0,0.0,0.0,0.0,0,0,0.0,0.0,0,0,110.0,0.0,593.0,4720.000000000001,4081.0256410256416,4550.256410256411,4217.948717948719,4323.589743589744,4627.6923076923085,4563.076923076924,4529.743589743591,4489.743589743591,4823.076923076924,4391.794871794872,4336.410256410257,4306.153846153847,4610.256410256411
761.19324,0.76253927,0.794657,0.33333334,0.5522388,0,0.0,0.0,0.0,0.0,0.0,0,0,0.0,0.0,0,0,17.0,0.0,0.0,4677.948717948719,4018.9743589743593,4510.256410256411,4225.128205128206,4261.538461538462,4565.128205128206,4496.410256410257,4475.384615384616,4445.641025641026,4765.641025641026,4389.2307692307695,4302.051282051282,4240.000000000001,4580.512820512821
761.19324,0.76253927,0.794657,0.33333334,0.5522388,0,0.0,0.0,0.0,0.0,0.0,0,0,0.0,0.0,0,0,17.0,0.0,0.0,4677.948717948719,4018.9743589743593,4510.256410256411,4225.128205128206,4261.538461538462,4565.128205128206,4496.410256410257,4475.384615384616,4445.641025641026,4765.641025641026,4389.2307692307695,4302.051282051282,4240.000000000001,4580.512820512821
761.69366,0.7545555,0.79233956,0.33333334,0.5522388,0,0.0,0.0,0.0,0.0,0.0,0,0,0.0,0.0,0,0,81.0,0.0,225.0,4665.128205128206,3978.9743589743593,4511.794871794872,4318.974358974359,4258.461538461539,4561.538461538462,4478.974358974359,4461.538461538462,4436.410256410257,4750.769230769231,4389.743589743591,4287.6923076923085,4223.076923076924,4569.743589743591
761.69366,0.7545555,0.79233956,0.33333334,0.5522388,0,0.0,0.0,0.0,0.0,0.0,0,0,0.0,0.0,0,0,81.0,0.0,225.0,4665.128205128206,3978.9743589743593,4511.794871794872,4318.974358974359,4258.461538461539,4561.538461538462,4478.974358974359,4461.538461538462,4436.410256410257,4750.769230769231,4389.743589743591,4287.6923076923085,4223.076923076924,4569.743589743591
762.1941,0.81405693,0.7387639,0.33333334,0.5522388,0,0.0,0.0,0.0,0.0,0.0,0,0,0.0,0.0,0,0,16.0,0.0,0.0,4645.128205128206,3970.2564102564106,4509.2307692307695,4411.794871794872,4241.538461538462,4553.333333333334,4454.871794871796,4435.8974358974365,4405.641025641026,4739.48717948718,4386.153846153847,4282.051282051282,4211.794871794872,4560.000000000001
762.1941,0.81405693,0.7387639,0.33333334,0.5522388,0,0.0,0.0,0.0,0.0,0.0,0,0,0.0,0.0,0,0,16.0,0.0,0.0,4645.128205128206,3970.2564102564106,4509.2307692307695,4411.794871794872,4241.538461538462,4553.333333333334,4454.871794871796,4435.8974358974365,4405.641025641026,4739.48717948718,4386.153846153847,4282.051282051282,4211.794871794872,4560.000000000001
762.6945,0.8679902,0.69986767,0.33333334,0.5522388,0,0.0,0.0,0.0,0.0,0.0,0,0,0.0,0.0,0,0,80.0,0.0,0.0,4660.512820512821,3972.820512820513,4513.333333333334,4397.948717948719,4248.717948717949,4550.769230769231,4457.948717948719,4436.410256410257,4411.794871794872,4736.410256410257,4384.615384615385,4274.358974358975,4233.333333333334,4569.2307692307695
762.6945,0.8679902,0.69986767,0.33333334,0.5522388,0,0.0,0.0,0.0,0.0,0.0,0,0,0.0,0.0,0,0,80.0,0.0,0.0,4660.512820512821,3972.820512820513,4513.333333333334,4397.948717948719,4248.717948717949,4550.769230769231,4457.948717948719,4436.410256410257,4411.794871794872,4736.410256410257,4384.615384615385,4274.358974358975,4233.333333333334,4569.2307692307695
763.19495,0.83250743,0.64383787,0.33333334,0.5522388,0,0.0,0.0,0.0,0.0,0.0,0,0,0.0,0.0,0,0,15.0,0.0,375.0,4668.717948717949,4001.0256410256416,4509.743589743591,4380.000000000001,4245.128205128206,4544.102564102564,4451.794871794872,4427.179487179487,4391.794871794872,4698.461538461539,4381.025641025642,4254.358974358975,4188.205128205129,4552.820512820514
763.19495,0.83250743,0.64383787,0.33333334,0.5522388,0,0.0,0.0,0.0,0.0,0.0,0,0,0.0,0.0,0,0,15.0,0.0,375.0,4668.717948717949,4001.0256410256416,4509.743589743591,4380.000000000001,4245.128205128206,4544.102564102564,4451.794871794872,4427.179487179487,4391.794871794872,4698.461538461539,4381.025641025642,4254.358974358975,4188.205128205129,4552.820512820514
763.6954,0.7532615,0.5988841,0.33333334,0.5522388,0,0.0,0.0,0.0,0.0,0.0,0,0,0.0,0.0,0,0,79.0,0.0,375.0,4681.025641025642,3996.410256410257,4510.256410256411,4325.641025641026,4254.358974358975,4560.000000000001,4482.051282051282,4447.179487179487,4418.461538461539,4733.846153846154,4384.102564102564,4283.076923076924,4226.666666666667,4556.410256410257
763.6954,0.7532615,0.5988841,0.33333334,0.5522388,0,0.0,0.0,0.0,0.0,0.0,0,0,0.0,0.0,0,0,79.0,0.0,375.0,4681.025641025642,3996.410256410257,4510.256410256411,4325.641025641026,4254.358974358975,4560.000000000001,4482.051282051282,4447.179487179487,4418.461538461539,4733.846153846154,4384.102564102564,4283.076923076924,4226.666666666667,4556.410256410257
764.1958,0.7225836,0.56528765,0.33333334,0.5522388,0,0.0,0.0,0.0,0.0,0.0,0,0,0.0,0.0,0,0,14.0,0.0,593.0,4649.2307692307695,3968.205128205129,4508.717948717949,4342.051282051282,4253.846153846154,4552.307692307693,4484.615384615385,4464.102564102564,4403.076923076924,4732.307692307693,4382.564102564103,4281.538461538462,4218.974358974359,4525.128205128206
764.1958,0.7225836,0.56528765,0.33333334,0.5522388,0,0.0,0.0,0.0,0.0,0.0,0,0,0.0,0.0,0,0,14.0,0.0,593.0,4649.2307692307695,3968.205128205129,4508.717948717949,4342.051282051282,4253.846153846154,4552.307692307693,4484.615384615385,4464.102564102564,4403.076923076924,4732.307692307693,4382.564102564103,4281.538461538462,4218.974358974359,4525.128205128206
764.6962,0.68047976,0.5255756,0.33333334,0.5522388,0,0.0,0.0,0.0,0.0,0.0,0,0,0.0,0.0,0,0,78.0,0.0,593.0,4649.743589743591,3982.0512820512827,4509.2307692307695,4361.025641025642,4251.282051282052,4553.846153846154,4480.512820512821,4466.153846153847,4407.179487179487,4733.333333333334,4382.564102564103,4279.48717948718,4213.846153846154,4525.128205128206
764.6962,0.68047976,0.5255756,0.33333334,0.5522388,0,0.0,0.0,0.0,0.0,0.0,0,0,0.0,0.0,0,0,78.0,0.0,593.0,4649.743589743591,3982.0512820512827,4509.2307692307695,4361.025641025642,4251.282051282052,4553.846153846154,4480.512820512821,4466.153846153847,4407.179487179487,4733.333333333334,4382.564102564103,4279.48717948718,4213.846153846154,4525.128205128206
765.19666,0.64480627,0.49320495,0.33333334,0.5522388,0,0.0,0.0,0.0,0.0,0.0,0,0,0.0,0.0,0,0,13.0,0.0,225.0,4646.153846153847,3971.7948717948725,4511.282051282052,4375.384615384616,4249.2307692307695,4551.282051282052,4464.615384615385,4449.2307692307695,4405.641025641026,4735.384615384616,4380.000000000001,4279.48717948718,4212.307692307693,4523.589743589744
765.19666,0.64480627,0.49320495,0.33333334,0.5522388,0,0.0,0.0,0.0,0.0,0.0,0,0,0.0,0.0,0,0,13.0,0.0,225.0,4646.153846153847,3971.7948717948725,4511.282051282052,4375.384615384616,4249.2307692307695,4551.282051282052,4464.615384615385,4449.2307692307695,4405.641025641026,4735.384615384616,4380.000000000001,4279.48717948718,4212.307692307693,4523.589743589744
765.6971,0.6175616,0.46770945,0.33333334,0.5522388,0,0.0,0.0,0.0,0.0,0.63987887,0,0,0.0,0.0,0,0,77.0,0.0,224.0,4633.333333333334,3964.1025641025644,4504.102564102564,4395.8974358974365,4249.2307692307695,4549.2307692307695,4452.307692307693,4410.769230769231,4374.358974358975,4701.538461538462,4374.358974358975,4248.717948717949,4168.205128205129,4527.6923076923085
765.916,0.6175616,0.46770945,0.33333334,0.5522388,0,0.0,0.0,0.0,0.0,0.4032561,0,0,0.0,0.0,0,0,105.0,0.0,224.0,4654.358974358975,3984.615384615385,4512.820512820514,4399.48717948718,4253.846153846154,4556.923076923077,4467.6923076923085,4435.8974358974365,4405.641025641026,4741.538461538462,4378.461538461539,4281.025641025642,4222.051282051282,4559.48717948718
766.1975,0.5822925,0.4592011,0.33333334,0.5522388,0,0.0,0.0,0.0,0.0,0.0,0,0,0.0,0.0,0,0,12.0,0.0,0.0,4652.820512820514,3977.9487179487182,4510.769230769231,4394.871794871796,4249.74358974359,4551.282051282052,4464.615384615385,4429.2307692307695,4390.256410256411,4730.256410256411,4378.461538461539,4313.846153846154,4210.256410256411,4553.333333333334
766.1975,0.5822925,0.4592011,0.33333334,0.5522388,0,0.0,0.0,0.0,0.0,0.0,0,0,0.0,0.0,0,0,12.0,0.0,0.0,4652.820512820514,3977.9487179487182,4510.769230769231,4394.871794871796,4249.74358974359,4551.282051282052,4464.615384615385,4429.2307692307695,4390.256410256411,4730.256410256411,4378.461538461539,4313.846153846154,4210.256410256411,4553.333333333334
766.69794,0.5281243,0.47522068,0.33333334,0.5522388,0,0.0,0.0,0.0,0.0,0.15448944,0,0,0.0,0.0,0,0,76.0,0.0,0.0,4669.743589743591,3983.076923076924,4518.461538461539,4381.025641025642,4262.564102564103,4564.615384615385,4485.128205128206,4469.2307692307695,4412.820512820514,4741.538461538462,4382.051282051282,4312.307692307693,4198.974358974359,4562.564102564103
766.9169,0.5281243,0.47522068,0.33333334,0.5522388,0,0.0,0.0,0.0,0.0,0.1137657,0,0,0.0,0.0,0,0,104.0,0.0,0.0,4668.205128205129,3973.333333333334,4521.538461538462,4366.666666666667,4260.000000000001,4562.564102564103,4478.974358974359,4470.256410256411,4414.358974358975,4748.205128205129,4392.820512820514,4305.641025641026,4210.256410256411,4572.307692307693
767.19836,0.47569525,0.49143338,0.33333334,0.5522388,0,0.0,0.0,0.0,0.0,0.0,0,0,0.0,0.0,0,0,11.0,0.0,375.0,4654.871794871796,3974.358974358975,4515.384615384616,4385.641025641026,4269.74358974359,4565.641025641026,4504.102564102564,4473.333333333334,4421.538461538462,4740.512820512821,4378.974358974359,4277.948717948719,4192.820512820514,4567.6923076923085
767.19836,0.47569525,0.49143338,0.33333334,0.5522388,0,0.0,0.0,0.0,0.0,0.0,0,0,0.0,0.0,0,0,11.0,0.0,375.0,4654.871794871796,3974.358974358975,4515.384615384616,4385.641025641026,4269.74358974359,4565.641025641026,4504.102564102564,4473.333333333334,4421.538461538462,4740.512820512821,4378.974358974359,4277.948717948719,4192.820512820514,4567.6923076923085
767.6988,0.6133147,0.59109175,0.33333334,0.5522388,0,0.0,0.0,0.0,0.0,0.0,0,0,0.0,0.0,0,0,75.0,0.0,375.0,4772.820512820514,4104.102564102564,4514.871794871796,3820.512820512821,4333.846153846154,4624.615384615385,4609.743589743591,4607.179487179488,4531.282051282052,4867.6923076923085,4404.102564102564,4350.256410256411,4367.179487179487,4603.076923076924
767.9177,0.6133147,0.59109175,0.33333334,0.5522388,0,0.0,0.4139216,0.0,0.0,0.0,0,0,0.0,0.0,0,0,103.0,0.0,375.0,4774.358974358975,4018.461538461539,4515.384615384616,3927.1794871794878,4315.8974358974365,4616.923076923077,4607.179487179488,4600.512820512821,4524.102564102564,4871.282051282052,4397.948717948719,4368.205128205129,4409.2307692307695,4602.564102564103
768.1992,0.7056281,0.6610485,0.33333334,0.5522388,0,0.0,0.20023173,0.0,0.0,0.0,0,0,0.0,0.0,0,0,10.0,0.0,593.0,4765.641025641026,4021.0256410256416,4519.48717948718,4061.0256410256416,4304.615384615385,4604.102564102564,4572.820512820514,4565.641025641026,4510.256410256411,4851.282051282052,4401.025641025642,4368.205128205129,4423.076923076924,4592.820512820514
768.41815,0.7056281,0.6610485,0.33333334,0.5522388,0,0.0,0.095312916,0.0,0.0,0.0,0,0,0.0,0.0,0,0,38.0,0.0,0.0,4744.615384615386,4010.7692307692314,4511.794871794872,4131.794871794872,4283.076923076924,4581.025641025642,4545.128205128206,4521.538461538462,4478.461538461539,4813.846153846154,4402.564102564103,4361.538461538462,4381.025641025642,4574.358974358975
768.69965,0.8206454,0.6959531,0.33333334,0.5522388,0,0.0,0.0,0.0,0.0,0.0,0,0,0.0,0.0,0,0,74.0,0.0,593.0,4767.179487179488,4001.0256410256416,4503.589743589744,4202.051282051282,4258.461538461539,4561.025641025642,4527.179487179488,4512.820512820514,4464.102564102564,4772.307692307693,4396.410256410257,4364.615384615385,4337.435897435898,4571.282051282052
768.69965,0.8206454,0.6959531,0.33333334,0.5522388,0,0.0,0.0,0.0,0.0,0.0,0,0,0.0,0.0,0,0,74.0,0.0,593.0,4767.179487179488,4001.0256410256416,4503.589743589744,4202.051282051282,4258.461538461539,4561.025641025642,4527.179487179488,4512.820512820514,4464.102564102564,4772.307692307693,4396.410256410257,4364.615384615385,4337.435897435898,4571.282051282052
769.2001,0.83481926,0.7276922,0.33333334,0.5522388,0,0.0,0.0,0.0,0.0,0.0,0,0,0.0,0.0,0,0,9.0,0.0,514.0,4719.48717948718,3976.9230769230776,4498.974358974359,4282.564102564103,4244.102564102564,4543.076923076924,4494.871794871796,4480.000000000001,4433.846153846154,4732.820512820514,4393.333333333334,4349.743589743591,4286.666666666667,4560.000000000001
769.2001,0.83481926,0.7276922,0.33333334,0.5522388,0,0.0,0.0,0.0,0.0,0.0,0,0,0.0,0.0,0,0,9.0,0.0,514.0,4719.48717948718,3976.9230769230776,4498.974358974359,4282.564102564103,4244.102564102564,4543.076923076924,4494.871794871796,4480.000000000001,4433.846153846154,4732.820512820514,4393.333333333334,4349.743589743591,4286.666666666667,4560.000000000001
769.7005,0.8328726,0.68769306,0.33333334,0.5522388,0,0.0,0.0,0.0,0.0,0.0,0,0,0.0,0.0,0,0,73.0,0.0,514.0,4669.743589743591,3962.0512820512827,4494.358974358975,4343.076923076924,4226.666666666667,4531.794871794872,4455.384615384616,4428.717948717949,4385.128205128206,4680.000000000001,4385.128205128206,4330.769230769231,4226.666666666667,4540.512820512821
769.7005,0.8328726,0.68769306,0.33333334,0.5522388,0,0.0,0.0,0.0,0.0,0.0,0,0,0.0,0.0,0,0,73.0,0.0,514.0,4669.743589743591,3962.0512820512827,4494.358974358975,4343.076923076924,4226.666666666667,4531.794871794872,4455.384615384616,4428.717948717949,4385.128205128206,4680.000000000001,4385.128205128206,4330.769230769231,4226.666666666667,4540.512820512821
770.2009,0.87436503,0.63282883,0.33333334,0.5522388,0,0.0,0.0,0.0,0.0,0.0,0,0,0.0,0.0,0,0,8.0,0.0,467.0,4682.051282051282,3957.435897435898,4498.974358974359,4383.589743589744,4237.435897435898,4535.8974358974365,4486.153846153847,4465.641025641026,4417.435897435898,4708.717948717949,4383.589743589744,4292.820512820514,4241.538461538462,4550.769230769231
770.4199,0.87436503,0.63282883,0.33333334,0.5522388,0,0.0,0.0,0.0,0.0,0.0,0,0,0.0,0.0,0,0,36.0,0.0,0.0,4683.589743589744,3948.717948717949,4498.974358974359,4395.8974358974365,4241.025641025642,4542.564102564103,4486.153846153847,4471.282051282052,4417.435897435898,4708.205128205129,4384.102564102564,4282.051282051282,4240.512820512821,4538.974358974359
770.7014,0.86627656,0.59334,0.33333334,0.5522388,0,0.0,0.0,0.0,0.0,0.0,0,0,0.0,0.0,0,0,72.0,0.0,467.0,4685.641025641026,3953.333333333334,4500.000000000001,4409.743589743591,4244.102564102564,4547.179487179488,4477.948717948719,4453.846153846154,4405.641025641026,4700.512820512821,4381.538461538462,4280.512820512821,4233.333333333334,4538.461538461539
770.7014,0.86627656,0.59334,0.33333334,0.5522388,0,0.0,0.0,0.0,0.0,0.0,0,0,0.0,0.0,0,0,72.0,0.0,467.0,4685.641025641026,3953.333333333334,4500.000000000001,4409.743589743591,4244.102564102564,4547.179487179488,4477.948717948719,4453.846153846154,4405.641025641026,4700.512820512821,4381.538461538462,4280.512820512821,4233.333333333334,4538.461538461539
771.20184,0.8128483,0.55530256,0.33333334,0.5522388,0,0.0,0.0,0.0,0.0,0.0,0,0,0.0,0.0,0,0,7.0,0.0,493.0,4677.948717948719,3941.0256410256416,4506.666666666667,4422.564102564103,4244.615384615385,4547.179487179488,4478.974358974359,4460.512820512821,4416.923076923077,4723.076923076924,4383.076923076924,4263.076923076924,4255.8974358974365,4537.948717948719
771.4208,0.8128483,0.55530256,0.33333334,0.5522388,0,0.0,0.0,0.0,0.0,0.05647376,0,0,0.0,0.0,0,0,35.0,0.0,0.0,4686.153846153847,3956.9230769230776,4512.307692307693,4434.871794871796,4256.410256410257,4556.923076923077,4486.153846153847,4471.282051282052,4424.615384615385,4730.256410256411,4381.025641025642,4268.205128205129,4256.410256410257,4539.48717948718
771.7023,0.78334457,0.52311605,0.33333334,0.5522388,0,0.0,0.0,0.0,0.0,0.057710104,0,0,0.0,0.0,0,0,71.0,0.0,493.0,4703.589743589744,3982.0512820512827,4518.974358974359,4456.923076923077,4254.358974358975,4558.461538461539,4472.307692307693,4448.205128205129,4402.051282051282,4714.358974358975,4380.512820512821,4254.871794871796,4234.871794871796,4533.846153846154
771.9212,0.78334457,0.52311605,0.33333334,0.5522388,0,0.0,0.0,0.0,0.0,0.0,0,0,0.0,0.0,0,0,99.0,0.0,375.0,4677.435897435898,3957.435897435898,4512.307692307693,4443.076923076924,4248.717948717949,4551.282051282052,4472.307692307693,4440.512820512821,4401.538461538462,4704.615384615386,4380.000000000001,4243.589743589744,4228.205128205129,4535.8974358974365
772.2027,0.72356,0.4951755,0.33333334,0.5522388,0,0.0,0.0,0.0,0.0,0.06654279,0,0,0.0,0.0,0,0,6.0,0.0,575.0,4672.307692307693,3954.358974358975,4516.410256410257,4446.666666666667,4255.384615384616,4553.846153846154,4481.538461538462,4444.615384615385,4401.538461538462,4704.102564102564,4380.512820512821,4248.205128205129,4224.615384615385,4535.8974358974365
772.42163,0.72356,0.4951755,0.33333334,0.5522388,0,0.0,0.0,0.0,0.0,0.0,0,0,0.2575496,0.0,0,0,34.0,0.0,0.0,4664.102564102564,3941.0256410256416,4511.282051282052,4442.051282051282,4255.384615384616,4552.307692307693,4487.179487179488,4448.205128205129,4400.512820512821,4709.2307692307695,4381.025641025642,4249.2307692307695,4224.102564102564,4535.8974358974365
772.7031,0.6735633,0.47021502,0.33333334,0.5522388,0,0.0,0.0,0.0,0.0,0.36580616,0,0,0.0,0.0,0,0,70.0,0.0,575.0,4662.051282051282,3944.1025641025644,4512.820512820514,4442.051282051282,4255.384615384616,4550.769230769231,4480.000000000001,4454.871794871796,4420.512820512821,4716.923076923077,4378.974358974359,4250.256410256411,4225.641025641026,4525.641025641026
772.92206,0.6735633,0.47021502,0.33333334,0.5522388,0,0.0,0.0,0.0,0.0,0.30536187,0,0,0.0,0.0,0,0,98.0,0.0,593.0,4648.717948717949,3932.820512820513,4502.564102564103,4429.743589743591,4246.153846153847,4545.641025641026,4455.8974358974365,4438.461538461539,4398.974358974359,4709.2307692307695,4378.974358974359,4263.076923076924,4213.333333333334,4529.743589743591
773.20355,0.6429352,0.45655715,0.33333334,0.5522388,0,0.0,0.0,0.0,0.0,0.05575993,0,0,0.0,0.0,0,0,5.0,0.0,582.0,4659.48717948718,3936.410256410257,4506.666666666667,4437.948717948719,4252.820512820514,4550.256410256411,4472.307692307693,4445.641025641026,4391.794871794872,4712.820512820514,4378.974358974359,4282.051282051282,4211.282051282052,4537.948717948719
773.29736,0.6429352,0.45655715,0.33333334,0.5522388,0,0.0,0.0,0.0,0.0,0.0,0,0,0.0,0.0,0,0,17.0,0.0,0.0,4671.794871794872,3942.0512820512827,4511.794871794872,4443.076923076924,4257.435897435898,4553.333333333334,4484.102564102564,4467.179487179487,4396.923076923077,4715.384615384616,4375.8974358974365,4294.358974358975,4216.410256410257,4535.384615384616
773.704,0.6198441,0.45194998,0.33333334,0.5522388,0,0.0,0.0,0.0,0.0,0.0,0,0,0.0,0.0,0,0,69.0,0.0,582.0,4646.153846153847,3944.1025641025644,4507.179487179488,4442.564102564103,4245.641025641026,4546.666666666667,4471.794871794872,4435.384615384616,4384.615384615385,4704.615384615386,4376.923076923077,4291.794871794872,4211.794871794872,4588.205128205129
773.9229,0.6198441,0.45194998,0.33333334,0.5522388,0,0.0,0.0,0.0,0.0,1.0,0,0,0.0,0.0,0,0,97.0,0.0,221.0,4646.666666666667,3941.0256410256416,4507.6923076923085,4441.538461538462,4244.615384615385,4536.410256410257,4459.48717948718,4431.282051282052,4375.384615384616,4691.282051282052,4377.435897435898,4293.333333333334,4205.641025641026,4542.564102564103
774.2044,0.58323175,0.4336938,0.33333334,0.5522388,0,0.0,0.0,0.0,0.0,1.0,0,0,0.0,0.0,0,0,4.0,0.0,586.0,4645.641025641026,3950.2564102564106,4507.179487179488,4443.076923076924,4249.2307692307695,4547.6923076923085,4465.128205128206,4426.666666666667,4382.051282051282,4696.410256410257,4378.974358974359,4280.000000000001,4198.461538461539,4528.717948717949
774.42334,0.58323175,0.4336938,0.33333334,0.5522388,0,0.0,0.0,0.0,0.0,0.13736635,0,0,0.0,0.0,0,0,32.0,0.0,0.0,4650.256410256411,3935.8974358974365,4507.6923076923085,4441.025641025642,4255.8974358974365,4549.2307692307695,4469.743589743591,4435.8974358974365,4388.205128205129,4702.564102564103,4375.384615384616,4285.641025641026,4198.974358974359,4521.538461538462
774.70483,0.5246469,0.4104349,0.33333334,0.5522388,0,0.0,0.0,0.0,0.0,0.0,0,0,0.0,0.0,0,0,68.0,0.0,586.0,4663.076923076924,3955.8974358974365,4510.769230769231,4446.666666666667,4247.6923076923085,4544.102564102564,4470.256410256411,4449.2307692307695,4401.025641025642,4718.974358974359,4376.923076923077,4283.589743589744,4231.282051282052,4526.666666666667
774.92377,0.5246469,0.4104349,0.33333334,0.5522388,0,0.0,0.0,0.0,0.0,0.0,0,0,0.27480748,0.0,0,0,96.0,0.0,0.0,4646.666666666667,3941.538461538462,4503.589743589744,4444.102564102564,4248.717948717949,4540.000000000001,4460.512820512821,4442.564102564103,4386.666666666667,4690.256410256411,4368.205128205129,4275.8974358974365,4205.641025641026,4570.769230769231
775.20526,0.5001553,0.38806525,0.33333334,0.5522388,0,0.0,0.0,0.0,0.0,1.0,0,0,0.0,0.0,0,0,3.0,0.0,566.0,4644.102564102564,3937.435897435898,4504.615384615385,4441.025641025642,4244.615384615385,4536.410256410257,4454.358974358975,4421.025641025642,4374.358974358975,4682.564102564103,4368.717948717949,4271.282051282052,4186.666666666667,4504.615384615385
775.4242,0.5001553,0.38806525,0.33333334,0.5522388,0,0.0,0.0,0.0,0.0,0.8115165,0,0,0.0,0.0,0,0,31.0,0.0,0.0,4640.512820512821,3938.461538461539,4508.717948717949,4446.666666666667,4260.000000000001,4553.846153846154,4460.512820512821,4440.000000000001,4393.846153846154,4703.589743589744,4369.743589743591,4277.435897435898,4193.846153846154,4505.641025641026
775.7057,0.5206207,0.3632312,0.33333334,0.5522388,0,0.0,0.0,0.0,0.0,0.04996098,0,0,0.0,0.0,0,0,67.0,0.0,566.0,4665.128205128206,3946.1538461538466,4516.410256410257,4455.8974358974365,4260.000000000001,4555.384615384616,4469.2307692307695,4457.435897435898,4405.641025641026,4727.179487179488,4368.717948717949,4281.538461538462,4217.435897435898,4526.153846153847
775.7995,0.5206207,0.3632312,0.33333334,0.5522388,0,0.0,0.0,0.0,0.0,0.0,0,0,0.0,0.0,0,0,79.0,0.0,375.0,4656.923076923077,3942.0512820512827,4511.282051282052,4446.153846153847,4258.461538461539,4552.820512820514,4466.666666666667,4450.769230769231,4404.102564102564,4710.769230769231,4368.717948717949,4268.717948717949,4190.769230769231,4508.205128205129
776.2061,0.49854746,0.35274956,0.33333334,0.5522388,0,0.0,0.0,0.0,0.0,0.14653438,0,0,0.0,0.0,0,0,2.0,0.0,520.0,4657.948717948719,3940.0000000000005,4510.769230769231,4445.641025641026,4248.205128205129,4545.641025641026,4473.846153846154,4457.948717948719,4408.717948717949,4704.102564102564,4368.205128205129,4278.461538461539,4175.8974358974365,4504.615384615385
776.42505,0.49854746,0.35274956,0.33333334,0.5522388,0,0.0,0.0,0.0,0.0,0.068227574,0,0,0.0,0.0,0,0,30.0,0.0,0.0,4650.256410256411,3936.410256410257,4507.6923076923085,4440.000000000001,4235.384615384616,4538.461538461539,4467.179487179487,4441.538461538462,4405.128205128206,4700.512820512821,4369.2307692307695,4271.282051282052,4180.512820512821,4501.538461538462
776.70654,0.48777544,0.34083533,0.33333334,0.5522388,0,0.0,0.0,0.0,0.0,0.031086225,0,0,0.0,0.0,0,0,66.0,0.0,520.0,4680.000000000001,3958.9743589743593,4516.923076923077,4448.205128205129,4234.871794871796,4537.948717948719,4476.923076923077,4443.076923076924,4407.6923076923085,4703.076923076924,4374.358974358975,4287.179487179487,4190.769230769231,4525.128205128206
776.80035,0.48777544,0.34083533,0.33333334,0.5522388,0,0.0,0.0,0.0,0.0,0.0,0,0,0.0,0.0,0,0,78.0,0.0,593.0,4685.641025641026,3959.48717948718,4519.48717948718,4454.358974358975,4245.641025641026,4549.2307692307695,4487.179487179488,4465.641025641026,4424.615384615385,4728.717948717949,4370.769230769231,4281.025641025642,4212.820512820514,4530.256410256411
777.207,0.49644512,0.334114,0.33333334,0.5522388,0,0.0,0.0,0.0,0.0,0.0,0,0,0.0,0.0,0,0,1.0,0.0,461.0,4673.333333333334,3970.7692307692314,4517.948717948719,4458.461538461539,4238.974358974359,4542.051282051282,4487.6923076923085,4469.743589743591,4424.615384615385,4712.820512820514,4367.179487179487,4265.641025641026,4196.410256410257,4527.179487179488
777.207,0.49644512,0.334114,0.33333334,0.5522388,0,0.0,0.0,0.0,0.0,0.0,0,0,0.0,0.0,0,0,1.0,0.0,461.0,4673.333333333334,3970.7692307692314,4517.948717948719,4458.461538461539,4238.974358974359,4542.051282051282,4487.6923076923085,4469.743589743591,4424.615384615385,4712.820512820514,4367.179487179487,4265.641025641026,4196.410256410257,4527.179487179488
777.7074,0.45638967,0.3355764,0.33333334,0.5522388,0,0.0,0.0,0.0,0.0,0.0,0,0,0.0,0.0,0,0,65.0,0.0,461.0,4662.564102564103,3946.666666666667,4517.435897435898,4451.794871794872,4253.333333333334,4552.820512820514,4489.743589743591,4456.410256410257,4423.076923076924,4721.025641025642,4368.205128205129,4266.153846153847,4207.179487179487,4523.076923076924
777.7074,0.45638967,0.3355764,0.33333334,0.5522388,0,0.0,0.0,0.0,0.0,0.0,0,0,0.0,0.0,0,0,65.0,0.0,461.0,4662.564102564103,3946.666666666667,4517.435897435898,4451.794871794872,4253.333333333334,4552.820512820514,4489.743589743591,4456.410256410257,4423.076923076924,4721.025641025642,4368.205128205129,4266.153846153847,4207.179487179487,4523.076923076924
778.2078,0.36320856,0.3399277,0.33333334,0.5522388,0,0.0,0.0,0.0,0.0,0.0,0,0,0.0,0.0,0,0,0.0,0.0,420.0,4673.333333333334,3960.0000000000005,4516.923076923077,4454.871794871796,4246.666666666667,4544.102564102564,4485.641025641026,4452.820512820514,4411.282051282052,4713.846153846154,4365.641025641026,4246.666666666667,4197.435897435898,4538.974358974359
778.42676,0.36320856,0.3399277,0.33333334,0.5522388,0,0.0,0.0,0.0,0.0,0.17730723,0,0,0.0,0.0,0,0,28.0,0.0,0.0,4664.615384615386,3952.820512820513,4510.769230769231,4443.076923076924,4229.74358974359,4526.666666666667,4475.8974358974365,4449.743589743591,4395.384615384616,4696.923076923077,4364.102564102564,4244.615384615385,4206.153846153847,4536.410256410257
778.70825,0.31074342,0.35476962,0.33333334,0.5522388,0,0.0,0.0,0.0,0.0,0.066439055,0,0,0.0,0.0,0,0,64.0,0.0,420.0,4673.846153846154,3963.589743589744,4520.512820512821,4457.435897435898,4248.717948717949,4545.128205128206,4488.717948717949,4460.000000000001,4412.307692307693,4716.410256410257,4366.153846153847,4241.538461538462,4198.974358974359,4542.051282051282
778.9272,0.31074342,0.35476962,0.33333334,0.5522388,0,0.0,0.0,0.0,0.0,0.0,0,0,0.22007304,0.0,0,0,92.0,0.0,0.0,4645.641025641026,3937.9487179487182,4508.205128205129,4442.564102564103,4237.948717948719,4537.435897435898,4471.282051282052,4443.589743589744,4406.153846153847,4714.358974358975,4366.153846153847,4245.641025641026,4207.6923076923085,4538.974358974359
779.2087,0.26394185,0.36938384,0.33333334,0.5522388,0,0.0,0.0,0.0,0.0,0.55985457,0,0,0.0,0.0,0,0,128.0,0.0,0.0,4634.358974358975,3949.7435897435903,4512.307692307693,4446.153846153847,4248.717948717949,4545.128205128206,4477.435897435898,4435.8974358974365,4390.256410256411,4702.051282051282,4368.205128205129,4231.282051282052,4204.615384615385,4599.48717948718
779.4276,0.26394185,0.36938384,0.33333334,0.5522388,0,0.0,0.0,0.0,0.0,0.49677515,0,0,0.0,0.0,0,0,27.0,0.0,0.0,4626.666666666667,3937.9487179487182,4503.589743589744,4438.974358974359,4245.128205128206,4536.923076923077,4474.358974358975,4432.820512820514,4395.384615384616,4701.538461538462,4364.102564102564,4231.794871794872,4200.000000000001,4589.743589743591
779.7091,0.30845642,0.38606456,0.33333334,0.5522388,0,0.0,0.0,0.0,0.0,1.0,0,0,0.0,0.0,0,0,63.0,0.0,0.0,4627.6923076923085,3938.9743589743593,4501.538461538462,4443.589743589744,4250.769230769231,4539.48717948718,4462.051282051282,4432.307692307693,4396.923076923077,4706.666666666667,4366.666666666667,4234.871794871796,4195.8974358974365,4526.666666666667
779.92804,0.30845642,0.38606456,0.33333334,0.5522388,0,0.0,0.0,0.0,0.0,0.72435653,0,0,0.0,0.0,0,0,91.0,0.0,375.0,4630.769230769231,3938.9743589743593,4504.102564102564,4443.076923076924,4244.102564102564,4540.000000000001,4449.743589743591,4407.179487179487,4372.307692307693,4696.923076923077,4364.102564102564,4238.974358974359,4172.820512820514,4528.717948717949
780.20953,0.32040232,0.39362404,0.33333334,0.5522388,0,0.0,0.0,0.0,0.0,0.85974866,0,0,0.0,0.0,0,0,127.0,0.0,375.0,4633.846153846154,3933.333333333334,4500.000000000001,4444.102564102564,4248.717948717949,4539.48717948718,4448.717948717949,4412.820512820514,4376.923076923077,4699.48717948718,4363.076923076924,4242.051282051282,4166.153846153847,4527.179487179488
780.42847,0.32040232,0.39362404,0.33333334,0.5522388,0,0.0,0.0,0.0,0.0,0.27841142,0,0,0.0,0.0,0,0,26.0,0.0,0.0,4628.205128205129,3929.2307692307695,4501.025641025642,4444.615384615385,4249.74358974359,4543.076923076924,4466.666666666667,4442.564102564103,4398.974358974359,4713.846153846154,4365.641025641026,4254.871794871796,4168.717948717949,4525.128205128206
780.70996,0.3475574,0.38319427,0.33333334,0.5522388,0,0.0,0.0,0.0,0.0,0.0,0,0,0.0,0.0,0,0,62.0,0.0,0.0,4631.794871794872,3925.1282051282055,4494.871794871796,4443.589743589744,4246.666666666667,4537.948717948719,4450.256410256411,4403.076923076924,4372.307692307693,4677.435897435898,4365.128205128206,4233.333333333334,4153.333333333334,4523.589743589744
780.70996,0.3475574,0.38319427,0.33333334,0.5522388,0,0.0,0.0,0.0,0.0,0.0,0,0,0.0,0.0,0,0,62.0,0.0,0.0,4631.794871794872,3925.1282051282055,4494.871794871796,4443.589743589744,4246.666666666667,4537.948717948719,4450.256410256411,4403.076923076924,4372.307692307693,4677.435897435898,4365.128205128206,4233.333333333334,4153.333333333334,4523.589743589744
781.21045,0.35597143,0.36866271,0.33333334,0.5522388,0,0.0,0.0,0.0,0.0,0.0,0,0,0.0,0.0,0,0,126.0,0.0,593.0,4642.564102564103,3943.589743589744,4507.179487179488,4454.358974358975,4247.6923076923085,4545.641025641026,4448.717948717949,4435.8974358974365,4394.358974358975,4700.000000000001,4363.589743589744,4233.333333333334,4200.000000000001,4536.410256410257
781.21045,0.35597143,0.36866271,0.33333334,0.5522388,0,0.0,0.0,0.0,0.0,0.0,0,0,0.0,0.0,0,0,126.0,0.0,593.0,4642.564102564103,3943.589743589744,4507.179487179488,4454.358974358975,4247.6923076923085,4545.641025641026,4448.717948717949,4435.8974358974365,4394.358974358975,4700.000000000001,4363.589743589744,4233.333333333334,4200.000000000001,4536.410256410257
781.7109,0.34252524,0.36105075,0.33333334,0.5522388,0,0.0,0.0,0.0,0.0,0.0,0,0,0.0,0.0,0,0,61.0,0.0,0.0,4647.6923076923085,3938.461538461539,4506.666666666667,4445.128205128206,4246.153846153847,4536.923076923077,4429.743589743591,4404.102564102564,4381.025641025642,4676.410256410257,4346.666666666667,4238.974358974359,4178.461538461539,4538.461538461539
781.7109,0.34252524,0.36105075,0.33333334,0.5522388,0,0.0,0.0,0.0,0.0,0.0,0,0,0.0,0.0,0,0,61.0,0.0,0.0,4647.6923076923085,3938.461538461539,4506.666666666667,4445.128205128206,4246.153846153847,4536.923076923077,4429.743589743591,4404.102564102564,4381.025641025642,4676.410256410257,4346.666666666667,4238.974358974359,4178.461538461539,4538.461538461539
782.2113,0.29923788,0.36139432,0.33333334,0.5522388,0,0.0,0.0,0.0,0.0,0.0,0,0,0.0,0.0,0,0,125.0,0.0,221.0,4643.076923076924,3925.6410256410263,4505.641025641026,4444.102564102564,4256.410256410257,4552.307692307693,4463.076923076924,4430.256410256411,4387.179487179487,4688.205128205129,4349.743589743591,4249.74358974359,4188.717948717949,4541.025641025642
782.2113,0.29923788,0.36139432,0.33333334,0.5522388,0,0.0,0.0,0.0,0.0,0.0,0,0,0.0,0.0,0,0,125.0,0.0,221.0,4643.076923076924,3925.6410256410263,4505.641025641026,4444.102564102564,4256.410256410257,4552.307692307693,4463.076923076924,4430.256410256411,4387.179487179487,4688.205128205129,4349.743589743591,4249.74358974359,4188.717948717949,4541.025641025642
782.71173,0.2829578,0.37035373,0.33333334,0.5522388,0,0.0,0.0,0.0,0.0,0.0,0,0,0.0,0.0,0,0,60.0,0.0,0.0,4656.410256410257,3935.3846153846157,4510.769230769231,4452.307692307693,4255.384615384616,4550.256410256411,4452.820512820514,4412.820512820514,4379.48717948718,4680.000000000001,4345.641025641026,4248.717948717949,4181.025641025642,4540.512820512821
782.71173,0.2829578,0.37035373,0.33333334,0.5522388,0,0.0,0.0,0.0,0.0,0.0,0,0,0.0,0.0,0,0,60.0,0.0,0.0,4656.410256410257,3935.3846153846157,4510.769230769231,4452.307692307693,4255.384615384616,4550.256410256411,4452.820512820514,4412.820512820514,4379.48717948718,4680.000000000001,4345.641025641026,4248.717948717949,4181.025641025642,4540.512820512821
783.21216,0.29901907,0.36977863,0.33333334,0.5522388,0,0.0,0.0,0.0,0.0,0.0,0,0,0.0,0.0,0,0,124.0,0.0,0.0,4668.717948717949,3950.2564102564106,4516.410256410257,4446.666666666667,4252.820512820514,4547.6923076923085,4466.153846153847,4424.102564102564,4395.384615384616,4707.6923076923085,4351.794871794872,4286.666666666667,4219.48717948718,4551.794871794872
783.21216,0.29901907,0.36977863,0.33333334,0.5522388,0,0.0,0.0,0.0,0.0,0.0,0,0,0.0,0.0,0,0,124.0,0.0,0.0,4668.717948717949,3950.2564102564106,4516.410256410257,4446.666666666667,4252.820512820514,4547.6923076923085,4466.153846153847,4424.102564102564,4395.384615384616,4707.6923076923085,4351.794871794872,4286.666666666667,4219.48717948718,4551.794871794872
783.7126,0.29880214,0.36830938,0.33333334,0.5522388,0,0.0,0.0,0.0,0.0,0.0,0,0,0.0,0.0,0,0,59.0,0.0,0.0,4634.358974358975,3944.1025641025644,4510.769230769231,4446.153846153847,4262.051282051282,4555.384615384616,4463.076923076924,4444.615384615385,4416.410256410257,4730.769230769231,4345.641025641026,4285.641025641026,4222.564102564103,4552.307692307693
783.7126,0.29880214,0.36830938,0.33333334,0.5522388,0,0.0,0.0,0.0,0.0,0.0,0,0,0.0,0.0,0,0,59.0,0.0,0.0,4634.358974358975,3944.1025641025644,4510.769230769231,4446.153846153847,4262.051282051282,4555.384615384616,4463.076923076924,4444.615384615385,4416.410256410257,4730.769230769231,4345.641025641026,4285.641025641026,4222.564102564103,4552.307692307693
784.213,0.31886673,0.37296623,0.33333334,0.5522388,0,0.0,0.0,0.0,0.0,0.0,0,0,0.0,0.0,0,0,123.0,0.0,375.0,4665.128205128206,3949.7435897435903,4509.2307692307695,4444.615384615385,4249.74358974359,4545.128205128206,4465.128205128206,4429.743589743591,4412.307692307693,4733.846153846154,4345.128205128206,4283.589743589744,4225.128205128206,4563.589743589744
784.213,0.31886673,0.37296623,0.33333334,0.5522388,0,0.0,0.0,0.0,0.0,0.0,0,0,0.0,0.0,0,0,123.0,0.0,375.0,4665.128205128206,3949.7435897435903,4509.2307692307695,4444.615384615385,4249.74358974359,4545.128205128206,4465.128205128206,4429.743589743591,4412.307692307693,4733.846153846154,4345.128205128206,4283.589743589744,4225.128205128206,4563.589743589744
784.71344,0.32622486,0.3653024,0.33333334,0.5522388,0,0.0,0.0,0.0,0.0,0.0,0,0,0.0,0.0,0,0,58.0,0.0,0.0,4649.743589743591,3945.6410256410263,4507.6923076923085,4453.333333333334,4255.384615384616,4549.743589743591,4464.615384615385,4429.743589743591,4400.000000000001,4701.025641025642,4342.051282051282,4264.102564102564,4194.358974358975,4538.461538461539
784.71344,0.32622486,0.3653024,0.33333334,0.5522388,0,0.0,0.0,0.0,0.0,0.0,0,0,0.0,0.0,0,0,58.0,0.0,0.0,4649.743589743591,3945.6410256410263,4507.6923076923085,4453.333333333334,4255.384615384616,4549.743589743591,4464.615384615385,4429.743589743591,4400.000000000001,4701.025641025642,4342.051282051282,4264.102564102564,4194.358974358975,4538.461538461539
785.21387,0.31481972,0.3742046,0.33333334,0.5522388,0,0.0,0.0,0.0,0.0,0.16814205,0,0,0.0,0.0,0,0,122.0,0.0,593.0,4649.2307692307695,3932.307692307693,4503.589743589744,4445.128205128206,4245.641025641026,4538.974358974359,4460.000000000001,4424.102564102564,4383.589743589744,4709.2307692307695,4346.153846153847,4244.615384615385,4189.74358974359,4542.051282051282
785.4328,0.31481972,0.3742046,0.33333334,0.5522388,0,0.0,0.0,0.0,0.0,0.17761825,0,0,0.0,0.0,0,0,21.0,0.0,0.0,4637.948717948719,3934.8717948717954,4513.333333333334,4442.564102564103,4246.666666666667,4543.589743589744,4447.6923076923085,4424.102564102564,4387.6923076923085,4700.512820512821,4343.076923076924,4237.435897435898,4175.8974358974365,4544.102564102564
785.7143,0.2910144,0.40745336,0.33333334,0.5522388,0,0.0,0.0,0.0,0.0,0.0,0,0,0.0,0.0,0,0,57.0,0.0,0.0,4632.820512820514,3938.461538461539,4505.128205128206,4442.051282051282,4234.358974358975,4535.8974358974365,4435.384615384616,4398.974358974359,4373.333333333334,4690.256410256411,4345.128205128206,4232.307692307693,4176.410256410257,4535.8974358974365
785.7143,0.2910144,0.40745336,0.33333334,0.5522388,0,0.0,0.0,0.0,0.0,0.0,0,0,0.0,0.0,0,0,57.0,0.0,0.0,4632.820512820514,3938.461538461539,4505.128205128206,4442.051282051282,4234.358974358975,4535.8974358974365,4435.384615384616,4398.974358974359,4373.333333333334,4690.256410256411,4345.128205128206,4232.307692307693,4176.410256410257,4535.8974358974365
786.2147,0.28805137,0.44057974,0.33333334,0.5522388,0,0.0,0.0,0.0,0.0,0.0,0,0,0.0,0.0,0,0,121.0,0.0,221.0,4644.615384615385,3943.589743589744,4510.769230769231,4445.641025641026,4247.6923076923085,4550.256410256411,4441.538461538462,4410.256410256411,4377.948717948719,4693.333333333334,4342.564102564103,4214.871794871796,4175.8974358974365,4529.743589743591
786.2147,0.28805137,0.44057974,0.33333334,0.5522388,0,0.0,0.0,0.0,0.0,0.0,0,0,0.0,0.0,0,0,121.0,0.0,221.0,4644.615384615385,3943.589743589744,4510.769230769231,4445.641025641026,4247.6923076923085,4550.256410256411,4441.538461538462,4410.256410256411,4377.948717948719,4693.333333333334,4342.564102564103,4214.871794871796,4175.8974358974365,4529.743589743591
786.71515,0.28294936,0.4645047,0.33333334,0.5522388,0,0.0,0.0,0.0,0.0,0.0,0,0,0.0,0.0,0,0,56.0,0.0,0.0,4652.820512820514,3930.7692307692314,4502.564102564103,4442.051282051282,4250.769230769231,4549.743589743591,4462.051282051282,4428.205128205129,4395.8974358974365,4701.025641025642,4345.641025641026,4205.128205128206,4192.820512820514,4504.102564102564
786.71515,0.28294936,0.4645047,0.33333334,0.5522388,0,0.0,0.0,0.0,0.0,0.0,0,0,0.0,0.0,0,0,56.0,0.0,0.0,4652.820512820514,3930.7692307692314,4502.564102564103,4442.051282051282,4250.769230769231,4549.743589743591,4462.051282051282,4428.205128205129,4395.8974358974365,4701.025641025642,4345.641025641026,4205.128205128206,4192.820512820514,4504.102564102564
787.2156,0.2654105,0.45718518,0.33333334,0.5522388,0,0.0,0.0,0.0,0.0,0.0,0,0,0.0,0.0,0,0,120.0,0.0,0.0,4645.128205128206,3928.717948717949,4504.615384615385,4443.589743589744,4248.717948717949,4539.48717948718,4450.256410256411,4424.615384615385,4391.282051282052,4692.307692307693,4342.564102564103,4206.666666666667,4183.076923076924,4480.000000000001
787.4345,0.2654105,0.45718518,0.33333334,0.5522388,0,0.0,0.0,0.0,0.0,0.83107185,0,0,0.0,0.0,0,0,19.0,0.0,0.0,4665.128205128206,3949.7435897435903,4514.358974358975,4453.846153846154,4249.2307692307695,4543.589743589744,4463.589743589744,4451.282051282052,4408.205128205129,4711.794871794872,4342.051282051282,4207.179487179487,4205.128205128206,4538.461538461539
787.716,0.28271103,0.4526673,0.33333334,0.5522388,0,0.0,0.0,0.0,0.0,0.33368722,0,0,0.0,0.0,0,0,55.0,0.0,0.0,4643.589743589744,3928.717948717949,4502.051282051282,4438.461538461539,4246.153846153847,4540.512820512821,4463.589743589744,4455.8974358974365,4411.282051282052,4710.256410256411,4342.051282051282,4205.128205128206,4203.589743589744,4515.8974358974365
787.93494,0.28271103,0.4526673,0.33333334,0.5522388,0,0.0,0.0,0.0,0.0,0.055343978,0,0,0.0,0.0,0,0,83.0,0.0,375.0,4650.256410256411,3932.307692307693,4503.589743589744,4441.538461538462,4238.974358974359,4541.538461538462,4448.717948717949,4426.153846153847,4392.820512820514,4702.564102564103,4342.051282051282,4222.564102564103,4193.846153846154,4507.6923076923085
788.21643,0.29690453,0.43800187,0.33333334,0.5522388,0,0.0,0.0,0.0,0.0,0.0,0,0,0.0,0.0,0,0,119.0,0.0,375.0,4643.076923076924,3936.9230769230776,4503.076923076924,4447.6923076923085,4248.717948717949,4552.307692307693,4461.025641025642,4447.179487179487,4400.512820512821,4704.102564102564,4342.564102564103,4237.948717948719,4188.205128205129,4505.128205128206
788.21643,0.29690453,0.43800187,0.33333334,0.5522388,0,0.0,0.0,0.0,0.0,0.0,0,0,0.0,0.0,0,0,119.0,0.0,375.0,4643.076923076924,3936.9230769230776,4503.076923076924,4447.6923076923085,4248.717948717949,4552.307692307693,4461.025641025642,4447.179487179487,4400.512820512821,4704.102564102564,4342.564102564103,4237.948717948719,4188.205128205129,4505.128205128206
788.71686,0.2512466,0.43015853,0.33333334,0.5522388,0,0.0,0.0,0.0,0.0,0.0,0,0,0.0,0.0,0,0,54.0,0.0,0.0,4653.846153846154,3945.6410256410263,4506.666666666667,4450.769230769231,4245.641025641026,4546.666666666667,4453.333333333334,4435.384615384616,4400.512820512821,4709.743589743591,4342.564102564103,4244.615384615385,4196.410256410257,4517.435897435898
788.71686,0.2512466,0.43015853,0.33333334,0.5522388,0,0.0,0.0,0.0,0.0,0.0,0,0,0.0,0.0,0,0,54.0,0.0,0.0,4653.846153846154,3945.6410256410263,4506.666666666667,4450.769230769231,4245.641025641026,4546.666666666667,4453.333333333334,4435.384615384616,4400.512820512821,4709.743589743591,4342.564102564103,4244.615384615385,4196.410256410257,4517.435897435898
789.2173,0.22846028,0.40869424,0.33333334,0.5522388,0,0.0,0.0,0.0,0.0,0.056529444,0,0,0.0,0.0,0,0,118.0,0.0,593.0,4632.307692307693,3926.1538461538466,4502.564102564103,4440.000000000001,4235.8974358974365,4539.48717948718,4451.794871794872,4430.769230769231,4392.820512820514,4695.8974358974365,4344.102564102564,4235.384615384616,4189.2307692307695,4508.717948717949
789.4362,0.22846028,0.40869424,0.33333334,0.5522388,0,0.0,0.0,0.0,0.0,0.0,0,0,0.0,0.0,0,0,17.0,0.0,0.0,4646.153846153847,3946.1538461538466,4516.410256410257,4452.307692307693,4251.794871794872,4553.846153846154,4448.717948717949,4426.153846153847,4387.6923076923085,4700.000000000001,4343.589743589744,4240.000000000001,4187.179487179487,4505.641025641026
789.7177,0.19559063,0.38764995,0.33333334,0.5522388,0,0.0,0.0,0.0,0.0,0.0,0,0,0.0,0.0,0,0,53.0,0.0,0.0,4627.6923076923085,3933.8461538461543,4505.128205128206,4444.615384615385,4242.051282051282,4548.717948717949,4454.871794871796,4449.743589743591,4397.948717948719,4702.051282051282,4344.102564102564,4236.923076923077,4189.2307692307695,4509.743589743591
789.7177,0.19559063,0.38764995,0.33333334,0.5522388,0,0.0,0.0,0.0,0.0,0.0,0,0,0.0,0.0,0,0,53.0,0.0,0.0,4627.6923076923085,3933.8461538461543,4505.128205128206,4444.615384615385,4242.051282051282,4548.717948717949,4454.871794871796,4449.743589743591,4397.948717948719,4702.051282051282,4344.102564102564,4236.923076923077,4189.2307692307695,4509.743589743591
790.21814,0.1653691,0.37368163,0.33333334,0.5522388,0,0.0,0.0,0.0,0.0,0.0,0,0,0.0,0.0,0,0,117.0,0.0,221.0,4639.48717948718,3944.1025641025644,4513.333333333334,4456.410256410257,4248.717948717949,4551.282051282052,4465.128205128206,4438.461538461539,4387.179487179487,4699.48717948718,4346.153846153847,4265.128205128206,4181.025641025642,4522.564102564103
790.21814,0.1653691,0.37368163,0.33333334,0.5522388,0,0.0,0.0,0.0,0.0,0.0,0,0,0.0,0.0,0,0,117.0,0.0,221.0,4639.48717948718,3944.1025641025644,4513.333333333334,4456.410256410257,4248.717948717949,4551.282051282052,4465.128205128206,4438.461538461539,4387.179487179487,4699.48717948718,4346.153846153847,4265.128205128206,4181.025641025642,4522.564102564103
790.71857,0.11647417,0.35849836,0.33333334,0.5522388,0,0.0,0.0,0.0,0.0,0.0,0,0,0.0,0.0,0,0,52.0,0.0,0.0,4640.512820512821,3943.076923076924,4507.179487179488,4444.615384615385,4246.153846153847,4546.666666666667,4461.025641025642,4427.6923076923085,4386.153846153847,4705.641025641026,4344.102564102564,4274.358974358975,4192.307692307693,4523.076923076924
790.71857,0.11647417,0.35849836,0.33333334,0.5522388,0,0.0,0.0,0.0,0.0,0.0,0,0,0.0,0.0,0,0,52.0,0.0,0.0,4640.512820512821,3943.076923076924,4507.179487179488,4444.615384615385,4246.153846153847,4546.666666666667,4461.025641025642,4427.6923076923085,4386.153846153847,4705.641025641026,4344.102564102564,4274.358974358975,4192.307692307693,4523.076923076924
791.219,0.12350186,0.35283056,0.33333334,0.5522388,0,0.0,0.0,0.0,0.0,0.0,0,0,0.0,0.0,0,0,116.0,0.0,0.0,4619.48717948718,3943.076923076924,4509.743589743591,4445.128205128206,4249.2307692307695,4550.769230769231,4449.743589743591,4428.717948717949,4401.025641025642,4714.358974358975,4347.6923076923085,4273.333333333334,4197.948717948719,4520.000000000001
791.219,0.12350186,0.35283056,0.33333334,0.5522388,0,0.0,0.0,0.0,0.0,0.0,0,0,0.0,0.0,0,0,116.0,0.0,0.0,4619.48717948718,3943.076923076924,4509.743589743591,4445.128205128206,4249.2307692307695,4550.769230769231,4449.743589743591,4428.717948717949,4401.025641025642,4714.358974358975,4347.6923076923085,4273.333333333334,4197.948717948719,4520.000000000001
791.7194,0.1669556,0.36950457,0.33333334,0.5522388,0,0.0,0.0,0.0,0.0,0.0,0,0,0.0,0.0,0,0,51.0,0.0,0.0,4628.205128205129,3941.538461538462,4511.282051282052,4445.641025641026,4249.74358974359,4549.743589743591,4445.641025641026,4418.974358974359,4385.641025641026,4708.205128205129,4350.769230769231,4269.2307692307695,4180.512820512821,4518.461538461539
791.7194,0.1669556,0.36950457,0.33333334,0.5522388,0,0.0,0.0,0.0,0.0,0.0,0,0,0.0,0.0,0,0,51.0,0.0,0.0,4628.205128205129,3941.538461538462,4511.282051282052,4445.641025641026,4249.74358974359,4549.743589743591,4445.641025641026,4418.974358974359,4385.641025641026,4708.205128205129,4350.769230769231,4269.2307692307695,4180.512820512821,4518.461538461539
792.2199,0.16631587,0.37246078,0.33333334,0.5522388,0,0.0,0.0,0.0,0.0,0.0,0,0,0.0,0.0,0,0,115.0,0.0,375.0,4631.282051282052,3937.9487179487182,4507.6923076923085,4440.512820512821,4249.2307692307695,4548.205128205129,4461.538461538462,4436.410256410257,4408.205128205129,4728.717948717949,4350.769230769231,4281.025641025642,4201.538461538462,4520.000000000001
792.2199,0.16631587,0.37246078,0.33333334,0.5522388,0,0.0,0.0,0.0,0.0,0.0,0,0,0.0,0.0,0,0,115.0,0.0,375.0,4631.282051282052,3937.9487179487182,4507.6923076923085,4440.512820512821,4249.2307692307695,4548.205128205129,4461.538461538462,4436.410256410257,4408.205128205129,4728.717948717949,4350.769230769231,4281.025641025642,4201.538461538462,4520.000000000001
792.72034,0.1458579,0.38126615,0.33333334,0.5522388,0,0.0,0.0,0.0,0.0,0.0,0,0,0.0,0.0,0,0,50.0,0.0,0.0,4613.333333333334,3935.3846153846157,4502.051282051282,4431.282051282052,4238.974358974359,4541.538461538462,4453.333333333334,4415.8974358974365,4387.6923076923085,4713.846153846154,4350.256410256411,4292.307692307693,4180.000000000001,4520.000000000001
792.72034,0.1458579,0.38126615,0.33333334,0.5522388,0,0.0,0.0,0.0,0.0,0.0,0,0,0.0,0.0,0,0,50.0,0.0,0.0,4613.333333333334,3935.3846153846157,4502.051282051282,4431.282051282052,4238.974358974359,4541.538461538462,4453.333333333334,4415.8974358974365,4387.6923076923085,4713.846153846154,4350.256410256411,4292.307692307693,4180.000000000001,4520.000000000001
793.22076,0.17078811,0.3828192,0.33333334,0.5522388,0,0.0,0.0,0.0,0.0,0.0,0,0,0.0,0.0,0,0,114.0,0.0,593.0,4650.256410256411,3953.333333333334,4511.282051282052,4445.128205128206,4248.205128205129,4545.128205128206,4472.307692307693,4454.871794871796,4416.410256410257,4744.102564102564,4348.205128205129,4300.512820512821,4229.74358974359,4547.6923076923085
793.22076,0.17078811,0.3828192,0.33333334,0.5522388,0,0.0,0.0,0.0,0.0,0.0,0,0,0.0,0.0,0,0,114.0,0.0,593.0,4650.256410256411,3953.333333333334,4511.282051282052,4445.128205128206,4248.205128205129,4545.128205128206,4472.307692307693,4454.871794871796,4416.410256410257,4744.102564102564,4348.205128205129,4300.512820512821,4229.74358974359,4547.6923076923085
793.7212,0.15932812,0.39019784,0.33333334,0.5522388,0,0.0,0.0,0.0,0.0,0.0,0,0,0.0,0.0,0,0,49.0,0.0,0.0,4618.461538461539,3943.076923076924,4506.153846153847,4442.564102564103,4252.307692307693,4549.743589743591,4454.871794871796,4416.923076923077,4387.179487179487,4701.538461538462,4346.153846153847,4278.974358974359,4184.102564102564,4518.974358974359
793.7212,0.15932812,0.39019784,0.33333334,0.5522388,0,0.0,0.0,0.0,0.0,0.0,0,0,0.0,0.0,0,0,49.0,0.0,0.0,4618.461538461539,3943.076923076924,4506.153846153847,4442.564102564103,4252.307692307693,4549.743589743591,4454.871794871796,4416.923076923077,4387.179487179487,4701.538461538462,4346.153846153847,4278.974358974359,4184.102564102564,4518.974358974359
794.2216,0.15375426,0.38450465,0.33333334,0.5522388,0,0.0,0.0,0.0,0.0,0.0,0,0,0.0,0.0,0,0,113.0,0.0,220.0,4635.8974358974365,3950.2564102564106,4504.615384615385,4443.589743589744,4247.6923076923085,4548.717948717949,4466.153846153847,4446.666666666667,4406.666666666667,4715.384615384616,4349.2307692307695,4278.461538461539,4204.615384615385,4535.8974358974365
794.2216,0.15375426,0.38450465,0.33333334,0.5522388,0,0.0,0.0,0.0,0.0,0.0,0,0,0.0,0.0,0,0,113.0,0.0,220.0,4635.8974358974365,3950.2564102564106,4504.615384615385,4443.589743589744,4247.6923076923085,4548.717948717949,4466.153846153847,4446.666666666667,4406.666666666667,4715.384615384616,4349.2307692307695,4278.461538461539,4204.615384615385,4535.8974358974365
794.72205,0.16359635,0.37416488,0.33333334,0.5522388,0,0.0,0.0,0.0,0.0,0.0,0,0,0.0,0.0,0,0,48.0,0.0,0.0,4631.794871794872,3941.538461538462,4509.743589743591,4448.717948717949,4248.717948717949,4551.794871794872,4467.179487179487,4449.2307692307695,4417.435897435898,4731.282051282052,4351.794871794872,4261.538461538462,4223.589743589744,4523.589743589744
794.72205,0.16359635,0.37416488,0.33333334,0.5522388,0,0.0,0.0,0.0,0.0,0.0,0,0,0.0,0.0,0,0,48.0,0.0,0.0,4631.794871794872,3941.538461538462,4509.743589743591,4448.717948717949,4248.717948717949,4551.794871794872,4467.179487179487,4449.2307692307695,4417.435897435898,4731.282051282052,4351.794871794872,4261.538461538462,4223.589743589744,4523.589743589744
795.2225,0.14251626,0.37529954,0.33333334,0.5522388,0,0.0,0.0,0.0,0.0,0.0,0,0,0.0,0.0,0,0,112.0,0.0,0.0,4635.8974358974365,3938.9743589743593,4497.435897435898,4444.102564102564,4244.102564102564,4547.179487179488,4453.333333333334,4425.128205128206,4385.641025641026,4687.179487179488,4348.717948717949,4263.589743589744,4193.846153846154,4504.102564102564
795.2225,0.14251626,0.37529954,0.33333334,0.5522388,0,0.0,0.0,0.0,0.0,0.0,0,0,0.0,0.0,0,0,112.0,0.0,0.0,4635.8974358974365,3938.9743589743593,4497.435897435898,4444.102564102564,4244.102564102564,4547.179487179488,4453.333333333334,4425.128205128206,4385.641025641026,4687.179487179488,4348.717948717949,4263.589743589744,4193.846153846154,4504.102564102564
795.7229,0.13791654,0.39290673,0.33333334,0.5522388,0,0.0,0.0,0.0,0.0,0.0,0,0,0.0,0.0,0,0,47.0,0.0,0.0,4653.846153846154,3943.589743589744,4500.000000000001,4447.6923076923085,4248.717948717949,4549.2307692307695,4476.410256410257,4452.820512820514,4408.717948717949,4712.307692307693,4346.153846153847,4278.974358974359,4210.769230769231,4505.641025641026
795.7229,0.13791654,0.39290673,0.33333334,0.5522388,0,0.0,0.0,0.0,0.0,0.0,0,0,0.0,0.0,0,0,47.0,0.0,0.0,4653.846153846154,3943.589743589744,4500.000000000001,4447.6923076923085,4248.717948717949,4549.2307692307695,4476.410256410257,4452.820512820514,4408.717948717949,4712.307692307693,4346.153846153847,4278.974358974359,4210.769230769231,4505.641025641026
796.2233,0.1339007,0.40558344,0.33333334,0.5522388,0,0.0,0.0,0.0,0.0,0.0,0,0,0.0,0.0,0,0,111.0,0.0,375.0,4650.256410256411,3941.0256410256416,4496.410256410257,4442.564102564103,4238.461538461539,4538.461538461539,4450.256410256411,4441.025641025642,4398.974358974359,4709.743589743591,4348.717948717949,4303.589743589744,4210.769230769231,4505.128205128206
796.44226,0.1339007,0.40558344,0.33333334,0.5522388,0,0.0,0.0,0.0,0.0,0.59128934,0,0,0.0,0.0,0,0,10.0,0.0,593.0,4635.384615384616,3934.358974358975,4494.358974358975,4437.948717948719,4236.410256410257,4537.948717948719,4450.256410256411,4438.974358974359,4403.589743589744,4693.846153846154,4348.205128205129,4307.6923076923085,4191.282051282052,4492.307692307693
796.72375,0.10142092,0.4118245,0.33333334,0.5522388,0,0.0,0.0,0.0,0.0,0.41209847,0,0,0.0,0.0,0,0,46.0,0.0,0.0,4656.410256410257,3943.076923076924,4498.461538461539,4444.102564102564,4243.589743589744,4551.282051282052,4462.564102564103,4448.717948717949,4413.333333333334,4727.6923076923085,4350.256410256411,4320.512820512821,4218.974358974359,4505.128205128206
796.9427,0.10142092,0.4118245,0.33333334,0.5522388,0,0.0,0.0,0.0,0.0,0.039507486,0,0,0.0,0.0,0,0,74.0,0.0,593.0,4658.974358974359,3950.7692307692314,4511.282051282052,4452.307692307693,4249.2307692307695,4554.358974358975,4459.48717948718,4447.179487179487,4415.8974358974365,4731.794871794872,4350.256410256411,4313.846153846154,4230.256410256411,4519.48717948718
797.2242,0.11223642,0.41503486,0.33333334,0.5522388,0,0.0,0.0,0.0,0.0,0.0,0,0,0.0,0.0,0,0,110.0,0.0,593.0,4661.025641025642,3950.2564102564106,4512.820512820514,4452.820512820514,4247.179487179487,4553.333333333334,4462.051282051282,4449.743589743591,4412.820512820514,4727.179487179488,4354.358974358975,4310.256410256411,4225.128205128206,4525.641025641026
797.2242,0.11223642,0.41503486,0.33333334,0.5522388,0,0.0,0.0,0.0,0.0,0.0,0,0,0.0,0.0,0,0,110.0,0.0,593.0,4661.025641025642,3950.2564102564106,4512.820512820514,4452.820512820514,4247.179487179487,4553.333333333334,4462.051282051282,4449.743589743591,4412.820512820514,4727.179487179488,4354.358974358975,4310.256410256411,4225.128205128206,4525.641025641026
797.7246,0.15073296,0.39559212,0.33333334,0.5522388,0,0.0,0.0,0.0,0.0,0.0,0,0,0.0,0.0,0,0,45.0,0.0,0.0,4653.333333333334,3952.307692307693,4510.769230769231,4448.205128205129,4241.025641025642,4546.153846153847,4466.666666666667,4456.410256410257,4416.923076923077,4727.179487179488,4349.743589743591,4299.48717948718,4216.410256410257,4534.871794871796
797.7246,0.15073296,0.39559212,0.33333334,0.5522388,0,0.0,0.0,0.0,0.0,0.0,0,0,0.0,0.0,0,0,45.0,0.0,0.0,4653.333333333334,3952.307692307693,4510.769230769231,4448.205128205129,4241.025641025642,4546.153846153847,4466.666666666667,4456.410256410257,4416.923076923077,4727.179487179488,4349.743589743591,4299.48717948718,4216.410256410257,4534.871794871796
798.22504,0.14891934,0.37723312,0.33333334,0.5522388,0,0.0,0.0,0.0,0.0,0.0,0,0,0.0,0.0,0,0,109.0,0.0,220.0,4630.769230769231,3934.8717948717954,4495.8974358974365,4431.794871794872,4236.923076923077,4532.307692307693,4441.025641025642,4427.179487179487,4391.282051282052,4683.589743589744,4347.179487179487,4278.461538461539,4195.8974358974365,4522.051282051282
798.22504,0.14891934,0.37723312,0.33333334,0.5522388,0,0.0,0.0,0.0,0.0,0.0,0,0,0.0,0.0,0,0,109.0,0.0,220.0,4630.769230769231,3934.8717948717954,4495.8974358974365,4431.794871794872,4236.923076923077,4532.307692307693,4441.025641025642,4427.179487179487,4391.282051282052,4683.589743589744,4347.179487179487,4278.461538461539,4195.8974358974365,4522.051282051282
798.72546,0.18207842,0.36239928,0.33333334,0.5522388,0,0.0,0.0,0.0,0.0,0.0,0,0,0.0,0.0,0,0,44.0,0.0,0.0,4632.820512820514,3930.7692307692314,4494.871794871796,4428.717948717949,4235.8974358974365,4527.179487179488,4451.282051282052,4430.256410256411,4375.384615384616,4684.102564102564,4347.179487179487,4292.820512820514,4178.974358974359,4523.589743589744
798.72546,0.18207842,0.36239928,0.33333334,0.5522388,0,0.0,0.0,0.0,0.0,0.0,0,0,0.0,0.0,0,0,44.0,0.0,0.0,4632.820512820514,3930.7692307692314,4494.871794871796,4428.717948717949,4235.8974358974365,4527.179487179488,4451.282051282052,4430.256410256411,4375.384615384616,4684.102564102564,4347.179487179487,4292.820512820514,4178.974358974359,4523.589743589744
799.2259,0.16081798,0.3424504,0.33333334,0.5522388,0,0.0,0.0,0.0,0.0,0.0,0,0,0.0,0.0,0,0,108.0,0.0,0.0,4646.666666666667,3937.9487179487182,4500.000000000001,4437.948717948719,4241.538461538462,4548.717948717949,4465.641025641026,4448.717948717949,4392.820512820514,4711.282051282052,4349.743589743591,4273.846153846154,4160.512820512821,4538.974358974359
799.2259,0.16081798,0.3424504,0.33333334,0.5522388,0,0.0,0.0,0.0,0.0,0.0,0,0,0.0,0.0,0,0,108.0,0.0,0.0,4646.666666666667,3937.9487179487182,4500.000000000001,4437.948717948719,4241.538461538462,4548.717948717949,4465.641025641026,4448.717948717949,4392.820512820514,4711.282051282052,4349.743589743591,4273.846153846154,4160.512820512821,4538.974358974359
799.7263,0.17319441,0.34620643,0.33333334,0.5522388,0,0.0,0.0,0.0,0.0,0.0,0,0,0.0,0.0,0,0,43.0,0.0,0.0,4644.102564102564,3935.8974358974365,4494.871794871796,4438.461538461539,4240.512820512821,4536.923076923077,4458.461538461539,4441.538461538462,4380.000000000001,4708.205128205129,4348.205128205129,4262.051282051282,4157.948717948719,4544.615384615385
799.7263,0.17319441,0.34620643,0.33333334,0.5522388,0,0.0,0.0,0.0,0.0,0.0,0,0,0.0,0.0,0,0,43.0,0.0,0.0,4644.102564102564,3935.8974358974365,4494.871794871796,4438.461538461539,4240.512820512821,4536.923076923077,4458.461538461539,4441.538461538462,4380.000000000001,4708.205128205129,4348.205128205129,4262.051282051282,4157.948717948719,4544.615384615385
800.22675,0.20295322,0.3616624,0.33333334,0.5522388,0,0.0,0.0,0.0,0.0,0.0,0,0,0.0,0.0,0,0,107.0,0.0,375.0,4654.358974358975,3948.717948717949,4505.128205128206,4446.153846153847,4250.256410256411,4547.6923076923085,4454.358974358975,4455.384615384616,4391.794871794872,4730.256410256411,4349.743589743591,4265.641025641026,4174.358974358975,4556.410256410257
800.22675,0.20295322,0.3616624,0.33333334,0.5522388,0,0.0,0.0,0.0,0.0,0.0,0,0,0.0,0.0,0,0,107.0,0.0,375.0,4654.358974358975,3948.717948717949,4505.128205128206,4446.153846153847,4250.256410256411,4547.6923076923085,4454.358974358975,4455.384615384616,4391.794871794872,4730.256410256411,4349.743589743591,4265.641025641026,4174.358974358975,4556.410256410257
800.7272,0.22017778,0.37366295,0.33333334,0.5522388,0,0.0,0.0,0.0,0.0,0.0,0,0,0.0,0.0,0,0,42.0,0.0,0.0,4643.076923076924,3942.0512820512827,4501.025641025642,4446.153846153847,4256.923076923077,4537.435897435898,4454.871794871796,4451.282051282052,4376.410256410257,4718.461538461539,4347.179487179487,4257.435897435898,4177.948717948719,4556.410256410257
800.7272,0.22017778,0.37366295,0.33333334,0.5522388,0,0.0,0.0,0.0,0.0,0.0,0,0,0.0,0.0,0,0,42.0,0.0,0.0,4643.076923076924,3942.0512820512827,4501.025641025642,4446.153846153847,4256.923076923077,4537.435897435898,4454.871794871796,4451.282051282052,4376.410256410257,4718.461538461539,4347.179487179487,4257.435897435898,4177.948717948719,4556.410256410257
801.2276,0.23356381,0.38191682,0.33333334,0.5522388,0,0.0,0.0,0.0,0.0,0.0,0,0,0.0,0.0,0,0,106.0,0.0,593.0,4630.256410256411,3939.48717948718,4505.128205128206,4448.717948717949,4248.205128205129,4538.461538461539,4459.48717948718,4460.000000000001,4375.8974358974365,4716.410256410257,4350.769230769231,4252.820512820514,4173.333333333334,4547.179487179488
801.2276,0.23356381,0.38191682,0.33333334,0.5522388,0,0.0,0.0,0.0,0.0,0.0,0,0,0.0,0.0,0,0,106.0,0.0,593.0,4630.256410256411,3939.48717948718,4505.128205128206,4448.717948717949,4248.205128205129,4538.461538461539,4459.48717948718,4460.000000000001,4375.8974358974365,4716.410256410257,4350.769230769231,4252.820512820514,4173.333333333334,4547.179487179488
801.728,0.19706206,0.36782864,0.33333334,0.5522388,0,0.0,0.0,0.0,0.0,0.0,0,0,0.0,0.0,0,0,41.0,0.0,0.0,4640.000000000001,3951.7948717948725,4508.717948717949,4451.794871794872,4247.6923076923085,4540.000000000001,4442.564102564103,4451.282051282052,4370.769230769231,4713.333333333334,4349.743589743591,4246.153846153847,4160.000000000001,4537.948717948719
801.728,0.19706206,0.36782864,0.33333334,0.5522388,0,0.0,0.0,0.0,0.0,0.0,0,0,0.0,0.0,0,0,41.0,0.0,0.0,4640.000000000001,3951.7948717948725,4508.717948717949,4451.794871794872,4247.6923076923085,4540.000000000001,4442.564102564103,4451.282051282052,4370.769230769231,4713.333333333334,4349.743589743591,4246.153846153847,4160.000000000001,4537.948717948719
802.22845,0.17467289,0.34690988,0.33333334,0.5522388,0,0.0,0.0,0.0,0.0,0.0,0,0,0.0,0.0,0,0,105.0,0.0,220.0,4647.179487179488,3939.48717948718,4509.2307692307695,4450.769230769231,4251.794871794872,4548.205128205129,4457.435897435898,4466.666666666667,4382.051282051282,4725.128205128206,4350.256410256411,4248.717948717949,4175.8974358974365,4534.871794871796
802.22845,0.17467289,0.34690988,0.33333334,0.5522388,0,0.0,0.0,0.0,0.0,0.0,0,0,0.0,0.0,0,0,105.0,0.0,220.0,4647.179487179488,3939.48717948718,4509.2307692307695,4450.769230769231,4251.794871794872,4548.205128205129,4457.435897435898,4466.666666666667,4382.051282051282,4725.128205128206,4350.256410256411,4248.717948717949,4175.8974358974365,4534.871794871796
802.7289,0.17561413,0.32763803,0.33333334,0.5522388,0,0.0,0.0,0.0,0.0,0.0,0,0,0.0,0.0,0,0,40.0,0.0,0.0,4629.2307692307695,3928.717948717949,4501.025641025642,4442.051282051282,4248.717948717949,4548.205128205129,4456.923076923077,4455.384615384616,4396.410256410257,4730.769230769231,4345.128205128206,4249.2307692307695,4180.512820512821,4516.923076923077
802.9479,0.17561413,0.32763803,0.33333334,0.5522388,0,0.0,0.0,0.0,0.0,0.9349661,0,0,0.0,0.0,0,0,68.0,0.0,586.0,4642.564102564103,3937.9487179487182,4500.000000000001,4445.641025641026,4243.076923076924,4547.179487179488,4450.256410256411,4450.256410256411,4395.384615384616,4724.615384615386,4347.6923076923085,4262.564102564103,4188.717948717949,4508.205128205129
803.2294,0.1812229,0.31608596,0.33333334,0.5522388,0,0.0,0.0,0.0,0.0,0.7830501,0,0,0.0,0.0,0,0,104.0,0.0,0.0,4636.923076923077,3938.9743589743593,4503.589743589744,4442.051282051282,4237.435897435898,4537.435897435898,4449.2307692307695,4434.871794871796,4375.8974358974365,4713.333333333334,4346.153846153847,4264.615384615385,4176.410256410257,4514.871794871796
803.4483,0.1812229,0.31608596,0.33333334,0.5522388,0,0.0,0.0,0.0,0.0,0.0,0,0,0.0,0.0,0,0,3.0,0.0,567.0,4641.538461538462,3951.7948717948725,4516.410256410257,4451.282051282052,4256.923076923077,4551.282051282052,4462.564102564103,4437.435897435898,4388.205128205129,4726.666666666667,4348.717948717949,4280.000000000001,4185.641025641026,4515.8974358974365
803.7298,0.1632294,0.30662286,0.33333334,0.5522388,0,0.0,0.0,0.0,0.0,0.0,0,0,0.0,0.0,0,0,39.0,0.0,0.0,4630.769230769231,3940.5128205128212,4496.410256410257,4443.076923076924,4237.948717948719,4535.8974358974365,4441.538461538462,4408.205128205129,4374.871794871796,4698.461538461539,4344.615384615385,4276.923076923077,4152.820512820514,4502.051282051282
803.7298,0.1632294,0.30662286,0.33333334,0.5522388,0,0.0,0.0,0.0,0.0,0.0,0,0,0.0,0.0,0,0,39.0,0.0,0.0,4630.769230769231,3940.5128205128212,4496.410256410257,4443.076923076924,4237.948717948719,4535.8974358974365,4441.538461538462,4408.205128205129,4374.871794871796,4698.461538461539,4344.615384615385,4276.923076923077,4152.820512820514,4502.051282051282
804.2302,0.16755256,0.30181676,0.33333334,0.5522388,0,0.0,0.0,0.0,0.0,0.0,0,0,0.0,0.0,0,0,103.0,0.0,375.0,4639.48717948718,3940.5128205128212,4499.48717948718,4442.564102564103,4241.538461538462,4538.461538461539,4441.025641025642,4422.564102564103,4380.512820512821,4707.179487179488,4342.564102564103,4297.948717948719,4179.48717948718,4520.512820512821
804.2302,0.16755256,0.30181676,0.33333334,0.5522388,0,0.0,0.0,0.0,0.0,0.0,0,0,0.0,0.0,0,0,103.0,0.0,375.0,4639.48717948718,3940.5128205128212,4499.48717948718,4442.564102564103,4241.538461538462,4538.461538461539,4441.025641025642,4422.564102564103,4380.512820512821,4707.179487179488,4342.564102564103,4297.948717948719,4179.48717948718,4520.512820512821
804.73065,0.14551638,0.31233695,0.33333334,0.5522388,0,0.0,0.0,0.0,0.0,0.0,0,0,0.0,0.0,0,0,38.0,0.0,0.0,4623.076923076924,3935.8974358974365,4492.307692307693,4438.974358974359,4236.923076923077,4538.461538461539,4449.743589743591,4425.128205128206,4382.051282051282,4708.205128205129,4343.076923076924,4291.282051282052,4180.512820512821,4507.6923076923085
804.73065,0.14551638,0.31233695,0.33333334,0.5522388,0,0.0,0.0,0.0,0.0,0.0,0,0,0.0,0.0,0,0,38.0,0.0,0.0,4623.076923076924,3935.8974358974365,4492.307692307693,4438.974358974359,4236.923076923077,4538.461538461539,4449.743589743591,4425.128205128206,4382.051282051282,4708.205128205129,4343.076923076924,4291.282051282052,4180.512820512821,4507.6923076923085
805.2311,0.1933295,0.32472822,0.33333334,0.5522388,0,0.0,0.0,0.0,0.0,0.0,0,0,0.0,0.0,0,0,102.0,0.0,593.0,4602.564102564103,3911.7948717948725,4490.769230769231,4433.333333333334,4244.102564102564,4544.102564102564,4456.410256410257,4412.820512820514,4373.333333333334,4711.282051282052,4341.025641025642,4275.8974358974365,4163.076923076924,4488.717948717949
805.2311,0.1933295,0.32472822,0.33333334,0.5522388,0,0.0,0.0,0.0,0.0,0.0,0,0,0.0,0.0,0,0,102.0,0.0,593.0,4602.564102564103,3911.7948717948725,4490.769230769231,4433.333333333334,4244.102564102564,4544.102564102564,4456.410256410257,4412.820512820514,4373.333333333334,4711.282051282052,4341.025641025642,4275.8974358974365,4163.076923076924,4488.717948717949
805.7315,0.17524011,0.33938822,0.33333334,0.5522388,0,0.0,0.0,0.0,0.0,0.0,0,0,0.0,0.0,0,0,37.0,0.0,0.0,4615.8974358974365,3927.692307692308,4500.512820512821,4444.615384615385,4231.282051282052,4545.128205128206,4482.051282051282,4436.410256410257,4389.743589743591,4716.410256410257,4340.000000000001,4301.025641025642,4157.948717948719,4483.076923076924
805.95044,0.17524011,0.33938822,0.33333334,0.5522388,0,0.0,0.0,0.0,0.0,0.04909777,0,0,0.0,0.0,0,0,65.0,0.0,461.0,4629.743589743591,3929.7435897435903,4498.974358974359,4444.102564102564,4223.076923076924,4536.923076923077,4472.307692307693,4429.2307692307695,4387.179487179487,4712.307692307693,4340.512820512821,4301.025641025642,4146.666666666667,4487.179487179488
806.23193,0.1801372,0.34859926,0.33333334,0.5522388,0,0.0,0.0,0.0,0.0,0.10465268,0,0,0.0,0.0,0,0,101.0,0.0,217.0,4648.205128205129,3933.333333333334,4506.666666666667,4441.538461538462,4223.589743589744,4541.025641025642,4493.846153846154,4440.000000000001,4404.615384615385,4694.358974358975,4346.666666666667,4292.307692307693,4021.0256410256416,4496.410256410257
806.4821,0.1801372,0.34859926,0.33333334,0.5522388,0,0.0,0.0,0.0,0.0,0.58786136,0,0,0.0,0.0,0,1,4.0,0.0,586.0,4649.743589743591,3950.7692307692314,4508.205128205129,4441.538461538462,4228.205128205129,4538.974358974359,4488.717948717949,4427.6923076923085,4402.051282051282,4757.435897435898,4334.358974358975,4290.256410256411,4028.717948717949,4510.769230769231
806.73236,0.21789427,0.36058682,0.33333334,0.5522388,0,0.0,0.0,0.0,0.0,0.80369276,0,0,0.0,0.0,0,1,36.0,0.0,0.0,4614.358974358975,4010.7692307692314,4506.666666666667,4437.435897435898,4204.615384615385,4514.871794871796,4455.384615384616,4412.307692307693,4390.256410256411,4635.8974358974365,4325.641025641026,4263.076923076924,4025.6410256410263,4535.384615384616
806.9513,0.21789427,0.36058682,0.33333334,0.5522388,0,0.0,0.0,0.0,0.0,0.06860465,0,0,0.0,0.0,0,0,64.0,0.0,420.0,4513.333333333334,3876.9230769230776,4495.384615384616,4989.743589743591,4144.615384615385,4450.256410256411,4343.589743589744,4295.8974358974365,4296.410256410257,4555.8974358974365,4314.871794871796,4230.769230769231,3959.48717948718,4431.794871794872
807.2015,0.401747,0.37132144,0.33333334,0.5522388,0,0.0,0.18743177,0.0,0.0,0.0,0,0,0.0,0.0,0,0,96.0,0.0,0.0,4602.051282051282,3961.538461538462,4502.564102564103,4443.076923076924,4232.820512820514,4532.307692307693,4457.435897435898,4408.205128205129,4371.282051282052,4653.846153846154,4322.051282051282,4253.333333333334,4051.7948717948725,4492.820512820514
807.4517,0.401747,0.37132144,0.33333334,0.5522388,0,0.0,0.12586981,0.0,0.0,0.0,0,0,0.0,0.0,0,0,128.0,0.0,0.0,4654.871794871796,4003.589743589744,4511.282051282052,4294.358974358975,4268.205128205129,4565.641025641026,4500.000000000001,4470.256410256411,4420.000000000001,4723.589743589744,4325.641025641026,4289.74358974359,4071.2820512820517,4542.564102564103
807.70197,0.5306398,0.38098258,0.33333334,0.5522388,0,0.0,0.20127685,0.0,0.0,0.0,0,0,0.0,0.0,0,0,31.0,0.0,0.0,4652.820512820514,3973.8461538461543,4502.564102564103,4314.871794871796,4247.6923076923085,4549.2307692307695,4465.641025641026,4442.564102564103,4396.410256410257,4697.948717948719,4328.205128205129,4292.820512820514,4069.23076923077,4535.384615384616
807.827,0.5306398,0.38098258,0.33333334,0.5522388,0,0.0,0.0,0.0,0.0,0.0,0,0,0.0,0.0,0,0,47.0,0.0,0.0,4638.461538461539,3961.538461538462,4495.384615384616,4320.512820512821,4242.564102564103,4537.948717948719,4458.974358974359,4442.564102564103,4402.051282051282,4706.666666666667,4328.717948717949,4297.948717948719,4085.1282051282055,4534.871794871796
808.2024,0.5421443,0.38967758,0.33333334,0.5522388,0,0.0,0.0,0.0,0.0,0.0,0,0,0.0,0.0,0,0,95.0,0.0,376.0,4629.743589743591,3957.435897435898,4492.307692307693,4358.461538461539,4231.794871794872,4532.307692307693,4433.333333333334,4413.846153846154,4373.333333333334,4704.102564102564,4330.256410256411,4315.8974358974365,4091.2820512820517,4520.512820512821
808.23364,0.5421443,0.38967758,0.33333334,0.5522388,0,0.0,0.0,0.0,0.0,0.0,0,0,0.0,0.0,0,0,99.0,0.0,376.0,4629.743589743591,3957.435897435898,4492.820512820514,4360.512820512821,4232.820512820514,4537.435897435898,4443.076923076924,4429.743589743591,4376.410256410257,4704.102564102564,4329.2307692307695,4317.435897435898,4090.7692307692314,4518.461538461539
808.7028,0.45665413,0.3975031,0.33333334,0.5522388,0,0.0,0.0,0.0,0.0,0.0,0,0,0.0,0.0,0,0,30.0,0.0,0.0,4631.794871794872,3945.1282051282055,4497.948717948719,4396.923076923077,4245.641025641026,4543.076923076924,4465.128205128206,4463.076923076924,4409.743589743591,4738.974358974359,4333.333333333334,4323.589743589744,4114.358974358975,4518.461538461539
808.953,0.45665413,0.3975031,0.33333334,0.5522388,0,0.0,0.0,0.0,0.0,0.031651184,0,0,0.0,0.0,0,0,62.0,0.0,0.0,4653.333333333334,3943.589743589744,4502.051282051282,4401.538461538462,4239.48717948718,4540.512820512821,4460.512820512821,4445.128205128206,4396.923076923077,4733.846153846154,4331.794871794872,4333.846153846154,4134.358974358975,4523.589743589744
809.20325,0.42663902,0.43752572,0.33333334,0.5522388,0,0.0,0.0,0.0,0.0,0.100413114,0,0,0.0,0.0,0,0,94.0,0.0,593.0,4649.743589743591,3946.1538461538466,4503.589743589744,4413.333333333334,4241.025641025642,4540.000000000001,4459.48717948718,4438.461538461539,4400.000000000001,4731.794871794872,4334.871794871796,4328.717948717949,4131.282051282052,4509.743589743591
809.3283,0.42663902,0.43752572,0.33333334,0.5522388,0,0.0,0.0,0.0,0.0,0.0,0,0,0.0,0.0,0,0,110.0,0.0,593.0,4650.769230769231,3941.538461538462,4504.102564102564,4414.871794871796,4243.589743589744,4540.000000000001,4458.974358974359,4428.717948717949,4389.743589743591,4721.538461538462,4334.871794871796,4322.564102564103,4119.48717948718,4522.564102564103
809.7037,0.39797252,0.4048378,0.33333334,0.5522388,0,0.0,0.0,0.0,0.0,0.0,0,0,0.0,0.0,0,0,29.0,0.0,0.0,4642.051282051282,3932.307692307693,4498.974358974359,4425.641025641026,4244.102564102564,4543.076923076924,4458.461538461539,4425.128205128206,4398.974358974359,4732.307692307693,4334.871794871796,4323.589743589744,4145.641025641026,4517.948717948719
809.7349,0.39797252,0.4048378,0.33333334,0.5522388,0,0.0,0.0,0.0,0.0,0.0,0,0,0.0,0.0,0,0,33.0,0.0,0.0,4646.666666666667,3933.333333333334,4500.512820512821,4423.589743589744,4240.512820512821,4539.48717948718,4448.717948717949,4415.8974358974365,4383.589743589744,4721.025641025642,4334.358974358975,4321.025641025642,4136.410256410257,4510.769230769231
810.2041,0.36893743,0.39543673,0.33333334,0.5522388,0,0.0,0.0,0.0,0.0,0.0,0,0,0.0,0.0,0,0,93.0,0.0,215.0,4629.2307692307695,3928.205128205129,4490.256410256411,4426.153846153847,4231.794871794872,4534.358974358975,4442.564102564103,4393.846153846154,4378.461538461539,4705.641025641026,4338.461538461539,4297.948717948719,4130.769230769231,4507.6923076923085
810.23535,0.36893743,0.39543673,0.33333334,0.5522388,0,0.0,0.0,0.0,0.0,0.0,0,0,0.0,0.0,0,0,97.0,0.0,215.0,4640.000000000001,3942.0512820512827,4498.461538461539,4430.256410256411,4247.6923076923085,4541.025641025642,4454.871794871796,4420.000000000001,4401.025641025642,4730.769230769231,4338.974358974359,4302.051282051282,4158.461538461539,4523.076923076924
810.7045,0.38583875,0.39312246,0.33333334,0.5522388,0,0.0,0.0,0.0,0.0,0.0,0,0,0.0,0.0,0,0,28.0,0.0,0.0,4621.025641025642,3937.9487179487182,4497.948717948719,4436.923076923077,4246.153846153847,4549.2307692307695,4474.358974358975,4443.589743589744,4408.205128205129,4722.051282051282,4337.948717948719,4281.538461538462,4157.948717948719,4511.794871794872
810.7358,0.38583875,0.39312246,0.33333334,0.5522388,0,0.0,0.0,0.0,0.0,0.0,0,0,0.0,0.0,0,0,32.0,0.0,0.0,4614.871794871796,3928.205128205129,4496.410256410257,4430.256410256411,4247.6923076923085,4544.615384615385,4465.641025641026,4434.871794871796,4409.743589743591,4728.717948717949,4338.974358974359,4278.974358974359,4153.846153846154,4508.205128205129
811.20496,0.3522602,0.38142335,0.33333334,0.5522388,0,0.0,0.0,0.0,0.0,0.0,0,0,0.0,0.0,0,0,92.0,0.0,0.0,4626.153846153847,3925.6410256410263,4500.512820512821,4436.410256410257,4257.435897435898,4551.794871794872,4472.307692307693,4428.717948717949,4396.410256410257,4720.512820512821,4338.974358974359,4278.461538461539,4162.564102564103,4505.128205128206
811.2362,0.3522602,0.38142335,0.33333334,0.5522388,0,0.0,0.0,0.0,0.0,0.0,0,0,0.0,0.0,0,0,96.0,0.0,0.0,4624.102564102564,3929.2307692307695,4501.025641025642,4436.410256410257,4250.769230769231,4544.615384615385,4463.076923076924,4421.538461538462,4390.256410256411,4712.307692307693,4337.435897435898,4277.435897435898,4161.025641025642,4492.307692307693
811.7054,0.32218525,0.37374043,0.33333334,0.5522388,0,0.0,0.0,0.0,0.0,0.06368998,0,0,0.0,0.0,0,0,27.0,0.0,0.0,4631.282051282052,3942.0512820512827,4510.256410256411,4447.179487179487,4256.923076923077,4552.820512820514,4454.358974358975,4421.025641025642,4373.846153846154,4708.205128205129,4340.512820512821,4271.282051282052,4158.974358974359,4506.153846153847
811.8305,0.32218525,0.37374043,0.33333334,0.5522388,0,0.0,0.0,0.0,0.0,0.0,0,0,0.0,0.0,0,0,43.0,0.0,0.0,4645.641025641026,3954.8717948717954,4514.358974358975,4454.358974358975,4260.512820512821,4559.48717948718,4472.307692307693,4440.000000000001,4395.8974358974365,4724.615384615386,4340.000000000001,4272.307692307693,4182.564102564103,4515.8974358974365
812.2058,0.31366113,0.38357472,0.33333334,0.5522388,0,0.0,0.0,0.0,0.0,0.0,0,0,0.0,0.0,0,0,91.0,0.0,376.0,4633.846153846154,3947.692307692308,4513.333333333334,4445.641025641026,4256.923076923077,4556.923076923077,4469.2307692307695,4432.820512820514,4386.666666666667,4714.871794871796,4341.538461538462,4276.410256410257,4166.153846153847,4505.641025641026
812.23706,0.31366113,0.38357472,0.33333334,0.5522388,0,0.0,0.0,0.0,0.0,0.0,0,0,0.0,0.0,0,0,95.0,0.0,376.0,4617.948717948719,3940.0000000000005,4505.128205128206,4442.051282051282,4256.410256410257,4553.846153846154,4464.615384615385,4419.48717948718,4373.846153846154,4699.48717948718,4340.512820512821,4273.846153846154,4155.8974358974365,4496.923076923077
812.70624,0.27685237,0.39624918,0.33333334,0.5522388,0,0.0,0.0,0.0,0.0,0.0,0,0,0.0,0.0,0,0,26.0,0.0,0.0,4626.666666666667,3935.3846153846157,4509.2307692307695,4442.564102564103,4255.384615384616,4553.333333333334,4455.8974358974365,4428.205128205129,4379.48717948718,4717.435897435898,4340.512820512821,4274.871794871796,4169.2307692307695,4504.102564102564
812.7375,0.27685237,0.39624918,0.33333334,0.5522388,0,0.0,0.0,0.0,0.0,0.0,0,0,0.0,0.0,0,0,30.0,0.0,0.0,4641.025641025642,3942.0512820512827,4510.769230769231,4445.128205128206,4255.384615384616,4554.358974358975,4458.461538461539,4427.179487179487,4381.538461538462,4724.615384615386,4340.512820512821,4282.051282051282,4182.564102564103,4521.538461538462
813.20667,0.2870689,0.40493792,0.33333334,0.5522388,0,0.0,0.0,0.0,0.0,0.0,0,0,0.0,0.0,0,0,90.0,0.0,593.0,4642.051282051282,3952.820512820513,4514.358974358975,4456.923076923077,4260.512820512821,4564.615384615385,4459.48717948718,4428.717948717949,4392.820512820514,4733.333333333334,4344.615384615385,4263.589743589744,4186.153846153847,4514.871794871796
813.2379,0.2870689,0.40493792,0.33333334,0.5522388,0,0.0,0.0,0.0,0.0,0.0,0,0,0.0,0.0,0,0,94.0,0.0,593.0,4648.205128205129,3948.717948717949,4516.923076923077,4452.820512820514,4256.410256410257,4556.923076923077,4458.461538461539,4421.025641025642,4384.615384615385,4729.743589743591,4344.615384615385,4268.205128205129,4192.307692307693,4525.128205128206
813.7071,0.2760083,0.3943762,0.33333334,0.5522388,0,0.0,0.0,0.0,0.0,0.0,0,0,0.0,0.0,0,0,25.0,0.0,0.0,4663.589743589744,3951.7948717948725,4513.846153846154,4448.205128205129,4245.641025641026,4551.282051282052,4464.615384615385,4432.820512820514,4388.205128205129,4723.589743589744,4348.717948717949,4275.8974358974365,4197.948717948719,4537.948717948719
813.73834,0.2760083,0.3943762,0.33333334,0.5522388,0,0.0,0.0,0.0,0.0,0.0,0,0,0.0,0.0,0,0,29.0,0.0,0.0,4648.717948717949,3946.666666666667,4512.820512820514,4453.846153846154,4252.820512820514,4552.820512820514,4467.6923076923085,4430.769230769231,4387.179487179487,4718.461538461539,4347.179487179487,4267.6923076923085,4190.256410256411,4521.025641025642
814.2075,0.27100453,0.37580556,0.33333334,0.5522388,0,0.0,0.0,0.0,0.0,0.0,0,0,0.0,0.0,0,0,89.0,0.0,215.0,4647.6923076923085,3947.692307692308,4517.948717948719,4458.974358974359,4262.051282051282,4564.615384615385,4465.128205128206,4423.076923076924,4389.743589743591,4731.282051282052,4349.2307692307695,4268.717948717949,4194.871794871796,4523.589743589744
814.23883,0.27100453,0.37580556,0.33333334,0.5522388,0,0.0,0.0,0.0,0.0,0.0,0,0,0.0,0.0,0,0,93.0,0.0,215.0,4641.538461538462,3948.205128205129,4516.923076923077,4457.948717948719,4255.384615384616,4556.923076923077,4462.051282051282,4421.538461538462,4382.564102564103,4721.025641025642,4347.179487179487,4266.666666666667,4192.820512820514,4520.512820512821
814.70795,0.2700034,0.35452664,0.33333334,0.5522388,0,0.0,0.0,0.0,0.0,0.0,0,0,0.0,0.0,0,0,24.0,0.0,0.0,4641.538461538462,3947.1794871794878,4507.6923076923085,4445.128205128206,4246.666666666667,4546.153846153847,4452.820512820514,4408.205128205129,4371.794871794872,4700.512820512821,4347.6923076923085,4251.282051282052,4184.102564102564,4523.076923076924
814.73926,0.2700034,0.35452664,0.33333334,0.5522388,0,0.0,0.0,0.0,0.0,0.0,0,0,0.0,0.0,0,0,28.0,0.0,0.0,4637.435897435898,3949.2307692307695,4506.153846153847,4452.307692307693,4246.666666666667,4546.153846153847,4452.307692307693,4414.358974358975,4380.000000000001,4713.333333333334,4348.717948717949,4251.794871794872,4193.333333333334,4522.564102564103
815.2084,0.2190909,0.33986416,0.33333334,0.5522388,0,0.0,0.0,0.0,0.0,0.0,0,0,0.0,0.0,0,0,88.0,0.0,0.0,4633.846153846154,3935.8974358974365,4507.6923076923085,4444.615384615385,4246.666666666667,4547.6923076923085,4477.435897435898,4457.948717948719,4411.282051282052,4740.000000000001,4351.282051282052,4278.461538461539,4198.974358974359,4520.512820512821
815.4586,0.2190909,0.33986416,0.33333334,0.5522388,0,0.0,0.0,0.0,0.0,0.030475272,0,0,0.0,0.0,0,0,120.0,0.0,0.0,4631.794871794872,3929.7435897435903,4507.179487179488,4446.153846153847,4249.2307692307695,4551.282051282052,4474.871794871796,4435.384615384616,4388.717948717949,4726.666666666667,4352.307692307693,4284.615384615385,4188.205128205129,4511.794871794872
815.7088,0.23037788,0.33951926,0.33333334,0.5522388,0,0.0,0.0,0.0,0.0,0.014328143,0,0,0.0,0.0,0,0,23.0,0.0,0.0,4640.512820512821,3924.1025641025644,4508.205128205129,4437.435897435898,4242.564102564103,4538.974358974359,4460.512820512821,4426.666666666667,4402.564102564103,4756.923076923077,4354.871794871796,4297.948717948719,4205.641025641026,4511.282051282052
815.8339,0.23037788,0.33951926,0.33333334,0.5522388,0,0.0,0.0,0.0,0.0,0.0,0,0,0.0,0.0,0,0,39.0,0.0,0.0,4642.051282051282,3931.7948717948725,4507.6923076923085,4444.102564102564,4243.076923076924,4540.512820512821,4461.538461538462,4410.256410256411,4380.512820512821,4709.2307692307695,4354.358974358975,4296.410256410257,4191.282051282052,4505.128205128206
816.2092,0.20739324,0.34696585,0.33333334,0.5522388,0,0.0,0.0,0.0,0.0,0.0,0,0,0.0,0.0,0,0,87.0,0.0,376.0,4647.179487179488,3937.9487179487182,4511.282051282052,4451.794871794872,4258.974358974359,4557.435897435898,4485.128205128206,4443.589743589744,4405.128205128206,4729.2307692307695,4349.743589743591,4294.871794871796,4203.076923076924,4517.435897435898
816.24054,0.20739324,0.34696585,0.33333334,0.5522388,0,0.0,0.0,0.0,0.0,0.0,0,0,0.0,0.0,0,0,91.0,0.0,376.0,4645.128205128206,3927.692307692308,4510.769230769231,4446.666666666667,4252.307692307693,4555.8974358974365,4482.051282051282,4448.205128205129,4404.615384615385,4729.2307692307695,4354.358974358975,4298.974358974359,4205.128205128206,4508.717948717949
816.70966,0.18582933,0.36060798,0.33333334,0.5522388,0,0.0,0.0,0.0,0.0,0.0,0,0,0.0,0.0,0,0,22.0,0.0,0.0,4656.410256410257,3941.0256410256416,4509.2307692307695,4446.666666666667,4244.102564102564,4550.769230769231,4474.358974358975,4455.384615384616,4405.128205128206,4732.820512820514,4351.282051282052,4277.435897435898,4214.871794871796,4522.564102564103
816.74097,0.18582933,0.36060798,0.33333334,0.5522388,0,0.0,0.0,0.0,0.0,0.0,0,0,0.0,0.0,0,0,26.0,0.0,0.0,4644.102564102564,3938.461538461539,4506.153846153847,4444.102564102564,4240.000000000001,4544.102564102564,4466.153846153847,4435.8974358974365,4397.948717948719,4711.282051282052,4351.794871794872,4273.333333333334,4191.282051282052,4508.205128205129
817.2101,0.1971653,0.36575297,0.33333334,0.5522388,0,0.0,0.0,0.0,0.0,0.0,0,0,0.0,0.0,0,0,86.0,0.0,593.0,4654.871794871796,3946.666666666667,4511.282051282052,4455.8974358974365,4250.256410256411,4549.743589743591,4473.846153846154,4442.051282051282,4411.794871794872,4743.076923076924,4354.871794871796,4284.615384615385,4228.717948717949,4536.923076923077
817.4603,0.1971653,0.36575297,0.33333334,0.5522388,0,0.0,0.0,0.0,0.0,0.9563059,0,0,0.0,0.0,0,1,118.0,0.0,593.0,4639.48717948718,3941.538461538462,4501.025641025642,4442.051282051282,4246.153846153847,4538.461538461539,4453.846153846154,4422.051282051282,4388.717948717949,4695.384615384616,4351.282051282052,4254.358974358975,4188.717948717949,4520.000000000001
817.7105,0.21578485,0.3732147,0.33333334,0.5522388,0,0.0,0.0,0.0,0.0,0.07177121,0,0,0.0,0.0,0,0,21.0,0.0,0.0,4630.769230769231,3926.666666666667,4495.8974358974365,4429.743589743591,4231.794871794872,4535.384615384616,4440.512820512821,4421.538461538462,4383.076923076924,4703.589743589744,4352.820512820514,4258.974358974359,4203.076923076924,4522.051282051282
817.96075,0.21578485,0.3732147,0.33333334,0.5522388,0,0.0,0.0,0.0,0.0,0.0,0,0,0.0,0.0,0,0,53.0,0.0,0.0,4648.717948717949,3944.1025641025644,4504.615384615385,4442.564102564103,4248.717948717949,4542.564102564103,4450.769230769231,4418.461538461539,4393.333333333334,4711.282051282052,4354.358974358975,4257.948717948719,4217.435897435898,4524.102564102564
818.21094,0.23348625,0.38326675,0.33333334,0.5522388,0,0.0,0.0,0.0,0.0,0.0,0,0,0.0,0.0,0,0,85.0,0.0,215.0,4645.128205128206,3955.3846153846157,4507.6923076923085,4448.205128205129,4253.846153846154,4552.307692307693,4454.871794871796,4420.512820512821,4384.102564102564,4698.974358974359,4354.358974358975,4261.538461538462,4201.025641025642,4524.102564102564
818.24225,0.23348625,0.38326675,0.33333334,0.5522388,0,0.0,0.0,0.0,0.0,0.0,0,0,0.0,0.0,0,0,89.0,0.0,215.0,4632.820512820514,3943.076923076924,4504.102564102564,4447.6923076923085,4257.435897435898,4554.358974358975,4464.102564102564,4419.48717948718,4384.102564102564,4699.48717948718,4354.871794871796,4262.051282051282,4188.717948717949,4520.000000000001
818.7114,0.2197295,0.38886628,0.33333334,0.5522388,0,0.0,0.0,0.0,0.0,0.0,0,0,0.0,0.0,0,0,20.0,0.0,0.0,4665.128205128206,3955.3846153846157,4507.6923076923085,4449.2307692307695,4247.6923076923085,4542.051282051282,4454.871794871796,4404.615384615385,4374.358974358975,4710.769230769231,4356.410256410257,4254.358974358975,4198.974358974359,4541.025641025642
818.7427,0.2197295,0.38886628,0.33333334,0.5522388,0,0.0,0.0,0.0,0.0,0.0,0,0,0.0,0.0,0,0,24.0,0.0,0.0,4664.102564102564,3961.538461538462,4513.846153846154,4454.358974358975,4253.846153846154,4547.6923076923085,4465.641025641026,4428.205128205129,4390.256410256411,4730.256410256411,4353.333333333334,4252.820512820514,4213.333333333334,4537.948717948719
819.21185,0.2201835,0.3764506,0.33333334,0.5522388,0,0.0,0.0,0.0,0.0,0.0,0,0,0.0,0.0,0,0,84.0,0.0,0.0,4645.641025641026,3948.717948717949,4504.615384615385,4444.615384615385,4234.358974358975,4537.948717948719,4440.000000000001,4419.48717948718,4378.974358974359,4715.8974358974365,4352.307692307693,4245.641025641026,4192.820512820514,4540.512820512821
819.2431,0.2201835,0.3764506,0.33333334,0.5522388,0,0.0,0.0,0.0,0.0,0.0,0,0,0.0,0.0,0,0,88.0,0.0,0.0,4639.48717948718,3943.076923076924,4503.589743589744,4443.076923076924,4234.871794871796,4537.948717948719,4433.846153846154,4398.974358974359,4370.256410256411,4703.076923076924,4352.307692307693,4241.538461538462,4174.358974358975,4523.589743589744
819.7123,0.2434609,0.38296276,0.33333334,0.5522388,0,0.0,0.0,0.0,0.0,0.0,0,0,0.0,0.0,0,0,19.0,0.0,0.0,4620.512820512821,3928.717948717949,4501.025641025642,4442.564102564103,4243.076923076924,4541.025641025642,4448.205128205129,4430.769230769231,4390.769230769231,4713.333333333334,4352.307692307693,4231.282051282052,4182.051282051282,4511.794871794872
819.7435,0.2434609,0.38296276,0.33333334,0.5522388,0,0.0,0.0,0.0,0.0,0.0,0,0,0.0,0.0,0,0,23.0,0.0,0.0,4624.615384615385,3931.2820512820517,4498.974358974359,4441.025641025642,4239.48717948718,4540.000000000001,4450.256410256411,4423.589743589744,4384.615384615385,4713.333333333334,4351.794871794872,4248.205128205129,4189.74358974359,4513.333333333334
820.2127,0.21614154,0.38091475,0.33333334,0.5522388,0,0.0,0.0,0.0,0.0,0.0,0,0,0.0,0.0,0,0,83.0,0.0,376.0,4618.461538461539,3934.8717948717954,4508.205128205129,4444.615384615385,4251.794871794872,4551.282051282052,4460.000000000001,4428.205128205129,4391.282051282052,4724.615384615386,4354.871794871796,4249.2307692307695,4203.076923076924,4524.102564102564
820.24396,0.21614154,0.38091475,0.33333334,0.5522388,0,0.0,0.0,0.0,0.0,0.0,0,0,0.0,0.0,0,0,87.0,0.0,376.0,4629.743589743591,3941.538461538462,4503.076923076924,4445.128205128206,4245.641025641026,4537.435897435898,4450.256410256411,4418.461538461539,4389.743589743591,4721.538461538462,4355.8974358974365,4249.2307692307695,4197.435897435898,4523.076923076924
820.71313,0.18729681,0.3822862,0.33333334,0.5522388,0,0.0,0.0,0.0,0.0,0.0,0,0,0.0,0.0,0,0,18.0,0.0,0.0,4647.6923076923085,3957.9487179487182,4517.948717948719,4463.076923076924,4264.102564102564,4560.512820512821,4476.923076923077,4432.820512820514,4404.615384615385,4739.48717948718,4354.871794871796,4250.256410256411,4202.564102564103,4518.461538461539
820.7444,0.18729681,0.3822862,0.33333334,0.5522388,0,0.0,0.0,0.0,0.0,0.0,0,0,0.0,0.0,0,0,22.0,0.0,0.0,4657.948717948719,3963.589743589744,4524.102564102564,4472.820512820514,4265.641025641026,4566.153846153847,4472.820512820514,4442.564102564103,4407.6923076923085,4740.000000000001,4356.410256410257,4248.717948717949,4207.6923076923085,4532.307692307693
821.21356,0.23597293,0.38575527,0.33333334,0.5522388,0,0.0,0.0,0.0,0.0,0.0,0,0,0.0,0.0,0,0,82.0,0.0,593.0,4630.769230769231,3932.307692307693,4503.589743589744,4445.128205128206,4248.205128205129,4548.205128205129,4461.025641025642,4417.435897435898,4381.538461538462,4703.589743589744,4353.846153846154,4231.794871794872,4177.435897435898,4514.358974358975
821.2448,0.23597293,0.38575527,0.33333334,0.5522388,0,0.0,0.0,0.0,0.0,0.0,0,0,0.0,0.0,0,0,86.0,0.0,593.0,4627.6923076923085,3933.8461538461543,4502.051282051282,4445.128205128206,4248.205128205129,4550.769230769231,4458.974358974359,4418.461538461539,4388.205128205129,4715.384615384616,4353.846153846154,4232.307692307693,4177.948717948719,4507.179487179488
821.714,0.22378972,0.38489136,0.33333334,0.5522388,0,0.0,0.0,0.0,0.0,0.0,0,0,0.0,0.0,0,0,17.0,0.0,0.0,4635.8974358974365,3930.2564102564106,4501.025641025642,4439.48717948718,4241.025641025642,4537.948717948719,4448.717948717949,4430.256410256411,4379.48717948718,4718.461538461539,4355.8974358974365,4247.6923076923085,4169.2307692307695,4512.820512820514
821.74524,0.22378972,0.38489136,0.33333334,0.5522388,0,0.0,0.0,0.0,0.0,0.0,0,0,0.0,0.0,0,0,21.0,0.0,0.0,4628.205128205129,3927.692307692308,4500.000000000001,4444.102564102564,4245.641025641026,4548.205128205129,4449.743589743591,4422.051282051282,4377.948717948719,4713.846153846154,4353.846153846154,4245.128205128206,4162.051282051282,4505.128205128206
822.2144,0.2132045,0.3855435,0.33333334,0.5522388,0,0.0,0.0,0.0,0.0,0.0,0,0,0.0,0.0,0,0,81.0,0.0,215.0,4634.358974358975,3926.1538461538466,4497.948717948719,4458.974358974359,4245.641025641026,4545.128205128206,4451.282051282052,4420.512820512821,4384.615384615385,4722.051282051282,4356.410256410257,4232.307692307693,4167.6923076923085,4508.205128205129
822.24567,0.2132045,0.3855435,0.33333334,0.5522388,0,0.0,0.0,0.0,0.0,0.0,0,0,0.0,0.0,0,0,85.0,0.0,215.0,4632.820512820514,3937.9487179487182,4504.102564102564,4462.564102564103,4249.74358974359,4552.820512820514,4445.128205128206,4412.820512820514,4380.512820512821,4713.333333333334,4354.871794871796,4235.384615384616,4161.025641025642,4506.666666666667
822.71484,0.2478492,0.3749815,0.33333334,0.5522388,0,0.0,0.0,0.0,0.0,0.0,0,0,0.0,0.0,0,0,16.0,0.0,0.0,4626.153846153847,3931.2820512820517,4497.948717948719,4445.641025641026,4246.153846153847,4543.076923076924,4438.461538461539,4406.666666666667,4377.435897435898,4712.820512820514,4356.923076923077,4231.794871794872,4169.74358974359,4507.179487179488
822.7461,0.2478492,0.3749815,0.33333334,0.5522388,0,0.0,0.0,0.0,0.0,0.0,0,0,0.0,0.0,0,0,20.0,0.0,0.0,4632.307692307693,3929.2307692307695,4500.000000000001,4444.102564102564,4243.076923076924,4544.615384615385,4436.410256410257,4409.743589743591,4378.461538461539,4715.384615384616,4356.410256410257,4244.615384615385,4163.589743589744,4510.769230769231
823.2153,0.2510455,0.3545705,0.33333334,0.5522388,0,0.0,0.0,0.0,0.0,0.0,0,0,0.0,0.0,0,0,80.0,0.0,0.0,4625.128205128206,3932.820512820513,4501.538461538462,4438.461538461539,4246.153846153847,4541.538461538462,4447.6923076923085,4426.153846153847,4381.538461538462,4711.282051282052,4354.358974358975,4248.205128205129,4158.974358974359,4508.717948717949
823.2465,0.2510455,0.3545705,0.33333334,0.5522388,0,0.0,0.0,0.0,0.0,0.0,0,0,0.0,0.0,0,0,84.0,0.0,0.0,4614.358974358975,3923.589743589744,4499.48717948718,4435.384615384616,4245.128205128206,4548.205128205129,4445.128205128206,4419.48717948718,4374.358974358975,4695.8974358974365,4354.358974358975,4246.666666666667,4145.128205128206,4504.102564102564
823.7157,0.24611157,0.33273843,0.33333334,0.5522388,0,0.0,0.0,0.0,0.0,0.0,0,0,0.0,0.0,0,0,15.0,0.0,376.0,4633.333333333334,3931.7948717948725,4502.051282051282,4441.025641025642,4238.974358974359,4537.948717948719,4444.102564102564,4432.307692307693,4384.615384615385,4723.589743589744,4355.8974358974365,4235.384615384616,4181.538461538462,4523.076923076924
823.74695,0.24611157,0.33273843,0.33333334,0.5522388,0,0.0,0.0,0.0,0.0,0.0,0,0,0.0,0.0,0,0,19.0,0.0,0.0,4623.589743589744,3926.666666666667,4498.974358974359,4437.435897435898,4239.48717948718,4539.48717948718,4453.846153846154,4431.794871794872,4383.589743589744,4718.974358974359,4356.410256410257,4232.820512820514,4176.410256410257,4522.051282051282
824.2161,0.20749727,0.3201859,0.33333334,0.5522388,0,0.0,0.0,0.0,0.0,0.0,0,0,0.0,0.0,0,0,79.0,0.0,376.0,4647.6923076923085,3932.820512820513,4499.48717948718,4443.589743589744,4248.205128205129,4546.153846153847,4449.743589743591,4428.205128205129,4384.102564102564,4731.282051282052,4359.48717948718,4234.358974358975,4193.846153846154,4543.076923076924
824.2474,0.20749727,0.3201859,0.33333334,0.5522388,0,0.0,0.0,0.0,0.0,0.0,0,0,0.0,0.0,0,0,83.0,0.0,376.0,4648.717948717949,3936.410256410257,4501.025641025642,4443.076923076924,4241.538461538462,4537.435897435898,4442.564102564103,4442.564102564103,4395.384615384616,4734.871794871796,4357.948717948719,4232.820512820514,4199.48717948718,4553.846153846154
824.71655,0.19628544,0.30896708,0.33333334,0.5522388,0,0.0,0.0,0.0,0.0,0.0,0,0,0.0,0.0,0,0,14.0,0.0,593.0,4627.6923076923085,3944.1025641025644,4497.948717948719,4445.128205128206,4248.205128205129,4551.794871794872,4448.205128205129,4428.717948717949,4384.102564102564,4711.282051282052,4358.974358974359,4215.8974358974365,4171.282051282052,4538.461538461539
824.74786,0.19628544,0.30896708,0.33333334,0.5522388,0,0.0,0.0,0.0,0.0,0.0,0,0,0.0,0.0,0,0,18.0,0.0,0.0,4606.666666666667,3936.9230769230776,4494.358974358975,4442.564102564103,4245.128205128206,4547.179487179488,4438.974358974359,4419.48717948718,4374.358974358975,4692.307692307693,4355.8974358974365,4209.74358974359,4149.74358974359,4522.051282051282
825.217,0.17077088,0.3171208,0.33333334,0.5522388,0,0.0,0.0,0.0,0.0,0.0,0,0,0.0,0.0,0,0,78.0,0.0,593.0,4618.461538461539,3941.538461538462,4497.948717948719,4441.025641025642,4237.948717948719,4539.48717948718,4431.282051282052,4396.410256410257,4363.589743589744,4705.641025641026,4356.923076923077,4207.179487179487,4161.538461538462,4530.256410256411
825.2483,0.17077088,0.3171208,0.33333334,0.5522388,0,0.0,0.0,0.0,0.0,0.0,0,0,0.0,0.0,0,0,82.0,0.0,593.0,4640.000000000001,3945.1282051282055,4501.025641025642,4445.641025641026,4242.051282051282,4537.948717948719,4438.461538461539,4406.666666666667,4369.2307692307695,4708.205128205129,4357.948717948719,4210.769230769231,4178.974358974359,4540.000000000001
825.7174,0.18602705,0.3240226,0.33333334,0.5522388,0,0.0,0.0,0.0,0.0,0.0,0,0,0.0,0.0,0,0,13.0,0.0,215.0,4662.564102564103,3944.615384615385,4502.564102564103,4445.641025641026,4243.589743589744,4541.538461538462,4435.384615384616,4398.461538461539,4372.307692307693,4722.051282051282,4356.923076923077,4217.435897435898,4199.48717948718,4536.410256410257
825.7487,0.18602705,0.3240226,0.33333334,0.5522388,0,0.0,0.0,0.0,0.0,0.0,0,0,0.0,0.0,0,0,17.0,0.0,0.0,4640.000000000001,3930.7692307692314,4497.948717948719,4444.615384615385,4241.538461538462,4540.512820512821,4438.461538461539,4415.384615384616,4385.641025641026,4720.000000000001,4356.923076923077,4216.923076923077,4196.410256410257,4523.589743589744
826.21783,0.12638263,0.34422114,0.33333334,0.5522388,0,0.0,0.0,0.0,0.0,0.0,0,0,0.0,0.0,0,0,77.0,0.0,215.0,4649.2307692307695,3923.076923076924,4500.512820512821,4442.051282051282,4245.128205128206,4544.615384615385,4464.615384615385,4443.076923076924,4399.48717948718,4733.846153846154,4354.871794871796,4218.974358974359,4184.615384615385,4524.615384615385
826.24915,0.12638263,0.34422114,0.33333334,0.5522388,0,0.0,0.0,0.0,0.0,0.0,0,0,0.0,0.0,0,0,81.0,0.0,215.0,4635.8974358974365,3917.9487179487182,4501.538461538462,4443.589743589744,4249.2307692307695,4552.820512820514,4467.179487179487,4421.538461538462,4385.128205128206,4726.153846153847,4355.384615384616,4216.923076923077,4180.512820512821,4521.538461538462
826.71826,0.10920517,0.37088352,0.33333334,0.5522388,0,0.0,0.0,0.0,0.0,0.0,0,0,0.0,0.0,0,0,12.0,0.0,0.0,4645.641025641026,3929.7435897435903,4505.641025641026,4442.051282051282,4244.615384615385,4544.102564102564,4459.48717948718,4432.820512820514,4388.717948717949,4720.512820512821,4356.923076923077,4236.410256410257,4159.48717948718,4521.538461538462
826.7496,0.10920517,0.37088352,0.33333334,0.5522388,0,0.0,0.0,0.0,0.0,0.0,0,0,0.0,0.0,0,0,16.0,0.0,0.0,4629.743589743591,3919.48717948718,4500.512820512821,4440.512820512821,4245.641025641026,4548.205128205129,4457.435897435898,4409.743589743591,4372.820512820514,4710.769230769231,4354.871794871796,4228.717948717949,4144.102564102564,4504.615384615385
827.2187,0.12709394,0.39706907,0.33333334,0.5522388,0,0.0,0.0,0.0,0.0,0.0,0,0,0.0,0.0,0,0,76.0,0.0,0.0,4658.461538461539,3932.820512820513,4509.743589743591,4446.153846153847,4246.153846153847,4549.2307692307695,4468.205128205129,4428.717948717949,4392.820512820514,4726.153846153847,4357.435897435898,4251.794871794872,4153.333333333334,4521.025641025642
827.25,0.12709394,0.39706907,0.33333334,0.5522388,0,0.0,0.0,0.0,0.0,0.0,0,0,0.0,0.0,0,0,80.0,0.0,0.0,4646.666666666667,3920.0000000000005,4506.153846153847,4440.512820512821,4245.641025641026,4548.205128205129,4468.205128205129,4436.923076923077,4396.410256410257,4715.8974358974365,4358.461538461539,4248.205128205129,4151.282051282052,4512.307692307693
827.7191,0.14570552,0.40918568,0.33333334,0.5522388,0,0.0,0.0,0.0,0.0,0.0,0,0,0.0,0.0,0,0,11.0,0.0,376.0,4646.666666666667,3942.564102564103,4505.641025641026,4442.051282051282,4247.6923076923085,4548.717948717949,4456.923076923077,4425.641025641026,4391.282051282052,4715.384615384616,4356.923076923077,4258.974358974359,4145.641025641026,4509.743589743591
827.7504,0.14570552,0.40918568,0.33333334,0.5522388,0,0.0,0.0,0.0,0.0,0.0,0,0,0.0,0.0,0,0,15.0,0.0,376.0,4648.717948717949,3938.461538461539,4507.6923076923085,4442.564102564103,4244.102564102564,4549.2307692307695,4454.871794871796,4429.743589743591,4399.48717948718,4729.2307692307695,4354.871794871796,4259.48717948718,4156.410256410257,4522.051282051282
828.21954,0.16128674,0.39878738,0.33333334,0.5522388,0,0.0,0.0,0.0,0.0,0.0,0,0,0.0,0.0,0,0,75.0,0.0,376.0,4632.307692307693,3928.205128205129,4497.948717948719,4428.717948717949,4237.948717948719,4537.948717948719,4429.743589743591,4401.025641025642,4373.846153846154,4704.615384615386,4358.461538461539,4252.820512820514,4143.076923076924,4501.538461538462
828.25085,0.16128674,0.39878738,0.33333334,0.5522388,0,0.0,0.0,0.0,0.0,0.0,0,0,0.0,0.0,0,0,79.0,0.0,376.0,4637.948717948719,3934.358974358975,4500.000000000001,4436.923076923077,4247.179487179487,4541.538461538462,4445.641025641026,4407.6923076923085,4377.948717948719,4708.205128205129,4356.923076923077,4255.384615384616,4147.179487179487,4506.666666666667
828.72,0.18783057,0.37358382,0.33333334,0.5522388,0,0.0,0.0,0.0,0.0,0.0,0,0,0.0,0.0,0,0,10.0,0.0,593.0,4624.102564102564,3931.2820512820517,4493.333333333334,4437.948717948719,4244.615384615385,4541.538461538462,4451.794871794872,4421.538461538462,4389.743589743591,4707.179487179488,4354.358974358975,4235.384615384616,4136.410256410257,4491.282051282052
828.7513,0.18783057,0.37358382,0.33333334,0.5522388,0,0.0,0.0,0.0,0.0,0.0,0,0,0.0,0.0,0,0,14.0,0.0,593.0,4627.179487179488,3936.9230769230776,4495.384615384616,4438.461538461539,4242.564102564103,4538.461538461539,4446.153846153847,4421.025641025642,4390.769230769231,4708.717948717949,4356.410256410257,4235.384615384616,4146.153846153847,4491.282051282052
829.2204,0.19947457,0.34883025,0.33333334,0.5522388,0,0.0,0.0,0.0,0.0,0.0,0,0,0.0,0.0,0,0,74.0,0.0,593.0,4650.256410256411,3945.6410256410263,4505.128205128206,4444.615384615385,4250.256410256411,4545.641025641026,4452.307692307693,4449.743589743591,4393.333333333334,4729.743589743591,4356.410256410257,4243.076923076924,4178.974358974359,4517.435897435898
829.2517,0.19947457,0.34883025,0.33333334,0.5522388,0,0.0,0.0,0.0,0.0,0.0,0,0,0.0,0.0,0,0,78.0,0.0,593.0,4645.128205128206,3940.5128205128212,4500.512820512821,4443.589743589744,4245.128205128206,4541.025641025642,4458.974358974359,4441.538461538462,4392.307692307693,4722.564102564103,4353.846153846154,4244.102564102564,4169.74358974359,4512.820512820514
829.7209,0.17170386,0.36437982,0.33333334,0.5522388,0,0.0,0.0,0.0,0.0,0.0,0,0,0.0,0.0,0,0,9.0,0.0,514.0,4632.820512820514,3941.0256410256416,4503.589743589744,4445.128205128206,4243.076923076924,4543.076923076924,4451.282051282052,4422.051282051282,4388.205128205129,4713.846153846154,4358.461538461539,4221.538461538462,4172.820512820514,4507.6923076923085
829.75214,0.17170386,0.36437982,0.33333334,0.5522388,0,0.0,0.0,0.0,0.0,0.0,0,0,0.0,0.0,0,0,13.0,0.0,215.0,4647.179487179488,3944.1025641025644,4506.153846153847,4446.153846153847,4245.641025641026,4540.000000000001,4454.871794871796,4435.384615384616,4395.8974358974365,4717.435897435898,4359.48717948718,4222.564102564103,4181.538461538462,4514.358974358975
830.2213,0.17554277,0.39159882,0.33333334,0.5522388,0,0.0,0.0,0.0,0.0,0.0,0,0,0.0,0.0,0,0,73.0,0.0,514.0,4644.615384615385,3947.1794871794878,4507.179487179488,4446.666666666667,4242.051282051282,4540.000000000001,4448.717948717949,4420.512820512821,4383.589743589744,4703.589743589744,4357.435897435898,4225.641025641026,4180.000000000001,4522.051282051282
830.25256,0.17554277,0.39159882,0.33333334,0.5522388,0,0.0,0.0,0.0,0.0,0.0,0,0,0.0,0.0,0,0,77.0,0.0,215.0,4642.564102564103,3952.307692307693,4507.179487179488,4455.384615384616,4246.153846153847,4544.102564102564,4451.282051282052,4432.307692307693,4389.2307692307695,4713.846153846154,4357.948717948719,4225.128205128206,4189.74358974359,4522.564102564103
830.72174,0.13781646,0.41819754,0.33333334,0.5522388,0,0.0,0.0,0.0,0.0,0.0,0,0,0.0,0.0,0,0,8.0,0.0,467.0,4641.538461538462,3942.564102564103,4495.384615384616,4445.641025641026,4234.358974358975,4535.384615384616,4447.179487179487,4433.333333333334,4385.641025641026,4708.205128205129,4358.974358974359,4221.025641025642,4187.6923076923085,4437.435897435898
830.753,0.13781646,0.41819754,0.33333334,0.5522388,0,0.0,0.0,0.0,0.0,0.0,0,0,0.0,0.0,0,0,12.0,0.0,0.0,4651.794871794872,3941.538461538462,4500.512820512821,4454.871794871796,4241.025641025642,4539.48717948718,4450.769230769231,4440.000000000001,4396.923076923077,4723.589743589744,4360.000000000001,4230.769230769231,4202.564102564103,4528.717948717949
831.22217,0.13806058,0.42131934,0.33333334,0.5522388,0,0.0,0.0,0.0,0.0,0.19315267,0,0,0.0,0.0,0,0,72.0,0.0,467.0,4647.179487179488,3951.7948717948725,4508.717948717949,4458.461538461539,4248.717948717949,4551.282051282052,4451.282051282052,4442.564102564103,4388.205128205129,4724.615384615386,4360.000000000001,4215.384615384616,4189.74358974359,4536.923076923077
831.47235,0.13806058,0.42131934,0.33333334,0.5522388,0,0.0,0.0,0.0,0.0,0.05530047,0,0,0.0,0.0,0,0,104.0,0.0,0.0,4648.205128205129,3943.076923076924,4507.6923076923085,4456.410256410257,4245.128205128206,4549.2307692307695,4452.820512820514,4440.000000000001,4386.666666666667,4717.948717948719,4360.512820512821,4212.820512820514,4166.666666666667,4524.615384615385
831.7226,0.14930552,0.4087446,0.33333334,0.5522388,0,0.0,0.0,0.0,0.0,0.0,0,0,0.0,0.0,0,0,7.0,0.0,496.0,4634.871794871796,3949.2307692307695,4504.102564102564,4457.435897435898,4244.102564102564,4545.128205128206,4451.282051282052,4424.102564102564,4386.666666666667,4728.205128205129,4362.564102564103,4205.128205128206,4190.256410256411,4524.615384615385
831.75385,0.14930552,0.4087446,0.33333334,0.5522388,0,0.0,0.0,0.0,0.0,0.0,0,0,0.0,0.0,0,0,11.0,0.0,376.0,4633.846153846154,3934.8717948717954,4499.48717948718,4446.153846153847,4240.512820512821,4544.102564102564,4445.641025641026,4427.6923076923085,4374.871794871796,4726.666666666667,4358.461538461539,4201.538461538462,4185.128205128206,4520.512820512821
832.223,0.13887095,0.3826357,0.33333334,0.5522388,0,0.0,0.0,0.0,0.0,0.0,0,0,0.0,0.0,0,0,71.0,0.0,496.0,4634.358974358975,3941.0256410256416,4504.102564102564,4445.128205128206,4235.384615384616,4538.461538461539,4438.974358974359,4420.512820512821,4375.8974358974365,4712.307692307693,4360.512820512821,4192.820512820514,4181.025641025642,4515.8974358974365
832.2543,0.13887095,0.3826357,0.33333334,0.5522388,0,0.0,0.0,0.0,0.0,0.0,0,0,0.0,0.0,0,0,75.0,0.0,376.0,4654.871794871796,3956.9230769230776,4512.307692307693,4454.871794871796,4244.102564102564,4547.6923076923085,4461.025641025642,4444.615384615385,4390.769230769231,4735.8974358974365,4359.48717948718,4193.333333333334,4201.025641025642,4522.051282051282
