timestamp,excitement,frustration,meditation,engagementBoredom,blink,clench,laugh,smile,eyebrow,furrowBrow,lookLeft,lookRight,smirkLeft,smirkRight,winkLeft,winkRight,eeg0,eeg1,eeg2,eeg3,eeg4,eeg5,eeg6,eeg7,eeg8,eeg9,eeg10,eeg11,eeg12,eeg13,eeg14,eeg15,eeg16
303.30753,0.48633265,0.5615349,0.33333334,0.5522388,0,0.0,0.0,0.0,0.0,0.0,0,0,0.0,0.0,0,0,23.0,0.0,0.0,4663.076923076924,3947.692307692308,4505.641025641026,4469.2307692307695,4247.6923076923085,4560.512820512821,4474.358974358975,4454.871794871796,4391.282051282052,4727.179487179488,4390.256410256411,4247.6923076923085,4202.051282051282,4527.179487179488
303.30753,0.48633265,0.5615349,0.33333334,0.5522388,0,0.0,0.0,0.0,0.0,0.0,0,0,0.0,0.0,0,0,23.0,0.0,0.0,4663.076923076924,3947.692307692308,4505.641025641026,4469.2307692307695,4247.6923076923085,4560.512820512821,4474.358974358975,4454.871794871796,4391.282051282052,4727.179487179488,4390.256410256411,4247.6923076923085,4202.051282051282,4527.179487179488
303.80795,0.4750618,0.54096365,0.33333334,0.5522388,0,0.0,0.0,0.0,0.0,0.0,0,0,0.0,0.0,0,0,87.0,0.0,348.0,4650.769230769231,3937.435897435898,4500.000000000001,4427.6923076923085,4246.153846153847,4546.666666666667,4459.48717948718,4440.512820512821,4383.589743589744,4714.871794871796,4386.666666666667,4263.589743589744,4183.589743589744,4523.589743589744
303.80795,0.4750618,0.54096365,0.33333334,0.5522388,0,0.0,0.0,0.0,0.0,0.0,0,0,0.0,0.0,0,0,87.0,0.0,348.0,4650.769230769231,3937.435897435898,4500.000000000001,4427.6923076923085,4246.153846153847,4546.666666666667,4459.48717948718,4440.512820512821,4383.589743589744,4714.871794871796,4386.666666666667,4263.589743589744,4183.589743589744,4523.589743589744
304.30838,0.43756852,0.51775295,0.33333334,0.5522388,0,0.0,0.0,0.0,0.0,0.0,0,0,0.0,0.0,0,0,22.0,0.0,0.0,4733.846153846154,3983.589743589744,4515.384615384616,4449.2307692307695,4249.74358974359,4546.666666666667,4462.564102564103,4467.179487179487,4397.948717948719,4741.025641025642,4398.974358974359,4288.717948717949,4231.794871794872,4574.871794871796
304.30838,0.43756852,0.51775295,0.33333334,0.5522388,0,0.0,0.0,0.0,0.0,0.0,0,0,0.0,0.0,0,0,22.0,0.0,0.0,4733.846153846154,3983.589743589744,4515.384615384616,4449.2307692307695,4249.74358974359,4546.666666666667,4462.564102564103,4467.179487179487,4397.948717948719,4741.025641025642,4398.974358974359,4288.717948717949,4231.794871794872,4574.871794871796
304.8088,0.40847817,0.50287145,0.33333334,0.5522388,0,0.0,0.0,0.0,0.0,0.0,0,0,0.0,0.0,0,0,86.0,0.0,583.0,4673.846153846154,3962.0512820512827,4506.666666666667,4416.410256410257,4254.871794871796,4555.384615384616,4474.871794871796,4450.769230769231,4391.794871794872,4722.051282051282,4385.128205128206,4278.461538461539,4192.820512820514,4542.564102564103
304.8088,0.40847817,0.50287145,0.33333334,0.5522388,0,0.0,0.0,0.0,0.0,0.0,0,0,0.0,0.0,0,0,86.0,0.0,583.0,4673.846153846154,3962.0512820512827,4506.666666666667,4416.410256410257,4254.871794871796,4555.384615384616,4474.871794871796,4450.769230769231,4391.794871794872,4722.051282051282,4385.128205128206,4278.461538461539,4192.820512820514,4542.564102564103
305.30927,0.36131665,0.4880205,0.33333334,0.5522388,0,0.0,0.0,0.0,0.0,0.0,0,0,0.0,0.0,0,0,21.0,0.0,0.0,4678.974358974359,3965.6410256410263,4512.307692307693,4425.128205128206,4270.256410256411,4569.743589743591,4482.564102564103,4465.128205128206,4413.846153846154,4767.179487179488,4397.948717948719,4281.025641025642,4248.205128205129,4546.153846153847
305.30927,0.36131665,0.4880205,0.33333334,0.5522388,0,0.0,0.0,0.0,0.0,0.0,0,0,0.0,0.0,0,0,21.0,0.0,0.0,4678.974358974359,3965.6410256410263,4512.307692307693,4425.128205128206,4270.256410256411,4569.743589743591,4482.564102564103,4465.128205128206,4413.846153846154,4767.179487179488,4397.948717948719,4281.025641025642,4248.205128205129,4546.153846153847
305.8097,0.36128792,0.46003917,0.33333334,0.5522388,0,0.0,0.0,0.0,0.0,0.0,0,0,0.0,0.0,0,0,85.0,0.0,260.0,4668.205128205129,3962.564102564103,4504.102564102564,4389.2307692307695,4257.435897435898,4558.461538461539,4489.2307692307695,4460.512820512821,4406.153846153847,4743.076923076924,4394.358974358975,4280.512820512821,4200.000000000001,4535.8974358974365
305.8097,0.36128792,0.46003917,0.33333334,0.5522388,0,0.0,0.0,0.0,0.0,0.0,0,0,0.0,0.0,0,0,85.0,0.0,260.0,4668.205128205129,3962.564102564103,4504.102564102564,4389.2307692307695,4257.435897435898,4558.461538461539,4489.2307692307695,4460.512820512821,4406.153846153847,4743.076923076924,4394.358974358975,4280.512820512821,4200.000000000001,4535.8974358974365
306.40393,0.306025,0.4521961,0.33333334,0.5522388,0,0.0,0.0,0.0,0.0,0.13665637,0,0,0.0,0.0,0,0,32.0,0.0,0.0,4692.820512820514,3967.692307692308,4507.179487179488,4401.025641025642,4260.000000000001,4552.820512820514,4484.102564102564,4468.717948717949,4413.846153846154,4755.8974358974365,4394.358974358975,4285.641025641026,4213.846153846154,4557.435897435898
306.65414,0.306025,0.4521961,0.33333334,0.5522388,0,0.0,0.0,0.0,0.0,0.18058808,0,0,0.0,0.0,0,0,64.0,0.0,428.0,4683.589743589744,3958.9743589743593,4515.384615384616,4419.48717948718,4265.641025641026,4566.153846153847,4511.794871794872,4497.435897435898,4428.717948717949,4762.564102564103,4398.461538461539,4291.282051282052,4207.6923076923085,4565.641025641026
306.90436,0.26530674,0.4322641,0.33333334,0.5522388,0,0.0,0.0,0.0,0.0,0.33621565,0,0,0.0,0.0,0,0,96.0,0.0,126.0,4681.025641025642,3954.8717948717954,4509.743589743591,4430.769230769231,4254.358974358975,4553.846153846154,4490.256410256411,4470.256410256411,4409.743589743591,4732.307692307693,4381.538461538462,4285.128205128206,4184.615384615385,4563.076923076924
307.1546,0.26530674,0.4322641,0.33333334,0.5522388,0,0.0,0.0,0.0,0.0,0.06709788,0,0,0.0,0.0,0,0,128.0,0.0,126.0,4677.435897435898,3957.9487179487182,4513.846153846154,4441.025641025642,4265.641025641026,4561.538461538462,4507.6923076923085,4491.794871794872,4420.000000000001,4757.435897435898,4399.48717948718,4290.256410256411,4217.435897435898,4572.307692307693
307.40482,0.246646,0.42431957,0.33333334,0.5522388,0,0.0,0.0,0.0,0.0,0.085508294,0,0,0.0,0.0,0,0,31.0,0.0,0.0,4672.307692307693,3953.8461538461543,4515.384615384616,4444.615384615385,4260.000000000001,4560.000000000001,4506.666666666667,4501.025641025642,4422.564102564103,4743.076923076924,4393.333333333334,4291.282051282052,4198.974358974359,4572.307692307693
307.5299,0.246646,0.42431957,0.33333334,0.5522388,0,0.0,0.0,0.0,0.0,0.0,0,0,0.0,0.0,0,0,47.0,0.0,0.0,4671.282051282052,3958.9743589743593,4509.743589743591,4442.564102564103,4250.256410256411,4552.820512820514,4490.769230769231,4496.410256410257,4423.589743589744,4748.717948717949,4395.8974358974365,4278.461538461539,4215.8974358974365,4581.538461538462
307.8114,0.26965442,0.42055207,0.33333334,0.5522388,0,0.0,0.0,0.0,0.0,0.0,0,0,0.0,0.0,0,0,83.0,0.0,348.0,4667.179487179488,3959.48717948718,4515.8974358974365,4446.153846153847,4267.6923076923085,4569.2307692307695,4506.153846153847,4515.8974358974365,4432.820512820514,4751.282051282052,4396.410256410257,4285.128205128206,4206.153846153847,4568.717948717949
307.8114,0.26965442,0.42055207,0.33333334,0.5522388,0,0.0,0.0,0.0,0.0,0.0,0,0,0.0,0.0,0,0,83.0,0.0,348.0,4667.179487179488,3959.48717948718,4515.8974358974365,4446.153846153847,4267.6923076923085,4569.2307692307695,4506.153846153847,4515.8974358974365,4432.820512820514,4751.282051282052,4396.410256410257,4285.128205128206,4206.153846153847,4568.717948717949
308.31183,0.2940892,0.3961458,0.33333334,0.5522388,0,0.0,0.0,0.0,0.0,0.0,0,0,0.0,0.0,0,0,18.0,0.0,0.0,4646.666666666667,3960.0000000000005,4497.435897435898,4440.512820512821,4231.794871794872,4530.256410256411,4458.461538461539,4458.974358974359,4375.384615384616,4690.769230769231,4376.923076923077,4265.128205128206,4150.769230769231,4543.589743589744
308.31183,0.2940892,0.3961458,0.33333334,0.5522388,0,0.0,0.0,0.0,0.0,0.0,0,0,0.0,0.0,0,0,18.0,0.0,0.0,4646.666666666667,3960.0000000000005,4497.435897435898,4440.512820512821,4231.794871794872,4530.256410256411,4458.461538461539,4458.974358974359,4375.384615384616,4690.769230769231,4376.923076923077,4265.128205128206,4150.769230769231,4543.589743589744
308.9061,0.28979874,0.38573068,0.33333334,0.5522388,0,0.0,0.0,0.0,0.0,0.027170906,0,0,0.0,0.0,0,0,94.0,0.0,583.0,4640.512820512821,3928.205128205129,4493.333333333334,4426.153846153847,4243.076923076924,4536.410256410257,4470.256410256411,4471.282051282052,4397.948717948719,4736.923076923077,4392.820512820514,4275.8974358974365,4198.461538461539,4544.102564102564
309.0312,0.28979874,0.38573068,0.33333334,0.5522388,0,0.0,0.0,0.0,0.0,0.0,0,0,0.0,0.0,0,0,110.0,0.0,583.0,4644.615384615385,3951.7948717948725,4503.589743589744,4443.076923076924,4248.717948717949,4546.666666666667,4473.333333333334,4474.358974358975,4390.769230769231,4725.128205128206,4388.717948717949,4266.666666666667,4190.769230769231,4542.051282051282
309.31268,0.30561915,0.37651208,0.33333334,0.5522388,0,0.0,0.0,0.0,0.0,0.0,0,0,0.0,0.0,0,0,17.0,0.0,0.0,4652.820512820514,3958.461538461539,4505.128205128206,4453.846153846154,4244.102564102564,4541.538461538462,4475.8974358974365,4464.615384615385,4392.820512820514,4739.48717948718,4396.410256410257,4269.2307692307695,4203.589743589744,4551.282051282052
309.31268,0.30561915,0.37651208,0.33333334,0.5522388,0,0.0,0.0,0.0,0.0,0.0,0,0,0.0,0.0,0,0,17.0,0.0,0.0,4652.820512820514,3958.461538461539,4505.128205128206,4453.846153846154,4244.102564102564,4541.538461538462,4475.8974358974365,4464.615384615385,4392.820512820514,4739.48717948718,4396.410256410257,4269.2307692307695,4203.589743589744,4551.282051282052
309.8131,0.32385954,0.37002596,0.33333334,0.5522388,0,0.0,0.0,0.0,0.0,0.0,0,0,0.0,0.0,0,0,81.0,0.0,260.0,4638.461538461539,3961.0256410256416,4504.615384615385,4442.051282051282,4254.358974358975,4554.358974358975,4477.435897435898,4449.2307692307695,4391.282051282052,4711.794871794872,4385.641025641026,4266.153846153847,4158.974358974359,4537.948717948719
309.8131,0.32385954,0.37002596,0.33333334,0.5522388,0,0.0,0.0,0.0,0.0,0.0,0,0,0.0,0.0,0,0,81.0,0.0,260.0,4638.461538461539,3961.0256410256416,4504.615384615385,4442.051282051282,4254.358974358975,4554.358974358975,4477.435897435898,4449.2307692307695,4391.282051282052,4711.794871794872,4385.641025641026,4266.153846153847,4158.974358974359,4537.948717948719
310.40738,0.3283365,0.3651657,0.33333334,0.5522388,0,0.0,0.0,0.0,0.0,0.058153447,0,0,0.0,0.0,0,0,28.0,0.0,0.0,4644.615384615385,3954.358974358975,4504.102564102564,4447.179487179487,4247.6923076923085,4537.948717948719,4456.923076923077,4449.743589743591,4365.128205128206,4696.923076923077,4370.769230769231,4256.410256410257,4157.435897435898,4541.025641025642
310.6576,0.3283365,0.3651657,0.33333334,0.5522388,0,0.0,0.0,0.0,0.0,0.4772345,0,0,0.0,0.0,0,0,60.0,0.0,0.0,4673.333333333334,3942.564102564103,4506.153846153847,4432.307692307693,4249.2307692307695,4541.025641025642,4476.410256410257,4487.6923076923085,4395.8974358974365,4752.307692307693,4392.307692307693,4271.794871794872,4240.000000000001,4569.743589743591
310.9078,0.3394054,0.35888287,0.33333334,0.5522388,0,0.0,0.0,0.0,0.0,0.3738634,0,0,0.0,0.0,0,0,92.0,0.0,124.0,4633.846153846154,3954.358974358975,4491.282051282052,4428.205128205129,4248.205128205129,4538.461538461539,4449.743589743591,4455.384615384616,4365.128205128206,4694.871794871796,4372.307692307693,4257.948717948719,4165.641025641026,4538.974358974359
311.15802,0.3394054,0.35888287,0.33333334,0.5522388,0,0.0,0.0,0.0,0.0,0.038497236,0,0,0.0,0.0,0,0,124.0,0.0,124.0,4632.307692307693,3958.461538461539,4495.8974358974365,4444.102564102564,4242.564102564103,4533.846153846154,4457.435897435898,4483.076923076924,4369.743589743591,4688.205128205129,4372.307692307693,4260.000000000001,4149.2307692307695,4525.128205128206
311.40823,0.30144292,0.3668568,0.33333334,0.5522388,0,0.0,0.0,0.0,0.0,0.18917271,0,0,0.0,0.0,0,0,27.0,0.0,0.0,4749.2307692307695,4037.9487179487182,4518.974358974359,4398.461538461539,4241.025641025642,4537.948717948719,4458.974358974359,4495.384615384616,4381.538461538462,4747.6923076923085,4397.948717948719,4295.384615384616,4249.2307692307695,4588.205128205129
311.65845,0.30144292,0.3668568,0.33333334,0.5522388,0,0.0,0.0,0.0,0.0,0.16215976,0,0,0.0,0.0,0,0,59.0,0.0,0.0,4728.717948717949,4016.410256410257,4511.794871794872,4258.461538461539,4254.871794871796,4554.871794871796,4523.076923076924,4563.076923076924,4439.48717948718,4790.769230769231,4413.333333333334,4302.564102564103,4268.717948717949,4579.48717948718
311.90866,0.40126577,0.40801352,0.33333334,0.5522388,0,0.0,0.0,0.0,0.0,0.0,0,0,0.0,0.0,0,0,91.0,0.0,348.0,4713.846153846154,4019.48717948718,4509.743589743591,4202.051282051282,4251.282051282052,4562.051282051282,4526.153846153847,4558.974358974359,4448.205128205129,4786.666666666667,4416.410256410257,4294.358974358975,4255.8974358974365,4574.358974358975
311.90866,0.40126577,0.40801352,0.33333334,0.5522388,0,0.0,0.0,0.0,0.0,0.0,0,0,0.0,0.0,0,0,91.0,0.0,348.0,4713.846153846154,4019.48717948718,4509.743589743591,4202.051282051282,4251.282051282052,4562.051282051282,4526.153846153847,4558.974358974359,4448.205128205129,4786.666666666667,4416.410256410257,4294.358974358975,4255.8974358974365,4574.358974358975
312.31528,0.4669275,0.47216251,0.33333334,0.5522388,0,0.0,0.0,0.0,0.0,0.0,0,0,0.0,0.0,0,0,14.0,0.0,583.0,4686.153846153847,4035.3846153846157,4503.589743589744,4165.128205128206,4263.076923076924,4570.769230769231,4511.282051282052,4502.051282051282,4422.051282051282,4734.358974358975,4398.461538461539,4261.538461538462,4168.205128205129,4535.8974358974365
312.31528,0.4669275,0.47216251,0.33333334,0.5522388,0,0.0,0.0,0.0,0.0,0.0,0,0,0.0,0.0,0,0,14.0,0.0,583.0,4686.153846153847,4035.3846153846157,4503.589743589744,4165.128205128206,4263.076923076924,4570.769230769231,4511.282051282052,4502.051282051282,4422.051282051282,4734.358974358975,4398.461538461539,4261.538461538462,4168.205128205129,4535.8974358974365
312.8157,0.47178763,0.49347684,0.33333334,0.5522388,0,0.0,0.0,0.0,0.0,0.0,0,0,0.0,0.0,0,0,78.0,0.0,583.0,4683.589743589744,3988.717948717949,4507.6923076923085,4340.512820512821,4265.641025641026,4563.589743589744,4492.820512820514,4478.461538461539,4403.076923076924,4732.820512820514,4401.025641025642,4263.589743589744,4181.538461538462,4549.743589743591
312.8157,0.47178763,0.49347684,0.33333334,0.5522388,0,0.0,0.0,0.0,0.0,0.0,0,0,0.0,0.0,0,0,78.0,0.0,583.0,4683.589743589744,3988.717948717949,4507.6923076923085,4340.512820512821,4265.641025641026,4563.589743589744,4492.820512820514,4478.461538461539,4403.076923076924,4732.820512820514,4401.025641025642,4263.589743589744,4181.538461538462,4549.743589743591
313.31613,0.48014677,0.5129344,0.33333334,0.5522388,0,0.0,0.0,0.0,0.0,0.0,0,0,0.0,0.0,0,0,13.0,0.0,261.0,4722.564102564103,3974.8717948717954,4506.666666666667,4396.410256410257,4240.000000000001,4541.538461538462,4476.410256410257,4457.948717948719,4385.128205128206,4714.871794871796,4402.564102564103,4264.102564102564,4189.74358974359,4581.025641025642
313.31613,0.48014677,0.5129344,0.33333334,0.5522388,0,0.0,0.0,0.0,0.0,0.0,0,0,0.0,0.0,0,0,13.0,0.0,261.0,4722.564102564103,3974.8717948717954,4506.666666666667,4396.410256410257,4240.000000000001,4541.538461538462,4476.410256410257,4457.948717948719,4385.128205128206,4714.871794871796,4402.564102564103,4264.102564102564,4189.74358974359,4581.025641025642
313.81656,0.50192386,0.5148672,0.33333334,0.5522388,0,0.0,0.0,0.0,0.0,0.0,0,0,0.0,0.0,0,0,77.0,0.0,261.0,4689.2307692307695,3890.2564102564106,4506.153846153847,4566.666666666667,4234.358974358975,4537.435897435898,4493.846153846154,4489.743589743591,4405.641025641026,4736.923076923077,4405.128205128206,4263.589743589744,4221.025641025642,4566.153846153847
314.1606,0.50192386,0.5148672,0.33333334,0.5522388,0,0.0,0.0,0.0,0.0,0.05462849,0,0,0.0,0.0,0,0,121.0,0.0,261.0,4713.846153846154,3913.333333333334,4514.358974358975,4572.820512820514,4234.871794871796,4538.974358974359,4483.076923076924,4462.051282051282,4410.256410256411,4751.794871794872,4408.205128205129,4275.8974358974365,4232.307692307693,4582.564102564103
314.41083,0.48144203,0.5498967,0.33333334,0.5522388,0,0.0,0.0,0.0,0.0,0.0,0,0,0.0,0.0,0,0,24.0,0.0,0.0,4681.538461538462,3907.692307692308,4497.948717948719,4555.384615384616,4214.358974358975,4520.000000000001,4456.923076923077,4430.769230769231,4397.435897435898,4733.846153846154,4401.538461538462,4262.564102564103,4235.384615384616,4564.615384615385
314.66104,0.48144203,0.5498967,0.33333334,0.5522388,0,0.0,0.0,0.0,0.0,0.083829,0,0,0.0,0.0,0,0,56.0,0.0,0.0,4664.615384615386,3914.358974358975,4505.128205128206,4541.538461538462,4236.410256410257,4545.641025641026,4467.179487179487,4433.846153846154,4406.153846153847,4733.333333333334,4397.948717948719,4264.102564102564,4215.384615384616,4549.2307692307695
314.91125,0.48306414,0.5907399,0.33333334,0.5522388,0,0.0,0.0,0.0,0.0,0.068349145,0,0,0.0,0.0,0,0,88.0,0.0,121.0,4673.846153846154,3927.1794871794878,4510.256410256411,4517.948717948719,4239.48717948718,4545.641025641026,4481.025641025642,4442.564102564103,4403.589743589744,4730.256410256411,4402.051282051282,4268.205128205129,4202.564102564103,4549.743589743591
315.16147,0.48306414,0.5907399,0.33333334,0.5522388,0,0.0,0.0,0.0,0.0,0.025608864,0,0,0.0,0.0,0,0,120.0,0.0,121.0,4666.666666666667,3948.205128205129,4508.205128205129,4491.794871794872,4238.974358974359,4541.538461538462,4476.923076923077,4443.589743589744,4392.820512820514,4712.820512820514,4397.435897435898,4265.641025641026,4189.74358974359,4548.205128205129
315.41168,0.47041506,0.6130311,0.33333334,0.5522388,0,0.0,0.0,0.0,0.0,0.024131155,0,0,0.0,0.0,0,0,23.0,0.0,0.0,4653.846153846154,3946.666666666667,4503.589743589744,4460.000000000001,4249.74358974359,4550.256410256411,4493.333333333334,4468.205128205129,4407.179487179487,4713.333333333334,4394.871794871796,4264.615384615385,4182.564102564103,4532.820512820514
315.6619,0.47041506,0.6130311,0.33333334,0.5522388,0,0.0,0.0,0.0,0.0,0.045864493,0,0,0.0,0.0,0,0,55.0,0.0,0.0,4655.8974358974365,3952.307692307693,4496.410256410257,4421.538461538462,4237.435897435898,4542.051282051282,4483.589743589744,4474.358974358975,4408.717948717949,4722.564102564103,4393.333333333334,4260.512820512821,4183.076923076924,4529.2307692307695
315.81827,0.40702802,0.5776839,0.33333334,0.5522388,0,0.0,0.0,0.0,0.0,0.0,0,0,0.0,0.0,0,0,75.0,0.0,348.0,4662.564102564103,3957.9487179487182,4501.025641025642,4383.076923076924,4243.076923076924,4545.641025641026,4501.025641025642,4478.461538461539,4413.333333333334,4724.102564102564,4397.435897435898,4264.102564102564,4191.282051282052,4530.256410256411
315.81827,0.40702802,0.5776839,0.33333334,0.5522388,0,0.0,0.0,0.0,0.0,0.0,0,0,0.0,0.0,0,0,75.0,0.0,348.0,4662.564102564103,3957.9487179487182,4501.025641025642,4383.076923076924,4243.076923076924,4545.641025641026,4501.025641025642,4478.461538461539,4413.333333333334,4724.102564102564,4397.435897435898,4264.102564102564,4191.282051282052,4530.256410256411
316.41254,0.41768497,0.5318936,0.33333334,0.5522388,0,0.0,0.0,0.0,0.0,1.0,0,0,0.0,0.0,0,0,22.0,0.0,0.0,4657.435897435898,3978.461538461539,4506.666666666667,4355.384615384616,4238.461538461539,4548.205128205129,4497.435897435898,4463.076923076924,4414.358974358975,4730.769230769231,4395.384615384616,4249.74358974359,4188.717948717949,4551.282051282052
316.66275,0.41768497,0.5318936,0.33333334,0.5522388,0,0.0,0.0,0.0,0.0,0.064110994,0,0,0.0,0.0,0,0,54.0,0.0,0.0,4654.871794871796,3965.6410256410263,4498.461538461539,4339.48717948718,4236.923076923077,4543.076923076924,4493.846153846154,4473.333333333334,4410.769230769231,4727.6923076923085,4397.948717948719,4250.256410256411,4191.282051282052,4534.871794871796
316.81915,0.41593736,0.49384668,0.33333334,0.5522388,0,0.0,0.0,0.0,0.0,0.0,0,0,0.0,0.0,0,0,74.0,0.0,583.0,4662.564102564103,3976.9230769230776,4503.076923076924,4338.461538461539,4244.102564102564,4548.205128205129,4490.256410256411,4467.179487179487,4404.615384615385,4726.666666666667,4399.48717948718,4250.256410256411,4188.717948717949,4557.948717948719
317.16318,0.41593736,0.49384668,0.33333334,0.5522388,0,0.0,0.0,0.0,0.0,0.12020236,0,0,0.0,0.0,0,0,118.0,0.0,583.0,4672.820512820514,3980.5128205128212,4507.179487179488,4302.564102564103,4246.666666666667,4554.358974358975,4496.923076923077,4487.179487179488,4427.179487179487,4748.205128205129,4412.307692307693,4249.74358974359,4196.923076923077,4558.461538461539
317.4134,0.3877166,0.47586247,0.33333334,0.5522388,0,0.0,0.0,0.0,0.0,0.039640225,0,0,0.0,0.0,0,0,21.0,0.0,0.0,4658.461538461539,3988.717948717949,4496.923076923077,4197.948717948719,4250.769230769231,4558.461538461539,4515.8974358974365,4496.410256410257,4427.179487179487,4744.102564102564,4411.282051282052,4262.564102564103,4190.256410256411,4551.282051282052
317.6636,0.3877166,0.47586247,0.33333334,0.5522388,0,0.0,0.0,0.0,0.0,0.0,0,0,0.0,0.0,0,0,53.0,0.0,0.0,4693.333333333334,4028.717948717949,4507.179487179488,4184.102564102564,4261.025641025642,4566.153846153847,4520.000000000001,4506.153846153847,4425.128205128206,4755.8974358974365,4413.333333333334,4271.282051282052,4204.102564102564,4571.282051282052
317.91385,0.44605616,0.45964292,0.33333334,0.5522388,0,0.0,0.0,0.0,0.0,0.0,0,0,0.0,0.0,1,0,85.0,0.0,261.0,4826.153846153847,4476.410256410257,4502.564102564103,2732.820512820513,4382.564102564103,4685.641025641026,4714.871794871796,4727.179487179488,4633.846153846154,5000.512820512821,4503.076923076924,4366.666666666667,4437.948717948719,4694.358974358975
318.1953,0.44605616,0.45964292,0.33333334,0.5522388,0,0.0,0.0,0.09596802,0.0,0.0,0,0,0.0,0.0,0,0,121.0,0.0,261.0,4816.923076923077,4349.2307692307695,4510.256410256411,3155.8974358974365,4358.461538461539,4665.641025641026,4678.461538461539,4686.666666666667,4606.153846153847,4946.666666666667,4500.000000000001,4360.512820512821,4389.2307692307695,4674.358974358975
318.41428,0.6025294,0.44504532,0.33333334,0.5522388,0,0.0,0.0,0.11433494,0.0,0.0,0,0,0.0,0.0,0,0,20.0,0.0,0.0,4801.538461538462,4255.8974358974365,4504.102564102564,3395.3846153846157,4335.384615384616,4641.538461538462,4645.641025641026,4634.358974358975,4556.923076923077,4893.333333333334,4490.256410256411,4345.128205128206,4338.974358974359,4667.179487179488
318.6645,0.6025294,0.44504532,0.33333334,0.5522388,0,0.0,0.14063354,0.0,0.0,0.0,0,0,0.0,0.0,0,0,52.0,0.0,0.0,4799.48717948718,4201.025641025642,4513.333333333334,3622.564102564103,4318.461538461539,4622.564102564103,4615.8974358974365,4614.358974358975,4535.384615384616,4873.846153846154,4490.256410256411,4351.794871794872,4320.000000000001,4669.2307692307695
318.9147,0.7402259,0.43190747,0.33333334,0.5522388,0,0.0,0.20369422,0.0,0.0,0.0,0,0,0.0,0.0,0,0,84.0,0.0,118.0,4770.256410256411,4141.538461538462,4512.820512820514,3801.0256410256416,4302.051282051282,4608.205128205129,4592.820512820514,4585.641025641026,4521.538461538462,4838.974358974359,4479.48717948718,4337.435897435898,4278.461538461539,4647.179487179488
319.16492,0.7402259,0.43190747,0.33333334,0.5522388,0,0.0,0.13815103,0.0,0.0,0.0,0,0,0.0,0.0,0,0,116.0,0.0,118.0,4769.743589743591,4102.564102564103,4516.923076923077,3936.9230769230776,4291.794871794872,4595.384615384616,4574.358974358975,4581.538461538462,4509.2307692307695,4835.8974358974365,4484.615384615385,4344.615384615385,4292.307692307693,4651.282051282052
319.41513,0.7730108,0.42008343,0.33333334,0.5522388,0,0.0,0.13525593,0.0,0.0,0.0,0,0,0.0,0.0,0,0,19.0,0.0,0.0,4747.179487179488,4060.0000000000005,4510.256410256411,4038.461538461539,4280.000000000001,4586.153846153847,4560.000000000001,4567.6923076923085,4492.820512820514,4815.384615384616,4480.512820512821,4338.974358974359,4264.615384615385,4639.48717948718
319.66534,0.7730108,0.42008343,0.33333334,0.5522388,0,0.0,0.14983362,0.0,0.0,0.0,0,0,0.0,0.0,0,0,51.0,0.0,0.0,4735.384615384616,4037.9487179487182,4511.794871794872,4131.282051282052,4275.8974358974365,4577.435897435898,4546.666666666667,4551.282051282052,4484.615384615385,4804.615384615386,4476.410256410257,4340.000000000001,4255.8974358974365,4631.282051282052
319.91556,0.7846372,0.40944177,0.33333334,0.5522388,0,0.0,0.10235499,0.0,0.0,0.0,0,0,0.0,0.0,0,0,83.0,0.0,348.0,4732.820512820514,4020.5128205128212,4513.333333333334,4201.025641025642,4278.974358974359,4576.410256410257,4550.256410256411,4545.641025641026,4479.48717948718,4800.512820512821,4472.307692307693,4334.358974358975,4251.794871794872,4634.871794871796
320.16577,0.7846372,0.40944177,0.33333334,0.5522388,0,0.0,0.0,0.0,0.0,0.0,0,0,0.0,0.0,0,0,115.0,0.0,348.0,4723.076923076924,3994.8717948717954,4508.205128205129,4254.871794871796,4264.102564102564,4566.153846153847,4535.384615384616,4538.461538461539,4466.666666666667,4784.102564102564,4463.076923076924,4323.076923076924,4240.512820512821,4621.025641025642
320.32214,0.82478756,0.41795036,0.33333334,0.5522388,0,0.0,0.0,0.0,0.0,0.0,0,0,0.0,0.0,0,0,6.0,0.0,565.0,4718.974358974359,3983.076923076924,4507.6923076923085,4281.538461538462,4260.512820512821,4560.512820512821,4528.205128205129,4521.025641025642,4453.333333333334,4771.794871794872,4458.461538461539,4313.846153846154,4223.589743589744,4621.538461538462
320.32214,0.82478756,0.41795036,0.33333334,0.5522388,0,0.0,0.0,0.0,0.0,0.0,0,0,0.0,0.0,0,0,6.0,0.0,565.0,4718.974358974359,3983.076923076924,4507.6923076923085,4281.538461538462,4260.512820512821,4560.512820512821,4528.205128205129,4521.025641025642,4453.333333333334,4771.794871794872,4458.461538461539,4313.846153846154,4223.589743589744,4621.538461538462
320.8304,0.8268596,0.41798013,0.33333334,0.5522388,0,0.0,0.0,0.0,0.0,0.0,0,0,0.0,0.0,0,0,70.0,0.0,565.0,4706.153846153847,3970.7692307692314,4506.666666666667,4353.333333333334,4256.923076923077,4554.358974358975,4506.153846153847,4505.128205128206,4442.051282051282,4777.948717948719,4453.846153846154,4304.615384615385,4262.051282051282,4601.025641025642
321.17444,0.8268596,0.41798013,0.33333334,0.5522388,0,0.0,0.0,0.0,0.0,0.6546076,0,0,0.0,0.0,0,0,114.0,0.0,583.0,4701.538461538462,3964.1025641025644,4502.051282051282,4381.025641025642,4245.128205128206,4538.461538461539,4492.307692307693,4502.564102564103,4441.538461538462,4767.6923076923085,4448.717948717949,4305.128205128206,4233.846153846154,4596.410256410257
321.33084,0.8107199,0.3881728,0.33333334,0.5522388,0,0.0,0.0,0.0,0.0,0.0,0,0,0.0,0.0,0,0,5.0,0.0,577.0,4699.48717948718,3950.2564102564106,4495.8974358974365,4388.205128205129,4244.102564102564,4537.948717948719,4487.179487179488,4487.179487179488,4422.564102564103,4742.564102564103,4445.641025641026,4302.564102564103,4222.564102564103,4589.743589743591
321.33084,0.8107199,0.3881728,0.33333334,0.5522388,0,0.0,0.0,0.0,0.0,0.0,0,0,0.0,0.0,0,0,5.0,0.0,577.0,4699.48717948718,3950.2564102564106,4495.8974358974365,4388.205128205129,4244.102564102564,4537.948717948719,4487.179487179488,4487.179487179488,4422.564102564103,4742.564102564103,4445.641025641026,4302.564102564103,4222.564102564103,4589.743589743591
321.83127,0.76415575,0.3732037,0.33333334,0.5522388,0,0.0,0.0,0.0,0.0,0.0,0,0,0.0,0.0,0,0,69.0,0.0,577.0,4692.307692307693,3948.205128205129,4502.564102564103,4412.307692307693,4246.153846153847,4537.435897435898,4491.282051282052,4486.666666666667,4423.589743589744,4754.871794871796,4433.333333333334,4294.871794871796,4216.923076923077,4570.769230769231
322.17532,0.76415575,0.3732037,0.33333334,0.5522388,0,0.0,0.0,0.123490855,0.0,0.0,0,0,0.0,0.0,0,0,113.0,0.0,261.0,4694.871794871796,3945.6410256410263,4498.974358974359,4417.948717948719,4245.641025641026,4541.538461538462,4472.820512820514,4458.974358974359,4406.666666666667,4736.923076923077,4431.282051282052,4294.871794871796,4203.589743589744,4564.102564102564
322.42554,0.752594,0.36282712,0.33333334,0.5522388,0,0.0,0.0,0.0,0.0,0.061688416,0,0,0.0,0.0,0,0,16.0,0.0,0.0,4681.538461538462,3942.564102564103,4500.512820512821,4425.128205128206,4250.256410256411,4540.512820512821,4475.8974358974365,4469.743589743591,4413.333333333334,4732.820512820514,4427.6923076923085,4291.282051282052,4191.794871794872,4554.358974358975
322.67575,0.752594,0.36282712,0.33333334,0.5522388,0,0.0,0.0,0.0,0.0,0.1120427,0,0,0.0,0.0,0,0,48.0,0.0,0.0,4670.256410256411,3927.692307692308,4492.820512820514,4413.333333333334,4242.051282051282,4538.461538461539,4474.358974358975,4478.461538461539,4408.717948717949,4727.179487179488,4426.153846153847,4296.410256410257,4199.48717948718,4554.358974358975
322.92596,0.75096065,0.3462056,0.33333334,0.5522388,0,0.0,0.0,0.0,0.0,0.06995898,0,0,0.0,0.0,0,0,80.0,0.0,116.0,4673.846153846154,3938.461538461539,4495.384615384616,4426.666666666667,4243.589743589744,4535.384615384616,4469.2307692307695,4467.179487179487,4394.358974358975,4711.282051282052,4415.384615384616,4292.307692307693,4170.769230769231,4542.051282051282
323.17618,0.75096065,0.3462056,0.33333334,0.5522388,0,0.0,0.0,0.0,0.0,0.1647983,0,0,0.0,0.0,0,0,112.0,0.0,116.0,4647.6923076923085,3926.666666666667,4494.358974358975,4430.256410256411,4250.256410256411,4547.179487179488,4476.923076923077,4475.384615384616,4400.512820512821,4712.820512820514,4413.846153846154,4287.179487179487,4171.282051282052,4533.333333333334
323.4264,0.73767537,0.31763434,0.33333334,0.5522388,0,0.0,0.0,0.0,0.0,0.23454447,0,0,0.0,0.0,0,0,15.0,0.0,348.0,4648.205128205129,3936.410256410257,4498.461538461539,4440.512820512821,4246.666666666667,4547.179487179488,4485.641025641026,4489.743589743591,4413.846153846154,4732.820512820514,4413.846153846154,4291.794871794872,4192.820512820514,4532.820512820514
323.6766,0.73767537,0.31763434,0.33333334,0.5522388,0,0.0,0.0,0.0,0.0,0.0,0,0,0.0,0.0,0,0,47.0,0.0,0.0,4665.641025641026,3945.6410256410263,4505.641025641026,4445.641025641026,4251.794871794872,4549.2307692307695,4483.076923076924,4485.641025641026,4414.871794871796,4733.846153846154,4416.923076923077,4283.076923076924,4190.769230769231,4537.948717948719
323.83298,0.7992277,0.30743292,0.33333334,0.5522388,0,0.0,0.0,0.0,0.0,0.0,0,0,0.0,0.0,0,0,67.0,0.0,563.0,4672.307692307693,3957.435897435898,4507.179487179488,4451.282051282052,4247.6923076923085,4545.641025641026,4468.717948717949,4465.641025641026,4397.948717948719,4724.102564102564,4412.820512820514,4264.102564102564,4184.615384615385,4537.948717948719
323.83298,0.7992277,0.30743292,0.33333334,0.5522388,0,0.0,0.0,0.0,0.0,0.0,0,0,0.0,0.0,0,0,67.0,0.0,563.0,4672.307692307693,3957.435897435898,4507.179487179488,4451.282051282052,4247.6923076923085,4545.641025641026,4468.717948717949,4465.641025641026,4397.948717948719,4724.102564102564,4412.820512820514,4264.102564102564,4184.615384615385,4537.948717948719
324.3334,0.75280267,0.3055497,0.33333334,0.5522388,0,0.0,0.0,0.0,0.0,0.0,0,0,0.0,0.0,0,0,2.0,0.0,514.0,4665.128205128206,3947.1794871794878,4505.128205128206,4457.435897435898,4248.205128205129,4539.48717948718,4476.923076923077,4455.8974358974365,4389.743589743591,4725.128205128206,4407.179487179487,4272.820512820514,4188.205128205129,4525.128205128206
324.3334,0.75280267,0.3055497,0.33333334,0.5522388,0,0.0,0.0,0.0,0.0,0.0,0,0,0.0,0.0,0,0,2.0,0.0,514.0,4665.128205128206,3947.1794871794878,4505.128205128206,4457.435897435898,4248.205128205129,4539.48717948718,4476.923076923077,4455.8974358974365,4389.743589743591,4725.128205128206,4407.179487179487,4272.820512820514,4188.205128205129,4525.128205128206
324.83383,0.7502598,0.31905153,0.33333334,0.5522388,0,0.0,0.0,0.0,0.0,0.0,0,0,0.0,0.0,0,0,66.0,0.0,514.0,4665.641025641026,3944.1025641025644,4504.102564102564,4452.307692307693,4252.307692307693,4551.794871794872,4471.794871794872,4455.384615384616,4404.615384615385,4733.846153846154,4411.794871794872,4268.717948717949,4198.461538461539,4531.282051282052
324.83383,0.7502598,0.31905153,0.33333334,0.5522388,0,0.0,0.0,0.0,0.0,0.0,0,0,0.0,0.0,0,0,66.0,0.0,514.0,4665.641025641026,3944.1025641025644,4504.102564102564,4452.307692307693,4252.307692307693,4551.794871794872,4471.794871794872,4455.384615384616,4404.615384615385,4733.846153846154,4411.794871794872,4268.717948717949,4198.461538461539,4531.282051282052
325.4281,0.87022865,0.33099127,0.33333334,0.5522388,0,0.0,0.0,0.07197029,0.0,0.0,0,0,0.0,0.0,0,0,13.0,0.0,265.0,4446.153846153847,3459.48717948718,4494.358974358975,6118.461538461539,4103.076923076924,4395.384615384616,4244.615384615385,4212.307692307693,4177.435897435898,4485.641025641026,4314.871794871796,4137.435897435898,3949.7435897435903,4377.435897435898
325.6783,0.87022865,0.33099127,0.33333334,0.5522388,1,0.0,0.0,0.12183584,0.0,0.0,0,0,0.0,0.0,0,0,45.0,0.0,0.0,4485.641025641026,3566.666666666667,4491.282051282052,5817.435897435898,4112.307692307693,4412.820512820514,4254.871794871796,4230.769230769231,4177.948717948719,4510.256410256411,4312.307692307693,4137.435897435898,4014.358974358975,4422.564102564103
325.92853,0.9758012,0.34173703,0.33333334,0.5522388,0,0.0,0.0,0.0775438,0.0,0.0,0,0,0.0,0.0,0,0,77.0,0.0,265.0,4504.615384615385,3636.9230769230776,4503.589743589744,5582.564102564103,4154.358974358975,4446.666666666667,4307.6923076923085,4276.923076923077,4227.6923076923085,4549.2307692307695,4319.48717948718,4153.333333333334,4027.1794871794878,4446.666666666667
326.17874,0.9758012,0.34173703,0.33333334,0.5522388,0,0.0,0.067801915,0.0,0.0,0.0,0,0,0.0,0.0,0,0,109.0,0.0,265.0,4503.076923076924,3670.2564102564106,4492.307692307693,5452.820512820514,4138.461538461539,4441.538461538462,4311.794871794872,4292.307692307693,4220.512820512821,4547.179487179488,4298.974358974359,4143.076923076924,4016.410256410257,4426.153846153847
326.42896,1.0,0.3514082,0.33333334,0.5522388,0,0.0,0.14091484,0.0,0.0,0.0,0,0,0.0,0.0,0,0,12.0,0.0,116.0,4525.128205128206,3712.307692307693,4490.769230769231,5266.153846153847,4154.871794871796,4466.153846153847,4333.333333333334,4297.435897435898,4241.025641025642,4572.307692307693,4301.025641025642,4149.74358974359,4026.666666666667,4423.589743589744
326.67917,1.0,0.3514082,0.33333334,0.5522388,0,0.0,0.10432071,0.0,0.0,0.0,0,0,0.0,0.0,0,0,44.0,0.0,0.0,4522.564102564103,3750.7692307692314,4484.615384615385,5116.410256410257,4160.000000000001,4465.641025641026,4354.358974358975,4341.538461538462,4270.256410256411,4587.179487179488,4312.820512820514,4144.615384615385,4042.0512820512827,4475.384615384616
326.92938,1.0,0.36011228,0.33333334,0.5522388,0,0.0,0.0,0.0,0.0,0.0,0,0,0.18912329,0.0,0,0,76.0,0.0,116.0,4569.2307692307695,3785.6410256410263,4482.564102564103,4989.743589743591,4169.2307692307695,4473.846153846154,4376.923076923077,4362.051282051282,4294.871794871796,4623.076923076924,4315.384615384616,4154.358974358975,4074.8717948717954,4472.307692307693
327.1796,1.0,0.36011228,0.33333334,0.5522388,0,0.0,0.105973385,0.0,0.0,0.0,0,0,0.0,0.0,0,0,108.0,0.0,116.0,4605.128205128206,3802.564102564103,4480.000000000001,4875.384615384616,4180.512820512821,4478.974358974359,4391.794871794872,4415.384615384616,4309.2307692307695,4630.256410256411,4317.948717948719,4153.846153846154,4096.923076923077,4501.025641025642
327.4298,0.98213476,0.36794594,0.33333334,0.5522388,0,0.0,0.0,0.0,0.0,0.019890012,0,0,0.0,0.0,0,0,11.0,0.0,352.0,4638.461538461539,3816.410256410257,4483.076923076924,4813.333333333334,4184.615384615385,4487.179487179488,4406.153846153847,4437.948717948719,4317.948717948719,4642.051282051282,4318.461538461539,4165.128205128206,4108.717948717949,4506.666666666667
327.55493,0.98213476,0.36794594,0.33333334,0.5522388,0,0.0,0.0,0.0,0.0,0.0,0,0,0.0,0.0,0,0,27.0,0.0,0.0,4643.589743589744,3816.410256410257,4478.974358974359,4746.666666666667,4194.358974358975,4498.974358974359,4413.333333333334,4433.333333333334,4326.153846153847,4662.564102564103,4325.128205128206,4161.025641025642,4123.076923076924,4506.666666666667
327.83643,0.97318125,0.37499624,0.33333334,0.5522388,0,0.0,0.0,0.0,0.0,0.0,0,0,0.0,0.0,0,0,63.0,0.0,0.0,4656.410256410257,3866.1538461538466,4486.153846153847,4655.8974358974365,4202.051282051282,4509.743589743591,4429.743589743591,4429.743589743591,4348.205128205129,4687.179487179488,4333.846153846154,4173.333333333334,4147.6923076923085,4530.256410256411
327.83643,0.97318125,0.37499624,0.33333334,0.5522388,0,0.0,0.0,0.0,0.0,0.0,0,0,0.0,0.0,0,0,63.0,0.0,0.0,4656.410256410257,3866.1538461538466,4486.153846153847,4655.8974358974365,4202.051282051282,4509.743589743591,4429.743589743591,4429.743589743591,4348.205128205129,4687.179487179488,4333.846153846154,4173.333333333334,4147.6923076923085,4530.256410256411
328.33685,1.0,0.41260567,0.33333334,0.5522388,0,0.0,0.0,0.0,0.0,0.0,0,0,0.0,0.0,0,0,127.0,0.0,352.0,4670.769230769231,3914.8717948717954,4500.000000000001,4585.128205128206,4234.871794871796,4529.743589743591,4462.564102564103,4442.564102564103,4366.666666666667,4703.589743589744,4347.6923076923085,4171.282051282052,4170.769230769231,4522.564102564103
328.33685,1.0,0.41260567,0.33333334,0.5522388,0,0.0,0.0,0.0,0.0,0.0,0,0,0.0,0.0,0,0,127.0,0.0,352.0,4670.769230769231,3914.8717948717954,4500.000000000001,4585.128205128206,4234.871794871796,4529.743589743591,4462.564102564103,4442.564102564103,4366.666666666667,4703.589743589744,4347.6923076923085,4171.282051282052,4170.769230769231,4522.564102564103
328.83728,1.0,0.4364232,0.33333334,0.5522388,0,0.0,0.0,0.0,0.0,0.0,0,0,0.0,0.0,0,0,62.0,0.0,0.0,4696.923076923077,3949.2307692307695,4518.461538461539,4520.512820512821,4261.538461538462,4553.333333333334,4495.8974358974365,4478.974358974359,4398.974358974359,4744.615384615386,4371.282051282052,4202.051282051282,4215.384615384616,4567.6923076923085
328.83728,1.0,0.4364232,0.33333334,0.5522388,0,0.0,0.0,0.0,0.0,0.0,0,0,0.0,0.0,0,0,62.0,0.0,0.0,4696.923076923077,3949.2307692307695,4518.461538461539,4520.512820512821,4261.538461538462,4553.333333333334,4495.8974358974365,4478.974358974359,4398.974358974359,4744.615384615386,4371.282051282052,4202.051282051282,4215.384615384616,4567.6923076923085
329.3377,1.0,0.4475408,0.33333334,0.5522388,0,0.0,0.0,0.0,0.0,0.0,0,0,0.0,0.0,0,0,126.0,0.0,583.0,4654.871794871796,3930.2564102564106,4503.076923076924,4456.923076923077,4250.769230769231,4540.512820512821,4493.333333333334,4465.641025641026,4390.256410256411,4718.974358974359,4366.153846153847,4202.564102564103,4170.769230769231,4547.6923076923085
329.3377,1.0,0.4475408,0.33333334,0.5522388,0,0.0,0.0,0.0,0.0,0.0,0,0,0.0,0.0,0,0,126.0,0.0,583.0,4654.871794871796,3930.2564102564106,4503.076923076924,4456.923076923077,4250.769230769231,4540.512820512821,4493.333333333334,4465.641025641026,4390.256410256411,4718.974358974359,4366.153846153847,4202.564102564103,4170.769230769231,4547.6923076923085
329.83813,1.0,0.4432286,0.33333334,0.5522388,0,0.0,0.0,0.0,0.0,0.0,0,0,0.0,0.0,0,0,61.0,0.0,0.0,4628.717948717949,3945.1282051282055,4500.000000000001,4419.48717948718,4231.282051282052,4508.205128205129,4449.743589743591,4405.128205128206,4354.871794871796,4670.769230769231,4354.358974358975,4194.358974358975,4129.2307692307695,4533.333333333334
330.1822,1.0,0.4432286,0.33333334,0.5522388,0,0.0,0.0,0.0,0.0,0.36375788,0,0,0.0,0.0,0,0,105.0,0.0,265.0,4643.589743589744,3963.076923076924,4508.205128205129,4420.000000000001,4243.589743589744,4509.743589743591,4451.794871794872,4402.051282051282,4360.512820512821,4691.282051282052,4361.025641025642,4201.538461538462,4147.6923076923085,4538.974358974359
330.4324,1.0,0.4337193,0.33333334,0.5522388,0,0.0,0.0,0.0,0.0,0.49255976,0,0,0.0,0.0,0,0,8.0,0.0,472.0,4647.6923076923085,3975.8974358974365,4506.153846153847,4417.435897435898,4251.794871794872,4523.589743589744,4467.6923076923085,4431.282051282052,4386.153846153847,4711.282051282052,4365.641025641026,4213.846153846154,4167.179487179487,4552.820512820514
330.68262,1.0,0.4337193,0.33333334,0.5522388,0,0.0,0.0,0.0,0.0,0.13585411,0,0,0.0,0.0,0,0,40.0,0.0,0.0,4614.871794871796,3943.076923076924,4500.000000000001,4413.846153846154,4247.179487179487,4522.051282051282,4474.358974358975,4424.102564102564,4371.794871794872,4703.589743589744,4360.512820512821,4198.461538461539,4148.205128205129,4528.717948717949
330.839,0.9476789,0.4095238,0.33333334,0.5522388,0,0.0,0.0,0.0,0.0,0.0,0,0,0.0,0.0,0,0,60.0,0.0,0.0,4630.769230769231,3958.9743589743593,4507.179487179488,4428.717948717949,4254.871794871796,4526.666666666667,4468.205128205129,4437.435897435898,4378.461538461539,4710.256410256411,4365.641025641026,4209.2307692307695,4157.948717948719,4535.8974358974365
331.18304,0.9476789,0.4095238,0.33333334,0.5522388,0,0.0,0.0,0.0,0.0,0.19236758,0,0,0.0,0.0,0,0,104.0,0.0,114.0,4674.871794871796,3957.9487179487182,4513.333333333334,4442.564102564103,4250.769230769231,4532.307692307693,4471.794871794872,4442.564102564103,4387.6923076923085,4737.435897435898,4377.435897435898,4218.461538461539,4208.717948717949,4571.282051282052
331.43326,0.9084999,0.42454976,0.33333334,0.5522388,0,0.0,0.0,0.0,0.0,0.15142965,0,0,0.0,0.0,0,0,7.0,0.0,495.0,4682.564102564103,3958.461538461539,4517.435897435898,4446.153846153847,4257.948717948719,4540.512820512821,4493.333333333334,4483.589743589744,4422.051282051282,4776.923076923077,4392.307692307693,4231.794871794872,4249.74358974359,4587.179487179488
331.68347,0.9084999,0.42454976,0.33333334,0.5522388,0,0.0,0.0,0.0,0.0,0.0,0,0,0.0,0.0,0,0,39.0,0.0,0.0,4672.820512820514,3944.1025641025644,4513.846153846154,4443.076923076924,4264.615384615385,4551.282051282052,4493.846153846154,4492.307692307693,4446.153846153847,4799.48717948718,4402.051282051282,4235.8974358974365,4265.128205128206,4588.205128205129
331.83987,0.9547885,0.4498255,0.33333334,0.5522388,0,0.0,0.0,0.0,0.0,0.0,0,0,0.0,0.0,0,0,59.0,0.0,0.0,4634.871794871796,3936.410256410257,4506.666666666667,4439.48717948718,4257.435897435898,4544.615384615385,4478.461538461539,4476.923076923077,4428.717948717949,4773.846153846154,4394.871794871796,4223.076923076924,4236.410256410257,4567.179487179488
332.1839,0.9547885,0.4498255,0.33333334,0.5522388,0,0.0,0.0,0.0,0.0,0.18889275,0,0,0.0,0.0,1,0,103.0,0.0,352.0,4671.794871794872,3956.410256410257,4514.358974358975,4453.333333333334,4255.8974358974365,4538.974358974359,4477.435897435898,4467.179487179487,4398.461538461539,4735.384615384616,4391.282051282052,4231.794871794872,4201.538461538462,4578.461538461539
332.4341,0.8964457,0.54836255,0.33333334,0.5522388,0,0.0,0.0,0.0,0.0,0.123073675,0,0,0.0,0.0,1,0,6.0,0.0,569.0,4668.717948717949,3951.7948717948725,4504.102564102564,4447.6923076923085,4246.666666666667,4537.948717948719,4476.410256410257,4478.974358974359,4412.307692307693,4736.410256410257,4386.666666666667,4218.461538461539,4198.974358974359,4571.282051282052
332.68433,0.8964457,0.54836255,0.33333334,0.5522388,0,0.0,0.0,0.0,0.0,0.0652751,0,0,0.0,0.0,0,0,38.0,0.0,0.0,4673.333333333334,3948.205128205129,4509.2307692307695,4445.641025641026,4249.2307692307695,4540.512820512821,4476.923076923077,4473.846153846154,4400.512820512821,4733.333333333334,4387.6923076923085,4230.256410256411,4197.948717948719,4572.820512820514
332.93454,0.9112892,0.5693722,0.33333334,0.5522388,0,0.0,0.0,0.0,0.0,0.0,0,0,0.0,0.0,0,0,70.0,0.0,569.0,4657.435897435898,3929.7435897435903,4499.48717948718,4440.512820512821,4245.641025641026,4537.948717948719,4488.205128205129,4478.974358974359,4398.461538461539,4728.717948717949,4386.153846153847,4225.128205128206,4191.282051282052,4566.666666666667
332.93454,0.9112892,0.5693722,0.33333334,0.5522388,0,0.0,0.0,0.0,0.0,0.0,0,0,0.0,0.0,0,0,70.0,0.0,569.0,4657.435897435898,3929.7435897435903,4499.48717948718,4440.512820512821,4245.641025641026,4537.948717948719,4488.205128205129,4478.974358974359,4398.461538461539,4728.717948717949,4386.153846153847,4225.128205128206,4191.282051282052,4566.666666666667
333.34116,0.8185277,0.5582559,0.33333334,0.5522388,0,0.0,0.0,0.0,0.0,0.0,0,0,0.0,0.0,0,0,122.0,0.0,583.0,4653.333333333334,3955.3846153846157,4507.6923076923085,4460.000000000001,4248.205128205129,4539.48717948718,4480.000000000001,4477.435897435898,4401.025641025642,4732.820512820514,4387.179487179487,4229.74358974359,4189.2307692307695,4554.358974358975
333.6852,0.8185277,0.5582559,0.33333334,0.5522388,0,0.0,0.0,0.0,0.0,0.10651361,0,0,0.0,0.0,0,0,37.0,0.0,0.0,4682.564102564103,3956.410256410257,4510.769230769231,4460.000000000001,4247.179487179487,4540.000000000001,4474.871794871796,4458.461538461539,4378.974358974359,4718.461538461539,4380.000000000001,4228.717948717949,4178.461538461539,4553.846153846154
333.93542,0.7743623,0.55112934,0.33333334,0.5522388,0,0.0,0.0,0.0,0.0,0.05095706,0,0,0.0,0.0,0,0,69.0,0.0,577.0,4695.384615384616,3962.564102564103,4513.333333333334,4447.6923076923085,4247.179487179487,4542.564102564103,4493.333333333334,4487.6923076923085,4415.384615384616,4745.641025641026,4386.153846153847,4248.717948717949,4197.948717948719,4551.794871794872
334.18564,0.7743623,0.55112934,0.33333334,0.5522388,0,0.0,0.0,0.0,0.0,0.0,0,0,0.29319906,0.0,0,0,101.0,0.0,266.0,4690.256410256411,3968.205128205129,4514.871794871796,4431.282051282052,4245.128205128206,4538.461538461539,4481.025641025642,4467.179487179487,4400.512820512821,4735.8974358974365,4386.153846153847,4245.641025641026,4196.410256410257,4566.666666666667
334.342,0.71206117,0.536896,0.33333334,0.5522388,0,0.0,0.0,0.0,0.0,0.0,0,0,0.0,0.0,0,0,121.0,0.0,266.0,4682.051282051282,3962.564102564103,4509.2307692307695,4426.153846153847,4249.2307692307695,4541.538461538462,4473.333333333334,4453.333333333334,4393.846153846154,4733.333333333334,4388.717948717949,4241.025641025642,4198.974358974359,4552.820512820514
334.342,0.71206117,0.536896,0.33333334,0.5522388,0,0.0,0.0,0.0,0.0,0.0,0,0,0.0,0.0,0,0,121.0,0.0,266.0,4682.051282051282,3962.564102564103,4509.2307692307695,4426.153846153847,4249.2307692307695,4541.538461538462,4473.333333333334,4453.333333333334,4393.846153846154,4733.333333333334,4388.717948717949,4241.025641025642,4198.974358974359,4552.820512820514
334.84244,0.66217995,0.517194,0.33333334,0.5522388,0,0.0,0.0,0.0,0.0,0.0,0,0,0.0,0.0,0,0,56.0,0.0,0.0,4673.846153846154,3970.7692307692314,4511.282051282052,4421.538461538462,4261.025641025642,4549.743589743591,4488.205128205129,4462.051282051282,4403.076923076924,4744.615384615386,4394.871794871796,4249.2307692307695,4215.384615384616,4545.641025641026
335.1865,0.66217995,0.517194,0.33333334,0.5522388,0,0.0,0.0,0.0,0.0,0.8181882,0,0,0.0,0.0,0,0,100.0,0.0,111.0,4689.743589743591,3968.717948717949,4515.8974358974365,4413.846153846154,4261.538461538462,4554.871794871796,4497.435897435898,4483.076923076924,4425.641025641026,4760.512820512821,4398.461538461539,4263.076923076924,4225.641025641026,4552.307692307693
335.4367,0.6259211,0.49275497,0.33333334,0.5522388,0,0.0,0.0,0.0,0.0,0.80253327,0,0,0.0,0.0,0,0,3.0,0.0,563.0,4667.179487179488,3962.0512820512827,4511.282051282052,4404.102564102564,4260.000000000001,4554.358974358975,4494.871794871796,4475.8974358974365,4422.051282051282,4746.666666666667,4394.871794871796,4262.564102564103,4206.153846153847,4551.794871794872
335.68692,0.6259211,0.49275497,0.33333334,0.5522388,0,0.0,0.0,0.0,0.0,0.07569983,0,0,0.0,0.0,0,0,35.0,0.0,0.0,4675.8974358974365,3970.2564102564106,4513.846153846154,4405.128205128206,4261.025641025642,4553.846153846154,4490.769230769231,4480.512820512821,4426.153846153847,4748.205128205129,4404.615384615385,4264.102564102564,4211.282051282052,4554.871794871796
335.8433,0.5975559,0.46063098,0.33333334,0.5522388,0,0.0,0.0,0.0,0.0,0.0,0,0,0.0,0.0,0,0,55.0,0.0,0.0,4666.153846153847,3964.1025641025644,4513.333333333334,4396.923076923077,4260.512820512821,4552.820512820514,4492.820512820514,4476.410256410257,4424.615384615385,4749.2307692307695,4403.076923076924,4262.051282051282,4204.615384615385,4547.179487179488
335.8433,0.5975559,0.46063098,0.33333334,0.5522388,0,0.0,0.0,0.0,0.0,0.0,0,0,0.0,0.0,0,0,55.0,0.0,0.0,4666.153846153847,3964.1025641025644,4513.333333333334,4396.923076923077,4260.512820512821,4552.820512820514,4492.820512820514,4476.410256410257,4424.615384615385,4749.2307692307695,4403.076923076924,4262.051282051282,4204.615384615385,4547.179487179488
336.34372,0.5486659,0.43047726,0.33333334,0.5522388,0,0.0,0.0,0.0,0.0,0.0,0,0,0.0,0.0,0,0,119.0,0.0,352.0,4678.974358974359,3996.410256410257,4507.6923076923085,4319.48717948718,4257.948717948719,4554.871794871796,4507.179487179488,4481.538461538462,4430.256410256411,4758.461538461539,4410.769230769231,4277.435897435898,4222.051282051282,4555.8974358974365
336.34372,0.5486659,0.43047726,0.33333334,0.5522388,0,0.0,0.0,0.0,0.0,0.0,0,0,0.0,0.0,0,0,119.0,0.0,352.0,4678.974358974359,3996.410256410257,4507.6923076923085,4319.48717948718,4257.948717948719,4554.871794871796,4507.179487179488,4481.538461538462,4430.256410256411,4758.461538461539,4410.769230769231,4277.435897435898,4222.051282051282,4555.8974358974365
336.84418,0.59155196,0.40463766,0.33333334,0.5522388,0,0.0,0.0,0.0,0.0,0.0,0,0,0.0,0.0,0,0,54.0,0.0,0.0,4731.282051282052,4033.333333333334,4523.076923076924,4313.333333333334,4257.948717948719,4564.102564102564,4507.6923076923085,4483.589743589744,4443.076923076924,4794.358974358975,4424.102564102564,4297.948717948719,4275.8974358974365,4581.538461538462
336.84418,0.59155196,0.40463766,0.33333334,0.5522388,0,0.0,0.0,0.0,0.0,0.0,0,0,0.0,0.0,0,0,54.0,0.0,0.0,4731.282051282052,4033.333333333334,4523.076923076924,4313.333333333334,4257.948717948719,4564.102564102564,4507.6923076923085,4483.589743589744,4443.076923076924,4794.358974358975,4424.102564102564,4297.948717948719,4275.8974358974365,4581.538461538462
337.3446,0.57403696,0.38699755,0.33333334,0.5522388,0,0.0,0.0,0.0,0.0,0.0,0,0,0.0,0.0,0,0,118.0,0.0,583.0,4707.179487179488,4008.205128205129,4520.512820512821,4327.179487179487,4276.923076923077,4567.179487179488,4523.076923076924,4504.615384615385,4444.615384615385,4796.410256410257,4434.871794871796,4309.743589743591,4261.025641025642,4568.205128205129
337.3446,0.57403696,0.38699755,0.33333334,0.5522388,0,0.0,0.0,0.0,0.0,0.0,0,0,0.0,0.0,0,0,118.0,0.0,583.0,4707.179487179488,4008.205128205129,4520.512820512821,4327.179487179487,4276.923076923077,4567.179487179488,4523.076923076924,4504.615384615385,4444.615384615385,4796.410256410257,4434.871794871796,4309.743589743591,4261.025641025642,4568.205128205129
337.84503,0.5612807,0.38170645,0.33333334,0.5522388,0,0.0,0.0,0.0,0.0,0.0,0,0,0.0,0.0,0,0,53.0,0.0,0.0,4709.743589743591,3984.1025641025644,4523.076923076924,4412.820512820514,4277.948717948719,4569.743589743591,4529.2307692307695,4514.871794871796,4451.282051282052,4792.820512820514,4444.102564102564,4313.846153846154,4262.051282051282,4567.179487179488
337.84503,0.5612807,0.38170645,0.33333334,0.5522388,0,0.0,0.0,0.0,0.0,0.0,0,0,0.0,0.0,0,0,53.0,0.0,0.0,4709.743589743591,3984.1025641025644,4523.076923076924,4412.820512820514,4277.948717948719,4569.743589743591,4529.2307692307695,4514.871794871796,4451.282051282052,4792.820512820514,4444.102564102564,4313.846153846154,4262.051282051282,4567.179487179488
338.4393,0.5453955,0.36276507,0.33333334,0.5522388,0,0.0,0.0,0.0,0.0,0.057747744,0,0,0.0,0.0,0,0,0.0,0.0,428.0,4676.923076923077,3958.9743589743593,4515.8974358974365,4489.743589743591,4256.923076923077,4552.820512820514,4494.871794871796,4472.307692307693,4422.564102564103,4764.102564102564,4441.025641025642,4321.025641025642,4254.871794871796,4550.256410256411
338.6895,0.5453955,0.36276507,0.33333334,0.5522388,0,0.0,0.0,0.0,0.0,0.0,0,0,0.0,0.0,0,0,32.0,0.0,0.0,4685.128205128206,3954.358974358975,4520.000000000001,4506.153846153847,4258.974358974359,4552.307692307693,4500.000000000001,4478.461538461539,4434.358974358975,4765.641025641026,4449.743589743591,4331.282051282052,4248.717948717949,4543.076923076924
338.8459,0.52229965,0.3405303,0.33333334,0.5522388,0,0.0,0.0,0.0,0.0,0.0,0,0,0.0,0.0,0,0,52.0,0.0,0.0,4676.923076923077,3943.589743589744,4512.307692307693,4510.769230769231,4246.153846153847,4538.461538461539,4486.153846153847,4458.974358974359,4409.743589743591,4728.205128205129,4435.8974358974365,4327.179487179487,4201.025641025642,4525.641025641026
338.8459,0.52229965,0.3405303,0.33333334,0.5522388,0,0.0,0.0,0.0,0.0,0.0,0,0,0.0,0.0,0,0,52.0,0.0,0.0,4676.923076923077,3943.589743589744,4512.307692307693,4510.769230769231,4246.153846153847,4538.461538461539,4486.153846153847,4458.974358974359,4409.743589743591,4728.205128205129,4435.8974358974365,4327.179487179487,4201.025641025642,4525.641025641026
339.3463,0.5700552,0.304231,0.33333334,0.5522388,0,0.0,0.0,0.0,0.0,0.0,0,0,0.0,0.0,0,0,116.0,0.0,107.0,4657.435897435898,3941.538461538462,4508.205128205129,4509.743589743591,4246.666666666667,4541.025641025642,4476.410256410257,4448.205128205129,4403.589743589744,4725.128205128206,4434.871794871796,4324.615384615385,4209.2307692307695,4509.2307692307695
339.3463,0.5700552,0.304231,0.33333334,0.5522388,0,0.0,0.0,0.0,0.0,0.0,0,0,0.0,0.0,0,0,116.0,0.0,107.0,4657.435897435898,3941.538461538462,4508.205128205129,4509.743589743591,4246.666666666667,4541.025641025642,4476.410256410257,4448.205128205129,4403.589743589744,4725.128205128206,4434.871794871796,4324.615384615385,4209.2307692307695,4509.2307692307695
339.84674,0.57864416,0.26974002,0.33333334,0.5522388,0,0.0,0.0,0.0,0.0,0.0,0,0,0.0,0.0,0,0,51.0,0.0,0.0,4664.102564102564,3971.2820512820517,4516.923076923077,4492.307692307693,4261.538461538462,4556.410256410257,4485.128205128206,4455.384615384616,4406.153846153847,4732.307692307693,4434.871794871796,4316.410256410257,4206.666666666667,4522.564102564103
340.1908,0.57864416,0.26974002,0.33333334,0.5522388,0,0.0,0.0,0.0,0.0,0.105118416,0,0,0.0,0.0,0,0,95.0,0.0,352.0,4660.000000000001,3954.8717948717954,4510.256410256411,4457.948717948719,4252.307692307693,4554.871794871796,4478.974358974359,4456.923076923077,4400.512820512821,4723.589743589744,4429.743589743591,4306.666666666667,4196.410256410257,4522.051282051282
340.34717,0.5785049,0.26578882,0.33333334,0.5522388,0,0.0,0.0,0.0,0.0,0.0,0,0,0.0,0.0,0,0,115.0,0.0,352.0,4666.153846153847,3959.48717948718,4517.435897435898,4457.948717948719,4256.410256410257,4563.589743589744,4490.256410256411,4469.2307692307695,4425.128205128206,4744.102564102564,4433.846153846154,4305.128205128206,4215.8974358974365,4523.589743589744
340.34717,0.5785049,0.26578882,0.33333334,0.5522388,0,0.0,0.0,0.0,0.0,0.0,0,0,0.0,0.0,0,0,115.0,0.0,352.0,4666.153846153847,3959.48717948718,4517.435897435898,4457.948717948719,4256.410256410257,4563.589743589744,4490.256410256411,4469.2307692307695,4425.128205128206,4744.102564102564,4433.846153846154,4305.128205128206,4215.8974358974365,4523.589743589744
340.8476,0.54784405,0.2765194,0.33333334,0.5522388,0,0.0,0.0,0.0,0.0,0.0,0,0,0.0,0.0,0,0,50.0,0.0,0.0,4682.564102564103,3965.6410256410263,4513.846153846154,4430.256410256411,4245.128205128206,4552.820512820514,4487.179487179488,4457.435897435898,4407.6923076923085,4732.820512820514,4431.282051282052,4293.333333333334,4211.282051282052,4541.025641025642
340.8476,0.54784405,0.2765194,0.33333334,0.5522388,0,0.0,0.0,0.0,0.0,0.0,0,0,0.0,0.0,0,0,50.0,0.0,0.0,4682.564102564103,3965.6410256410263,4513.846153846154,4430.256410256411,4245.128205128206,4552.820512820514,4487.179487179488,4457.435897435898,4407.6923076923085,4732.820512820514,4431.282051282052,4293.333333333334,4211.282051282052,4541.025641025642
341.34802,0.48458776,0.2841243,0.33333334,0.5522388,0,0.0,0.0,0.0,0.0,0.0,0,0,0.0,0.0,0,0,114.0,0.0,583.0,4677.435897435898,3963.076923076924,4506.666666666667,4426.153846153847,4239.48717948718,4544.102564102564,4467.6923076923085,4449.743589743591,4412.307692307693,4734.358974358975,4430.256410256411,4281.025641025642,4214.358974358975,4541.538461538462
341.34802,0.48458776,0.2841243,0.33333334,0.5522388,0,0.0,0.0,0.0,0.0,0.0,0,0,0.0,0.0,0,0,114.0,0.0,583.0,4677.435897435898,3963.076923076924,4506.666666666667,4426.153846153847,4239.48717948718,4544.102564102564,4467.6923076923085,4449.743589743591,4412.307692307693,4734.358974358975,4430.256410256411,4281.025641025642,4214.358974358975,4541.538461538462
341.84848,0.45089734,0.27659622,0.33333334,0.5522388,0,0.0,0.0,0.0,0.0,0.0,0,0,0.0,0.0,0,0,49.0,0.0,0.0,4661.538461538462,3950.7692307692314,4503.076923076924,4412.820512820514,4241.538461538462,4549.2307692307695,4486.666666666667,4472.307692307693,4415.384615384616,4720.000000000001,4423.589743589744,4282.051282051282,4182.564102564103,4526.666666666667
341.84848,0.45089734,0.27659622,0.33333334,0.5522388,0,0.0,0.0,0.0,0.0,0.0,0,0,0.0,0.0,0,0,49.0,0.0,0.0,4661.538461538462,3950.7692307692314,4503.076923076924,4412.820512820514,4241.538461538462,4549.2307692307695,4486.666666666667,4472.307692307693,4415.384615384616,4720.000000000001,4423.589743589744,4282.051282051282,4182.564102564103,4526.666666666667
342.3489,0.42497513,0.26426542,0.33333334,0.5522388,0,0.0,0.0,0.0,0.0,0.0,0,0,0.0,0.0,0,0,113.0,0.0,266.0,4683.076923076924,3955.3846153846157,4506.153846153847,4410.256410256411,4245.641025641026,4552.820512820514,4487.179487179488,4476.410256410257,4409.743589743591,4738.974358974359,4429.743589743591,4283.076923076924,4200.000000000001,4545.128205128206
342.3489,0.42497513,0.26426542,0.33333334,0.5522388,0,0.0,0.0,0.0,0.0,0.0,0,0,0.0,0.0,0,0,113.0,0.0,266.0,4683.076923076924,3955.3846153846157,4506.153846153847,4410.256410256411,4245.641025641026,4552.820512820514,4487.179487179488,4476.410256410257,4409.743589743591,4738.974358974359,4429.743589743591,4283.076923076924,4200.000000000001,4545.128205128206
342.84933,0.37687448,0.24991721,0.33333334,0.5522388,0,0.0,0.0,0.0,0.0,0.0,0,0,0.0,0.0,0,0,48.0,0.0,0.0,4689.2307692307695,3959.48717948718,4506.666666666667,4411.282051282052,4245.128205128206,4546.666666666667,4475.8974358974365,4481.025641025642,4410.256410256411,4743.589743589744,4432.820512820514,4292.307692307693,4214.871794871796,4551.794871794872
343.19336,0.37687448,0.24991721,0.33333334,0.5522388,0,0.0,0.0,0.0,0.0,0.03855837,0,0,0.0,0.0,0,0,92.0,0.0,104.0,4674.871794871796,3977.9487179487182,4511.282051282052,4427.179487179487,4250.256410256411,4552.820512820514,4479.48717948718,4478.974358974359,4406.153846153847,4735.8974358974365,4422.051282051282,4265.641025641026,4191.794871794872,4551.282051282052
343.34976,0.3359659,0.24390537,0.33333334,0.5522388,0,0.0,0.0,0.0,0.0,0.0,0,0,0.0,0.0,0,0,112.0,0.0,104.0,4649.743589743591,3988.205128205129,4503.076923076924,4427.6923076923085,4247.6923076923085,4544.102564102564,4463.589743589744,4453.333333333334,4363.589743589744,4668.205128205129,4402.564102564103,4250.769230769231,4115.384615384616,4532.820512820514
343.6938,0.3359659,0.24390537,0.33333334,0.5522388,0,0.0,0.0,0.0,0.0,0.0,0,0,0.0,0.0,0,0,27.0,0.0,0.0,4640.512820512821,3978.461538461539,4501.025641025642,4413.846153846154,4247.179487179487,4548.205128205129,4477.948717948719,4467.6923076923085,4381.025641025642,4679.48717948718,4400.000000000001,4250.769230769231,4125.128205128206,4534.358974358975
343.94403,0.3678731,0.2560312,0.33333334,0.5522388,0,0.0,0.0,0.0,0.0,0.25953555,0,0,0.0,0.0,0,0,59.0,0.0,0.0,4691.794871794872,3970.7692307692314,4512.307692307693,4422.564102564103,4259.48717948718,4555.384615384616,4491.794871794872,4495.8974358974365,4414.871794871796,4748.717948717949,4425.641025641026,4279.48717948718,4213.846153846154,4570.256410256411
344.19424,0.3678731,0.2560312,0.33333334,0.5522388,0,0.0,0.0,0.0,0.0,0.06934998,0,0,0.0,0.0,0,0,91.0,0.0,352.0,4683.076923076924,3953.8461538461543,4504.102564102564,4409.2307692307695,4253.333333333334,4550.769230769231,4490.769230769231,4502.051282051282,4418.974358974359,4748.205128205129,4420.000000000001,4270.256410256411,4217.948717948719,4569.2307692307695
344.44446,0.35810018,0.27840233,0.33333334,0.5522388,0,0.0,0.0,0.0,0.0,0.0,0,0,0.0,0.0,0,0,123.0,0.0,352.0,4681.025641025642,3970.2564102564106,4514.871794871796,4401.025641025642,4266.153846153847,4565.641025641026,4490.256410256411,4505.641025641026,4420.512820512821,4754.871794871796,4420.512820512821,4273.846153846154,4229.74358974359,4572.307692307693
344.69467,0.35810018,0.27840233,0.33333334,0.5522388,0,0.0,0.0,0.0,0.0,0.056949407,0,0,0.0,0.0,0,0,26.0,0.0,0.0,4671.794871794872,3981.0256410256416,4510.256410256411,4405.128205128206,4250.769230769231,4550.256410256411,4477.435897435898,4498.974358974359,4401.025641025642,4716.923076923077,4406.666666666667,4268.205128205129,4184.615384615385,4554.871794871796
344.9449,0.35307527,0.33799157,0.33333334,0.5522388,0,0.0,0.0,0.0,0.0,0.2474243,0,0,0.0,0.0,0,0,58.0,0.0,0.0,4649.2307692307695,3973.333333333334,4508.717948717949,4413.846153846154,4258.974358974359,4553.333333333334,4491.794871794872,4487.6923076923085,4394.871794871796,4713.846153846154,4402.564102564103,4266.153846153847,4177.948717948719,4543.076923076924
345.1951,0.35307527,0.33799157,0.33333334,0.5522388,0,0.0,0.0,0.0,0.0,0.7259966,0,0,0.0,0.0,0,0,90.0,0.0,583.0,4671.794871794872,3974.8717948717954,4511.794871794872,4424.615384615385,4258.461538461539,4552.307692307693,4487.179487179488,4486.153846153847,4406.153846153847,4732.307692307693,4411.282051282052,4273.846153846154,4209.74358974359,4567.179487179488
345.4453,0.34056005,0.36878318,0.33333334,0.5522388,0,0.0,0.0,0.0,0.0,0.062057763,0,0,0.0,0.0,0,0,122.0,0.0,583.0,4672.820512820514,3973.8461538461543,4509.743589743591,4435.384615384616,4252.820512820514,4548.205128205129,4489.2307692307695,4489.2307692307695,4411.282051282052,4737.948717948719,4408.717948717949,4281.025641025642,4233.846153846154,4571.794871794872
345.69553,0.34056005,0.36878318,0.33333334,0.5522388,0,0.0,0.0,0.0,0.0,0.03359704,0,0,0.0,0.0,0,0,25.0,0.0,0.0,4656.923076923077,3964.1025641025644,4512.820512820514,4441.538461538462,4252.820512820514,4548.205128205129,4476.923076923077,4458.974358974359,4382.564102564103,4721.025641025642,4406.153846153847,4271.794871794872,4216.410256410257,4557.948717948719
345.8519,0.29000923,0.3649666,0.33333334,0.5522388,0,0.0,0.0,0.0,0.0,0.0,0,0,0.0,0.0,0,0,45.0,0.0,0.0,4664.102564102564,3960.0000000000005,4513.846153846154,4446.666666666667,4257.948717948719,4555.8974358974365,4482.051282051282,4474.871794871796,4400.512820512821,4731.282051282052,4407.6923076923085,4275.384615384616,4220.512820512821,4559.48717948718
345.8519,0.29000923,0.3649666,0.33333334,0.5522388,0,0.0,0.0,0.0,0.0,0.0,0,0,0.0,0.0,0,0,45.0,0.0,0.0,4664.102564102564,3960.0000000000005,4513.846153846154,4446.666666666667,4257.948717948719,4555.8974358974365,4482.051282051282,4474.871794871796,4400.512820512821,4731.282051282052,4407.6923076923085,4275.384615384616,4220.512820512821,4559.48717948718
346.35233,0.24426778,0.36098737,0.33333334,0.5522388,0,0.0,0.0,0.0,0.0,0.0,0,0,0.0,0.0,0,0,109.0,0.0,266.0,4672.307692307693,3964.615384615385,4517.435897435898,4494.871794871796,4266.666666666667,4556.923076923077,4484.615384615385,4478.974358974359,4407.6923076923085,4739.48717948718,4411.794871794872,4275.8974358974365,4208.205128205129,4540.512820512821
346.35233,0.24426778,0.36098737,0.33333334,0.5522388,0,0.0,0.0,0.0,0.0,0.0,0,0,0.0,0.0,0,0,109.0,0.0,266.0,4672.307692307693,3964.615384615385,4517.435897435898,4494.871794871796,4266.666666666667,4556.923076923077,4484.615384615385,4478.974358974359,4407.6923076923085,4739.48717948718,4411.794871794872,4275.8974358974365,4208.205128205129,4540.512820512821
346.85275,0.26095918,0.36109197,0.33333334,0.5522388,0,0.0,0.0,0.0,0.0,0.0,0,0,0.0,0.0,0,0,44.0,0.0,0.0,4671.794871794872,3931.7948717948725,4512.820512820514,4491.794871794872,4260.512820512821,4550.256410256411,4482.051282051282,4479.48717948718,4418.461538461539,4755.8974358974365,4418.974358974359,4278.974358974359,4245.641025641026,4553.333333333334
346.85275,0.26095918,0.36109197,0.33333334,0.5522388,0,0.0,0.0,0.0,0.0,0.0,0,0,0.0,0.0,0,0,44.0,0.0,0.0,4671.794871794872,3931.7948717948725,4512.820512820514,4491.794871794872,4260.512820512821,4550.256410256411,4482.051282051282,4479.48717948718,4418.461538461539,4755.8974358974365,4418.974358974359,4278.974358974359,4245.641025641026,4553.333333333334
347.3532,0.28491148,0.35813653,0.33333334,0.5522388,0,0.0,0.0,0.0,0.0,0.0,0,0,0.0,0.0,0,0,108.0,0.0,102.0,4652.307692307693,3927.1794871794878,4509.743589743591,4522.051282051282,4250.769230769231,4541.538461538462,4475.384615384616,4450.256410256411,4408.205128205129,4732.820512820514,4410.769230769231,4267.6923076923085,4211.794871794872,4537.948717948719
347.3532,0.28491148,0.35813653,0.33333334,0.5522388,0,0.0,0.0,0.0,0.0,0.0,0,0,0.0,0.0,0,0,108.0,0.0,102.0,4652.307692307693,3927.1794871794878,4509.743589743591,4522.051282051282,4250.769230769231,4541.538461538462,4475.384615384616,4450.256410256411,4408.205128205129,4732.820512820514,4410.769230769231,4267.6923076923085,4211.794871794872,4537.948717948719
347.85364,0.32427382,0.35181597,0.33333334,0.5522388,0,0.0,0.0,0.0,0.0,0.0,0,0,0.0,0.0,0,0,43.0,0.0,0.0,4663.076923076924,3929.7435897435903,4519.48717948718,4553.333333333334,4248.205128205129,4538.974358974359,4462.051282051282,4451.282051282052,4402.051282051282,4722.564102564103,4406.666666666667,4266.153846153847,4209.74358974359,4552.307692307693
347.85364,0.32427382,0.35181597,0.33333334,0.5522388,0,0.0,0.0,0.0,0.0,0.0,0,0,0.0,0.0,0,0,43.0,0.0,0.0,4663.076923076924,3929.7435897435903,4519.48717948718,4553.333333333334,4248.205128205129,4538.974358974359,4462.051282051282,4451.282051282052,4402.051282051282,4722.564102564103,4406.666666666667,4266.153846153847,4209.74358974359,4552.307692307693
348.35406,0.3442958,0.33995685,0.33333334,0.5522388,0,0.0,0.0,0.0,0.0,0.0,0,0,0.0,0.0,0,0,107.0,0.0,352.0,4646.666666666667,3913.8461538461543,4500.512820512821,4540.512820512821,4237.435897435898,4533.333333333334,4450.769230769231,4477.948717948719,4390.256410256411,4707.6923076923085,4406.666666666667,4238.974358974359,4203.589743589744,4543.076923076924
348.35406,0.3442958,0.33995685,0.33333334,0.5522388,0,0.0,0.0,0.0,0.0,0.0,0,0,0.0,0.0,0,0,107.0,0.0,352.0,4646.666666666667,3913.8461538461543,4500.512820512821,4540.512820512821,4237.435897435898,4533.333333333334,4450.769230769231,4477.948717948719,4390.256410256411,4707.6923076923085,4406.666666666667,4238.974358974359,4203.589743589744,4543.076923076924
348.8545,0.34857538,0.32218602,0.33333334,0.5522388,0,0.0,0.0,0.0,0.0,0.0,0,0,0.0,0.0,0,0,42.0,0.0,0.0,4649.2307692307695,3928.205128205129,4506.153846153847,4552.307692307693,4236.410256410257,4530.256410256411,4449.2307692307695,4483.589743589744,4393.333333333334,4716.410256410257,4404.102564102564,4253.333333333334,4203.589743589744,4568.205128205129
348.8545,0.34857538,0.32218602,0.33333334,0.5522388,0,0.0,0.0,0.0,0.0,0.0,0,0,0.0,0.0,0,0,42.0,0.0,0.0,4649.2307692307695,3928.205128205129,4506.153846153847,4552.307692307693,4236.410256410257,4530.256410256411,4449.2307692307695,4483.589743589744,4393.333333333334,4716.410256410257,4404.102564102564,4253.333333333334,4203.589743589744,4568.205128205129
349.35492,0.32932854,0.31280562,0.33333334,0.5522388,0,0.0,0.0,0.0,0.0,0.0,0,0,0.0,0.0,0,0,106.0,0.0,583.0,4654.358974358975,3920.5128205128212,4503.076923076924,4526.153846153847,4241.538461538462,4535.8974358974365,4461.538461538462,4480.512820512821,4397.435897435898,4713.333333333334,4400.512820512821,4257.435897435898,4191.282051282052,4568.205128205129
349.35492,0.32932854,0.31280562,0.33333334,0.5522388,0,0.0,0.0,0.0,0.0,0.0,0,0,0.0,0.0,0,0,106.0,0.0,583.0,4654.358974358975,3920.5128205128212,4503.076923076924,4526.153846153847,4241.538461538462,4535.8974358974365,4461.538461538462,4480.512820512821,4397.435897435898,4713.333333333334,4400.512820512821,4257.435897435898,4191.282051282052,4568.205128205129
349.9179,0.32567018,0.32100138,0.33333334,0.5522388,1,0.0,0.0,0.0,0.0,0.0,0,0,0.0,0.0,0,0,49.0,0.0,0.0,4604.102564102564,3910.7692307692314,4491.282051282052,4511.282051282052,4247.6923076923085,4538.461538461539,4462.564102564103,4461.025641025642,4381.538461538462,4682.051282051282,4382.051282051282,4240.512820512821,4135.384615384616,4518.974358974359
350.07428,0.32567018,0.32100138,0.33333334,0.5522388,0,0.0,0.0,0.0,0.0,0.0,0,0,0.0,0.0,0,0,69.0,0.0,577.0,4634.871794871796,3928.205128205129,4495.384615384616,4505.641025641026,4247.179487179487,4538.974358974359,4461.538461538462,4450.256410256411,4387.179487179487,4701.025641025642,4386.666666666667,4248.717948717949,4164.615384615385,4527.6923076923085
350.35577,0.35969016,0.32955274,0.33333334,0.5522388,0,0.0,0.0,0.0,0.0,0.0,0,0,0.0,0.0,0,0,105.0,0.0,266.0,4628.205128205129,3926.666666666667,4496.923076923077,4505.128205128206,4235.8974358974365,4534.358974358975,4457.948717948719,4452.307692307693,4398.461538461539,4716.410256410257,4387.179487179487,4240.000000000001,4179.48717948718,4536.923076923077
350.35577,0.35969016,0.32955274,0.33333334,0.5522388,0,0.0,0.0,0.0,0.0,0.0,0,0,0.0,0.0,0,0,105.0,0.0,266.0,4628.205128205129,3926.666666666667,4496.923076923077,4505.128205128206,4235.8974358974365,4534.358974358975,4457.948717948719,4452.307692307693,4398.461538461539,4716.410256410257,4387.179487179487,4240.000000000001,4179.48717948718,4536.923076923077
350.8562,0.30727676,0.3593178,0.33333334,0.5522388,0,0.0,0.0,0.0,0.0,0.0,0,0,0.0,0.0,0,0,40.0,0.0,0.0,4634.358974358975,3915.8974358974365,4489.2307692307695,4487.6923076923085,4214.358974358975,4494.358974358975,4442.564102564103,4435.8974358974365,4376.923076923077,4687.179487179488,4384.615384615385,4235.8974358974365,4154.358974358975,4552.307692307693
350.8562,0.30727676,0.3593178,0.33333334,0.5522388,0,0.0,0.0,0.0,0.0,0.0,0,0,0.0,0.0,0,0,40.0,0.0,0.0,4634.358974358975,3915.8974358974365,4489.2307692307695,4487.6923076923085,4214.358974358975,4494.358974358975,4442.564102564103,4435.8974358974365,4376.923076923077,4687.179487179488,4384.615384615385,4235.8974358974365,4154.358974358975,4552.307692307693
351.35663,0.40623277,0.36859944,0.33333334,0.5522388,0,0.0,0.0,0.0,0.0,0.0,0,0,0.0,0.0,0,0,104.0,0.0,101.0,4584.102564102564,3894.358974358975,4483.589743589744,4468.205128205129,4200.000000000001,4442.564102564103,4421.025641025642,4391.282051282052,4334.358974358975,4645.641025641026,4366.153846153847,4216.923076923077,4103.076923076924,4503.589743589744
351.35663,0.40623277,0.36859944,0.33333334,0.5522388,0,0.0,0.0,0.0,0.0,0.0,0,0,0.0,0.0,0,0,104.0,0.0,101.0,4584.102564102564,3894.358974358975,4483.589743589744,4468.205128205129,4200.000000000001,4442.564102564103,4421.025641025642,4391.282051282052,4334.358974358975,4645.641025641026,4366.153846153847,4216.923076923077,4103.076923076924,4503.589743589744
351.85706,0.5674848,0.3648916,0.33333334,0.5522388,0,0.0,0.0,0.0,0.0,0.0,0,0,0.0,0.0,0,0,39.0,0.0,0.0,4563.076923076924,3866.1538461538466,4473.333333333334,4445.641025641026,4181.025641025642,4403.589743589744,4411.282051282052,4383.076923076924,4315.8974358974365,4623.589743589744,4348.717948717949,4216.410256410257,4082.564102564103,4458.974358974359
351.85706,0.5674848,0.3648916,0.33333334,0.5522388,0,0.0,0.0,0.0,0.0,0.0,0,0,0.0,0.0,0,0,39.0,0.0,0.0,4563.076923076924,3866.1538461538466,4473.333333333334,4445.641025641026,4181.025641025642,4403.589743589744,4411.282051282052,4383.076923076924,4315.8974358974365,4623.589743589744,4348.717948717949,4216.410256410257,4082.564102564103,4458.974358974359
352.35748,0.67242557,0.3637844,0.33333334,0.5522388,0,0.0,0.0,0.0,0.0,0.0,0,0,0.0,0.0,0,0,103.0,0.0,352.0,4584.102564102564,3876.410256410257,4475.8974358974365,4456.923076923077,4196.923076923077,4428.717948717949,4421.025641025642,4400.512820512821,4317.948717948719,4625.128205128206,4341.538461538462,4221.538461538462,4090.7692307692314,4453.846153846154
352.70154,0.67242557,0.3637844,0.33333334,0.5522388,0,0.0,0.0,0.0,0.0,0.0,0,0,0.0,0.0,0,0,18.0,0.0,0.0,4583.076923076924,3876.9230769230776,4479.48717948718,4461.538461538462,4201.025641025642,4444.102564102564,4420.512820512821,4418.974358974359,4329.2307692307695,4648.717948717949,4341.538461538462,4231.282051282052,4109.2307692307695,4445.128205128206
352.85794,0.7245551,0.35578632,0.33333334,0.5522388,0,0.0,0.0,0.0,0.0,0.0,0,0,0.0,0.0,0,0,38.0,0.0,0.0,4568.205128205129,3884.615384615385,4480.512820512821,4470.769230769231,4208.717948717949,4457.435897435898,4425.128205128206,4423.589743589744,4331.282051282052,4641.538461538462,4336.410256410257,4231.282051282052,4100.512820512821,4445.128205128206
352.85794,0.7245551,0.35578632,0.33333334,0.5522388,0,0.0,0.0,0.0,0.0,0.0,0,0,0.0,0.0,0,0,38.0,0.0,0.0,4568.205128205129,3884.615384615385,4480.512820512821,4470.769230769231,4208.717948717949,4457.435897435898,4425.128205128206,4423.589743589744,4331.282051282052,4641.538461538462,4336.410256410257,4231.282051282052,4100.512820512821,4445.128205128206
353.35837,0.71113217,0.3502519,0.33333334,0.5522388,0,0.0,0.0,0.0,0.0,0.0,0,0,0.0,0.0,0,0,102.0,0.0,583.0,4615.384615384616,3912.820512820513,4488.717948717949,4464.615384615385,4215.8974358974365,4468.717948717949,4424.615384615385,4437.435897435898,4326.153846153847,4644.102564102564,4336.923076923077,4232.307692307693,4119.48717948718,4460.512820512821
353.35837,0.71113217,0.3502519,0.33333334,0.5522388,0,0.0,0.0,0.0,0.0,0.0,0,0,0.0,0.0,0,0,102.0,0.0,583.0,4615.384615384616,3912.820512820513,4488.717948717949,4464.615384615385,4215.8974358974365,4468.717948717949,4424.615384615385,4437.435897435898,4326.153846153847,4644.102564102564,4336.923076923077,4232.307692307693,4119.48717948718,4460.512820512821
353.8588,0.68688285,0.35253775,0.33333334,0.5522388,0,0.0,0.0,0.0,0.0,0.0,0,0,0.0,0.0,0,0,37.0,0.0,0.0,4613.846153846154,3908.205128205129,4490.256410256411,4459.48717948718,4226.153846153847,4488.205128205129,4439.48717948718,4442.051282051282,4340.512820512821,4666.666666666667,4341.025641025642,4240.512820512821,4130.769230769231,4467.179487179487
353.8588,0.68688285,0.35253775,0.33333334,0.5522388,0,0.0,0.0,0.0,0.0,0.0,0,0,0.0,0.0,0,0,37.0,0.0,0.0,4613.846153846154,3908.205128205129,4490.256410256411,4459.48717948718,4226.153846153847,4488.205128205129,4439.48717948718,4442.051282051282,4340.512820512821,4666.666666666667,4341.025641025642,4240.512820512821,4130.769230769231,4467.179487179487
354.35922,0.698846,0.34770554,0.33333334,0.5522388,0,0.0,0.0,0.0,0.0,0.0,0,0,0.0,0.0,0,0,101.0,0.0,266.0,4673.846153846154,3952.820512820513,4507.6923076923085,4489.2307692307695,4233.333333333334,4502.051282051282,4446.153846153847,4451.282051282052,4371.794871794872,4713.846153846154,4353.333333333334,4245.128205128206,4208.717948717949,4492.820512820514
354.35922,0.698846,0.34770554,0.33333334,0.5522388,0,0.0,0.0,0.0,0.0,0.0,0,0,0.0,0.0,0,0,101.0,0.0,266.0,4673.846153846154,3952.820512820513,4507.6923076923085,4489.2307692307695,4233.333333333334,4502.051282051282,4446.153846153847,4451.282051282052,4371.794871794872,4713.846153846154,4353.333333333334,4245.128205128206,4208.717948717949,4492.820512820514
354.85965,0.68479306,0.35251275,0.33333334,0.5522388,0,0.0,0.0,0.0,0.0,0.0,0,0,0.0,0.0,0,0,36.0,0.0,0.0,4631.794871794872,3931.2820512820517,4496.410256410257,4478.461538461539,4231.794871794872,4507.179487179488,4463.589743589744,4462.564102564103,4380.512820512821,4722.051282051282,4351.282051282052,4246.666666666667,4183.589743589744,4474.871794871796
354.85965,0.68479306,0.35251275,0.33333334,0.5522388,0,0.0,0.0,0.0,0.0,0.0,0,0,0.0,0.0,0,0,36.0,0.0,0.0,4631.794871794872,3931.2820512820517,4496.410256410257,4478.461538461539,4231.794871794872,4507.179487179488,4463.589743589744,4462.564102564103,4380.512820512821,4722.051282051282,4351.282051282052,4246.666666666667,4183.589743589744,4474.871794871796
355.45392,0.6535202,0.3559219,0.33333334,0.5522388,0,0.0,0.0,0.0,0.0,0.3755916,0,0,0.0,0.0,0,0,112.0,0.0,101.0,4654.871794871796,3937.9487179487182,4504.615384615385,4482.051282051282,4238.461538461539,4520.000000000001,4461.025641025642,4432.820512820514,4364.615384615385,4713.333333333334,4358.974358974359,4266.153846153847,4187.6923076923085,4474.358974358975
355.70413,0.6535202,0.3559219,0.33333334,0.5522388,0,0.0,0.0,0.0,0.0,0.2404254,0,0,0.0,0.0,0,0,15.0,0.0,352.0,4657.948717948719,3926.666666666667,4503.589743589744,4475.8974358974365,4235.384615384616,4516.923076923077,4453.846153846154,4444.102564102564,4372.307692307693,4718.461538461539,4359.48717948718,4248.717948717949,4194.871794871796,4489.743589743591
355.95435,0.58473015,0.3523883,0.33333334,0.5522388,0,0.0,0.0,0.0,0.0,0.0,0,0,0.0,0.0,0,0,47.0,0.0,0.0,4640.512820512821,3924.1025641025644,4490.769230769231,4471.794871794872,4236.923076923077,4513.846153846154,4457.435897435898,4433.333333333334,4359.48717948718,4701.025641025642,4354.358974358975,4235.8974358974365,4173.333333333334,4475.8974358974365
355.95435,0.58473015,0.3523883,0.33333334,0.5522388,0,0.0,0.0,0.0,0.0,0.0,0,0,0.0,0.0,0,0,47.0,0.0,0.0,4640.512820512821,3924.1025641025644,4490.769230769231,4471.794871794872,4236.923076923077,4513.846153846154,4457.435897435898,4433.333333333334,4359.48717948718,4701.025641025642,4354.358974358975,4235.8974358974365,4173.333333333334,4475.8974358974365
356.36093,0.61027515,0.35614142,0.33333334,0.5522388,0,0.0,0.0,0.0,0.0,0.0,0,0,0.0,0.0,0,0,99.0,0.0,352.0,4654.358974358975,3924.615384615385,4499.48717948718,4462.051282051282,4245.641025641026,4524.615384615385,4468.205128205129,4457.435897435898,4385.641025641026,4722.051282051282,4361.025641025642,4247.179487179487,4189.74358974359,4493.846153846154
356.36093,0.61027515,0.35614142,0.33333334,0.5522388,0,0.0,0.0,0.0,0.0,0.0,0,0,0.0,0.0,0,0,99.0,0.0,352.0,4654.358974358975,3924.615384615385,4499.48717948718,4462.051282051282,4245.641025641026,4524.615384615385,4468.205128205129,4457.435897435898,4385.641025641026,4722.051282051282,4361.025641025642,4247.179487179487,4189.74358974359,4493.846153846154
356.9552,0.5763237,0.34334356,0.33333334,0.5522388,0,0.0,0.0,0.0,0.0,0.11808731,0,0,0.0,0.0,0,0,46.0,0.0,0.0,4652.820512820514,3926.666666666667,4503.589743589744,4464.102564102564,4248.717948717949,4521.538461538462,4476.923076923077,4456.923076923077,4393.333333333334,4738.461538461539,4368.205128205129,4250.256410256411,4204.102564102564,4507.6923076923085
357.2054,0.5763237,0.34334356,0.33333334,0.5522388,0,0.0,0.0,0.0,0.0,0.0,0,0,0.0,0.0,0,0,78.0,0.0,583.0,4646.153846153847,3925.1282051282055,4497.948717948719,4457.435897435898,4237.948717948719,4521.538461538462,4460.512820512821,4440.512820512821,4380.512820512821,4712.820512820514,4361.538461538462,4246.666666666667,4168.717948717949,4493.846153846154
357.3618,0.5701765,0.33307505,0.33333334,0.5522388,0,0.0,0.0,0.0,0.0,0.0,0,0,0.0,0.0,0,0,98.0,0.0,583.0,4648.205128205129,3928.717948717949,4500.512820512821,4459.48717948718,4242.051282051282,4523.076923076924,4474.358974358975,4456.410256410257,4390.256410256411,4718.974358974359,4362.051282051282,4246.153846153847,4180.000000000001,4503.589743589744
357.3618,0.5701765,0.33307505,0.33333334,0.5522388,0,0.0,0.0,0.0,0.0,0.0,0,0,0.0,0.0,0,0,98.0,0.0,583.0,4648.205128205129,3928.717948717949,4500.512820512821,4459.48717948718,4242.051282051282,4523.076923076924,4474.358974358975,4456.410256410257,4390.256410256411,4718.974358974359,4362.051282051282,4246.153846153847,4180.000000000001,4503.589743589744
357.8622,0.5608534,0.32865095,0.33333334,0.5522388,0,0.0,0.0,0.0,0.0,0.0,0,0,0.0,0.0,0,0,33.0,0.0,0.0,4663.076923076924,3934.358974358975,4507.179487179488,4462.564102564103,4244.615384615385,4526.153846153847,4473.333333333334,4454.358974358975,4384.615384615385,4723.076923076924,4368.717948717949,4248.717948717949,4191.282051282052,4517.435897435898
357.8622,0.5608534,0.32865095,0.33333334,0.5522388,0,0.0,0.0,0.0,0.0,0.0,0,0,0.0,0.0,0,0,33.0,0.0,0.0,4663.076923076924,3934.358974358975,4507.179487179488,4462.564102564103,4244.615384615385,4526.153846153847,4473.333333333334,4454.358974358975,4384.615384615385,4723.076923076924,4368.717948717949,4248.717948717949,4191.282051282052,4517.435897435898
358.36267,0.50690013,0.31388575,0.33333334,0.5522388,0,0.0,0.0,0.0,0.0,0.0,0,0,0.0,0.0,0,0,97.0,0.0,266.0,4671.282051282052,3946.1538461538466,4514.358974358975,4475.8974358974365,4261.538461538462,4536.923076923077,4470.256410256411,4428.717948717949,4393.846153846154,4732.307692307693,4369.2307692307695,4260.512820512821,4194.871794871796,4506.153846153847
358.36267,0.50690013,0.31388575,0.33333334,0.5522388,0,0.0,0.0,0.0,0.0,0.0,0,0,0.0,0.0,0,0,97.0,0.0,266.0,4671.282051282052,3946.1538461538466,4514.358974358975,4475.8974358974365,4261.538461538462,4536.923076923077,4470.256410256411,4428.717948717949,4393.846153846154,4732.307692307693,4369.2307692307695,4260.512820512821,4194.871794871796,4506.153846153847
358.8631,0.5339688,0.31539133,0.33333334,0.5522388,0,0.0,0.0,0.0,0.0,0.0,0,0,0.0,0.0,0,0,32.0,0.0,0.0,4639.48717948718,3923.589743589744,4499.48717948718,4458.974358974359,4241.025641025642,4523.076923076924,4461.538461538462,4422.564102564103,4383.076923076924,4708.717948717949,4364.615384615385,4243.076923076924,4160.512820512821,4493.333333333334
358.8631,0.5339688,0.31539133,0.33333334,0.5522388,0,0.0,0.0,0.0,0.0,0.0,0,0,0.0,0.0,0,0,32.0,0.0,0.0,4639.48717948718,3923.589743589744,4499.48717948718,4458.974358974359,4241.025641025642,4523.076923076924,4461.538461538462,4422.564102564103,4383.076923076924,4708.717948717949,4364.615384615385,4243.076923076924,4160.512820512821,4493.333333333334
359.36353,0.51402307,0.31264684,0.33333334,0.5522388,0,0.0,0.0,0.0,0.0,0.0,0,0,0.0,0.0,0,0,96.0,0.0,99.0,4662.051282051282,3924.615384615385,4498.974358974359,4458.974358974359,4240.000000000001,4521.538461538462,4457.948717948719,4411.794871794872,4376.923076923077,4698.974358974359,4362.051282051282,4271.794871794872,4164.615384615385,4505.128205128206
359.36353,0.51402307,0.31264684,0.33333334,0.5522388,0,0.0,0.0,0.0,0.0,0.0,0,0,0.0,0.0,0,0,96.0,0.0,99.0,4662.051282051282,3924.615384615385,4498.974358974359,4458.974358974359,4240.000000000001,4521.538461538462,4457.948717948719,4411.794871794872,4376.923076923077,4698.974358974359,4362.051282051282,4271.794871794872,4164.615384615385,4505.128205128206
359.95776,0.43277392,0.31147608,0.33333334,0.5522388,0,0.0,0.0,0.0,0.0,0.4728825,0,0,0.0,0.0,0,0,43.0,0.0,0.0,4655.8974358974365,3938.9743589743593,4514.871794871796,4470.256410256411,4268.717948717949,4549.743589743591,4482.051282051282,4430.769230769231,4397.435897435898,4743.076923076924,4370.769230769231,4282.051282051282,4203.589743589744,4502.564102564103
360.208,0.43277392,0.31147608,0.33333334,0.5522388,0,0.0,0.0,0.0,0.0,0.41897303,0,0,0.0,0.0,0,0,75.0,0.0,352.0,4666.153846153847,3926.1538461538466,4501.538461538462,4447.179487179487,4251.794871794872,4531.794871794872,4469.743589743591,4429.743589743591,4389.2307692307695,4742.564102564103,4374.358974358975,4283.076923076924,4201.538461538462,4524.102564102564
360.45822,0.44544065,0.32481042,0.33333334,0.5522388,0,0.0,0.0,0.0,0.0,0.38111472,0,0,0.0,0.0,0,0,107.0,0.0,352.0,4665.641025641026,3928.205128205129,4497.435897435898,4448.205128205129,4251.794871794872,4527.179487179488,4460.512820512821,4434.358974358975,4394.871794871796,4747.6923076923085,4374.358974358975,4269.74358974359,4200.512820512821,4534.871794871796
360.70844,0.44544065,0.32481042,0.33333334,0.5522388,0,0.0,0.0,0.0,0.0,0.12203227,0,0,0.0,0.0,0,0,10.0,0.0,583.0,4724.615384615386,3973.333333333334,4502.051282051282,4474.358974358975,4240.512820512821,4519.48717948718,4440.000000000001,4414.871794871796,4373.846153846154,4730.769230769231,4376.923076923077,4282.564102564103,4223.076923076924,4557.435897435898
360.95865,0.38140932,0.33708107,0.33333334,0.5522388,0,0.0,0.0,0.0,0.0,0.23763107,0,0,0.0,0.0,0,0,42.0,0.0,0.0,4697.435897435898,3936.410256410257,4499.48717948718,4461.025641025642,4243.076923076924,4521.025641025642,4468.717948717949,4425.641025641026,4384.102564102564,4729.2307692307695,4374.871794871796,4311.282051282052,4192.820512820514,4540.000000000001
361.08374,0.38140932,0.33708107,0.33333334,0.5522388,0,0.0,0.0,0.0,0.0,0.0,0,0,0.0,0.0,0,0,58.0,0.0,0.0,4675.8974358974365,3937.435897435898,4502.564102564103,4472.820512820514,4247.179487179487,4524.102564102564,4454.871794871796,4403.589743589744,4358.974358974359,4688.717948717949,4364.102564102564,4297.948717948719,4149.74358974359,4538.974358974359
361.36523,0.37144455,0.35731977,0.33333334,0.5522388,0,0.0,0.0,0.0,0.0,0.0,0,0,0.0,0.0,0,0,94.0,0.0,583.0,4671.282051282052,3931.7948717948725,4496.410256410257,4458.974358974359,4242.051282051282,4521.538461538462,4453.846153846154,4419.48717948718,4368.205128205129,4705.128205128206,4369.743589743591,4288.717948717949,4165.128205128206,4537.435897435898
361.36523,0.37144455,0.35731977,0.33333334,0.5522388,0,0.0,0.0,0.0,0.0,0.0,0,0,0.0,0.0,0,0,94.0,0.0,583.0,4671.282051282052,3931.7948717948725,4496.410256410257,4458.974358974359,4242.051282051282,4521.538461538462,4453.846153846154,4419.48717948718,4368.205128205129,4705.128205128206,4369.743589743591,4288.717948717949,4165.128205128206,4537.435897435898
361.86566,0.34377155,0.37243786,0.33333334,0.5522388,0,0.0,0.0,0.0,0.0,0.0,0,0,0.0,0.0,0,0,29.0,0.0,0.0,4667.179487179488,3938.9743589743593,4501.025641025642,4461.025641025642,4248.717948717949,4530.256410256411,4466.153846153847,4438.461538461539,4384.615384615385,4720.000000000001,4371.794871794872,4271.794871794872,4175.384615384616,4525.128205128206
361.86566,0.34377155,0.37243786,0.33333334,0.5522388,0,0.0,0.0,0.0,0.0,0.0,0,0,0.0,0.0,0,0,29.0,0.0,0.0,4667.179487179488,3938.9743589743593,4501.025641025642,4461.025641025642,4248.717948717949,4530.256410256411,4466.153846153847,4438.461538461539,4384.615384615385,4720.000000000001,4371.794871794872,4271.794871794872,4175.384615384616,4525.128205128206
362.3661,0.3094844,0.35691515,0.33333334,0.5522388,0,0.0,0.0,0.0,0.0,0.0,0,0,0.0,0.0,0,0,93.0,0.0,266.0,4675.384615384616,3933.8461538461543,4500.512820512821,4458.461538461539,4247.179487179487,4530.769230769231,4474.358974358975,4444.102564102564,4381.538461538462,4721.025641025642,4372.820512820514,4263.589743589744,4177.948717948719,4523.589743589744
362.3661,0.3094844,0.35691515,0.33333334,0.5522388,0,0.0,0.0,0.0,0.0,0.0,0,0,0.0,0.0,0,0,93.0,0.0,266.0,4675.384615384616,3933.8461538461543,4500.512820512821,4458.461538461539,4247.179487179487,4530.769230769231,4474.358974358975,4444.102564102564,4381.538461538462,4721.025641025642,4372.820512820514,4263.589743589744,4177.948717948719,4523.589743589744
362.86652,0.27225932,0.32947066,0.33333334,0.5522388,0,0.0,0.0,0.0,0.0,0.0,0,0,0.0,0.0,0,0,28.0,0.0,0.0,4681.538461538462,3950.7692307692314,4511.794871794872,4471.282051282052,4259.48717948718,4539.48717948718,4481.538461538462,4451.794871794872,4397.948717948719,4737.435897435898,4378.974358974359,4260.512820512821,4197.948717948719,4540.000000000001
362.86652,0.27225932,0.32947066,0.33333334,0.5522388,0,0.0,0.0,0.0,0.0,0.0,0,0,0.0,0.0,0,0,28.0,0.0,0.0,4681.538461538462,3950.7692307692314,4511.794871794872,4471.282051282052,4259.48717948718,4539.48717948718,4481.538461538462,4451.794871794872,4397.948717948719,4737.435897435898,4378.974358974359,4260.512820512821,4197.948717948719,4540.000000000001
363.36694,0.28354228,0.31712934,0.33333334,0.5522388,0,0.0,0.0,0.0,0.0,0.0,0,0,0.0,0.0,0,0,92.0,0.0,97.0,4663.076923076924,3940.0000000000005,4506.153846153847,4446.153846153847,4251.282051282052,4533.846153846154,4483.076923076924,4467.179487179487,4401.025641025642,4727.6923076923085,4375.384615384616,4253.846153846154,4185.641025641026,4544.615384615385
363.36694,0.28354228,0.31712934,0.33333334,0.5522388,0,0.0,0.0,0.0,0.0,0.0,0,0,0.0,0.0,0,0,92.0,0.0,97.0,4663.076923076924,3940.0000000000005,4506.153846153847,4446.153846153847,4251.282051282052,4533.846153846154,4483.076923076924,4467.179487179487,4401.025641025642,4727.6923076923085,4375.384615384616,4253.846153846154,4185.641025641026,4544.615384615385
363.8674,0.27535886,0.30392444,0.33333334,0.5522388,0,0.0,0.0,0.0,0.0,0.0,0,0,0.0,0.0,0,0,27.0,0.0,0.0,4646.666666666667,3949.7435897435903,4514.358974358975,4458.974358974359,4262.564102564103,4544.102564102564,4485.128205128206,4462.051282051282,4403.589743589744,4743.076923076924,4376.923076923077,4255.384615384616,4209.2307692307695,4560.512820512821
364.21143,0.27535886,0.30392444,0.33333334,0.5522388,0,0.0,0.0,0.0,0.0,0.0,0,0,0.18094705,0.0,0,0,71.0,0.0,495.0,4658.461538461539,3955.3846153846157,4514.871794871796,4457.435897435898,4256.410256410257,4540.000000000001,4475.384615384616,4436.923076923077,4399.48717948718,4728.205128205129,4380.512820512821,4269.2307692307695,4191.282051282052,4569.743589743591
364.46164,0.25756907,0.2961674,0.33333334,0.5522388,0,0.0,0.0,0.0,0.0,0.0,0,0,0.0,0.0,0,0,103.0,0.0,352.0,4662.051282051282,3962.0512820512827,4511.794871794872,4469.743589743591,4249.74358974359,4538.974358974359,4474.871794871796,4435.384615384616,4395.384615384616,4727.179487179488,4375.384615384616,4264.102564102564,4197.948717948719,4569.2307692307695
364.71185,0.25756907,0.2961674,0.33333334,0.5522388,0,0.0,0.0,0.0,0.0,0.08957846,0,0,0.0,0.0,0,0,6.0,0.0,569.0,4644.102564102564,3942.564102564103,4509.2307692307695,4476.410256410257,4253.846153846154,4541.025641025642,4486.153846153847,4445.641025641026,4409.2307692307695,4738.461538461539,4387.6923076923085,4270.769230769231,4194.871794871796,4566.666666666667
364.96207,0.20561528,0.29065827,0.33333334,0.5522388,0,0.0,0.0,0.0,0.0,0.08974945,0,0,0.0,0.0,0,0,38.0,0.0,0.0,4635.384615384616,3948.717948717949,4511.794871794872,4489.743589743591,4254.871794871796,4540.000000000001,4485.128205128206,4460.000000000001,4408.717948717949,4713.846153846154,4373.333333333334,4265.641025641026,4164.615384615385,4555.384615384616
365.21228,0.20561528,0.29065827,0.33333334,0.5522388,0,0.0,0.0,0.0,0.0,0.0,0,0,0.0,0.0,0,0,70.0,0.0,569.0,4630.769230769231,3949.2307692307695,4504.102564102564,4490.256410256411,4252.820512820514,4539.48717948718,4464.615384615385,4434.358974358975,4377.435897435898,4686.153846153847,4368.205128205129,4252.307692307693,4136.410256410257,4541.025641025642
365.36868,0.22483242,0.27730843,0.33333334,0.5522388,0,0.0,0.0,0.0,0.0,0.0,0,0,0.0,0.0,0,0,90.0,0.0,583.0,4624.102564102564,3950.2564102564106,4503.589743589744,4489.2307692307695,4248.717948717949,4536.923076923077,4460.512820512821,4411.282051282052,4368.717948717949,4675.8974358974365,4364.102564102564,4250.256410256411,4132.820512820514,4540.000000000001
365.36868,0.22483242,0.27730843,0.33333334,0.5522388,0,0.0,0.0,0.0,0.0,0.0,0,0,0.0,0.0,0,0,90.0,0.0,583.0,4624.102564102564,3950.2564102564106,4503.589743589744,4489.2307692307695,4248.717948717949,4536.923076923077,4460.512820512821,4411.282051282052,4368.717948717949,4675.8974358974365,4364.102564102564,4250.256410256411,4132.820512820514,4540.000000000001
365.8691,0.24788405,0.27901417,0.33333334,0.5522388,0,0.0,0.0,0.0,0.0,0.0,0,0,0.0,0.0,0,0,25.0,0.0,0.0,4631.794871794872,3949.7435897435903,4515.384615384616,4477.948717948719,4260.000000000001,4542.564102564103,4468.205128205129,4442.051282051282,4389.743589743591,4703.589743589744,4372.820512820514,4252.307692307693,4162.051282051282,4542.564102564103
365.8691,0.24788405,0.27901417,0.33333334,0.5522388,0,0.0,0.0,0.0,0.0,0.0,0,0,0.0,0.0,0,0,25.0,0.0,0.0,4631.794871794872,3949.7435897435903,4515.384615384616,4477.948717948719,4260.000000000001,4542.564102564103,4468.205128205129,4442.051282051282,4389.743589743591,4703.589743589744,4372.820512820514,4252.307692307693,4162.051282051282,4542.564102564103
366.36954,0.21956348,0.27845672,0.33333334,0.5522388,0,0.0,0.0,0.0,0.0,0.0,0,0,0.0,0.0,0,0,89.0,0.0,266.0,4655.8974358974365,3942.0512820512827,4502.564102564103,4474.871794871796,4246.666666666667,4538.461538461539,4460.512820512821,4434.358974358975,4386.153846153847,4712.820512820514,4373.846153846154,4249.2307692307695,4184.102564102564,4568.205128205129
366.36954,0.21956348,0.27845672,0.33333334,0.5522388,0,0.0,0.0,0.0,0.0,0.0,0,0,0.0,0.0,0,0,89.0,0.0,266.0,4655.8974358974365,3942.0512820512827,4502.564102564103,4474.871794871796,4246.666666666667,4538.461538461539,4460.512820512821,4434.358974358975,4386.153846153847,4712.820512820514,4373.846153846154,4249.2307692307695,4184.102564102564,4568.205128205129
366.86996,0.19274013,0.2811662,0.33333334,0.5522388,0,0.0,0.0,0.0,0.0,0.0,0,0,0.0,0.0,0,0,24.0,0.0,0.0,4653.333333333334,3940.5128205128212,4503.076923076924,4470.256410256411,4249.74358974359,4542.051282051282,4462.564102564103,4447.6923076923085,4394.358974358975,4706.666666666667,4372.307692307693,4248.205128205129,4183.589743589744,4552.820512820514
366.86996,0.19274013,0.2811662,0.33333334,0.5522388,0,0.0,0.0,0.0,0.0,0.0,0,0,0.0,0.0,0,0,24.0,0.0,0.0,4653.333333333334,3940.5128205128212,4503.076923076924,4470.256410256411,4249.74358974359,4542.051282051282,4462.564102564103,4447.6923076923085,4394.358974358975,4706.666666666667,4372.307692307693,4248.205128205129,4183.589743589744,4552.820512820514
367.3704,0.17820692,0.29102027,0.33333334,0.5522388,0,0.0,0.0,0.0,0.0,0.0,0,0,0.0,0.0,0,0,88.0,0.0,94.0,4661.025641025642,3955.3846153846157,4504.615384615385,4472.307692307693,4244.102564102564,4540.512820512821,4455.384615384616,4445.641025641026,4396.410256410257,4716.410256410257,4372.820512820514,4238.974358974359,4194.358974358975,4477.948717948719
367.71445,0.17820692,0.29102027,0.33333334,0.5522388,0,0.0,0.0,0.0,0.0,0.31470576,0,0,0.0,0.0,0,0,3.0,0.0,563.0,4671.282051282052,3950.2564102564106,4507.6923076923085,4462.051282051282,4247.179487179487,4537.948717948719,4471.794871794872,4464.102564102564,4417.948717948719,4751.282051282052,4389.743589743591,4255.8974358974365,4241.538461538462,4572.307692307693
367.96466,0.18252966,0.2911699,0.33333334,0.5522388,0,0.0,0.0,0.0,0.0,0.04685046,0,0,0.0,0.0,0,0,35.0,0.0,0.0,4664.102564102564,3942.0512820512827,4502.051282051282,4457.435897435898,4248.205128205129,4539.48717948718,4474.871794871796,4457.948717948719,4415.8974358974365,4737.435897435898,4382.564102564103,4243.076923076924,4216.410256410257,4571.794871794872
368.08975,0.18252966,0.2911699,0.33333334,0.5522388,0,0.0,0.0,0.0,0.0,0.0,0,0,0.0,0.0,0,0,51.0,0.0,0.0,4652.820512820514,3934.8717948717954,4500.000000000001,4443.589743589744,4245.641025641026,4537.948717948719,4471.794871794872,4444.102564102564,4396.923076923077,4723.589743589744,4378.461538461539,4234.871794871796,4203.076923076924,4568.717948717949
368.37125,0.19211815,0.28714678,0.33333334,0.5522388,0,0.0,0.0,0.0,0.0,0.0,0,0,0.0,0.0,0,0,87.0,0.0,352.0,4672.820512820514,3952.820512820513,4503.589743589744,4457.435897435898,4251.282051282052,4540.000000000001,4470.769230769231,4445.641025641026,4406.666666666667,4741.538461538462,4388.205128205129,4234.358974358975,4226.153846153847,4571.794871794872
368.37125,0.19211815,0.28714678,0.33333334,0.5522388,0,0.0,0.0,0.0,0.0,0.0,0,0,0.0,0.0,0,0,87.0,0.0,352.0,4672.820512820514,3952.820512820513,4503.589743589744,4457.435897435898,4251.282051282052,4540.000000000001,4470.769230769231,4445.641025641026,4406.666666666667,4741.538461538462,4388.205128205129,4234.358974358975,4226.153846153847,4571.794871794872
368.87167,0.19117568,0.2898136,0.33333334,0.5522388,0,0.0,0.0,0.0,0.0,0.0,0,0,0.0,0.0,0,0,22.0,0.0,0.0,4679.48717948718,3951.2820512820517,4507.6923076923085,4456.410256410257,4248.717948717949,4538.461538461539,4465.641025641026,4451.794871794872,4408.717948717949,4735.384615384616,4384.102564102564,4247.6923076923085,4214.358974358975,4553.333333333334
368.87167,0.19117568,0.2898136,0.33333334,0.5522388,0,0.0,0.0,0.0,0.0,0.0,0,0,0.0,0.0,0,0,22.0,0.0,0.0,4679.48717948718,3951.2820512820517,4507.6923076923085,4456.410256410257,4248.717948717949,4538.461538461539,4465.641025641026,4451.794871794872,4408.717948717949,4735.384615384616,4384.102564102564,4247.6923076923085,4214.358974358975,4553.333333333334
369.37213,0.2038164,0.28170988,0.33333334,0.5522388,0,0.0,0.0,0.0,0.0,0.0,0,0,0.0,0.0,0,0,86.0,0.0,583.0,4686.153846153847,3957.435897435898,4508.717948717949,4459.48717948718,4248.717948717949,4538.974358974359,4485.641025641026,4445.641025641026,4404.102564102564,4744.615384615386,4386.153846153847,4266.153846153847,4205.641025641026,4568.717948717949
369.37213,0.2038164,0.28170988,0.33333334,0.5522388,0,0.0,0.0,0.0,0.0,0.0,0,0,0.0,0.0,0,0,86.0,0.0,583.0,4686.153846153847,3957.435897435898,4508.717948717949,4459.48717948718,4248.717948717949,4538.974358974359,4485.641025641026,4445.641025641026,4404.102564102564,4744.615384615386,4386.153846153847,4266.153846153847,4205.641025641026,4568.717948717949
369.87256,0.226586,0.263056,0.33333334,0.5522388,0,0.0,0.0,0.0,0.0,0.0,0,0,0.0,0.0,0,0,21.0,0.0,0.0,4673.846153846154,3957.435897435898,4501.025641025642,4447.6923076923085,4240.512820512821,4537.435897435898,4472.307692307693,4444.102564102564,4404.615384615385,4734.358974358975,4385.128205128206,4274.871794871796,4205.641025641026,4569.2307692307695
369.87256,0.226586,0.263056,0.33333334,0.5522388,0,0.0,0.0,0.0,0.0,0.0,0,0,0.0,0.0,0,0,21.0,0.0,0.0,4673.846153846154,3957.435897435898,4501.025641025642,4447.6923076923085,4240.512820512821,4537.435897435898,4472.307692307693,4444.102564102564,4404.615384615385,4734.358974358975,4385.128205128206,4274.871794871796,4205.641025641026,4569.2307692307695
370.4668,0.26743436,0.24774888,0.33333334,0.5522388,0,0.0,0.0,0.0,0.0,0.09315451,0,0,0.0,0.0,0,0,97.0,0.0,267.0,4619.48717948718,4001.0256410256416,4515.8974358974365,4631.282051282052,4206.153846153847,4502.564102564103,4427.179487179487,4395.384615384616,4342.051282051282,4650.256410256411,4366.153846153847,4251.794871794872,4116.923076923077,4539.48717948718
370.717,0.26743436,0.24774888,0.33333334,0.5522388,0,0.0,0.0,0.0,0.0,0.06546922,0,0,0.0,0.0,0,0,0.0,0.0,430.0,4635.384615384616,3972.307692307693,4510.256410256411,4543.076923076924,4223.076923076924,4514.871794871796,4442.051282051282,4405.128205128206,4356.410256410257,4673.846153846154,4363.076923076924,4257.435897435898,4132.820512820514,4543.589743589744
370.8734,0.38666832,0.23687547,0.33333334,0.5522388,0,0.0,0.0,0.0,0.0,0.0,0,0,0.0,0.0,0,0,20.0,0.0,0.0,4640.000000000001,3972.820512820513,4508.205128205129,4522.051282051282,4230.769230769231,4522.051282051282,4451.794871794872,4411.794871794872,4367.179487179487,4686.666666666667,4365.128205128206,4262.564102564103,4150.769230769231,4535.8974358974365
370.8734,0.38666832,0.23687547,0.33333334,0.5522388,0,0.0,0.0,0.0,0.0,0.0,0,0,0.0,0.0,0,0,20.0,0.0,0.0,4640.000000000001,3972.820512820513,4508.205128205129,4522.051282051282,4230.769230769231,4522.051282051282,4451.794871794872,4411.794871794872,4367.179487179487,4686.666666666667,4365.128205128206,4262.564102564103,4150.769230769231,4535.8974358974365
371.37384,0.41666606,0.23503147,0.33333334,0.5522388,0,0.0,0.0,0.0,0.0,0.0,0,0,0.0,0.0,0,0,84.0,0.0,92.0,4645.128205128206,3958.9743589743593,4503.589743589744,4473.333333333334,4241.538461538462,4531.794871794872,4443.589743589744,4425.128205128206,4369.2307692307695,4692.307692307693,4364.615384615385,4261.538461538462,4153.846153846154,4524.102564102564
371.37384,0.41666606,0.23503147,0.33333334,0.5522388,0,0.0,0.0,0.0,0.0,0.0,0,0,0.0,0.0,0,0,84.0,0.0,92.0,4645.128205128206,3958.9743589743593,4503.589743589744,4473.333333333334,4241.538461538462,4531.794871794872,4443.589743589744,4425.128205128206,4369.2307692307695,4692.307692307693,4364.615384615385,4261.538461538462,4153.846153846154,4524.102564102564
371.87427,0.4256017,0.23984656,0.33333334,0.5522388,0,0.0,0.0,0.0,0.0,0.0,0,0,0.0,0.0,0,0,19.0,0.0,0.0,4655.384615384616,3936.9230769230776,4500.000000000001,4430.256410256411,4249.2307692307695,4542.564102564103,4479.48717948718,4462.564102564103,4407.6923076923085,4730.769230769231,4374.871794871796,4270.769230769231,4194.358974358975,4535.384615384616
371.87427,0.4256017,0.23984656,0.33333334,0.5522388,0,0.0,0.0,0.0,0.0,0.0,0,0,0.0,0.0,0,0,19.0,0.0,0.0,4655.384615384616,3936.9230769230776,4500.000000000001,4430.256410256411,4249.2307692307695,4542.564102564103,4479.48717948718,4462.564102564103,4407.6923076923085,4730.769230769231,4374.871794871796,4270.769230769231,4194.358974358975,4535.384615384616
372.46854,0.4389961,0.24548844,0.33333334,0.5522388,0,0.0,0.0,0.0,0.0,0.41944292,0,0,0.0,0.0,0,0,93.0,0.0,267.0,4654.871794871796,3943.589743589744,4509.743589743591,4437.435897435898,4246.153846153847,4549.2307692307695,4487.179487179488,4472.820512820514,4408.717948717949,4734.871794871796,4379.48717948718,4282.564102564103,4199.48717948718,4546.153846153847
372.59363,0.4389961,0.24548844,0.33333334,0.5522388,0,0.0,0.0,0.0,0.0,0.43186364,0,0,0.0,0.0,0,0,111.0,0.0,352.0,4648.717948717949,3953.333333333334,4508.205128205129,4444.102564102564,4251.794871794872,4558.461538461539,4487.6923076923085,4457.948717948719,4397.948717948719,4730.769230769231,4375.384615384616,4277.948717948719,4197.435897435898,4550.256410256411
372.87512,0.4313048,0.23895097,0.33333334,0.5522388,0,0.0,0.0,0.0,0.0,0.08492571,0,0,0.0,0.0,0,0,18.0,0.0,0.0,4649.743589743591,3935.8974358974365,4496.923076923077,4429.743589743591,4245.641025641026,4546.666666666667,4475.8974358974365,4465.641025641026,4407.6923076923085,4734.871794871796,4378.974358974359,4275.8974358974365,4197.435897435898,4549.2307692307695
372.96896,0.4313048,0.23895097,0.33333334,0.5522388,0,0.0,0.0,0.0,0.0,0.0,0,0,0.0,0.0,0,0,30.0,0.0,0.0,4670.256410256411,3957.435897435898,4508.717948717949,4443.589743589744,4251.282051282052,4555.384615384616,4479.48717948718,4467.6923076923085,4408.205128205129,4751.794871794872,4382.051282051282,4284.102564102564,4220.512820512821,4552.307692307693
373.37555,0.4159002,0.23786826,0.33333334,0.5522388,0,0.0,0.0,0.0,0.0,0.0,0,0,0.0,0.0,0,0,82.0,0.0,583.0,4671.282051282052,3941.0256410256416,4503.076923076924,4431.282051282052,4245.641025641026,4552.307692307693,4481.025641025642,4470.256410256411,4412.307692307693,4743.076923076924,4379.48717948718,4278.974358974359,4205.641025641026,4550.256410256411
373.37555,0.4159002,0.23786826,0.33333334,0.5522388,0,0.0,0.0,0.0,0.0,0.0,0,0,0.0,0.0,0,0,82.0,0.0,583.0,4671.282051282052,3941.0256410256416,4503.076923076924,4431.282051282052,4245.641025641026,4552.307692307693,4481.025641025642,4470.256410256411,4412.307692307693,4743.076923076924,4379.48717948718,4278.974358974359,4205.641025641026,4550.256410256411
373.87598,0.42871046,0.23520067,0.33333334,0.5522388,0,0.0,0.0,0.0,0.0,0.0,0,0,0.0,0.0,0,0,17.0,0.0,0.0,4674.871794871796,3953.8461538461543,4511.794871794872,4442.051282051282,4263.076923076924,4562.564102564103,4488.717948717949,4458.974358974359,4413.846153846154,4754.871794871796,4380.512820512821,4280.512820512821,4232.307692307693,4551.282051282052
373.87598,0.42871046,0.23520067,0.33333334,0.5522388,0,0.0,0.0,0.0,0.0,0.0,0,0,0.0,0.0,0,0,17.0,0.0,0.0,4674.871794871796,3953.8461538461543,4511.794871794872,4442.051282051282,4263.076923076924,4562.564102564103,4488.717948717949,4458.974358974359,4413.846153846154,4754.871794871796,4380.512820512821,4280.512820512821,4232.307692307693,4551.282051282052
374.3764,0.4599195,0.23750623,0.33333334,0.5522388,0,0.0,0.0,0.0,0.0,0.0,0,0,0.0,0.0,0,0,81.0,0.0,267.0,4665.641025641026,3946.1538461538466,4498.974358974359,4438.461538461539,4244.615384615385,4552.307692307693,4471.282051282052,4440.000000000001,4397.948717948719,4730.769230769231,4380.512820512821,4273.333333333334,4205.641025641026,4546.153846153847
374.3764,0.4599195,0.23750623,0.33333334,0.5522388,0,0.0,0.0,0.0,0.0,0.0,0,0,0.0,0.0,0,0,81.0,0.0,267.0,4665.641025641026,3946.1538461538466,4498.974358974359,4438.461538461539,4244.615384615385,4552.307692307693,4471.282051282052,4440.000000000001,4397.948717948719,4730.769230769231,4380.512820512821,4273.333333333334,4205.641025641026,4546.153846153847
374.87686,0.39106143,0.23912439,0.33333334,0.5522388,0,0.0,0.0,0.0,0.0,0.0,0,0,0.0,0.0,0,0,16.0,0.0,0.0,4722.051282051282,3981.538461538462,4515.384615384616,4456.410256410257,4246.153846153847,4550.256410256411,4463.589743589744,4442.564102564103,4395.384615384616,4748.717948717949,4392.307692307693,4279.48717948718,4231.794871794872,4574.358974358975
374.87686,0.39106143,0.23912439,0.33333334,0.5522388,0,0.0,0.0,0.0,0.0,0.0,0,0,0.0,0.0,0,0,16.0,0.0,0.0,4722.051282051282,3981.538461538462,4515.384615384616,4456.410256410257,4246.153846153847,4550.256410256411,4463.589743589744,4442.564102564103,4395.384615384616,4748.717948717949,4392.307692307693,4279.48717948718,4231.794871794872,4574.358974358975
375.3773,0.3366703,0.24358237,0.33333334,0.5522388,0,0.0,0.0,0.0,0.0,0.0,0,0,0.0,0.0,0,0,80.0,0.0,89.0,4659.48717948718,3940.5128205128212,4508.205128205129,4430.769230769231,4257.948717948719,4554.871794871796,4484.102564102564,4461.025641025642,4412.820512820514,4728.205128205129,4385.641025641026,4275.8974358974365,4180.512820512821,4541.025641025642
375.3773,0.3366703,0.24358237,0.33333334,0.5522388,0,0.0,0.0,0.0,0.0,0.0,0,0,0.0,0.0,0,0,80.0,0.0,89.0,4659.48717948718,3940.5128205128212,4508.205128205129,4430.769230769231,4257.948717948719,4554.871794871796,4484.102564102564,4461.025641025642,4412.820512820514,4728.205128205129,4385.641025641026,4275.8974358974365,4180.512820512821,4541.025641025642
375.87772,0.32356587,0.23974757,0.33333334,0.5522388,0,0.0,0.0,0.0,0.0,0.0,0,0,0.0,0.0,0,0,15.0,0.0,352.0,4658.974358974359,3942.564102564103,4507.6923076923085,4436.410256410257,4256.410256410257,4554.871794871796,4488.717948717949,4474.871794871796,4420.512820512821,4741.025641025642,4385.128205128206,4261.025641025642,4196.923076923077,4552.820512820514
375.87772,0.32356587,0.23974757,0.33333334,0.5522388,0,0.0,0.0,0.0,0.0,0.0,0,0,0.0,0.0,0,0,15.0,0.0,352.0,4658.974358974359,3942.564102564103,4507.6923076923085,4436.410256410257,4256.410256410257,4554.871794871796,4488.717948717949,4474.871794871796,4420.512820512821,4741.025641025642,4385.128205128206,4261.025641025642,4196.923076923077,4552.820512820514
376.37814,0.30300012,0.23152293,0.33333334,0.5522388,0,0.0,0.0,0.0,0.0,0.0,0,0,0.0,0.0,0,0,79.0,0.0,352.0,4671.282051282052,3941.0256410256416,4509.743589743591,4442.051282051282,4254.358974358975,4553.846153846154,4487.6923076923085,4472.820512820514,4426.666666666667,4754.358974358975,4388.205128205129,4266.666666666667,4228.717948717949,4565.128205128206
376.59708,0.30300012,0.23152293,0.33333334,0.5522388,0,0.0,0.0,0.0,0.0,0.44022802,0,0,0.0,0.0,0,0,107.0,0.0,352.0,4671.282051282052,3944.1025641025644,4512.820512820514,4444.102564102564,4259.48717948718,4558.461538461539,4487.6923076923085,4470.256410256411,4432.820512820514,4760.000000000001,4389.2307692307695,4262.051282051282,4221.025641025642,4568.205128205129
376.87857,0.28487045,0.22155385,0.33333334,0.5522388,0,0.0,0.0,0.0,0.0,0.09553388,0,0,0.0,0.0,0,0,14.0,0.0,583.0,4661.538461538462,3954.358974358975,4505.128205128206,4441.025641025642,4247.179487179487,4550.769230769231,4471.282051282052,4452.820512820514,4415.384615384616,4743.589743589744,4390.769230769231,4252.307692307693,4205.128205128206,4574.871794871796
377.0975,0.28487045,0.22155385,0.33333334,0.5522388,0,0.0,0.0,0.0,0.0,0.0,0,0,0.0,0.0,0,0,42.0,0.0,0.0,4644.102564102564,3936.9230769230776,4501.538461538462,4430.769230769231,4248.205128205129,4550.256410256411,4471.282051282052,4451.282051282052,4400.000000000001,4727.179487179488,4386.153846153847,4247.6923076923085,4190.256410256411,4568.717948717949
377.379,0.22596428,0.21402593,0.33333334,0.5522388,0,0.0,0.0,0.0,0.0,0.0,0,0,0.0,0.0,0,0,78.0,0.0,583.0,4662.051282051282,3953.8461538461543,4513.333333333334,4441.025641025642,4260.512820512821,4560.000000000001,4491.282051282052,4486.666666666667,4423.076923076924,4745.641025641026,4389.743589743591,4252.820512820514,4198.461538461539,4570.256410256411
377.379,0.22596428,0.21402593,0.33333334,0.5522388,0,0.0,0.0,0.0,0.0,0.0,0,0,0.0,0.0,0,0,78.0,0.0,583.0,4662.051282051282,3953.8461538461543,4513.333333333334,4441.025641025642,4260.512820512821,4560.000000000001,4491.282051282052,4486.666666666667,4423.076923076924,4745.641025641026,4389.743589743591,4252.820512820514,4198.461538461539,4570.256410256411
377.87943,0.180487,0.21086714,0.33333334,0.5522388,0,0.0,0.0,0.0,0.0,0.0,0,0,0.0,0.0,0,0,13.0,0.0,267.0,4631.794871794872,3938.9743589743593,4507.6923076923085,4436.410256410257,4262.564102564103,4555.384615384616,4489.743589743591,4477.435897435898,4424.615384615385,4747.6923076923085,4387.179487179487,4241.025641025642,4190.769230769231,4541.025641025642
377.87943,0.180487,0.21086714,0.33333334,0.5522388,0,0.0,0.0,0.0,0.0,0.0,0,0,0.0,0.0,0,0,13.0,0.0,267.0,4631.794871794872,3938.9743589743593,4507.6923076923085,4436.410256410257,4262.564102564103,4555.384615384616,4489.743589743591,4477.435897435898,4424.615384615385,4747.6923076923085,4387.179487179487,4241.025641025642,4190.769230769231,4541.025641025642
378.37985,0.19644986,0.2097379,0.33333334,0.5522388,0,0.0,0.0,0.0,0.0,0.0,0,0,0.0,0.0,0,0,77.0,0.0,267.0,4645.641025641026,3929.7435897435903,4492.307692307693,4427.6923076923085,4246.666666666667,4538.461538461539,4471.794871794872,4435.384615384616,4387.179487179487,4713.846153846154,4378.461538461539,4245.641025641026,4170.769230769231,4526.666666666667
378.5988,0.19644986,0.2097379,0.33333334,0.5522388,1,0.0,0.0,0.0,0.0,0.14588295,0,0,0.0,0.0,0,0,105.0,0.0,267.0,4702.051282051282,3970.2564102564106,4506.153846153847,4448.205128205129,4240.512820512821,4537.948717948719,4455.8974358974365,4420.512820512821,4378.461538461539,4714.358974358975,4386.666666666667,4259.48717948718,4186.666666666667,4563.076923076924
378.88028,0.16349971,0.2173742,0.33333334,0.5522388,0,0.0,0.0,0.0,0.0,0.15448686,0,0,0.0,0.0,0,0,12.0,0.0,87.0,4665.641025641026,3946.1538461538466,4493.333333333334,4432.820512820514,4233.846153846154,4534.871794871796,4447.6923076923085,4428.205128205129,4391.794871794872,4717.948717948719,4380.512820512821,4256.923076923077,4180.512820512821,4545.128205128206
379.0992,0.16349971,0.2173742,0.33333334,0.5522388,0,0.0,0.0,0.0,0.0,0.1328229,0,0,0.0,0.0,0,0,40.0,0.0,0.0,4669.2307692307695,3958.461538461539,4505.641025641026,4444.102564102564,4246.666666666667,4537.948717948719,4469.2307692307695,4427.179487179487,4384.615384615385,4715.8974358974365,4383.076923076924,4257.948717948719,4188.205128205129,4550.256410256411
379.3807,0.15882999,0.22416972,0.33333334,0.5522388,0,0.0,0.0,0.0,0.0,0.0,0,0,0.0,0.0,0,0,76.0,0.0,87.0,4673.333333333334,3952.820512820513,4504.615384615385,4444.102564102564,4251.282051282052,4546.153846153847,4466.153846153847,4422.051282051282,4383.076923076924,4717.435897435898,4382.564102564103,4261.025641025642,4187.6923076923085,4552.307692307693
379.3807,0.15882999,0.22416972,0.33333334,0.5522388,0,0.0,0.0,0.0,0.0,0.0,0,0,0.0,0.0,0,0,76.0,0.0,87.0,4673.333333333334,3952.820512820513,4504.615384615385,4444.102564102564,4251.282051282052,4546.153846153847,4466.153846153847,4422.051282051282,4383.076923076924,4717.435897435898,4382.564102564103,4261.025641025642,4187.6923076923085,4552.307692307693
379.88116,0.17591712,0.24371754,0.33333334,0.5522388,0,0.0,0.0,0.0,0.0,0.0,0,0,0.0,0.0,0,0,11.0,0.0,352.0,4649.743589743591,3948.717948717949,4497.948717948719,4434.871794871796,4250.256410256411,4542.051282051282,4461.538461538462,4410.256410256411,4366.153846153847,4691.282051282052,4371.794871794872,4247.6923076923085,4149.74358974359,4524.102564102564
379.88116,0.17591712,0.24371754,0.33333334,0.5522388,0,0.0,0.0,0.0,0.0,0.0,0,0,0.0,0.0,0,0,11.0,0.0,352.0,4649.743589743591,3948.717948717949,4497.948717948719,4434.871794871796,4250.256410256411,4542.051282051282,4461.538461538462,4410.256410256411,4366.153846153847,4691.282051282052,4371.794871794872,4247.6923076923085,4149.74358974359,4524.102564102564
380.3816,0.18579327,0.2698568,0.33333334,0.5522388,0,0.0,0.0,0.0,0.0,0.0,0,0,0.0,0.0,0,0,75.0,0.0,352.0,4671.794871794872,3947.692307692308,4495.8974358974365,4441.538461538462,4243.589743589744,4537.435897435898,4471.282051282052,4449.743589743591,4391.794871794872,4724.102564102564,4378.461538461539,4261.025641025642,4187.6923076923085,4535.8974358974365
380.60052,0.18579327,0.2698568,0.33333334,0.5522388,0,0.0,0.0,0.0,0.0,0.10964944,0,0,0.0,0.0,0,0,103.0,0.0,352.0,4663.076923076924,3942.564102564103,4498.461538461539,4442.051282051282,4250.256410256411,4546.666666666667,4480.512820512821,4460.000000000001,4397.435897435898,4737.948717948719,4380.000000000001,4255.384615384616,4207.179487179487,4536.410256410257
380.88202,0.13547564,0.2706797,0.33333334,0.5522388,0,0.0,0.0,0.0,0.0,0.0,0,0,0.0,0.0,0,0,10.0,0.0,583.0,4657.948717948719,3942.0512820512827,4491.794871794872,4432.820512820514,4247.6923076923085,4547.179487179488,4473.846153846154,4463.076923076924,4404.102564102564,4747.6923076923085,4381.538461538462,4257.435897435898,4215.8974358974365,4521.025641025642
380.88202,0.13547564,0.2706797,0.33333334,0.5522388,0,0.0,0.0,0.0,0.0,0.0,0,0,0.0,0.0,0,0,10.0,0.0,583.0,4657.948717948719,3942.0512820512827,4491.794871794872,4432.820512820514,4247.6923076923085,4547.179487179488,4473.846153846154,4463.076923076924,4404.102564102564,4747.6923076923085,4381.538461538462,4257.435897435898,4215.8974358974365,4521.025641025642
381.38245,0.15433334,0.26906705,0.33333334,0.5522388,0,0.0,0.0,0.0,0.0,0.0,0,0,0.0,0.0,0,0,74.0,0.0,583.0,4656.923076923077,3939.48717948718,4493.846153846154,4426.666666666667,4240.512820512821,4535.384615384616,4461.025641025642,4458.461538461539,4391.794871794872,4733.846153846154,4385.641025641026,4264.102564102564,4198.461538461539,4523.076923076924
381.38245,0.15433334,0.26906705,0.33333334,0.5522388,0,0.0,0.0,0.0,0.0,0.0,0,0,0.0,0.0,0,0,74.0,0.0,583.0,4656.923076923077,3939.48717948718,4493.846153846154,4426.666666666667,4240.512820512821,4535.384615384616,4461.025641025642,4458.461538461539,4391.794871794872,4733.846153846154,4385.641025641026,4264.102564102564,4198.461538461539,4523.076923076924
381.88287,0.14252387,0.26670152,0.33333334,0.5522388,0,0.0,0.0,0.0,0.0,0.0,0,0,0.0,0.0,0,0,9.0,0.0,524.0,4647.179487179488,3934.8717948717954,4490.256410256411,4426.666666666667,4238.974358974359,4537.948717948719,4462.051282051282,4449.743589743591,4369.2307692307695,4714.358974358975,4380.512820512821,4254.871794871796,4183.589743589744,4528.717948717949
381.88287,0.14252387,0.26670152,0.33333334,0.5522388,0,0.0,0.0,0.0,0.0,0.0,0,0,0.0,0.0,0,0,9.0,0.0,524.0,4647.179487179488,3934.8717948717954,4490.256410256411,4426.666666666667,4238.974358974359,4537.948717948719,4462.051282051282,4449.743589743591,4369.2307692307695,4714.358974358975,4380.512820512821,4254.871794871796,4183.589743589744,4528.717948717949
382.3833,0.1443317,0.25968125,0.33333334,0.5522388,0,0.0,0.0,0.0,0.0,0.0,0,0,0.0,0.0,0,0,73.0,0.0,524.0,4655.8974358974365,3943.589743589744,4506.666666666667,4444.615384615385,4252.820512820514,4547.6923076923085,4484.102564102564,4467.179487179487,4393.846153846154,4732.307692307693,4387.179487179487,4266.666666666667,4200.000000000001,4538.461538461539
382.3833,0.1443317,0.25968125,0.33333334,0.5522388,0,0.0,0.0,0.0,0.0,0.0,0,0,0.0,0.0,0,0,73.0,0.0,524.0,4655.8974358974365,3943.589743589744,4506.666666666667,4444.615384615385,4252.820512820514,4547.6923076923085,4484.102564102564,4467.179487179487,4393.846153846154,4732.307692307693,4387.179487179487,4266.666666666667,4200.000000000001,4538.461538461539
382.88373,0.15412872,0.25439435,0.33333334,0.5522388,0,0.0,0.0,0.0,0.0,0.0,0,0,0.0,0.0,0,0,8.0,0.0,472.0,4650.256410256411,3947.692307692308,4496.923076923077,4443.076923076924,4239.48717948718,4536.923076923077,4464.102564102564,4444.615384615385,4376.923076923077,4693.333333333334,4377.948717948719,4254.358974358975,4164.615384615385,4526.153846153847
382.88373,0.15412872,0.25439435,0.33333334,0.5522388,0,0.0,0.0,0.0,0.0,0.0,0,0,0.0,0.0,0,0,8.0,0.0,472.0,4650.256410256411,3947.692307692308,4496.923076923077,4443.076923076924,4239.48717948718,4536.923076923077,4464.102564102564,4444.615384615385,4376.923076923077,4693.333333333334,4377.948717948719,4254.358974358975,4164.615384615385,4526.153846153847
383.38416,0.16017358,0.24757619,0.33333334,0.5522388,0,0.0,0.0,0.0,0.0,0.0,0,0,0.0,0.0,0,0,72.0,0.0,472.0,4653.333333333334,3945.6410256410263,4494.871794871796,4433.333333333334,4243.076923076924,4536.923076923077,4470.256410256411,4446.666666666667,4388.717948717949,4701.538461538462,4378.974358974359,4251.282051282052,4168.205128205129,4535.8974358974365
383.38416,0.16017358,0.24757619,0.33333334,0.5522388,0,0.0,0.0,0.0,0.0,0.0,0,0,0.0,0.0,0,0,72.0,0.0,472.0,4653.333333333334,3945.6410256410263,4494.871794871796,4433.333333333334,4243.076923076924,4536.923076923077,4470.256410256411,4446.666666666667,4388.717948717949,4701.538461538462,4378.974358974359,4251.282051282052,4168.205128205129,4535.8974358974365
383.88458,0.16437995,0.24724491,0.33333334,0.5522388,0,0.0,0.0,0.0,0.0,0.0,0,0,0.0,0.0,0,0,7.0,0.0,495.0,4690.256410256411,3960.0000000000005,4505.641025641026,4445.641025641026,4248.205128205129,4537.435897435898,4465.641025641026,4449.743589743591,4395.8974358974365,4713.846153846154,4381.538461538462,4267.6923076923085,4178.974358974359,4550.256410256411
384.10352,0.16437995,0.24724491,0.33333334,0.5522388,0,0.0,0.0,0.0,0.0,0.2948649,0,0,0.0,0.0,0,0,35.0,0.0,0.0,4672.307692307693,3956.9230769230776,4504.615384615385,4445.128205128206,4253.846153846154,4542.564102564103,4478.461538461539,4453.846153846154,4402.564102564103,4717.435897435898,4381.025641025642,4249.74358974359,4177.435897435898,4541.538461538462
384.385,0.16698167,0.25662857,0.33333334,0.5522388,0,0.0,0.0,0.0,0.0,0.042059883,0,0,0.0,0.0,0,0,71.0,0.0,495.0,4685.128205128206,3942.564102564103,4503.589743589744,4443.076923076924,4263.589743589744,4553.846153846154,4480.512820512821,4478.974358974359,4428.205128205129,4755.8974358974365,4390.769230769231,4272.307692307693,4223.076923076924,4555.384615384616
384.60397,0.16698167,0.25662857,0.33333334,0.5522388,0,0.0,0.0,0.0,0.0,0.0,0,0,0.0,0.0,0,0,99.0,0.0,352.0,4675.384615384616,3937.435897435898,4500.512820512821,4443.076923076924,4257.948717948719,4550.256410256411,4480.000000000001,4473.846153846154,4422.564102564103,4749.743589743591,4389.743589743591,4270.256410256411,4212.307692307693,4552.820512820514
384.88544,0.16214287,0.26960182,0.33333334,0.5522388,0,0.0,0.0,0.0,0.0,0.0,0,0,0.0,0.0,0,0,6.0,0.0,569.0,4687.179487179488,3942.0512820512827,4502.051282051282,4442.051282051282,4253.333333333334,4546.153846153847,4481.025641025642,4474.871794871796,4430.256410256411,4761.538461538462,4394.871794871796,4285.641025641026,4230.769230769231,4569.743589743591
384.88544,0.16214287,0.26960182,0.33333334,0.5522388,0,0.0,0.0,0.0,0.0,0.0,0,0,0.0,0.0,0,0,6.0,0.0,569.0,4687.179487179488,3942.0512820512827,4502.051282051282,4442.051282051282,4253.333333333334,4546.153846153847,4481.025641025642,4474.871794871796,4430.256410256411,4761.538461538462,4394.871794871796,4285.641025641026,4230.769230769231,4569.743589743591
385.3859,0.16162944,0.28252342,0.33333334,0.5522388,0,0.0,0.0,0.0,0.0,0.0,0,0,0.0,0.0,0,0,70.0,0.0,569.0,4691.794871794872,3947.1794871794878,4507.6923076923085,4445.128205128206,4257.948717948719,4555.8974358974365,4477.948717948719,4450.256410256411,4412.307692307693,4739.48717948718,4390.769230769231,4284.615384615385,4196.923076923077,4556.923076923077
385.3859,0.16162944,0.28252342,0.33333334,0.5522388,0,0.0,0.0,0.0,0.0,0.0,0,0,0.0,0.0,0,0,70.0,0.0,569.0,4691.794871794872,3947.1794871794878,4507.6923076923085,4445.128205128206,4257.948717948719,4555.8974358974365,4477.948717948719,4450.256410256411,4412.307692307693,4739.48717948718,4390.769230769231,4284.615384615385,4196.923076923077,4556.923076923077
385.88632,0.1961308,0.29190686,0.33333334,0.5522388,0,0.0,0.0,0.0,0.0,0.0,0,0,0.0,0.0,0,0,5.0,0.0,578.0,4682.564102564103,3960.0000000000005,4513.846153846154,4455.384615384616,4262.564102564103,4553.846153846154,4486.666666666667,4465.128205128206,4423.076923076924,4748.717948717949,4387.6923076923085,4277.435897435898,4208.205128205129,4570.769230769231
385.88632,0.1961308,0.29190686,0.33333334,0.5522388,0,0.0,0.0,0.0,0.0,0.0,0,0,0.0,0.0,0,0,5.0,0.0,578.0,4682.564102564103,3960.0000000000005,4513.846153846154,4455.384615384616,4262.564102564103,4553.846153846154,4486.666666666667,4465.128205128206,4423.076923076924,4748.717948717949,4387.6923076923085,4277.435897435898,4208.205128205129,4570.769230769231
386.38675,0.19610439,0.28663814,0.33333334,0.5522388,0,0.0,0.0,0.0,0.0,0.0,0,0,0.0,0.0,0,0,69.0,0.0,578.0,4678.974358974359,3954.8717948717954,4510.256410256411,4456.410256410257,4264.102564102564,4554.358974358975,4481.538461538462,4468.717948717949,4418.461538461539,4739.48717948718,4388.717948717949,4263.076923076924,4188.205128205129,4553.846153846154
