timestamp,excitement,frustration,meditation,engagementBoredom,blink,clench,laugh,smile,eyebrow,furrowBrow,lookLeft,lookRight,smirkLeft,smirkRight,winkLeft,winkRight,eeg0,eeg1,eeg2,eeg3,eeg4,eeg5,eeg6,eeg7,eeg8,eeg9,eeg10,eeg11,eeg12,eeg13,eeg14,eeg15,eeg16
1758.1829,1.0,0.37501922,0.33333334,0.5522388,0,0.0,0.0,0.0,0.0,0.066858836,0,0,0.0,0.0,0,0,92.0,0.0,109.0,4696.410256410257,3949.7435897435903,4362.051282051282,4428.717948717949,4235.8974358974365,4542.051282051282,4521.538461538462,4446.153846153847,4416.410256410257,4733.333333333334,4409.2307692307695,4393.846153846154,4223.589743589744,4602.564102564103
1758.433,1.0,0.37501922,0.33333334,0.5522388,0,0.0,0.0,0.0,0.0,0.17832628,0,0,0.0,0.0,0,0,124.0,0.0,109.0,4661.025641025642,3953.333333333334,4351.794871794872,4430.769230769231,4236.410256410257,4543.589743589744,4490.769230769231,4424.102564102564,4400.512820512821,4727.179487179488,4397.435897435898,4376.923076923077,4215.384615384616,4553.846153846154
1758.6832,0.8772319,0.369386,0.33333334,0.5522388,0,0.0,0.0,0.0,0.0,1.0,0,0,0.0,0.0,0,0,27.0,0.0,0.0,4675.8974358974365,3967.1794871794878,4359.48717948718,4436.923076923077,4234.871794871796,4539.48717948718,4490.256410256411,4442.564102564103,4409.743589743591,4731.794871794872,4400.512820512821,4371.794871794872,4233.333333333334,4562.051282051282
1758.9335,0.8772319,0.369386,0.33333334,0.5522388,0,0.0,0.0,0.0,1.0,0.0,0,0,0.0,0.0,0,1,59.0,0.0,0.0,4655.8974358974365,3953.333333333334,4342.051282051282,4429.2307692307695,4248.717948717949,4547.6923076923085,4456.923076923077,4411.794871794872,4394.358974358975,4748.205128205129,4394.358974358975,4362.051282051282,4224.615384615385,4550.769230769231
1759.1837,0.8354413,0.37924662,0.33333334,0.5522388,0,0.0,0.0,0.0,0.0,0.08863504,0,0,0.0,0.0,0,0,91.0,0.0,537.0,4665.128205128206,3956.9230769230776,4356.923076923077,4442.564102564103,4263.589743589744,4555.384615384616,4486.666666666667,4433.846153846154,4406.153846153847,4768.717948717949,4396.410256410257,4360.000000000001,4228.205128205129,4556.923076923077
1759.4338,0.8354413,0.37924662,0.33333334,0.5522388,0,0.0,0.0,0.0,0.0,0.4482579,0,0,0.0,0.0,0,0,123.0,0.0,537.0,4702.564102564103,4079.48717948718,4399.48717948718,4475.8974358974365,4214.358974358975,4519.48717948718,4540.000000000001,4486.153846153847,4443.076923076924,4731.282051282052,4462.051282051282,4370.769230769231,4252.820512820514,4758.461538461539
1759.6841,0.83448625,0.44687808,0.33333334,0.5522388,0,0.0,0.0,0.0,0.0,0.1691669,0,0,0.0,0.0,0,0,26.0,0.0,0.0,4575.8974358974365,4346.153846153847,4303.589743589744,4537.948717948719,4144.102564102564,4451.282051282052,4430.256410256411,4347.6923076923085,4323.076923076924,4704.615384615386,4428.717948717949,4327.6923076923085,4282.051282051282,4765.128205128206
1759.9343,0.83448625,0.44687808,0.33333334,0.5522388,0,0.0,0.0,0.0,0.0,0.26553965,0,0,0.0,0.0,0,0,58.0,0.0,0.0,4675.384615384616,4225.641025641026,4358.461538461539,4513.846153846154,4170.769230769231,4480.000000000001,4441.538461538462,4379.48717948718,4351.282051282052,4796.923076923077,4433.846153846154,4335.384615384616,4271.794871794872,4952.307692307693
1760.1846,0.9139036,0.5121197,0.33333334,0.5522388,0,0.0,0.0,0.0,0.0,0.61647916,0,0,0.0,0.0,0,0,90.0,0.0,539.0,4666.666666666667,4134.358974358975,4370.769230769231,4494.871794871796,4215.8974358974365,4522.564102564103,4479.48717948718,4447.6923076923085,4383.589743589744,4829.743589743591,4429.2307692307695,4338.461538461539,4267.179487179487,4892.820512820514
1760.4348,0.9139036,0.5121197,0.33333334,0.5522388,0,0.0,0.0,0.0,0.0,0.3381921,0,0,0.0,0.0,0,0,122.0,0.0,539.0,4670.769230769231,4064.615384615385,4373.846153846154,4473.846153846154,4229.74358974359,4530.769230769231,4489.743589743591,4429.743589743591,4384.102564102564,4796.923076923077,4399.48717948718,4342.051282051282,4185.641025641026,4700.000000000001
1760.6849,0.87415177,0.5718964,0.33333334,0.5522388,0,0.0,0.0,0.0,0.0,1.0,0,0,0.0,0.0,0,0,25.0,0.0,0.0,4681.025641025642,4019.48717948718,4385.128205128206,4462.051282051282,4234.871794871796,4541.025641025642,4490.256410256411,4446.153846153847,4422.564102564103,4800.512820512821,4410.256410256411,4357.948717948719,4205.641025641026,4661.025641025642
1760.6849,0.87415177,0.5718964,0.33333334,0.5522388,0,0.0,0.0,0.0,0.0,1.0,0,0,0.0,0.0,0,0,25.0,0.0,0.0,4681.025641025642,4019.48717948718,4385.128205128206,4462.051282051282,4234.871794871796,4541.025641025642,4490.256410256411,4446.153846153847,4422.564102564103,4800.512820512821,4410.256410256411,4357.948717948719,4205.641025641026,4661.025641025642
1761.0916,0.8071258,0.57672346,0.33333334,0.5522388,0,0.0,0.0,0.0,0.0,1.0,0,0,0.0,0.0,0,0,77.0,0.0,107.0,4680.000000000001,3988.717948717949,4393.333333333334,4454.358974358975,4257.435897435898,4555.384615384616,4522.564102564103,4506.153846153847,4466.153846153847,4814.358974358975,4413.846153846154,4341.025641025642,4217.948717948719,4751.282051282052
1761.3105,0.8071258,0.57672346,0.33333334,0.5522388,0,0.0,0.0,0.0,0.0,1.0,0,0,0.0,0.0,0,0,105.0,0.0,107.0,4686.153846153847,3989.23076923077,4390.256410256411,4450.256410256411,4255.384615384616,4555.384615384616,4491.794871794872,4474.358974358975,4453.846153846154,4790.769230769231,4411.794871794872,4334.871794871796,4216.410256410257,4544.615384615385
1761.6858,0.74606764,0.54912704,0.33333334,0.5522388,0,0.0,0.0,0.0,0.0,1.0,0,0,0.0,0.0,0,0,24.0,0.0,0.0,4695.8974358974365,3971.7948717948725,4381.025641025642,4452.307692307693,4264.615384615385,4569.743589743591,4476.923076923077,4439.48717948718,4450.769230769231,4785.128205128206,4404.615384615385,4333.846153846154,4204.102564102564,4410.256410256411
1761.936,0.74606764,0.54912704,0.33333334,0.5522388,0,0.0,0.0,0.0,0.0,0.47485927,0,0,0.0,0.0,0,0,56.0,0.0,0.0,4683.589743589744,3958.9743589743593,4368.717948717949,4441.538461538462,4251.794871794872,4553.333333333334,4464.615384615385,4423.589743589744,4443.589743589744,4767.179487179488,4397.948717948719,4334.871794871796,4186.666666666667,4451.794871794872
1762.1863,0.745087,0.48953032,0.33333334,0.5522388,0,0.0,0.0,0.0,0.0,0.11057697,0,0,0.0,0.0,0,0,88.0,0.0,103.0,4693.333333333334,3943.589743589744,4389.2307692307695,4442.564102564103,4264.102564102564,4567.179487179488,4492.307692307693,4448.717948717949,4459.48717948718,4784.615384615386,4408.205128205129,4334.871794871796,4226.153846153847,4460.000000000001
1762.4365,0.745087,0.48953032,0.33333334,0.5522388,0,0.0,0.0,0.0,0.0,0.095761634,0,0,0.0,0.0,0,0,120.0,0.0,103.0,4713.333333333334,3969.2307692307695,4393.846153846154,4445.641025641026,4263.589743589744,4562.051282051282,4489.743589743591,4443.589743589744,4445.641025641026,4795.384615384616,4405.128205128206,4327.179487179487,4235.8974358974365,4504.615384615385
1762.6866,0.7947198,0.4422949,0.33333334,0.5522388,0,0.0,0.0,0.0,0.0,0.35554683,0,0,0.0,0.0,0,0,23.0,0.0,0.0,4683.589743589744,3957.9487179487182,4396.923076923077,4447.179487179487,4265.641025641026,4566.153846153847,4501.025641025642,4460.000000000001,4447.179487179487,4775.8974358974365,4409.743589743591,4330.769230769231,4227.6923076923085,4552.307692307693
1762.9369,0.7947198,0.4422949,0.33333334,0.5522388,0,0.0,0.0,0.0,0.0,0.56325084,0,0,0.0,0.0,0,0,55.0,0.0,0.0,4690.256410256411,3942.564102564103,4395.8974358974365,4440.000000000001,4265.128205128206,4564.102564102564,4501.025641025642,4446.666666666667,4443.076923076924,4752.820512820514,4407.6923076923085,4326.153846153847,4221.538461538462,4580.000000000001
1763.1871,0.7223141,0.3953067,0.33333334,0.5522388,0,0.0,0.0,0.0,0.0,0.07260984,0,0,0.0,0.0,0,0,87.0,0.0,530.0,4684.615384615386,3944.1025641025644,4394.358974358975,4443.076923076924,4265.641025641026,4564.102564102564,4510.256410256411,4480.000000000001,4458.974358974359,4747.6923076923085,4407.6923076923085,4318.461538461539,4217.435897435898,4546.666666666667
1763.4374,0.7223141,0.3953067,0.33333334,0.5522388,0,0.0,0.0,0.0,0.0,0.07370015,0,0,0.0,0.0,0,0,119.0,0.0,530.0,4674.871794871796,3944.1025641025644,4395.8974358974365,4441.538461538462,4261.025641025642,4557.435897435898,4522.564102564103,4474.358974358975,4461.025641025642,4703.076923076924,4410.769230769231,4331.794871794872,4216.410256410257,4534.358974358975
1763.6875,0.6214957,0.3634264,0.33333334,0.5522388,0,0.0,0.0,0.0,0.0,1.0,0,0,0.0,0.0,0,0,22.0,0.0,0.0,4674.871794871796,3957.435897435898,4396.923076923077,4444.615384615385,4263.589743589744,4565.641025641026,4524.102564102564,4469.743589743591,4461.538461538462,4722.051282051282,4412.307692307693,4328.205128205129,4231.282051282052,4543.076923076924
1763.6875,0.6214957,0.3634264,0.33333334,0.5522388,0,0.0,0.0,0.0,0.0,1.0,0,0,0.0,0.0,0,0,22.0,0.0,0.0,4674.871794871796,3957.435897435898,4396.923076923077,4444.615384615385,4263.589743589744,4565.641025641026,4524.102564102564,4469.743589743591,4461.538461538462,4722.051282051282,4412.307692307693,4328.205128205129,4231.282051282052,4543.076923076924
1764.188,0.6306426,0.3438634,0.33333334,0.5522388,0,0.0,0.0,0.0,0.0,0.013770179,0,0,0.0,0.0,0,0,86.0,0.0,539.0,4683.076923076924,3963.589743589744,4412.820512820514,4446.153846153847,4262.051282051282,4555.8974358974365,4474.871794871796,4463.589743589744,4458.461538461539,4718.974358974359,4421.025641025642,4332.820512820514,4234.358974358975,4586.153846153847
1764.4382,0.6306426,0.3438634,0.33333334,0.5522388,0,0.0,0.0,0.0,0.0,0.032218534,0,0,0.0,0.0,0,0,118.0,0.0,539.0,4695.384615384616,3971.7948717948725,4427.179487179487,4453.846153846154,4261.538461538462,4558.461538461539,4475.8974358974365,4476.410256410257,4451.282051282052,4704.615384615386,4428.205128205129,4336.923076923077,4225.128205128206,4602.564102564103
1764.6884,0.6110832,0.32011124,0.33333334,0.5522388,0,0.0,0.0,0.0,0.0,0.09384787,0,0,0.0,0.0,0,0,21.0,0.0,0.0,4668.205128205129,3945.6410256410263,4395.384615384616,4436.923076923077,4249.74358974359,4552.820512820514,4467.6923076923085,4455.8974358974365,4440.512820512821,4700.512820512821,4417.435897435898,4325.641025641026,4197.948717948719,4551.282051282052
1764.9386,0.6110832,0.32011124,0.33333334,0.5522388,0,0.0,0.0,0.0,0.0,0.08830015,0,0,0.0,0.0,0,0,53.0,0.0,0.0,4693.846153846154,3963.589743589744,4427.179487179487,4451.282051282052,4251.282051282052,4557.948717948719,4471.794871794872,4455.384615384616,4446.666666666667,4735.8974358974365,4431.794871794872,4322.564102564103,4235.384615384616,4585.641025641026
1765.1888,0.58043104,0.30833104,0.33333334,0.5522388,0,0.0,0.0,0.0,0.0,0.10075002,0,0,0.0,0.0,0,0,85.0,0.0,107.0,4687.179487179488,3959.48717948718,4414.871794871796,4445.128205128206,4247.179487179487,4551.794871794872,4462.051282051282,4440.512820512821,4426.153846153847,4731.282051282052,4427.179487179487,4322.051282051282,4228.717948717949,4575.8974358974365
1765.4391,0.58043104,0.30833104,0.33333334,0.5522388,0,0.0,0.0,0.0,0.0,0.11201795,0,0,0.0,0.0,0,0,117.0,0.0,107.0,4690.256410256411,3944.615384615385,4418.974358974359,4441.025641025642,4248.717948717949,4554.358974358975,4491.794871794872,4479.48717948718,4434.358974358975,4742.051282051282,4425.641025641026,4322.051282051282,4228.205128205129,4575.384615384616
1765.6893,0.51260114,0.30079922,0.33333334,0.5522388,0,0.0,0.0,0.0,0.0,0.037608538,0,0,0.0,0.0,0,0,20.0,0.0,0.0,4703.076923076924,3943.076923076924,4427.6923076923085,4432.307692307693,4238.461538461539,4539.48717948718,4486.666666666667,4473.333333333334,4432.820512820514,4722.564102564103,4430.256410256411,4336.410256410257,4229.74358974359,4587.179487179488
1765.9395,0.51260114,0.30079922,0.33333334,0.5522388,0,0.0,0.0,0.0,0.0,0.13903598,0,0,0.0,0.0,0,0,52.0,0.0,0.0,4694.871794871796,3941.538461538462,4423.589743589744,4436.410256410257,4233.846153846154,4541.025641025642,4475.8974358974365,4457.948717948719,4420.512820512821,4721.025641025642,4426.153846153847,4337.435897435898,4215.384615384616,4580.512820512821
1766.1897,0.51312935,0.29503125,0.33333334,0.5522388,0,0.0,0.0,0.0,0.0,1.0,0,0,0.0,0.0,0,0,84.0,0.0,97.0,4704.102564102564,3954.358974358975,4430.256410256411,4441.025641025642,4236.923076923077,4541.025641025642,4482.051282051282,4461.538461538462,4425.128205128206,4730.769230769231,4427.6923076923085,4339.48717948718,4226.153846153847,4578.974358974359
1766.2836,0.51312935,0.29503125,0.33333334,0.5522388,0,0.0,0.0,0.0,0.0,1.0,0,0,0.0,0.0,0,1,96.0,0.0,97.0,4703.589743589744,3957.9487179487182,4428.205128205129,4437.435897435898,4246.666666666667,4538.461538461539,4482.051282051282,4470.769230769231,4432.820512820514,4739.48717948718,4426.666666666667,4341.025641025642,4222.051282051282,4583.589743589744
1766.6902,0.5351991,0.29634133,0.33333334,0.5522388,0,0.0,0.0,0.0,0.0,0.0755357,0,0,0.0,0.0,0,0,19.0,0.0,0.0,4700.512820512821,3955.3846153846157,4433.846153846154,4433.333333333334,4247.6923076923085,4541.538461538462,4490.769230769231,4460.512820512821,4420.512820512821,4732.820512820514,4423.076923076924,4342.051282051282,4217.435897435898,4573.333333333334
1766.9403,0.5351991,0.29634133,0.33333334,0.5522388,0,0.0,0.0,0.0,0.0,0.14823116,0,0,0.0,0.0,0,0,51.0,0.0,0.0,4727.179487179488,3972.307692307693,4457.435897435898,4442.051282051282,4258.461538461539,4553.333333333334,4504.615384615385,4467.6923076923085,4434.871794871796,4764.102564102564,4426.666666666667,4343.589743589744,4231.282051282052,4584.102564102564
1767.1906,0.5589253,0.27774128,0.33333334,0.5522388,0,0.0,0.0,0.0,0.0,0.25623024,0,0,0.0,0.0,0,0,83.0,0.0,535.0,4723.589743589744,3958.9743589743593,4458.461538461539,4444.615384615385,4261.538461538462,4563.589743589744,4504.102564102564,4472.307692307693,4429.2307692307695,4763.076923076924,4428.717948717949,4351.794871794872,4231.794871794872,4610.769230769231
1767.4408,0.5589253,0.27774128,0.33333334,0.5522388,0,0.0,0.0,0.0,0.0,0.09554285,0,0,0.0,0.0,0,0,115.0,0.0,535.0,4718.461538461539,3956.9230769230776,4460.000000000001,4443.076923076924,4262.564102564103,4569.2307692307695,4521.025641025642,4487.6923076923085,4441.538461538462,4768.205128205129,4433.333333333334,4352.307692307693,4237.435897435898,4602.051282051282
1767.691,0.50628877,0.25214204,0.33333334,0.5522388,0,0.0,0.0,0.0,0.0,0.0,0,0,0.0,0.0,0,0,18.0,0.0,0.0,4718.461538461539,3962.0512820512827,4458.461538461539,4446.666666666667,4265.128205128206,4568.205128205129,4521.025641025642,4490.256410256411,4455.8974358974365,4791.794871794872,4432.307692307693,4346.666666666667,4257.948717948719,4600.512820512821
1767.691,0.50628877,0.25214204,0.33333334,0.5522388,0,0.0,0.0,0.0,0.0,0.0,0,0,0.0,0.0,0,0,18.0,0.0,0.0,4718.461538461539,3962.0512820512827,4458.461538461539,4446.666666666667,4265.128205128206,4568.205128205129,4521.025641025642,4490.256410256411,4455.8974358974365,4791.794871794872,4432.307692307693,4346.666666666667,4257.948717948719,4600.512820512821
1768.1914,0.51619846,0.22313012,0.33333334,0.5522388,0,0.0,0.0,0.0,0.0,0.17234889,0,0,0.0,0.0,0,0,82.0,0.0,539.0,4675.8974358974365,3960.5128205128212,4425.641025641026,4443.589743589744,4264.102564102564,4565.128205128206,4490.769230769231,4457.948717948719,4420.000000000001,4724.102564102564,4410.769230769231,4340.000000000001,4219.48717948718,4524.615384615385
1768.4417,0.51619846,0.22313012,0.33333334,0.5522388,0,0.0,0.0,0.0,0.0,0.13566783,0,0,0.0,0.0,0,0,114.0,0.0,539.0,4700.512820512821,3954.358974358975,4444.615384615385,4442.564102564103,4265.641025641026,4564.102564102564,4485.641025641026,4480.512820512821,4443.076923076924,4753.846153846154,4418.974358974359,4333.846153846154,4238.974358974359,4535.8974358974365
1768.6919,0.45152795,0.20021154,0.33333334,0.5522388,0,0.0,0.0,0.0,0.0,1.0,0,0,0.0,0.0,0,0,17.0,0.0,0.0,4692.820512820514,3931.2820512820517,4432.307692307693,4437.435897435898,4264.615384615385,4567.179487179488,4488.205128205129,4476.410256410257,4423.589743589744,4748.717948717949,4408.205128205129,4333.333333333334,4218.974358974359,4209.74358974359
1768.6919,0.45152795,0.20021154,0.33333334,0.5522388,0,0.0,0.0,0.0,0.0,1.0,0,0,0.0,0.0,0,0,17.0,0.0,0.0,4692.820512820514,3931.2820512820517,4432.307692307693,4437.435897435898,4264.615384615385,4567.179487179488,4488.205128205129,4476.410256410257,4423.589743589744,4748.717948717949,4408.205128205129,4333.333333333334,4218.974358974359,4209.74358974359
1769.1923,0.44743934,0.18562707,0.33333334,0.5522388,0,0.0,0.0,0.0,0.0,0.63610643,0,0,0.0,0.0,0,0,81.0,0.0,107.0,4721.025641025642,3968.205128205129,4457.948717948719,4442.564102564103,4254.871794871796,4550.769230769231,4470.256410256411,4469.2307692307695,4429.2307692307695,4754.358974358975,4418.461538461539,4356.410256410257,4230.769230769231,4667.179487179488
1769.4425,0.44743934,0.18562707,0.33333334,0.5522388,0,0.0,0.0,0.0,0.0,0.29553235,0,0,0.0,0.0,0,0,113.0,0.0,107.0,4665.641025641026,4092.307692307693,4436.410256410257,4474.871794871796,4226.666666666667,4522.051282051282,4452.820512820514,4434.871794871796,4394.871794871796,4709.743589743591,4410.256410256411,4342.051282051282,4238.974358974359,4665.128205128206
1769.6927,0.4573734,0.17927526,0.33333334,0.5522388,0,0.0,0.0,0.0,0.0,0.07057886,0,0,0.0,0.0,0,0,16.0,0.0,0.0,4648.205128205129,4085.6410256410263,4408.205128205129,4478.461538461539,4235.8974358974365,4536.410256410257,4445.128205128206,4412.820512820514,4386.153846153847,4716.923076923077,4394.358974358975,4333.333333333334,4216.410256410257,4700.000000000001
1769.9429,0.4573734,0.17927526,0.33333334,0.5522388,0,0.0,0.0,0.0,0.0,0.36733434,0,0,0.0,0.0,0,0,48.0,0.0,0.0,4625.128205128206,4121.538461538462,4402.051282051282,4490.256410256411,4225.641025641026,4524.102564102564,4431.794871794872,4422.051282051282,4372.820512820514,4695.384615384616,4388.205128205129,4333.846153846154,4135.384615384616,4566.153846153847
1770.0994,0.5311446,0.17048259,0.33333334,0.5522388,0,0.0,0.0,0.0,0.0,1.0,0,0,0.0,0.0,0,0,68.0,0.0,578.0,4628.205128205129,4092.307692307693,4410.769230769231,4480.512820512821,4233.846153846154,4537.435897435898,4430.256410256411,4409.743589743591,4380.000000000001,4694.871794871796,4389.2307692307695,4334.871794871796,4152.307692307693,4515.384615384616
1770.4434,0.5311446,0.17048259,0.33333334,0.5522388,0,0.0,0.0,0.0,0.0,0.34816557,0,0,0.0,0.0,0,0,112.0,0.0,87.0,4636.410256410257,4047.692307692308,4425.128205128206,4473.846153846154,4233.846153846154,4538.461538461539,4432.307692307693,4408.717948717949,4385.128205128206,4697.435897435898,4384.102564102564,4349.2307692307695,4173.333333333334,4487.6923076923085
1770.6936,0.5932382,0.16608563,0.33333334,0.5522388,0,0.0,0.0,0.0,0.0,0.044229124,0,0,0.0,0.0,0,0,15.0,0.0,532.0,4629.2307692307695,4013.333333333334,4418.461538461539,4466.153846153847,4245.641025641026,4548.205128205129,4444.102564102564,4442.051282051282,4408.205128205129,4713.846153846154,4385.128205128206,4350.256410256411,4168.205128205129,4521.538461538462
1770.8187,0.5932382,0.16608563,0.33333334,0.5522388,0,0.0,0.0,0.0,0.0,1.0,0,0,0.0,0.0,0,0,31.0,0.0,0.0,4651.794871794872,4005.6410256410263,4441.025641025642,4469.2307692307695,4251.282051282052,4555.8974358974365,4446.153846153847,4433.846153846154,4414.871794871796,4734.358974358975,4390.256410256411,4352.307692307693,4182.564102564103,4507.179487179488
1771.194,0.55969054,0.17564395,0.33333334,0.5522388,0,0.0,0.0,0.0,0.0,1.0,0,0,0.0,0.0,0,0,79.0,0.0,534.0,4656.923076923077,3986.1538461538466,4443.076923076924,4463.589743589744,4262.051282051282,4566.153846153847,4454.358974358975,4427.6923076923085,4423.589743589744,4742.564102564103,4390.769230769231,4356.923076923077,4199.48717948718,4539.48717948718
1771.4442,0.55969054,0.17564395,0.33333334,0.5522388,0,0.0,0.0,0.0,0.0,0.083088346,0,0,0.0,0.0,0,0,111.0,0.0,534.0,4662.564102564103,3965.6410256410263,4453.333333333334,4458.461538461539,4261.538461538462,4557.435897435898,4462.051282051282,4440.000000000001,4425.128205128206,4750.256410256411,4392.820512820514,4357.948717948719,4201.538461538462,4554.358974358975
1771.6945,0.5167795,0.17412117,0.33333334,0.5522388,0,0.0,0.0,0.0,0.0,0.035787877,0,0,0.0,0.0,0,0,14.0,0.0,539.0,4664.102564102564,3944.1025641025644,4456.410256410257,4443.076923076924,4250.769230769231,4553.846153846154,4473.333333333334,4457.948717948719,4427.6923076923085,4750.256410256411,4401.025641025642,4355.384615384616,4222.051282051282,4574.358974358975
1771.9447,0.5167795,0.17412117,0.33333334,0.5522388,0,0.0,0.0,0.0,0.0,0.11014236,0,0,0.0,0.0,0,0,46.0,0.0,0.0,4675.384615384616,3958.461538461539,4460.000000000001,4451.282051282052,4264.615384615385,4567.179487179488,4477.948717948719,4475.384615384616,4438.974358974359,4759.48717948718,4400.000000000001,4354.358974358975,4233.846153846154,4590.769230769231
1772.1948,0.53311604,0.17946519,0.33333334,0.5522388,0,0.0,0.0,0.0,0.0,0.04035041,0,0,0.0,0.0,0,0,78.0,0.0,539.0,4671.282051282052,3946.666666666667,4461.025641025642,4444.102564102564,4251.282051282052,4558.461538461539,4462.051282051282,4458.974358974359,4415.8974358974365,4737.435897435898,4402.051282051282,4350.256410256411,4203.076923076924,4573.846153846154
1772.4451,0.53311604,0.17946519,0.33333334,0.5522388,0,0.0,0.0,0.0,0.0,0.05990129,0,0,0.0,0.0,0,0,110.0,0.0,539.0,4656.410256410257,3931.2820512820517,4443.076923076924,4433.333333333334,4263.076923076924,4551.794871794872,4464.615384615385,4454.871794871796,4414.871794871796,4721.538461538462,4395.8974358974365,4341.025641025642,4186.666666666667,4552.820512820514
1772.6953,0.50128996,0.17857875,0.33333334,0.5522388,0,0.0,0.0,0.0,0.0,0.027136756,0,0,0.0,0.0,0,0,13.0,0.0,107.0,4661.025641025642,3943.076923076924,4444.615384615385,4443.589743589744,4249.74358974359,4551.282051282052,4462.051282051282,4439.48717948718,4410.769230769231,4731.282051282052,4401.538461538462,4345.641025641026,4190.769230769231,4554.871794871796
1772.9456,0.50128996,0.17857875,0.33333334,0.5522388,0,0.0,0.0,0.0,0.0,0.053727616,0,0,0.0,0.0,0,0,45.0,0.0,0.0,4671.794871794872,3928.717948717949,4455.8974358974365,4432.820512820514,4249.2307692307695,4551.282051282052,4474.871794871796,4465.641025641026,4421.025641025642,4749.743589743591,4406.153846153847,4341.538461538462,4219.48717948718,4567.6923076923085
1773.1957,0.4545406,0.1792683,0.33333334,0.5522388,0,0.0,0.0,0.0,0.0,1.0,0,0,0.0,0.0,0,0,77.0,0.0,107.0,4696.410256410257,3952.820512820513,4477.435897435898,4451.794871794872,4279.48717948718,4563.076923076924,4477.948717948719,4448.205128205129,4417.435897435898,4750.769230769231,4409.2307692307695,4351.794871794872,4206.666666666667,4054.358974358975
1773.1957,0.4545406,0.1792683,0.33333334,0.5522388,0,0.0,0.0,0.0,0.0,1.0,0,0,0.0,0.0,0,0,77.0,0.0,107.0,4696.410256410257,3952.820512820513,4477.435897435898,4451.794871794872,4279.48717948718,4563.076923076924,4477.948717948719,4448.205128205129,4417.435897435898,4750.769230769231,4409.2307692307695,4351.794871794872,4206.666666666667,4054.358974358975
1773.6962,0.3907418,0.1883184,0.33333334,0.5522388,0,0.0,0.0,0.0,0.0,0.673249,0,0,0.0,0.0,0,0,12.0,0.0,83.0,4663.076923076924,3933.333333333334,4474.871794871796,4438.974358974359,4266.153846153847,4558.461538461539,4476.923076923077,4463.076923076924,4431.282051282052,4755.384615384616,4403.076923076924,4349.2307692307695,4218.974358974359,4586.153846153847
1773.9464,0.3907418,0.1883184,0.33333334,0.5522388,0,0.0,0.0,0.0,0.0,0.09024639,0,0,0.0,0.0,0,0,44.0,0.0,0.0,4669.743589743591,3922.564102564103,4449.743589743591,4429.743589743591,4256.410256410257,4552.820512820514,4467.6923076923085,4438.461538461539,4398.974358974359,4727.6923076923085,4393.846153846154,4348.717948717949,4187.179487179487,4551.794871794872
1774.1965,0.39623663,0.18563008,0.33333334,0.5522388,0,0.0,0.0,0.0,0.0,0.20149203,0,0,0.0,0.0,0,0,76.0,0.0,82.0,4669.2307692307695,3944.615384615385,4446.666666666667,4442.564102564103,4248.717948717949,4551.794871794872,4459.48717948718,4426.666666666667,4402.051282051282,4718.974358974359,4397.948717948719,4352.820512820514,4206.666666666667,4550.769230769231
1774.4468,0.39623663,0.18563008,0.33333334,0.5522388,0,0.0,0.0,0.0,0.0,0.0,0,0,0.0,0.0,0,0,108.0,0.0,82.0,4683.076923076924,3933.8461538461543,4463.589743589744,4437.435897435898,4251.282051282052,4554.358974358975,4461.025641025642,4282.564102564103,4401.025641025642,4734.871794871796,4397.948717948719,4361.025641025642,4208.717948717949,4569.2307692307695
1774.697,0.35480472,0.18212225,0.33333334,0.5522388,0,0.0,0.0035725287,0.0,0.0,0.0,0,0,0.0,0.0,0,0,11.0,0.0,535.0,4670.256410256411,3957.435897435898,4453.846153846154,4444.102564102564,4243.589743589744,4542.564102564103,4442.051282051282,4261.025641025642,4381.025641025642,4710.256410256411,4393.333333333334,4357.435897435898,4195.384615384616,4542.564102564103
1774.9473,0.35480472,0.18212225,0.33333334,0.5522388,0,0.0,0.0,0.0,0.0,0.0496034,0,0,0.0,0.0,0,0,43.0,0.0,0.0,4645.641025641026,3928.717948717949,4437.948717948719,4434.871794871796,4251.282051282052,4557.435897435898,4459.48717948718,4293.333333333334,4386.153846153847,4701.025641025642,4387.6923076923085,4351.282051282052,4169.74358974359,4522.564102564103
1775.1974,0.3576621,0.16564447,0.33333334,0.5522388,0,0.0,0.0,0.0,0.0,0.045951158,0,0,0.0,0.0,0,0,75.0,0.0,535.0,4647.6923076923085,3945.1282051282055,4424.615384615385,4430.256410256411,4231.794871794872,4538.974358974359,4447.179487179487,4285.641025641026,4361.538461538462,4679.48717948718,4380.512820512821,4345.128205128206,4167.6923076923085,4492.307692307693
1775.4476,0.3576621,0.16564447,0.33333334,0.5522388,0,0.0,0.0,0.0,0.0,0.26775217,0,0,0.0,0.0,0,0,107.0,0.0,535.0,4667.179487179488,3930.7692307692314,4429.743589743591,4426.666666666667,4234.358974358975,4541.538461538462,4457.948717948719,4327.179487179487,4383.076923076924,4685.128205128206,4386.666666666667,4352.307692307693,4185.128205128206,4550.256410256411
1775.6979,0.349776,0.15766217,0.33333334,0.5522388,0,0.0,0.0,0.0,0.0,1.0,0,0,0.0,0.0,0,0,10.0,0.0,539.0,4652.307692307693,3937.435897435898,4434.871794871796,4437.435897435898,4264.102564102564,4566.153846153847,4475.384615384616,4398.461538461539,4406.153846153847,4682.051282051282,4387.179487179487,4346.666666666667,4180.512820512821,3988.717948717949
1775.9481,0.349776,0.15766217,0.33333334,0.5522388,0,0.0,0.0,0.0,0.0,1.0,0,0,0.0,0.0,0,0,42.0,0.0,0.0,4677.948717948719,3966.1538461538466,4445.128205128206,4446.153846153847,4263.076923076924,4554.871794871796,4468.717948717949,4388.717948717949,4386.666666666667,4676.410256410257,4382.564102564103,4344.102564102564,4222.564102564103,4542.564102564103
1776.1045,0.35860562,0.16533104,0.33333334,0.5522388,0,0.0,0.0,0.0,0.0,1.0,0,0,0.0,0.0,0,0,62.0,0.0,0.0,4677.435897435898,3939.48717948718,4425.641025641026,4441.538461538462,4265.128205128206,4558.974358974359,4454.358974358975,4390.256410256411,4377.948717948719,4684.102564102564,4376.410256410257,4339.48717948718,4204.102564102564,4490.769230769231
1776.4485,0.35860562,0.16533104,0.33333334,0.5522388,0,0.0,0.0,0.0,0.0,0.06979457,0,0,0.0,0.0,0,0,106.0,0.0,539.0,4688.717948717949,3944.615384615385,4438.974358974359,4446.666666666667,4280.000000000001,4570.769230769231,4488.205128205129,4445.641025641026,4410.256410256411,4698.974358974359,4376.410256410257,4349.2307692307695,4198.461538461539,4585.128205128206
1776.6987,0.37759182,0.17991234,0.33333334,0.5522388,0,0.0,0.0,0.0,0.0,0.09035566,0,0,0.0,0.0,0,0,9.0,0.0,480.0,4675.8974358974365,3922.0512820512827,4433.333333333334,4438.974358974359,4262.051282051282,4557.948717948719,4470.769230769231,4435.8974358974365,4395.384615384616,4690.769230769231,4376.923076923077,4350.769230769231,4177.435897435898,4518.974358974359
1776.949,0.37759182,0.17991234,0.33333334,0.5522388,0,0.0,0.0,0.0,0.0,0.7268272,0,0,0.0,0.0,0,0,41.0,0.0,0.0,4637.948717948719,3892.820512820513,4400.512820512821,4429.2307692307695,4263.589743589744,4556.923076923077,4460.000000000001,4416.923076923077,4391.794871794872,4670.769230769231,4377.435897435898,4350.256410256411,4178.461538461539,4614.358974358975
1777.1053,0.40663737,0.20294641,0.33333334,0.5522388,0,0.0,0.0,0.0,0.0,1.0,0,0,0.0,0.0,0,0,61.0,0.0,0.0,4642.564102564103,3909.2307692307695,4419.48717948718,4430.256410256411,4277.435897435898,4571.794871794872,4477.948717948719,4424.615384615385,4394.358974358975,4691.794871794872,4384.102564102564,4356.923076923077,4192.820512820514,4664.615384615386
1777.4493,0.40663737,0.20294641,0.33333334,0.5522388,0,0.0,0.0,0.0,0.0,0.6709532,0,0,0.0,0.0,0,0,105.0,0.0,107.0,4673.333333333334,3935.3846153846157,4446.666666666667,4447.179487179487,4281.025641025642,4573.333333333334,4491.282051282052,4450.256410256411,4429.743589743591,4735.384615384616,4390.769230769231,4350.256410256411,4245.128205128206,4553.333333333334
1777.6057,0.4644713,0.20411482,0.33333334,0.5522388,0,0.0,0.0,0.0,0.0,1.0,0,0,0.0,0.0,0,0,125.0,0.0,107.0,4695.8974358974365,3970.7692307692314,4455.384615384616,4458.461538461539,4263.076923076924,4565.128205128206,4491.794871794872,4443.589743589744,4436.410256410257,4742.051282051282,4386.666666666667,4342.051282051282,4249.74358974359,4472.307692307693
1777.6057,0.4644713,0.20411482,0.33333334,0.5522388,0,0.0,0.0,0.0,0.0,1.0,0,0,0.0,0.0,0,0,125.0,0.0,107.0,4695.8974358974365,3970.7692307692314,4455.384615384616,4458.461538461539,4263.076923076924,4565.128205128206,4491.794871794872,4443.589743589744,4436.410256410257,4742.051282051282,4386.666666666667,4342.051282051282,4249.74358974359,4472.307692307693
1778.2001,0.4881497,0.19827852,0.33333334,0.5522388,0,0.0,0.0,0.0,0.0,1.0,0,0,0.0,0.0,0,0,72.0,0.0,478.0,4703.076923076924,3956.9230769230776,4438.974358974359,4451.794871794872,4260.512820512821,4559.48717948718,4476.410256410257,4421.538461538462,4427.6923076923085,4755.384615384616,4379.48717948718,4354.358974358975,4224.102564102564,4470.769230769231
1778.2001,0.4881497,0.19827852,0.33333334,0.5522388,0,0.0,0.0,0.0,0.0,1.0,0,0,0.0,0.0,0,0,72.0,0.0,478.0,4703.076923076924,3956.9230769230776,4438.974358974359,4451.794871794872,4260.512820512821,4559.48717948718,4476.410256410257,4421.538461538462,4427.6923076923085,4755.384615384616,4379.48717948718,4354.358974358975,4224.102564102564,4470.769230769231
1778.7004,0.4622376,0.18872623,0.33333334,0.5522388,0,0.0,0.0,0.0,0.0,0.22935878,0,0,0.0,0.0,0,0,7.0,0.0,497.0,4697.948717948719,3948.205128205129,4461.538461538462,4448.717948717949,4267.179487179487,4569.2307692307695,4506.153846153847,4449.743589743591,4454.358974358975,4781.538461538462,4392.820512820514,4351.794871794872,4247.179487179487,4533.333333333334
1778.9507,0.4622376,0.18872623,0.33333334,0.5522388,0,0.0,0.0,0.0,0.0,0.049809914,0,0,0.0,0.0,0,0,39.0,0.0,0.0,4701.025641025642,3949.7435897435903,4489.743589743591,4448.205128205129,4262.051282051282,4565.641025641026,4507.6923076923085,4471.282051282052,4468.205128205129,4797.435897435898,4394.358974358975,4362.564102564103,4250.256410256411,4552.820512820514
1779.2009,0.4772774,0.18342039,0.33333334,0.5522388,0,0.0,0.0,0.0,0.0,0.1174351,0,0,0.0,0.0,0,0,71.0,0.0,497.0,4685.641025641026,3943.076923076924,4474.871794871796,4444.102564102564,4260.000000000001,4567.179487179488,4526.153846153847,4492.820512820514,4484.102564102564,4877.948717948719,4400.000000000001,4344.102564102564,4262.564102564103,4544.615384615385
1779.326,0.4772774,0.18342039,0.33333334,0.5522388,0,0.0,0.0,0.0,0.0,0.0,0,0,0.0,0.0,0,0,87.0,0.0,537.0,4698.974358974359,3945.6410256410263,4487.6923076923085,4446.666666666667,4259.48717948718,4565.128205128206,4518.974358974359,4480.000000000001,4472.820512820514,4857.948717948719,4394.871794871796,4353.846153846154,4256.923076923077,4556.410256410257
1779.6075,0.4856241,0.20170344,0.33333334,0.5522388,0,0.0,0.0,0.0,0.0,0.0,0,0,0.0,0.0,0,0,123.0,0.0,537.0,4685.641025641026,3947.1794871794878,4489.2307692307695,4443.589743589744,4251.794871794872,4557.435897435898,4498.974358974359,4456.923076923077,4461.538461538462,4850.769230769231,4399.48717948718,4352.820512820514,4250.256410256411,4565.641025641026
1779.9515,0.4856241,0.20170344,0.33333334,0.5522388,0,0.0,0.0,0.0,0.0,0.16950522,0,0,0.0,0.0,0,0,38.0,0.0,0.0,4682.051282051282,3963.589743589744,4490.769230769231,4444.102564102564,4248.205128205129,4555.8974358974365,4508.205128205129,4459.48717948718,4458.461538461539,4816.410256410257,4393.333333333334,4348.717948717949,4243.589743589744,4584.615384615385
1780.2018,0.5241941,0.20886862,0.33333334,0.5522388,0,0.0,0.0,0.0,0.0,0.027963398,0,0,0.0,0.0,0,0,70.0,0.0,544.0,4690.769230769231,3954.8717948717954,4505.641025641026,4443.076923076924,4247.179487179487,4553.846153846154,4511.794871794872,4480.000000000001,4458.974358974359,4812.307692307693,4396.410256410257,4350.769230769231,4245.128205128206,4567.6923076923085
1780.4519,0.5241941,0.20886862,0.33333334,0.5522388,0,0.0,0.0,0.0,0.0,0.051920682,0,0,0.0,0.0,0,0,102.0,0.0,539.0,4681.538461538462,3944.1025641025644,4510.256410256411,4441.538461538462,4236.923076923077,4541.538461538462,4493.333333333334,4442.051282051282,4439.48717948718,4782.564102564103,4393.846153846154,4354.358974358975,4227.179487179487,4561.025641025642
1780.7021,0.5981627,0.2072786,0.33333334,0.5522388,0,0.0,0.0,0.0,0.0,0.06395272,0,0,0.0,0.0,0,0,5.0,0.0,573.0,4680.512820512821,3958.461538461539,4524.102564102564,4446.666666666667,4246.666666666667,4545.128205128206,4498.461538461539,4446.153846153847,4445.641025641026,4801.538461538462,4401.538461538462,4351.794871794872,4245.641025641026,4560.000000000001
1780.9524,0.5981627,0.2072786,0.33333334,0.5522388,0,0.0,0.0,0.0,0.0,1.0,0,0,0.0,0.0,0,0,37.0,0.0,0.0,4680.000000000001,3961.538461538462,4517.435897435898,4448.205128205129,4259.48717948718,4558.461538461539,4491.282051282052,4444.615384615385,4441.538461538462,4781.025641025642,4400.000000000001,4341.025641025642,4234.358974358975,4570.769230769231
1781.2026,0.5610773,0.21158503,0.33333334,0.5522388,0,0.0,0.0,0.0,0.0,1.0,0,0,0.0,0.0,0,0,69.0,0.0,573.0,4666.666666666667,3954.8717948717954,4521.025641025642,4444.102564102564,4250.256410256411,4548.205128205129,4486.666666666667,4427.6923076923085,4417.948717948719,4752.820512820514,4395.8974358974365,4336.410256410257,4209.2307692307695,4573.846153846154
1781.4528,0.5610773,0.21158503,0.33333334,0.5522388,0,0.0,0.0,0.0,0.0,0.025100077,0,0,0.0,0.0,0,0,101.0,0.0,107.0,4660.000000000001,3952.820512820513,4506.666666666667,4438.461538461539,4249.74358974359,4552.307692307693,4478.461538461539,4436.410256410257,4420.000000000001,4749.743589743591,4403.076923076924,4332.307692307693,4201.025641025642,4566.153846153847
1781.703,0.5115792,0.18123841,0.33333334,0.5522388,0,0.0,0.0,0.0,0.0,0.0439634,0,0,0.0,0.0,0,0,4.0,0.0,578.0,4643.076923076924,3963.589743589744,4489.743589743591,4444.102564102564,4254.871794871796,4553.846153846154,4474.358974358975,4426.666666666667,4390.256410256411,4708.205128205129,4385.641025641026,4328.717948717949,4156.923076923077,4524.102564102564
1781.9532,0.5115792,0.18123841,0.33333334,0.5522388,0,0.0,0.0,0.0,0.0,0.039132718,0,0,0.0,0.0,0,0,36.0,0.0,0.0,4675.384615384616,3963.076923076924,4522.051282051282,4449.743589743591,4263.589743589744,4557.435897435898,4505.641025641026,4471.282051282052,4431.282051282052,4759.48717948718,4404.102564102564,4344.102564102564,4207.6923076923085,4582.564102564103
1782.2035,0.54462004,0.16335522,0.33333334,0.5522388,0,0.0,0.0,0.0,0.0,0.0,0,0,0.0,0.0,0,0,68.0,0.0,578.0,4666.666666666667,3961.538461538462,4520.000000000001,4443.076923076924,4250.256410256411,4552.307692307693,4491.282051282052,4448.205128205129,4428.205128205129,4764.615384615386,4398.461538461539,4349.2307692307695,4218.974358974359,4574.871794871796
1782.2035,0.54462004,0.16335522,0.33333334,0.5522388,0,0.0,0.0,0.0,0.0,0.0,0,0,0.0,0.0,0,0,68.0,0.0,578.0,4666.666666666667,3961.538461538462,4520.000000000001,4443.076923076924,4250.256410256411,4552.307692307693,4491.282051282052,4448.205128205129,4428.205128205129,4764.615384615386,4398.461538461539,4349.2307692307695,4218.974358974359,4574.871794871796
1782.6101,0.55546427,0.15394498,0.33333334,0.5522388,0,0.0,0.0,0.0,0.0,0.0,0,0,0.0,0.0,0,0,120.0,0.0,70.0,4654.358974358975,3957.435897435898,4504.615384615385,4438.461538461539,4247.6923076923085,4538.974358974359,4473.333333333334,4425.128205128206,4416.923076923077,4763.589743589744,4394.871794871796,4342.564102564103,4206.153846153847,4553.333333333334
1782.9541,0.55546427,0.15394498,0.33333334,0.5522388,0,0.0,0.0,0.0,0.0,0.21197191,0,0,0.0,0.0,0,0,35.0,0.0,0.0,4666.666666666667,3945.6410256410263,4520.000000000001,4443.076923076924,4257.435897435898,4555.384615384616,4509.743589743591,4477.948717948719,4448.717948717949,4777.948717948719,4404.102564102564,4363.589743589744,4246.153846153847,4595.384615384616
1783.1105,0.50479436,0.15601878,0.33333334,0.5522388,0,0.0,0.0,0.0,0.0,1.0,0,0,0.0,0.0,0,0,55.0,0.0,0.0,4672.307692307693,3962.0512820512827,4526.666666666667,4449.2307692307695,4264.102564102564,4558.461538461539,4497.435897435898,4473.846153846154,4461.538461538462,4791.794871794872,4405.128205128206,4368.717948717949,4252.820512820514,4601.025641025642
1783.4546,0.50479436,0.15601878,0.33333334,0.5522388,0,0.0,0.0,0.0,0.0,1.0,0,0,0.0,0.0,0,0,99.0,0.0,537.0,4643.589743589744,3943.076923076924,4492.820512820514,4465.128205128206,4249.74358974359,4551.282051282052,4486.666666666667,4429.743589743591,4424.615384615385,4740.000000000001,4400.000000000001,4358.461538461539,4212.820512820514,4565.128205128206
1783.7047,0.475447,0.17448524,0.33333334,0.5522388,0,0.0,0.0,0.0,0.0,0.030233234,0,0,0.0,0.0,0,0,2.0,0.0,438.0,4650.769230769231,3959.48717948718,4504.102564102564,4451.282051282052,4248.717948717949,4547.6923076923085,4486.153846153847,4460.000000000001,4444.102564102564,4763.589743589744,4396.410256410257,4361.025641025642,4240.512820512821,4589.2307692307695
1783.955,0.475447,0.17448524,0.33333334,0.5522388,0,0.0,0.0,0.0,0.0,0.060355365,0,0,0.0,0.0,0,0,34.0,0.0,0.0,4650.769230769231,3957.435897435898,4506.666666666667,4444.102564102564,4249.2307692307695,4541.025641025642,4482.564102564103,4447.6923076923085,4435.8974358974365,4754.871794871796,4394.871794871796,4350.769230769231,4228.205128205129,4572.307692307693
1784.2052,0.43868265,0.17242977,0.33333334,0.5522388,0,0.0,0.0,0.0,0.0,0.14613272,0,0,0.0,0.0,0,0,66.0,0.0,438.0,4643.076923076924,3958.461538461539,4492.820512820514,4443.589743589744,4253.333333333334,4552.820512820514,4485.641025641026,4460.000000000001,4440.000000000001,4768.205128205129,4391.794871794872,4350.256410256411,4223.589743589744,4565.641025641026
1784.4554,0.43868265,0.17242977,0.33333334,0.5522388,0,0.0,0.0,0.0,0.0,0.059444785,0,0,0.0,0.0,0,0,98.0,0.0,539.0,4640.512820512821,3957.435897435898,4487.179487179488,4439.48717948718,4250.256410256411,4553.333333333334,4486.666666666667,4464.615384615385,4438.461538461539,4762.564102564103,4393.846153846154,4349.2307692307695,4227.179487179487,4566.153846153847
1784.6118,0.39749828,0.17528644,0.33333334,0.5522388,0,0.0,0.0,0.0,0.0,0.0,0,0,0.0,0.0,0,0,118.0,0.0,539.0,4660.512820512821,3955.3846153846157,4503.589743589744,4443.589743589744,4261.538461538462,4556.923076923077,4504.102564102564,4477.948717948719,4441.025641025642,4750.769230769231,4393.333333333334,4345.641025641026,4229.74358974359,4569.743589743591
1784.9558,0.39749828,0.17528644,0.33333334,0.5522388,0,0.0,0.0,0.0,0.0,0.05370664,0,0,0.0,0.0,0,0,33.0,0.0,0.0,4658.461538461539,3944.615384615385,4494.358974358975,4434.871794871796,4257.948717948719,4553.333333333334,4492.307692307693,4477.948717948719,4446.153846153847,4772.307692307693,4405.128205128206,4349.743589743591,4233.333333333334,4570.769230769231
1785.206,0.3539991,0.166922,0.33333334,0.5522388,0,0.0,0.0,0.0,0.0,0.021508688,0,0,0.0,0.0,0,0,65.0,0.0,452.0,4654.358974358975,3948.205128205129,4492.820512820514,4435.384615384616,4256.923076923077,4553.333333333334,4474.358974358975,4472.820512820514,4437.948717948719,4763.076923076924,4397.948717948719,4341.025641025642,4223.076923076924,4569.2307692307695
1785.4563,0.3539991,0.166922,0.33333334,0.5522388,0,0.0,0.0,0.0,0.0,0.029794244,0,0,0.0,0.0,0,0,97.0,0.0,107.0,4639.48717948718,3944.615384615385,4479.48717948718,4436.410256410257,4260.000000000001,4554.358974358975,4475.384615384616,4455.8974358974365,4423.076923076924,4751.794871794872,4398.974358974359,4341.025641025642,4212.307692307693,4550.256410256411
1785.6127,0.33078197,0.15477413,0.33333334,0.5522388,0,0.0,0.0,0.0,0.0,1.0,0,0,0.0,0.0,0,0,117.0,0.0,107.0,4645.128205128206,3941.0256410256416,4477.948717948719,4430.769230769231,4251.282051282052,4551.794871794872,4456.410256410257,4417.435897435898,4392.820512820514,4731.794871794872,4395.8974358974365,4331.282051282052,4192.820512820514,3992.820512820513
1785.9254,0.33078197,0.15477413,0.33333334,0.5522388,0,0.0,0.0,0.0,0.0,1.0,0,0,0.0,0.0,0,0,28.0,0.0,0.0,4657.948717948719,3947.692307692308,4489.743589743591,4434.871794871796,4256.923076923077,4550.769230769231,4477.948717948719,4458.461538461539,4430.256410256411,4747.6923076923085,4393.333333333334,4335.8974358974365,4224.102564102564,4585.128205128206
1786.2069,0.39005977,0.15082657,0.33333334,0.5522388,0,0.0,0.0,0.0,0.0,0.16244406,0,0,0.0,0.0,0,0,64.0,0.0,541.0,4671.282051282052,3952.820512820513,4491.282051282052,4440.000000000001,4262.564102564103,4553.846153846154,4473.333333333334,4429.2307692307695,4418.461538461539,4742.564102564103,4394.358974358975,4334.358974358975,4211.282051282052,4585.641025641026
1786.4572,0.39005977,0.15082657,0.33333334,0.5522388,0,0.0,0.0,0.0,0.0,0.20496674,0,0,0.0,0.0,0,0,96.0,0.0,66.0,4681.025641025642,3954.8717948717954,4506.666666666667,4443.589743589744,4261.538461538462,4554.871794871796,4477.948717948719,4456.410256410257,4425.641025641026,4749.2307692307695,4403.076923076924,4329.743589743591,4218.974358974359,4586.666666666667
1786.7073,0.3911833,0.16618156,0.33333334,0.5522388,0,0.0,0.0,0.0,0.0,0.02468466,0,0,0.0,0.0,0,0,128.0,0.0,66.0,4653.846153846154,3941.538461538462,4470.769230769231,4426.153846153847,4240.000000000001,4540.000000000001,4461.538461538462,4411.794871794872,4392.820512820514,4720.000000000001,4388.717948717949,4318.974358974359,4183.589743589744,4554.358974358975
1786.9575,0.3911833,0.16618156,0.33333334,0.5522388,0,0.0,0.0,0.0,0.0,0.08050863,0,0,0.0,0.0,0,0,31.0,0.0,0.0,4696.923076923077,3962.0512820512827,4492.820512820514,4442.564102564103,4246.666666666667,4541.538461538462,4456.410256410257,4429.743589743591,4415.384615384616,4750.769230769231,4396.923076923077,4334.871794871796,4236.410256410257,4618.461538461539
1787.2078,0.40679556,0.17061348,0.33333334,0.5522388,0,0.0,0.0,0.0,0.0,0.17082988,0,0,0.0,0.0,0,0,63.0,0.0,0.0,4669.2307692307695,3957.435897435898,4488.205128205129,4438.974358974359,4248.205128205129,4550.256410256411,4473.333333333334,4453.846153846154,4430.256410256411,4750.769230769231,4404.615384615385,4334.358974358975,4227.6923076923085,4603.589743589744
1787.458,0.40679556,0.17061348,0.33333334,0.5522388,0,0.0,0.0,0.0,0.0,0.20394681,0,0,0.0,0.0,0,0,95.0,0.0,535.0,4687.179487179488,3955.3846153846157,4491.282051282052,4442.564102564103,4256.923076923077,4553.333333333334,4476.923076923077,4447.179487179487,4429.2307692307695,4746.153846153847,4404.615384615385,4335.8974358974365,4227.179487179487,4585.641025641026
1787.7083,0.3457882,0.1733786,0.33333334,0.5522388,0,0.0,0.0,0.0,0.0,0.25793916,0,0,0.0,0.0,0,0,127.0,0.0,535.0,4683.589743589744,3956.9230769230776,4492.820512820514,4443.076923076924,4247.179487179487,4546.666666666667,4477.435897435898,4458.974358974359,4436.410256410257,4753.333333333334,4397.948717948719,4333.333333333334,4221.538461538462,4551.282051282052
1787.9584,0.3457882,0.1733786,0.33333334,0.5522388,0,0.0,0.0,0.0,0.0,0.10199916,0,0,0.0,0.0,0,0,30.0,0.0,0.0,4688.717948717949,3959.48717948718,4490.256410256411,4443.589743589744,4247.179487179487,4545.128205128206,4464.102564102564,4443.589743589744,4429.2307692307695,4782.051282051282,4395.8974358974365,4348.717948717949,4215.384615384616,4540.512820512821
1788.2086,0.328832,0.16265273,0.33333334,0.5522388,0,0.0,0.0,0.0,0.0,0.0,0,0,0.0,0.0,0,0,62.0,0.0,0.0,4696.923076923077,3962.0512820512827,4508.205128205129,4446.153846153847,4243.589743589744,4542.051282051282,4464.102564102564,4432.307692307693,4428.717948717949,4785.128205128206,4407.179487179487,4366.666666666667,4225.128205128206,4534.871794871796
1788.2086,0.328832,0.16265273,0.33333334,0.5522388,0,0.0,0.0,0.0,0.0,0.0,0,0,0.0,0.0,0,0,62.0,0.0,0.0,4696.923076923077,3962.0512820512827,4508.205128205129,4446.153846153847,4243.589743589744,4542.051282051282,4464.102564102564,4432.307692307693,4428.717948717949,4785.128205128206,4407.179487179487,4366.666666666667,4225.128205128206,4534.871794871796
1788.7091,0.38290092,0.15027691,0.33333334,0.5522388,0,0.0,0.0,0.0,0.0,1.0,0,0,0.0,0.0,0,0,126.0,0.0,539.0,4661.538461538462,3942.564102564103,4487.179487179488,4437.435897435898,4237.948717948719,4547.6923076923085,4463.589743589744,4429.2307692307695,4422.564102564103,4777.948717948719,4396.410256410257,4367.179487179487,4207.6923076923085,4573.333333333334
1788.9592,0.38290092,0.15027691,0.33333334,0.5522388,0,0.0,0.0,0.0,0.0,0.09363702,0,0,0.0,0.0,0,0,29.0,0.0,0.0,4653.846153846154,3958.461538461539,4493.333333333334,4444.615384615385,4247.6923076923085,4551.794871794872,4469.743589743591,4426.153846153847,4423.589743589744,4783.589743589744,4399.48717948718,4378.974358974359,4184.615384615385,4570.769230769231
1789.2095,0.34991896,0.14182267,0.33333334,0.5522388,0,0.0,0.0,0.0,0.0,0.023289403,0,0,0.0,0.0,0,0,61.0,0.0,0.0,4654.871794871796,3955.3846153846157,4500.512820512821,4444.102564102564,4251.282051282052,4554.358974358975,4492.307692307693,4464.615384615385,4428.205128205129,4767.179487179488,4395.384615384616,4366.666666666667,4177.948717948719,4571.282051282052
1789.4597,0.34991896,0.14182267,0.33333334,0.5522388,0,0.0,0.0,0.0,0.0,0.0,0,0,0.0,0.0,0,0,93.0,0.0,107.0,4647.179487179488,3958.461538461539,4490.256410256411,4446.666666666667,4254.358974358975,4555.8974358974365,4482.564102564103,4445.128205128206,4420.512820512821,4751.282051282052,4394.871794871796,4362.051282051282,4187.6923076923085,4565.641025641026
1789.6161,0.30411592,0.12953407,0.33333334,0.5522388,0,0.0,0.0,0.0,0.0,0.0,0,0,0.0,0.0,0,0,113.0,0.0,107.0,4651.282051282052,3956.410256410257,4494.871794871796,4445.128205128206,4248.717948717949,4551.794871794872,4474.871794871796,4410.769230769231,4401.538461538462,4721.538461538462,4392.820512820514,4364.102564102564,4168.205128205129,4572.307692307693
1789.9601,0.30411592,0.12953407,0.33333334,0.5522388,0,0.0,0.0,0.0,0.0,0.06331132,0,0,0.0,0.0,0,0,28.0,0.0,0.0,4636.923076923077,3946.1538461538466,4489.743589743591,4435.384615384616,4246.153846153847,4545.128205128206,4474.871794871796,4424.102564102564,4387.6923076923085,4710.769230769231,4389.2307692307695,4353.333333333334,4155.384615384616,4539.48717948718
1790.2103,0.32793602,0.11356979,0.33333334,0.5522388,0,0.0,0.0,0.0,0.0,0.076917,0,0,0.0,0.0,0,0,60.0,0.0,0.0,4652.820512820514,3940.0000000000005,4489.2307692307695,4436.410256410257,4251.794871794872,4541.025641025642,4462.564102564103,4424.102564102564,4398.974358974359,4732.307692307693,4389.743589743591,4354.358974358975,4175.384615384616,4551.282051282052
1790.3354,0.32793602,0.11356979,0.33333334,0.5522388,0,0.0,0.0,0.0,0.0,0.0,0,0,0.0,0.0,0,0,76.0,0.0,59.0,4653.846153846154,3943.589743589744,4490.769230769231,4436.923076923077,4260.512820512821,4540.000000000001,4475.384615384616,4443.589743589744,4408.717948717949,4748.717948717949,4389.743589743591,4358.461538461539,4176.923076923077,4550.769230769231
1790.617,0.31346694,0.11357,0.33333334,0.5522388,0,0.0,0.0,0.0,0.0,0.0,0,0,0.0,0.0,0,0,112.0,0.0,59.0,4658.461538461539,3960.0000000000005,4507.6923076923085,4443.076923076924,4253.846153846154,4539.48717948718,4471.282051282052,4425.128205128206,4394.358974358975,4742.051282051282,4390.769230769231,4349.743589743591,4190.769230769231,4568.717948717949
1790.9609,0.31346694,0.11357,0.33333334,0.5522388,0,0.0,0.0,0.0,0.0,0.09639713,0,0,0.0,0.0,0,0,27.0,0.0,0.0,4638.974358974359,3939.48717948718,4489.2307692307695,4432.820512820514,4253.846153846154,4545.128205128206,4475.384615384616,4464.615384615385,4417.948717948719,4737.435897435898,4386.666666666667,4353.333333333334,4179.48717948718,4542.051282051282
1791.2112,0.3097795,0.117010966,0.33333334,0.5522388,0,0.0,0.0,0.0,0.0,0.0,0,0,0.0,0.0,0,0,59.0,0.0,0.0,4633.333333333334,3953.333333333334,4489.743589743591,4440.000000000001,4258.461538461539,4552.820512820514,4466.153846153847,4428.717948717949,4398.974358974359,4732.820512820514,4388.205128205129,4341.538461538462,4175.384615384616,4507.179487179488
1791.3363,0.3097795,0.117010966,0.33333334,0.5522388,0,0.0,0.0,0.0,0.0,1.0,0,0,0.0,0.0,0,0,75.0,0.0,538.0,4649.2307692307695,3957.435897435898,4507.6923076923085,4434.358974358975,4262.051282051282,4555.384615384616,4474.358974358975,4457.435897435898,4409.2307692307695,4733.846153846154,4389.743589743591,4349.2307692307695,4188.717948717949,4396.923076923077
1791.7117,0.2858163,0.13122563,0.33333334,0.5522388,0,0.0,0.0,0.0,0.0,1.0,0,0,0.0,0.0,0,0,123.0,0.0,538.0,4645.128205128206,3942.564102564103,4490.769230769231,4427.179487179487,4245.641025641026,4540.000000000001,4458.461538461539,4427.6923076923085,4403.076923076924,4731.282051282052,4389.743589743591,4352.307692307693,4188.717948717949,4561.538461538462
1791.9618,0.2858163,0.13122563,0.33333334,0.5522388,0,0.0,0.0,0.0,0.0,0.03661902,0,0,0.0,0.0,0,0,26.0,0.0,0.0,4650.256410256411,3955.8974358974365,4504.102564102564,4431.282051282052,4247.6923076923085,4540.512820512821,4458.974358974359,4414.871794871796,4403.076923076924,4732.307692307693,4391.282051282052,4360.000000000001,4194.871794871796,4575.384615384616
1792.212,0.24604075,0.14309748,0.33333334,0.5522388,0,0.0,0.0,0.0,0.0,0.053787716,0,0,0.0,0.0,0,0,58.0,0.0,0.0,4641.025641025642,3938.461538461539,4494.871794871796,4429.2307692307695,4242.564102564103,4540.000000000001,4461.025641025642,4430.769230769231,4404.102564102564,4735.384615384616,4391.282051282052,4359.48717948718,4209.74358974359,4577.948717948719
1792.4623,0.24604075,0.14309748,0.33333334,0.5522388,0,0.0,0.0,0.0,0.0,0.063820906,0,0,0.0,0.0,0,0,90.0,0.0,540.0,4636.410256410257,3944.1025641025644,4491.282051282052,4431.794871794872,4244.102564102564,4538.974358974359,4469.743589743591,4429.2307692307695,4407.6923076923085,4720.512820512821,4390.256410256411,4364.102564102564,4194.871794871796,4558.974358974359
1792.7125,0.17200492,0.1393313,0.33333334,0.5522388,0,0.0,0.0,0.0,0.0,0.06904154,0,0,0.0,0.0,0,0,122.0,0.0,540.0,4640.000000000001,3944.615384615385,4503.076923076924,4442.564102564103,4250.256410256411,4551.794871794872,4476.923076923077,4436.410256410257,4415.8974358974365,4737.948717948719,4389.743589743591,4362.051282051282,4196.923076923077,4554.358974358975
1792.9628,0.17200492,0.1393313,0.33333334,0.5522388,0,0.0,0.0,0.0,0.0,0.035002336,0,0,0.0,0.0,0,0,25.0,0.0,0.0,4634.871794871796,3943.589743589744,4491.282051282052,4439.48717948718,4246.666666666667,4540.000000000001,4464.615384615385,4405.128205128206,4393.846153846154,4722.564102564103,4388.205128205129,4360.512820512821,4188.717948717949,4566.666666666667
1793.1191,0.17058176,0.1423969,0.33333334,0.5522388,0,0.0,0.0,0.0,0.0,0.0,0,0,0.0,0.0,0,0,45.0,0.0,0.0,4620.000000000001,3928.717948717949,4489.743589743591,4434.871794871796,4249.2307692307695,4542.564102564103,4469.2307692307695,4410.256410256411,4393.333333333334,4716.923076923077,4377.948717948719,4355.8974358974365,4172.820512820514,4544.102564102564
1793.1191,0.17058176,0.1423969,0.33333334,0.5522388,0,0.0,0.0,0.0,0.0,0.0,0,0,0.0,0.0,0,0,45.0,0.0,0.0,4620.000000000001,3928.717948717949,4489.743589743591,4434.871794871796,4249.2307692307695,4542.564102564103,4469.2307692307695,4410.256410256411,4393.333333333334,4716.923076923077,4377.948717948719,4355.8974358974365,4172.820512820514,4544.102564102564
1793.7134,0.13538364,0.13821678,0.33333334,0.5522388,0,0.0,0.0,0.0,0.0,0.02069302,0,0,0.0,0.0,0,0,121.0,0.0,107.0,4651.282051282052,3941.0256410256416,4507.6923076923085,4442.564102564103,4258.461538461539,4553.333333333334,4490.769230769231,4462.564102564103,4430.769230769231,4755.384615384616,4383.589743589744,4355.384615384616,4207.179487179487,4558.461538461539
1793.9636,0.13538364,0.13821678,0.33333334,0.5522388,0,0.0,0.0,0.0,0.0,0.0,0,0,0.0,0.0,0,0,24.0,0.0,0.0,4655.384615384616,3943.589743589744,4514.871794871796,4436.923076923077,4244.102564102564,4537.435897435898,4481.538461538462,4456.410256410257,4428.717948717949,4751.794871794872,4390.769230769231,4355.8974358974365,4226.153846153847,4601.025641025642
1794.12,0.17907162,0.14132805,0.33333334,0.5522388,0,0.0,0.0,0.0,0.0,1.0,0,0,0.0,0.0,0,0,44.0,0.0,0.0,4660.512820512821,3957.9487179487182,4520.512820512821,4445.128205128206,4251.794871794872,4540.000000000001,4470.769230769231,4443.076923076924,4423.076923076924,4750.256410256411,4384.615384615385,4348.717948717949,4222.564102564103,4584.615384615385
1794.464,0.17907162,0.14132805,0.33333334,0.5522388,0,0.0,0.0,0.0,0.0,1.0,0,0,0.0,0.0,0,0,71.0,0.0,497.0,4669.743589743591,3950.7692307692314,4513.333333333334,4446.153846153847,4248.717948717949,4552.307692307693,4475.8974358974365,4438.461538461539,4419.48717948718,4751.794871794872,4388.717948717949,4354.358974358975,4228.205128205129,4591.794871794872
1794.7142,0.123385444,0.14819098,0.33333334,0.5522388,0,0.0,0.0,0.0,0.0,0.040516227,0,0,0.0,0.0,0,0,120.0,0.0,56.0,4672.820512820514,3960.5128205128212,4517.948717948719,4450.256410256411,4251.282051282052,4552.820512820514,4494.358974358975,4483.589743589744,4440.000000000001,4754.358974358975,4380.000000000001,4353.333333333334,4220.512820512821,4574.358974358975
1794.9645,0.123385444,0.14819098,0.33333334,0.5522388,0,0.0,0.0,0.0,0.0,0.053199407,0,0,0.0,0.0,0,0,23.0,0.0,0.0,4691.794871794872,3957.435897435898,4520.512820512821,4454.358974358975,4260.000000000001,4554.871794871796,4493.333333333334,4449.2307692307695,4431.794871794872,4746.153846153847,4376.410256410257,4354.871794871796,4221.538461538462,4583.589743589744
1795.2146,0.17816031,0.1632487,0.33333334,0.5522388,0,0.0,0.0,0.0,0.0,0.049862705,0,0,0.0,0.0,0,0,55.0,0.0,0.0,4675.8974358974365,3953.8461538461543,4504.102564102564,4444.615384615385,4251.282051282052,4547.6923076923085,4463.589743589744,4422.051282051282,4403.589743589744,4712.820512820514,4380.512820512821,4342.051282051282,4193.333333333334,4554.871794871796
1795.3397,0.17816031,0.1632487,0.33333334,0.5522388,0,0.0,0.0,0.0,0.0,1.0,0,0,0.0,0.0,0,0,71.0,0.0,497.0,4682.051282051282,3967.692307692308,4504.102564102564,4452.820512820514,4252.820512820514,4549.743589743591,4457.435897435898,4410.256410256411,4394.871794871796,4720.000000000001,4379.48717948718,4332.307692307693,4189.2307692307695,4089.7435897435903
1795.6525,0.21712756,0.18101849,0.33333334,0.5522388,0,0.0,0.0,0.0,0.0,1.0,0,0,0.0,0.0,0,0,111.0,0.0,534.0,4666.666666666667,3961.538461538462,4494.871794871796,4445.128205128206,4251.794871794872,4546.666666666667,4462.564102564103,4386.153846153847,4404.102564102564,4700.000000000001,4377.948717948719,4340.000000000001,4189.2307692307695,4585.128205128206
1795.8402,0.21712756,0.18101849,0.33333334,0.5522388,0,0.0,0.0,0.0,0.0,0.23195261,0,0,0.0,0.0,0,0,6.0,0.0,544.0,4668.205128205129,3954.358974358975,4494.871794871796,4443.589743589744,4249.74358974359,4547.179487179488,4457.435897435898,4400.512820512821,4422.564102564103,4737.435897435898,4380.000000000001,4333.333333333334,4197.435897435898,4581.538461538462
1796.1217,0.19857374,0.19271441,0.33333334,0.5522388,0,0.0,0.0,0.0,0.0,0.030560698,0,0,0.0,0.0,0,0,42.0,0.0,0.0,4648.717948717949,3943.076923076924,4484.102564102564,4434.871794871796,4245.128205128206,4541.538461538462,4456.410256410257,4402.051282051282,4405.128205128206,4709.2307692307695,4380.512820512821,4331.794871794872,4182.051282051282,4558.974358974359
1796.3406,0.19857374,0.19271441,0.33333334,0.5522388,0,0.0,0.0,0.0,0.0,0.061367676,0,0,0.0,0.0,0,0,70.0,0.0,544.0,4647.179487179488,3956.9230769230776,4488.717948717949,4443.076923076924,4249.2307692307695,4540.512820512821,4457.435897435898,4404.615384615385,4403.076923076924,4707.179487179488,4373.846153846154,4329.2307692307695,4188.717948717949,4554.871794871796
1796.6221,0.14017035,0.18696441,0.33333334,0.5522388,0,0.0,0.0,0.0,0.0,0.04623522,0,0,0.0,0.0,0,0,106.0,0.0,540.0,4655.8974358974365,3945.6410256410263,4496.410256410257,4438.974358974359,4247.6923076923085,4538.974358974359,4465.641025641026,4411.282051282052,4404.615384615385,4716.410256410257,4368.205128205129,4322.051282051282,4181.025641025642,4563.076923076924
1796.8411,0.14017035,0.18696441,0.33333334,0.5522388,0,0.0,0.0,0.0,0.0,0.051443804,0,0,0.0,0.0,0,0,5.0,0.0,573.0,4652.820512820514,3943.076923076924,4489.2307692307695,4443.076923076924,4247.6923076923085,4541.538461538462,4457.948717948719,4427.179487179487,4416.923076923077,4729.743589743591,4370.256410256411,4314.871794871796,4191.794871794872,4551.794871794872
1797.1226,0.09721585,0.16688286,0.33333334,0.5522388,0,0.0,0.0,0.0,0.0,0.09873885,0,0,0.0,0.0,0,0,41.0,0.0,0.0,4661.538461538462,3937.9487179487182,4494.358974358975,4441.025641025642,4248.717948717949,4542.051282051282,4460.000000000001,4411.282051282052,4402.564102564103,4717.435897435898,4368.205128205129,4323.076923076924,4190.256410256411,4553.846153846154
1797.2163,0.09721585,0.16688286,0.33333334,0.5522388,0,0.0,0.0,0.0,0.0,0.0,0,0,0.0,0.0,0,0,53.0,0.0,0.0,4668.205128205129,3944.615384615385,4504.615384615385,4450.769230769231,4251.282051282052,4553.333333333334,4473.846153846154,4426.153846153847,4418.461538461539,4739.48717948718,4372.307692307693,4324.615384615385,4205.128205128206,4566.153846153847
1797.6229,0.11713768,0.15337192,0.33333334,0.5522388,0,0.0,0.0,0.0,0.0,0.0,0,0,0.0,0.0,0,0,105.0,0.0,107.0,4647.179487179488,3925.1282051282055,4493.846153846154,4441.025641025642,4247.6923076923085,4538.461538461539,4467.179487179487,4431.282051282052,4434.358974358975,4765.641025641026,4374.358974358975,4323.076923076924,4210.769230769231,4549.743589743591
1797.8419,0.11713768,0.15337192,0.33333334,0.5522388,0,0.0,0.0,0.0,0.0,0.028524084,0,0,0.0,0.0,0,0,4.0,0.0,578.0,4671.282051282052,3955.8974358974365,4508.205128205129,4452.307692307693,4262.564102564103,4554.358974358975,4460.512820512821,4426.153846153847,4424.102564102564,4751.282051282052,4373.333333333334,4329.743589743591,4206.666666666667,4567.179487179488
1798.1234,0.1360663,0.14770043,0.33333334,0.5522388,0,0.0,0.0,0.0,0.0,1.0,0,0,0.0,0.0,0,0,40.0,0.0,0.0,4649.2307692307695,3958.461538461539,4491.282051282052,4453.333333333334,4264.102564102564,4556.410256410257,4473.333333333334,4440.000000000001,4416.410256410257,4725.128205128206,4363.589743589744,4316.923076923077,4177.435897435898,4569.2307692307695
1798.2173,0.1360663,0.14770043,0.33333334,0.5522388,0,0.0,0.0,0.0,0.0,1.0,0,0,0.0,0.0,0,0,52.0,0.0,0.0,4648.205128205129,3948.205128205129,4491.282051282052,4444.615384615385,4250.769230769231,4542.051282051282,4458.974358974359,4437.948717948719,4427.179487179487,4728.717948717949,4363.589743589744,4317.948717948719,4185.128205128206,4585.641025641026
1798.6238,0.08900087,0.14583151,0.33333334,0.5522388,0,0.0,0.0,0.0,0.0,0.06638516,0,0,0.0,0.0,0,0,104.0,0.0,53.0,4655.8974358974365,3941.0256410256416,4507.6923076923085,4443.589743589744,4260.512820512821,4549.2307692307695,4470.769230769231,4451.282051282052,4438.974358974359,4764.102564102564,4372.820512820514,4327.179487179487,4213.846153846154,4602.051282051282
1798.8428,0.08900087,0.14583151,0.33333334,0.5522388,0,0.0,0.0,0.0,0.0,0.0,0,0,0.0,0.0,0,0,3.0,0.0,555.0,4640.000000000001,3940.0000000000005,4490.256410256411,4433.333333333334,4245.641025641026,4538.461538461539,4456.923076923077,4425.128205128206,4416.923076923077,4743.076923076924,4368.205128205129,4322.564102564103,4196.923076923077,4584.102564102564
1799.1243,0.0811452,0.15257089,0.33333334,0.5522388,0,0.0,0.0,0.0,0.0,0.0,0,0,0.0,0.0,0,0,39.0,0.0,0.0,4657.948717948719,3959.48717948718,4506.153846153847,4444.615384615385,4263.589743589744,4536.410256410257,4457.435897435898,4428.717948717949,4423.589743589744,4752.820512820514,4369.743589743591,4328.717948717949,4209.2307692307695,4602.051282051282
1799.1243,0.0811452,0.15257089,0.33333334,0.5522388,0,0.0,0.0,0.0,0.0,0.0,0,0,0.0,0.0,0,0,39.0,0.0,0.0,4657.948717948719,3959.48717948718,4506.153846153847,4444.615384615385,4263.589743589744,4536.410256410257,4457.435897435898,4428.717948717949,4423.589743589744,4752.820512820514,4369.743589743591,4328.717948717949,4209.2307692307695,4602.051282051282
1799.6246,0.09240254,0.15423325,0.33333334,0.5522388,0,0.0,0.0,0.0,0.0,0.0,0,0,0.0,0.0,0,0,103.0,0.0,534.0,4652.820512820514,3944.615384615385,4507.179487179488,4443.589743589744,4255.384615384616,4551.794871794872,4458.974358974359,4429.743589743591,4412.820512820514,4745.641025641026,4373.333333333334,4323.589743589744,4217.948717948719,4583.076923076924
1799.6246,0.09240254,0.15423325,0.33333334,0.5522388,0,0.0,0.0,0.0,0.0,0.0,0,0,0.0,0.0,0,0,103.0,0.0,534.0,4652.820512820514,3944.615384615385,4507.179487179488,4443.589743589744,4255.384615384616,4551.794871794872,4458.974358974359,4429.743589743591,4412.820512820514,4745.641025641026,4373.333333333334,4323.589743589744,4217.948717948719,4583.076923076924
1800.1251,0.08733199,0.14277525,0.33333334,0.5522388,0,0.0,0.0,0.0,0.0,0.0,0,0,0.0,0.0,0,0,38.0,0.0,0.0,4653.333333333334,3953.333333333334,4509.743589743591,4450.769230769231,4262.051282051282,4555.384615384616,4473.333333333334,4452.307692307693,4425.128205128206,4752.820512820514,4368.717948717949,4326.666666666667,4210.256410256411,4569.2307692307695
1800.1251,0.08733199,0.14277525,0.33333334,0.5522388,0,0.0,0.0,0.0,0.0,0.0,0,0,0.0,0.0,0,0,38.0,0.0,0.0,4653.333333333334,3953.333333333334,4509.743589743591,4450.769230769231,4262.051282051282,4555.384615384616,4473.333333333334,4452.307692307693,4425.128205128206,4752.820512820514,4368.717948717949,4326.666666666667,4210.256410256411,4569.2307692307695
1800.6255,0.08238143,0.13450159,0.33333334,0.5522388,0,0.0,0.0,0.0,0.0,0.0,0,0,0.0,0.0,0,0,102.0,0.0,540.0,4657.948717948719,3953.8461538461543,4520.512820512821,4447.179487179487,4260.000000000001,4553.846153846154,4459.48717948718,4427.179487179487,4420.000000000001,4756.923076923077,4370.769230769231,4315.8974358974365,4225.128205128206,4570.769230769231
1800.8445,0.08238143,0.13450159,0.33333334,0.5522388,0,0.0,0.0,0.0,0.0,1.0,0,0,0.0,0.0,0,0,1.0,0.0,452.0,4651.794871794872,3946.666666666667,4506.666666666667,4445.128205128206,4260.000000000001,4554.358974358975,4468.717948717949,4446.666666666667,4408.717948717949,4758.461538461539,4371.282051282052,4321.025641025642,4217.948717948719,3846.1538461538466
1801.1572,0.112648845,0.12595133,0.33333334,0.5522388,0,0.0,0.0,0.0,0.0,1.0,0,0,0.0,0.0,0,0,41.0,0.0,0.0,4655.8974358974365,3947.1794871794878,4504.615384615385,4447.6923076923085,4261.538461538462,4555.8974358974365,4446.666666666667,4423.076923076924,4404.102564102564,4753.846153846154,4374.871794871796,4318.974358974359,4207.179487179487,4575.384615384616
1801.2198,0.112648845,0.12595133,0.33333334,0.5522388,0,0.0,0.0,0.0,0.0,1.0,0,0,0.0,0.0,0,0,49.0,0.0,0.0,4670.256410256411,3952.820512820513,4521.025641025642,4452.307692307693,4265.641025641026,4556.923076923077,4458.974358974359,4439.48717948718,4423.076923076924,4770.256410256411,4375.8974358974365,4318.461538461539,4231.282051282052,4604.615384615385
1801.6265,0.11484011,0.12457381,0.33333334,0.5522388,0,0.0,0.0,0.0,0.0,0.101285525,0,0,0.0,0.0,0,0,101.0,0.0,110.0,4636.410256410257,3950.2564102564106,4488.717948717949,4445.128205128206,4252.820512820514,4544.102564102564,4438.974358974359,4408.717948717949,4390.769230769231,4720.512820512821,4368.717948717949,4311.282051282052,4189.74358974359,4553.333333333334
1801.8453,0.11484011,0.12457381,0.33333334,0.5522388,0,0.0,0.0,0.0,0.0,0.12475284,0,0,0.0,0.0,0,0,0.0,0.0,541.0,4618.461538461539,3941.538461538462,4486.666666666667,4442.564102564103,4254.871794871796,4544.615384615385,4443.589743589744,4421.538461538462,4393.846153846154,4726.666666666667,4368.205128205129,4308.205128205129,4187.6923076923085,4553.333333333334
1802.1268,0.14633262,0.1388286,0.33333334,0.5522388,0,0.0,0.0,0.0,0.0,0.05885182,0,0,0.0,0.0,0,0,36.0,0.0,0.0,4633.846153846154,3926.666666666667,4492.820512820514,4444.102564102564,4253.333333333334,4545.128205128206,4449.743589743591,4408.717948717949,4393.846153846154,4725.641025641026,4369.2307692307695,4303.589743589744,4205.641025641026,4558.461538461539
1802.2207,0.14633262,0.1388286,0.33333334,0.5522388,0,0.0,0.0,0.0,0.0,0.0,0,0,0.0,0.0,0,0,48.0,0.0,0.0,4637.435897435898,3933.8461538461543,4497.435897435898,4439.48717948718,4247.6923076923085,4539.48717948718,4441.538461538462,4411.794871794872,4402.564102564103,4732.820512820514,4372.820512820514,4296.923076923077,4205.128205128206,4558.974358974359
1802.6273,0.10784308,0.15242328,0.33333334,0.5522388,0,0.0,0.0,0.0,0.0,0.0,0,0,0.0,0.0,0,0,100.0,0.0,49.0,4647.6923076923085,3952.820512820513,4505.641025641026,4452.307692307693,4261.025641025642,4553.846153846154,4476.410256410257,4446.153846153847,4412.820512820514,4732.307692307693,4371.794871794872,4297.948717948719,4202.564102564103,4560.000000000001
1802.6273,0.10784308,0.15242328,0.33333334,0.5522388,0,0.0,0.0,0.0,0.0,0.0,0,0,0.0,0.0,0,0,100.0,0.0,49.0,4647.6923076923085,3952.820512820513,4505.641025641026,4452.307692307693,4261.025641025642,4553.846153846154,4476.410256410257,4446.153846153847,4412.820512820514,4732.307692307693,4371.794871794872,4297.948717948719,4202.564102564103,4560.000000000001
1803.1277,0.11174085,0.1589602,0.33333334,0.5522388,0,0.0,0.0,0.0,0.0,0.07290298,0,0,0.0,0.0,0,0,35.0,0.0,0.0,4649.743589743591,3937.9487179487182,4489.743589743591,4437.435897435898,4242.051282051282,4538.974358974359,4459.48717948718,4430.256410256411,4400.000000000001,4737.435897435898,4375.384615384616,4300.000000000001,4202.564102564103,4542.051282051282
1803.2216,0.11174085,0.1589602,0.33333334,0.5522388,0,0.0,0.0,0.0,0.0,0.0,0,0,0.0,0.0,0,0,47.0,0.0,0.0,4650.769230769231,3946.1538461538466,4506.666666666667,4443.589743589744,4241.025641025642,4542.051282051282,4462.564102564103,4432.820512820514,4406.153846153847,4741.538461538462,4367.6923076923085,4296.923076923077,4202.564102564103,4541.538461538462
1803.6282,0.11954769,0.1663543,0.33333334,0.5522388,0,0.0,0.0,0.0,0.0,0.0,0,0,0.0,0.0,0,0,99.0,0.0,536.0,4652.820512820514,3942.564102564103,4504.615384615385,4440.000000000001,4244.615384615385,4548.205128205129,4473.333333333334,4442.564102564103,4414.871794871796,4738.461538461539,4369.743589743591,4308.717948717949,4211.282051282052,4554.358974358975
1803.6282,0.11954769,0.1663543,0.33333334,0.5522388,0,0.0,0.0,0.0,0.0,0.0,0,0,0.0,0.0,0,0,99.0,0.0,536.0,4652.820512820514,3942.564102564103,4504.615384615385,4440.000000000001,4244.615384615385,4548.205128205129,4473.333333333334,4442.564102564103,4414.871794871796,4738.461538461539,4369.743589743591,4308.717948717949,4211.282051282052,4554.358974358975
1804.1285,0.10445483,0.15630949,0.33333334,0.5522388,0,0.0,0.0,0.0,0.0,0.06699799,0,0,0.0,0.0,0,0,34.0,0.0,0.0,4660.512820512821,3956.9230769230776,4496.410256410257,4441.538461538462,4248.205128205129,4547.179487179488,4447.179487179487,4414.358974358975,4376.923076923077,4729.2307692307695,4371.794871794872,4308.205128205129,4173.333333333334,3762.564102564103
1804.2224,0.10445483,0.15630949,0.33333334,0.5522388,0,0.0,0.0,0.0,0.0,1.0,0,0,0.0,0.0,0,0,46.0,0.0,0.0,4654.358974358975,3957.9487179487182,4501.025641025642,4441.025641025642,4245.641025641026,4546.153846153847,4457.435897435898,4427.6923076923085,4391.794871794872,4729.743589743591,4369.743589743591,4314.358974358975,4177.435897435898,4531.282051282052
1804.629,0.13295157,0.15000239,0.33333334,0.5522388,0,0.0,0.0,0.0,0.0,1.0,0,0,0.0,0.0,0,0,98.0,0.0,540.0,4666.153846153847,3938.9743589743593,4513.333333333334,4439.48717948718,4263.076923076924,4545.128205128206,4486.666666666667,4491.282051282052,4439.48717948718,4773.333333333334,4380.000000000001,4332.820512820514,4226.666666666667,4573.846153846154
1804.8479,0.13295157,0.15000239,0.33333334,0.5522388,0,0.0,0.0,0.0,0.0,0.030072954,0,0,0.0,0.0,0,0,126.0,0.0,540.0,4662.051282051282,3942.564102564103,4512.307692307693,4440.000000000001,4265.128205128206,4550.256410256411,4471.794871794872,4458.974358974359,4426.666666666667,4780.512820512821,4380.000000000001,4337.948717948719,4228.717948717949,4575.8974358974365
1805.1294,0.16025953,0.1532892,0.33333334,0.5522388,0,0.0,0.0,0.0,0.0,0.03918284,0,0,0.0,0.0,0,0,33.0,0.0,0.0,4655.384615384616,3943.589743589744,4504.615384615385,4444.102564102564,4266.153846153847,4546.153846153847,4459.48717948718,4458.974358974359,4414.358974358975,4737.435897435898,4373.846153846154,4331.282051282052,4201.538461538462,4554.358974358975
1805.3484,0.16025953,0.1532892,0.33333334,0.5522388,0,0.0,0.0,0.0,0.0,0.13043289,0,0,0.0,0.0,0,0,61.0,0.0,0.0,4636.923076923077,3944.1025641025644,4495.384615384616,4443.589743589744,4261.538461538462,4547.179487179488,4458.461538461539,4451.282051282052,4401.025641025642,4711.282051282052,4371.282051282052,4321.538461538462,4184.102564102564,4538.974358974359
1805.6299,0.18418515,0.14997326,0.33333334,0.5522388,0,0.0,0.0,0.0,0.0,0.024726303,0,0,0.0,0.0,0,0,97.0,0.0,111.0,4641.538461538462,3952.820512820513,4504.102564102564,4445.641025641026,4263.076923076924,4551.282051282052,4448.205128205129,4426.666666666667,4395.8974358974365,4702.051282051282,4370.256410256411,4338.461538461539,4190.769230769231,4541.538461538462
1805.8488,0.18418515,0.14997326,0.33333334,0.5522388,0,0.0,0.0,0.0,0.0,0.0,0,0,0.0,0.0,0,0,125.0,0.0,111.0,4648.205128205129,3949.7435897435903,4507.179487179488,4442.051282051282,4249.74358974359,4539.48717948718,4455.384615384616,4434.871794871796,4403.589743589744,4721.538461538462,4374.358974358975,4347.179487179487,4199.48717948718,4553.846153846154
1806.1302,0.1892711,0.15050478,0.33333334,0.5522388,0,0.0,0.0,0.0,0.0,0.0,0,0,0.0,0.0,0,0,32.0,0.0,0.0,4650.256410256411,3955.3846153846157,4506.153846153847,4445.641025641026,4250.256410256411,4550.256410256411,4460.512820512821,4432.307692307693,4409.2307692307695,4725.641025641026,4374.871794871796,4361.025641025642,4205.641025641026,4555.8974358974365
1806.3492,0.1892711,0.15050478,0.33333334,0.5522388,0,0.0,0.0,0.0,0.0,0.09366569,0,0,0.0,0.0,0,0,60.0,0.0,0.0,4651.794871794872,3940.0000000000005,4503.076923076924,4438.461538461539,4247.179487179487,4540.000000000001,4457.435897435898,4420.512820512821,4400.000000000001,4719.48717948718,4371.794871794872,4353.846153846154,4209.2307692307695,4553.846153846154
1806.6307,0.14920343,0.14683098,0.33333334,0.5522388,0,0.0,0.0,0.0,0.0,0.09731968,0,0,0.0,0.0,0,0,96.0,0.0,44.0,4644.615384615385,3932.820512820513,4490.256410256411,4432.820512820514,4246.666666666667,4542.051282051282,4445.128205128206,4419.48717948718,4396.923076923077,4730.256410256411,4368.205128205129,4352.307692307693,4205.128205128206,4536.410256410257
1806.8496,0.14920343,0.14683098,0.33333334,0.5522388,0,0.0,0.0,0.0,0.0,0.093728945,0,0,0.0,0.0,0,0,124.0,0.0,44.0,4652.820512820514,3936.9230769230776,4504.102564102564,4433.846153846154,4245.128205128206,4543.589743589744,4456.410256410257,4426.666666666667,4400.512820512821,4717.948717948719,4368.717948717949,4361.538461538462,4203.589743589744,4550.256410256411
1807.1311,0.12511738,0.12929994,0.33333334,0.5522388,0,0.0,0.0,0.0,0.0,0.14344679,0,0,0.0,0.0,0,0,31.0,0.0,0.0,4665.641025641026,3943.076923076924,4505.128205128206,4437.435897435898,4246.666666666667,4549.743589743591,4458.974358974359,4428.205128205129,4411.282051282052,4738.974358974359,4369.743589743591,4362.564102564103,4210.769230769231,4557.948717948719
1807.3501,0.12511738,0.12929994,0.33333334,0.5522388,0,0.0,0.0,0.0,0.0,0.17643873,0,0,0.0,0.0,0,0,59.0,0.0,0.0,4672.307692307693,3944.615384615385,4504.102564102564,4434.871794871796,4246.666666666667,4544.102564102564,4456.410256410257,4428.205128205129,4405.128205128206,4737.948717948719,4370.256410256411,4362.564102564103,4210.769230769231,4540.000000000001
1807.6316,0.110882364,0.1239241,0.33333334,0.5522388,0,0.0,0.0,0.0,0.0,1.0,0,0,0.0,0.0,0,0,95.0,0.0,539.0,4662.564102564103,3942.564102564103,4507.179487179488,4439.48717948718,4247.6923076923085,4550.256410256411,4460.000000000001,4432.307692307693,4416.923076923077,4737.948717948719,4368.717948717949,4367.6923076923085,4221.025641025642,4571.794871794872
1807.6316,0.110882364,0.1239241,0.33333334,0.5522388,0,0.0,0.0,0.0,0.0,1.0,0,0,0.0,0.0,0,0,95.0,0.0,539.0,4662.564102564103,3942.564102564103,4507.179487179488,4439.48717948718,4247.6923076923085,4550.256410256411,4460.000000000001,4432.307692307693,4416.923076923077,4737.948717948719,4368.717948717949,4367.6923076923085,4221.025641025642,4571.794871794872
1808.132,0.12099468,0.12531719,0.33333334,0.5522388,0,0.0,0.0,0.0,0.0,0.02759884,0,0,0.0,0.0,0,0,30.0,0.0,0.0,4637.435897435898,3947.692307692308,4486.666666666667,4441.025641025642,4246.666666666667,4550.769230769231,4454.358974358975,4411.794871794872,4394.358974358975,4695.8974358974365,4363.589743589744,4360.512820512821,4174.358974358975,4533.846153846154
1808.351,0.12099468,0.12531719,0.33333334,0.5522388,0,0.0,0.0,0.0,0.0,0.045938965,0,0,0.0,0.0,0,0,58.0,0.0,0.0,4645.641025641026,3942.564102564103,4501.025641025642,4441.538461538462,4247.179487179487,4549.743589743591,4460.512820512821,4430.256410256411,4415.8974358974365,4724.102564102564,4365.128205128206,4361.025641025642,4212.307692307693,4555.384615384616
1808.6324,0.113615304,0.1325703,0.33333334,0.5522388,0,0.0,0.0,0.0,0.0,0.0,0,0,0.0,0.0,0,0,94.0,0.0,540.0,4632.820512820514,3945.1282051282055,4490.769230769231,4444.615384615385,4267.179487179487,4555.384615384616,4480.000000000001,4437.435897435898,4419.48717948718,4717.948717948719,4365.128205128206,4351.282051282052,4198.974358974359,4548.717948717949
1808.6324,0.113615304,0.1325703,0.33333334,0.5522388,0,0.0,0.0,0.0,0.0,0.0,0,0,0.0,0.0,0,0,94.0,0.0,540.0,4632.820512820514,3945.1282051282055,4490.769230769231,4444.615384615385,4267.179487179487,4555.384615384616,4480.000000000001,4437.435897435898,4419.48717948718,4717.948717948719,4365.128205128206,4351.282051282052,4198.974358974359,4548.717948717949
1809.1328,0.11645357,0.13713047,0.33333334,0.5522388,0,0.0,0.0,0.0,0.0,0.0,0,0,0.0,0.0,0,0,29.0,0.0,0.0,4638.461538461539,3943.076923076924,4506.666666666667,4441.025641025642,4261.538461538462,4553.333333333334,4472.307692307693,4427.179487179487,4413.846153846154,4706.153846153847,4364.615384615385,4353.846153846154,4192.820512820514,4538.974358974359
1809.1328,0.11645357,0.13713047,0.33333334,0.5522388,0,0.0,0.0,0.0,0.0,0.0,0,0,0.0,0.0,0,0,29.0,0.0,0.0,4638.461538461539,3943.076923076924,4506.666666666667,4441.025641025642,4261.538461538462,4553.333333333334,4472.307692307693,4427.179487179487,4413.846153846154,4706.153846153847,4364.615384615385,4353.846153846154,4192.820512820514,4538.974358974359
1809.6333,0.09362591,0.13256764,0.33333334,0.5522388,0,0.0,0.0,0.0,0.0,0.0,0,0,0.0,0.0,0,0,93.0,0.0,111.0,4652.820512820514,3952.307692307693,4514.358974358975,4446.153846153847,4262.051282051282,4555.8974358974365,4457.948717948719,4417.435897435898,4428.205128205129,4724.615384615386,4370.256410256411,4352.820512820514,4223.589743589744,4573.846153846154
1809.6333,0.09362591,0.13256764,0.33333334,0.5522388,0,0.0,0.0,0.0,0.0,0.0,0,0,0.0,0.0,0,0,93.0,0.0,111.0,4652.820512820514,3952.307692307693,4514.358974358975,4446.153846153847,4262.051282051282,4555.8974358974365,4457.948717948719,4417.435897435898,4428.205128205129,4724.615384615386,4370.256410256411,4352.820512820514,4223.589743589744,4573.846153846154
1810.1963,0.12375609,0.13870066,0.33333334,0.5522388,0,0.0,0.0,0.0,0.0,1.0,0,0,0.0,0.0,0,0,36.0,0.0,0.0,4636.923076923077,3942.564102564103,4489.743589743591,4442.051282051282,4256.410256410257,4549.743589743591,4458.461538461539,4398.974358974359,4403.589743589744,4706.153846153847,4366.153846153847,4343.589743589744,4186.153846153847,4536.923076923077
1810.1963,0.12375609,0.13870066,0.33333334,0.5522388,0,0.0,0.0,0.0,0.0,1.0,0,0,0.0,0.0,0,0,36.0,0.0,0.0,4636.923076923077,3942.564102564103,4489.743589743591,4442.051282051282,4256.410256410257,4549.743589743591,4458.461538461539,4398.974358974359,4403.589743589744,4706.153846153847,4366.153846153847,4343.589743589744,4186.153846153847,4536.923076923077
1810.6342,0.1250223,0.15432379,0.33333334,0.5522388,0,0.0,0.0,0.0,0.0,0.042950567,0,0,0.0,0.0,0,0,92.0,0.0,40.0,4660.512820512821,3927.692307692308,4503.589743589744,4437.435897435898,4250.256410256411,4542.051282051282,4475.384615384616,4435.384615384616,4430.769230769231,4745.128205128206,4375.384615384616,4352.820512820514,4226.153846153847,4570.256410256411
1810.853,0.1250223,0.15432379,0.33333334,0.5522388,0,0.0,0.0,0.0,0.0,0.0,0,0,0.0,0.0,0,0,120.0,0.0,40.0,4656.923076923077,3930.2564102564106,4502.564102564103,4440.512820512821,4252.307692307693,4551.794871794872,4474.358974358975,4428.717948717949,4429.743589743591,4752.820512820514,4376.923076923077,4353.846153846154,4239.48717948718,4568.717948717949
1811.1345,0.11780349,0.17389582,0.33333334,0.5522388,0,0.0,0.0,0.0,0.0,1.0,0,0,0.0,0.0,0,0,27.0,0.0,0.0,4667.179487179488,3936.410256410257,4511.794871794872,4445.641025641026,4266.153846153847,4557.948717948719,4493.333333333334,4448.717948717949,4435.384615384616,4742.564102564103,4372.820512820514,4353.333333333334,4223.589743589744,4598.461538461539
1811.3535,0.11780349,0.17389582,0.33333334,0.5522388,0,0.0,0.0,0.0,0.0,1.0,0,0,0.0,0.0,0,0,55.0,0.0,0.0,4653.846153846154,3936.410256410257,4493.333333333334,4456.410256410257,4250.256410256411,4544.102564102564,4474.871794871796,4431.282051282052,4429.743589743591,4738.974358974359,4374.358974358975,4344.102564102564,4224.102564102564,4588.205128205129
1811.635,0.16296168,0.1740642,0.33333334,0.5522388,0,0.0,0.0,0.0,0.0,0.03548629,0,0,0.0,0.0,0,0,91.0,0.0,533.0,4654.871794871796,3942.564102564103,4509.743589743591,4451.794871794872,4249.74358974359,4554.358974358975,4477.435897435898,4395.384615384616,4406.666666666667,4715.8974358974365,4372.820512820514,4343.589743589744,4205.128205128206,4588.205128205129
1811.854,0.16296168,0.1740642,0.33333334,0.5522388,0,0.0,0.0,0.0,0.0,0.0,0,0,0.0,0.0,0,0,119.0,0.0,533.0,4643.076923076924,3944.1025641025644,4504.615384615385,4445.128205128206,4251.282051282052,4553.846153846154,4475.384615384616,4428.205128205129,4418.974358974359,4725.128205128206,4372.307692307693,4338.974358974359,4206.153846153847,4570.769230769231
1812.1355,0.13395649,0.16108446,0.33333334,0.5522388,0,0.0,0.0,0.0,0.0,0.0,0,0,0.0,0.0,0,0,26.0,0.0,0.0,4640.000000000001,3950.2564102564106,4505.128205128206,4454.871794871796,4268.717948717949,4568.717948717949,4489.743589743591,4445.128205128206,4426.153846153847,4734.358974358975,4377.435897435898,4335.8974358974365,4218.461538461539,4575.384615384616
1812.1355,0.13395649,0.16108446,0.33333334,0.5522388,0,0.0,0.0,0.0,0.0,0.0,0,0,0.0,0.0,0,0,26.0,0.0,0.0,4640.000000000001,3950.2564102564106,4505.128205128206,4454.871794871796,4268.717948717949,4568.717948717949,4489.743589743591,4445.128205128206,4426.153846153847,4734.358974358975,4377.435897435898,4335.8974358974365,4218.461538461539,4575.384615384616
1812.6359,0.19629022,0.15316771,0.33333334,0.5522388,0,0.0,0.0,0.0,0.0,0.058230765,0,0,0.0,0.0,0,0,90.0,0.0,540.0,4665.128205128206,3954.358974358975,4502.564102564103,4441.025641025642,4233.333333333334,4537.948717948719,4445.641025641026,4395.384615384616,4398.461538461539,4728.205128205129,4397.435897435898,4328.205128205129,4206.153846153847,4567.6923076923085
1812.8549,0.19629022,0.15316771,0.33333334,0.5522388,0,0.0,0.0,0.0,0.0,0.09503313,0,0,0.0,0.0,0,0,118.0,0.0,540.0,4637.948717948719,3922.564102564103,4486.666666666667,4427.179487179487,4234.358974358975,4540.000000000001,4445.641025641026,4401.025641025642,4389.743589743591,4704.615384615386,4392.307692307693,4318.461538461539,4180.512820512821,4537.948717948719
1813.1364,0.23659477,0.14382128,0.33333334,0.5522388,0,0.0,0.0,0.0,0.0,0.0,0,0,0.0,0.0,0,0,25.0,0.0,0.0,4649.2307692307695,3941.0256410256416,4490.256410256411,4433.333333333334,4244.102564102564,4541.025641025642,4461.025641025642,4412.820512820514,4394.358974358975,4717.948717948719,4391.794871794872,4314.871794871796,4180.512820512821,4530.769230769231
1813.1364,0.23659477,0.14382128,0.33333334,0.5522388,0,0.0,0.0,0.0,0.0,0.0,0,0,0.0,0.0,0,0,25.0,0.0,0.0,4649.2307692307695,3941.0256410256416,4490.256410256411,4433.333333333334,4244.102564102564,4541.025641025642,4461.025641025642,4412.820512820514,4394.358974358975,4717.948717948719,4391.794871794872,4314.871794871796,4180.512820512821,4530.769230769231
1813.6367,0.2697031,0.13597089,0.33333334,0.5522388,0,0.0,0.0,0.0,0.0,0.0,0,0,0.0,0.0,0,0,89.0,0.0,111.0,4644.615384615385,3921.538461538462,4489.2307692307695,4435.384615384616,4252.307692307693,4551.282051282052,4458.461538461539,4433.846153846154,4415.8974358974365,4732.307692307693,4395.8974358974365,4311.282051282052,4207.179487179487,4547.6923076923085
1813.8557,0.2697031,0.13597089,0.33333334,0.5522388,0,0.0,0.0,0.0,0.0,0.0510471,0,0,0.0,0.0,0,0,117.0,0.0,111.0,4649.2307692307695,3928.717948717949,4491.282051282052,4435.8974358974365,4248.205128205129,4543.076923076924,4452.307692307693,4421.025641025642,4406.153846153847,4709.743589743591,4389.743589743591,4308.717948717949,4205.128205128206,4536.923076923077
1814.1372,0.22967856,0.13227688,0.33333334,0.5522388,0,0.0,0.0,0.0,0.0,0.106725685,0,0,0.0,0.0,0,0,24.0,0.0,0.0,4661.025641025642,3933.8461538461543,4506.666666666667,4441.538461538462,4249.2307692307695,4542.564102564103,4460.512820512821,4461.538461538462,4438.461538461539,4741.025641025642,4393.333333333334,4314.871794871796,4223.076923076924,4554.871794871796
1814.231,0.22967856,0.13227688,0.33333334,0.5522388,0,0.0,0.0,0.0,0.0,1.0,0,0,0.0,0.0,0,0,36.0,0.0,0.0,4661.538461538462,3943.076923076924,4504.102564102564,4442.051282051282,4244.615384615385,4539.48717948718,4447.6923076923085,4430.256410256411,4406.666666666667,4718.461538461539,4391.282051282052,4308.717948717949,4206.666666666667,4221.538461538462
1814.6376,0.19413169,0.12481627,0.33333334,0.5522388,0,0.0,0.0,0.0,0.0,1.0,0,0,0.0,0.0,0,0,88.0,0.0,36.0,4643.589743589744,3924.1025641025644,4481.025641025642,4431.794871794872,4243.076923076924,4535.384615384616,4438.974358974359,4406.666666666667,4384.102564102564,4693.846153846154,4379.48717948718,4302.564102564103,4168.205128205129,4521.025641025642
1814.8566,0.19413169,0.12481627,0.33333334,0.5522388,0,0.0,0.0,0.0,0.0,0.03080283,0,0,0.0,0.0,0,0,116.0,0.0,36.0,4651.282051282052,3944.615384615385,4507.179487179488,4451.794871794872,4267.179487179487,4556.923076923077,4463.076923076924,4430.256410256411,4406.666666666667,4726.153846153847,4388.717948717949,4306.153846153847,4206.666666666667,4552.820512820514
1815.1381,0.22315377,0.12018384,0.33333334,0.5522388,0,0.0,0.0,0.0,0.0,0.1344853,0,0,0.0,0.0,0,0,23.0,0.0,0.0,4651.282051282052,3927.1794871794878,4491.794871794872,4435.8974358974365,4245.128205128206,4537.948717948719,4443.076923076924,4411.794871794872,4392.820512820514,4706.666666666667,4384.102564102564,4314.871794871796,4195.384615384616,4538.461538461539
1815.3882,0.22315377,0.12018384,0.33333334,0.5522388,0,0.0,0.0,0.0,0.0,1.0,0,0,0.0,0.0,0,1,55.0,0.0,0.0,4642.051282051282,3926.1538461538466,4492.307692307693,4434.358974358975,4248.717948717949,4539.48717948718,4458.974358974359,4425.641025641026,4398.461538461539,4713.846153846154,4382.564102564103,4312.307692307693,4192.307692307693,4557.948717948719
1815.6384,0.18869805,0.1246653,0.33333334,0.5522388,0,0.0,0.0,0.0,0.0,1.0,0,0,0.0,0.0,0,0,87.0,0.0,537.0,4661.538461538462,3937.435897435898,4506.153846153847,4440.000000000001,4249.74358974359,4540.512820512821,4464.615384615385,4430.256410256411,4389.2307692307695,4700.512820512821,4383.589743589744,4310.769230769231,4185.128205128206,4569.743589743591
1815.8574,0.18869805,0.1246653,0.33333334,0.5522388,0,0.0,0.0,0.0,0.0,0.031397626,0,0,0.0,0.0,0,0,115.0,0.0,537.0,4667.6923076923085,3927.1794871794878,4502.051282051282,4434.358974358975,4248.205128205129,4539.48717948718,4457.948717948719,4428.717948717949,4402.564102564103,4723.076923076924,4383.076923076924,4308.205128205129,4209.74358974359,4576.410256410257
1816.1389,0.22088823,0.13769305,0.33333334,0.5522388,0,0.0,0.0,0.0,0.0,0.034991946,0,0,0.0,0.0,0,0,22.0,0.0,0.0,4664.615384615386,3909.2307692307695,4490.256410256411,4434.871794871796,4251.794871794872,4540.512820512821,4459.48717948718,4448.205128205129,4417.948717948719,4724.615384615386,4385.641025641026,4313.846153846154,4208.205128205129,4566.666666666667
1816.3578,0.22088823,0.13769305,0.33333334,0.5522388,0,0.0,0.0,0.0,0.0,0.041618127,0,0,0.0,0.0,0,0,50.0,0.0,0.0,4669.743589743591,3931.2820512820517,4506.666666666667,4445.128205128206,4250.256410256411,4539.48717948718,4462.051282051282,4443.589743589744,4404.102564102564,4719.48717948718,4388.205128205129,4316.923076923077,4213.846153846154,4569.743589743591
1816.6393,0.18097657,0.15403675,0.33333334,0.5522388,0,0.0,0.0,0.0,0.0,0.04054205,0,0,0.0,0.0,0,0,86.0,0.0,541.0,4653.846153846154,3923.076923076924,4493.846153846154,4441.025641025642,4246.153846153847,4536.410256410257,4459.48717948718,4444.102564102564,4404.615384615385,4715.384615384616,4387.179487179487,4313.846153846154,4208.205128205129,4558.461538461539
1816.8583,0.18097657,0.15403675,0.33333334,0.5522388,0,0.0,0.0,0.0,0.0,0.09779067,0,0,0.0,0.0,0,0,114.0,0.0,541.0,4665.128205128206,3935.3846153846157,4496.923076923077,4443.076923076924,4245.128205128206,4531.282051282052,4452.307692307693,4428.205128205129,4402.051282051282,4715.384615384616,4385.128205128206,4313.846153846154,4215.384615384616,4565.128205128206
1817.1398,0.162061,0.161769,0.33333334,0.5522388,0,0.0,0.0,0.0,0.0,0.06909786,0,0,0.0,0.0,0,0,21.0,0.0,0.0,4644.615384615385,3923.589743589744,4490.769230769231,4441.025641025642,4245.128205128206,4536.410256410257,4444.615384615385,4427.179487179487,4402.051282051282,4717.948717948719,4382.564102564103,4313.333333333334,4200.000000000001,4544.615384615385
1817.3586,0.162061,0.161769,0.33333334,0.5522388,0,0.0,0.0,0.0,0.0,0.10459614,0,0,0.0,0.0,0,0,49.0,0.0,0.0,4640.512820512821,3952.820512820513,4489.743589743591,4446.153846153847,4245.641025641026,4536.410256410257,4442.564102564103,4434.871794871796,4417.948717948719,4736.923076923077,4388.205128205129,4306.666666666667,4224.102564102564,4555.384615384616
1817.6401,0.1430276,0.1681362,0.33333334,0.5522388,0,0.0,0.0,0.0,0.0,0.0,0,0,0.0,0.0,0,0,85.0,0.0,112.0,4647.6923076923085,3943.589743589744,4488.717948717949,4453.333333333334,4248.205128205129,4542.051282051282,4458.461538461539,4427.179487179487,4401.538461538462,4705.128205128206,4379.48717948718,4299.48717948718,4188.205128205129,4536.410256410257
1817.6401,0.1430276,0.1681362,0.33333334,0.5522388,0,0.0,0.0,0.0,0.0,0.0,0,0,0.0,0.0,0,0,85.0,0.0,112.0,4647.6923076923085,3943.589743589744,4488.717948717949,4453.333333333334,4248.205128205129,4542.051282051282,4458.461538461539,4427.179487179487,4401.538461538462,4705.128205128206,4379.48717948718,4299.48717948718,4188.205128205129,4536.410256410257
1818.1406,0.11414893,0.16691747,0.33333334,0.5522388,0,0.0,0.0,0.0,0.0,0.045684706,0,0,0.0,0.0,0,0,20.0,0.0,0.0,4640.000000000001,3925.6410256410263,4496.923076923077,4446.153846153847,4251.282051282052,4551.794871794872,4474.358974358975,4433.846153846154,4409.2307692307695,4693.333333333334,4377.435897435898,4302.051282051282,4189.74358974359,4545.641025641026
1818.2344,0.11414893,0.16691747,0.33333334,0.5522388,0,0.0,0.0,0.0,0.0,0.0,0,0,0.0,0.0,0,0,32.0,0.0,0.0,4649.2307692307695,3927.1794871794878,4507.179487179488,4444.102564102564,4238.461538461539,4539.48717948718,4469.743589743591,4438.974358974359,4425.128205128206,4706.666666666667,4379.48717948718,4302.564102564103,4191.794871794872,4556.923076923077
1818.641,0.08214442,0.17424531,0.33333334,0.5522388,0,0.0,0.0,0.0,0.0,0.0,0,0,0.0,0.0,0,0,84.0,0.0,33.0,4648.205128205129,3927.1794871794878,4498.461538461539,4447.179487179487,4249.2307692307695,4549.2307692307695,4460.000000000001,4415.384615384616,4406.666666666667,4695.8974358974365,4379.48717948718,4289.2307692307695,4194.871794871796,4546.153846153847
1818.86,0.08214442,0.17424531,0.33333334,0.5522388,0,0.0,0.0,0.0,0.0,1.0,0,0,0.0,0.0,0,0,112.0,0.0,33.0,4656.410256410257,3915.8974358974365,4489.743589743591,4441.025641025642,4245.641025641026,4537.435897435898,4460.512820512821,4427.6923076923085,4399.48717948718,4700.512820512821,4379.48717948718,4295.8974358974365,4190.256410256411,4557.435897435898
1819.1415,0.07057203,0.19202612,0.33333334,0.5522388,0,0.0,0.0,0.0,0.0,0.1622043,0,0,0.0,0.0,0,0,19.0,0.0,0.0,4689.2307692307695,3960.0000000000005,4516.923076923077,4460.512820512821,4249.74358974359,4541.538461538462,4461.025641025642,4416.923076923077,4403.589743589744,4706.153846153847,4381.025641025642,4294.871794871796,4206.666666666667,4581.025641025642
1819.3604,0.07057203,0.19202612,0.33333334,0.5522388,0,0.0,0.0,0.0,0.0,0.06268632,0,0,0.0,0.0,0,0,47.0,0.0,0.0,4709.743589743591,3974.358974358975,4533.333333333334,4462.564102564103,4260.000000000001,4550.769230769231,4443.589743589744,4400.000000000001,4405.128205128206,4695.384615384616,4380.512820512821,4289.2307692307695,4204.615384615385,4553.333333333334
1819.6418,0.06966853,0.21868928,0.33333334,0.5522388,0,0.0,0.0,0.0,0.0,0.09484421,0,0,0.0,0.0,0,0,83.0,0.0,535.0,4710.769230769231,3943.589743589744,4539.48717948718,4460.512820512821,4277.435897435898,4558.461538461539,4477.948717948719,4425.128205128206,4424.102564102564,4625.128205128206,4373.846153846154,4296.410256410257,4203.076923076924,4535.384615384616
1819.8608,0.06966853,0.21868928,0.33333334,0.5522388,0,0.0,0.0,0.0,0.0,0.023714142,0,0,0.0,0.0,0,0,111.0,0.0,535.0,4663.076923076924,3867.692307692308,4494.871794871796,4428.717948717949,4280.000000000001,4557.435897435898,4462.564102564103,4443.589743589744,4394.871794871796,4687.6923076923085,4377.948717948719,4287.179487179487,4173.846153846154,4524.102564102564
1820.1423,0.093531616,0.24064143,0.33333334,0.5522388,0,0.0,0.0,0.0,0.0,0.047149196,0,0,0.0,0.0,0,0,18.0,0.0,0.0,4637.435897435898,3828.717948717949,4477.435897435898,4411.282051282052,4274.358974358975,4557.435897435898,4476.410256410257,4462.051282051282,4418.461538461539,4707.6923076923085,4412.307692307693,4286.153846153847,4201.538461538462,4518.461538461539
1820.3612,0.093531616,0.24064143,0.33333334,0.5522388,0,0.0,0.0,0.0,0.0,0.27849022,0,0,0.0,0.0,0,0,46.0,0.0,0.0,4650.769230769231,3874.8717948717954,4487.179487179488,4427.6923076923085,4272.820512820514,4562.564102564103,4479.48717948718,4453.333333333334,4436.410256410257,4704.615384615386,4420.512820512821,4301.538461538462,4230.256410256411,4589.2307692307695
1820.6427,0.12256032,0.28126085,0.33333334,0.5522388,0,0.0,0.0,0.0,0.0,0.19901115,0,0,0.0,0.0,0,0,82.0,0.0,545.0,4636.923076923077,3893.333333333334,4487.6923076923085,4429.2307692307695,4247.179487179487,4551.794871794872,4482.564102564103,4467.6923076923085,4447.6923076923085,4705.641025641026,4414.871794871796,4304.615384615385,4248.205128205129,4588.717948717949
1820.8617,0.12256032,0.28126085,0.33333334,0.5522388,0,0.0,0.0,0.0,0.0,0.079496995,0,0,0.0,0.0,0,0,110.0,0.0,545.0,4629.743589743591,3887.692307692308,4476.410256410257,4429.743589743591,4236.923076923077,4545.128205128206,4490.256410256411,4467.179487179487,4435.8974358974365,4692.307692307693,4410.769230769231,4304.615384615385,4214.871794871796,4590.256410256411
1821.1432,0.118109,0.32932693,0.33333334,0.5522388,0,0.0,0.0,0.0,0.0,0.28507823,0,0,0.0,0.0,0,0,17.0,0.0,0.0,4638.974358974359,3923.076923076924,4474.358974358975,4445.128205128206,4248.205128205129,4562.051282051282,4510.769230769231,4473.333333333334,4437.948717948719,4687.6923076923085,4401.538461538462,4310.256410256411,4205.641025641026,4662.564102564103
1821.362,0.118109,0.32932693,0.33333334,0.5522388,0,0.0,0.0,0.0,0.0,0.9513379,0,0,0.0,0.0,0,0,45.0,0.0,0.0,4688.717948717949,3953.8461538461543,4506.666666666667,4460.000000000001,4246.153846153847,4567.6923076923085,4524.102564102564,4496.923076923077,4465.128205128206,4703.076923076924,4413.333333333334,4315.8974358974365,4233.333333333334,4720.512820512821
1821.6436,0.22036521,0.38001952,0.33333334,0.5522388,0,0.0,0.0,0.0,0.0,0.84159553,0,0,0.0,0.0,0,0,81.0,0.0,113.0,4690.769230769231,3954.358974358975,4486.666666666667,4451.794871794872,4232.307692307693,4550.256410256411,4517.435897435898,4480.512820512821,4443.589743589744,4713.846153846154,4406.153846153847,4313.846153846154,4210.256410256411,4626.666666666667
1821.8625,0.22036521,0.38001952,0.33333334,0.5522388,0,0.0,0.0,0.0,0.0,0.5275593,0,0,0.0,0.0,0,0,109.0,0.0,113.0,4688.205128205129,3961.0256410256416,4474.871794871796,4460.000000000001,4232.820512820514,4551.794871794872,4493.333333333334,4445.641025641026,4419.48717948718,4707.179487179488,4395.384615384616,4311.282051282052,4205.128205128206,4573.333333333334
1822.144,0.26134077,0.40399516,0.33333334,0.5522388,0,0.0,0.0,0.0,0.0,1.0,0,0,0.0,0.0,0,0,16.0,0.0,0.0,4695.8974358974365,3956.9230769230776,4491.282051282052,4448.717948717949,4233.846153846154,4542.564102564103,4480.512820512821,4447.179487179487,4426.153846153847,4721.538461538462,4402.564102564103,4322.051282051282,4215.8974358974365,4590.256410256411
1822.4255,0.26134077,0.40399516,0.33333334,0.5522388,0,0.0,0.0,0.0,0.0,1.0,0,0,0.0,0.0,0,0,52.0,0.0,0.0,4694.871794871796,3976.410256410257,4491.794871794872,4459.48717948718,4233.846153846154,4541.538461538462,4478.461538461539,4439.48717948718,4425.128205128206,4715.8974358974365,4401.025641025642,4316.923076923077,4208.717948717949,4569.743589743591
1822.6444,0.26265895,0.4064852,0.33333334,0.5522388,0,0.0,0.0,0.0,0.0,0.06522365,0,0,0.0,0.0,0,0,80.0,0.0,23.0,4668.717948717949,3959.48717948718,4475.8974358974365,4455.8974358974365,4249.2307692307695,4556.923076923077,4485.641025641026,4450.256410256411,4421.538461538462,4703.589743589744,4393.846153846154,4322.564102564103,4183.589743589744,4535.384615384616
1822.8634,0.26265895,0.4064852,0.33333334,0.5522388,0,0.0,0.0,0.0,0.0,0.06602835,0,0,0.0,0.0,0,0,108.0,0.0,23.0,4680.000000000001,3958.9743589743593,4495.384615384616,4450.256410256411,4231.282051282052,4539.48717948718,4474.358974358975,4444.615384615385,4431.794871794872,4716.410256410257,4397.948717948719,4326.153846153847,4212.820512820514,4570.769230769231
1823.1449,0.25085768,0.39357656,0.33333334,0.5522388,0,0.0,0.0,0.0,0.0,0.09715024,0,0,0.0,0.0,0,0,15.0,0.0,533.0,4668.205128205129,3941.0256410256416,4491.282051282052,4451.282051282052,4249.2307692307695,4554.871794871796,4486.153846153847,4449.2307692307695,4433.333333333334,4714.871794871796,4395.384615384616,4319.48717948718,4217.435897435898,4574.871794871796
1823.3639,0.25085768,0.39357656,0.33333334,0.5522388,0,0.0,0.0,0.0,0.0,0.037244838,0,0,0.0,0.0,0,0,43.0,0.0,0.0,4674.358974358975,3880.512820512821,4513.333333333334,4437.435897435898,4264.615384615385,4570.256410256411,4506.153846153847,4471.282051282052,4454.871794871796,4756.410256410257,4400.512820512821,4317.435897435898,4242.564102564103,4594.871794871796
1823.6454,0.31215003,0.38457084,0.33333334,0.5522388,0,0.0,0.0,0.0,0.0,0.04987398,0,0,0.0,0.0,0,0,79.0,0.0,533.0,4680.000000000001,3907.692307692308,4512.307692307693,4442.564102564103,4261.025641025642,4555.8974358974365,4493.333333333334,4448.205128205129,4430.769230769231,4730.256410256411,4395.8974358974365,4314.358974358975,4221.538461538462,4586.153846153847
1823.8643,0.31215003,0.38457084,0.33333334,0.5522388,0,0.0,0.0,0.0,0.0,0.045612834,0,0,0.0,0.0,0,0,107.0,0.0,533.0,4682.564102564103,3922.0512820512827,4504.102564102564,4445.128205128206,4250.769230769231,4556.410256410257,4477.948717948719,4451.282051282052,4436.923076923077,4743.589743589744,4397.948717948719,4311.282051282052,4232.307692307693,4583.076923076924
1824.1458,0.3419119,0.37476367,0.33333334,0.5522388,0,0.0,0.0,0.0,0.0,0.0,0,0,0.0,0.0,0,0,14.0,0.0,545.0,4680.512820512821,3940.0000000000005,4506.153846153847,4447.179487179487,4255.384615384616,4554.358974358975,4480.000000000001,4437.435897435898,4418.461538461539,4726.666666666667,4391.794871794872,4311.794871794872,4227.6923076923085,4586.153846153847
1824.1458,0.3419119,0.37476367,0.33333334,0.5522388,0,0.0,0.0,0.0,0.0,0.0,0,0,0.0,0.0,0,0,14.0,0.0,545.0,4680.512820512821,3940.0000000000005,4506.153846153847,4447.179487179487,4255.384615384616,4554.358974358975,4480.000000000001,4437.435897435898,4418.461538461539,4726.666666666667,4391.794871794872,4311.794871794872,4227.6923076923085,4586.153846153847
1824.6462,0.3165951,0.37744465,0.33333334,0.5522388,0,0.0,0.0,0.0,0.0,0.0,0,0,0.0,0.0,0,0,78.0,0.0,545.0,4664.102564102564,3953.333333333334,4497.948717948719,4453.333333333334,4262.051282051282,4543.076923076924,4477.435897435898,4424.102564102564,4406.666666666667,4712.820512820514,4387.179487179487,4303.589743589744,4187.6923076923085,4560.512820512821
1824.8651,0.3165951,0.37744465,0.33333334,0.5522388,0,0.0,0.0,0.0,0.0,0.109927565,0,0,0.0,0.0,0,0,106.0,0.0,545.0,4674.358974358975,3955.8974358974365,4507.179487179488,4458.461538461539,4274.358974358975,4556.923076923077,4489.2307692307695,4442.051282051282,4417.435897435898,4733.333333333334,4390.769230769231,4306.153846153847,4207.179487179487,4576.410256410257
1825.1466,0.27912334,0.37276608,0.33333334,0.5522388,0,0.0,0.0,0.0,0.0,0.0,0,0,0.0,0.0,0,0,13.0,0.0,113.0,4684.615384615386,3950.2564102564106,4510.256410256411,4460.512820512821,4271.282051282052,4557.948717948719,4489.743589743591,4442.051282051282,4428.717948717949,4741.538461538462,4400.512820512821,4309.2307692307695,4228.717948717949,4576.923076923077
1825.1466,0.27912334,0.37276608,0.33333334,0.5522388,0,0.0,0.0,0.0,0.0,0.0,0,0,0.0,0.0,0,0,13.0,0.0,113.0,4684.615384615386,3950.2564102564106,4510.256410256411,4460.512820512821,4271.282051282052,4557.948717948719,4489.743589743591,4442.051282051282,4428.717948717949,4741.538461538462,4400.512820512821,4309.2307692307695,4228.717948717949,4576.923076923077
1825.6471,0.24541648,0.36126232,0.33333334,0.5522388,0,0.0,0.0,0.0,0.0,0.0,0,0,0.0,0.0,0,0,77.0,0.0,113.0,4663.589743589744,3940.0000000000005,4503.589743589744,4445.128205128206,4255.384615384616,4550.769230769231,4490.769230769231,4458.974358974359,4428.717948717949,4750.769230769231,4393.846153846154,4307.6923076923085,4221.538461538462,4568.205128205129
1825.866,0.24541648,0.36126232,0.33333334,0.5522388,0,0.0,0.0,0.0,0.0,0.0,0,0,0.32645738,0.0,0,0,105.0,0.0,113.0,4676.410256410257,3946.666666666667,4492.820512820514,4444.102564102564,4249.2307692307695,4544.615384615385,4473.846153846154,4430.256410256411,4415.384615384616,4735.384615384616,4392.307692307693,4297.948717948719,4225.128205128206,4552.820512820514
1826.1475,0.25425565,0.36309767,0.33333334,0.5522388,0,0.0,0.0,0.0,0.0,1.0,0,0,0.0,0.0,0,0,12.0,0.0,22.0,4675.384615384616,3942.564102564103,4512.307692307693,4448.205128205129,4252.820512820514,4554.871794871796,4492.307692307693,4446.666666666667,4432.307692307693,4744.102564102564,4389.2307692307695,4311.282051282052,4215.384615384616,4573.333333333334
1826.1475,0.25425565,0.36309767,0.33333334,0.5522388,0,0.0,0.0,0.0,0.0,1.0,0,0,0.0,0.0,0,0,12.0,0.0,22.0,4675.384615384616,3942.564102564103,4512.307692307693,4448.205128205129,4252.820512820514,4554.871794871796,4492.307692307693,4446.666666666667,4432.307692307693,4744.102564102564,4389.2307692307695,4311.282051282052,4215.384615384616,4573.333333333334
1826.648,0.2074491,0.3496937,0.33333334,0.5522388,0,0.0,0.0,0.0,0.0,0.05630562,0,0,0.0,0.0,0,0,76.0,0.0,22.0,4674.358974358975,3941.538461538462,4511.282051282052,4442.051282051282,4235.384615384616,4540.512820512821,4472.307692307693,4435.384615384616,4432.307692307693,4750.769230769231,4389.743589743591,4323.589743589744,4214.871794871796,4578.461538461539
1826.8668,0.2074491,0.3496937,0.33333334,0.5522388,0,0.0,0.0,0.0,0.0,0.07420256,0,0,0.0,0.0,0,0,104.0,0.0,22.0,4650.769230769231,3956.410256410257,4508.205128205129,4446.666666666667,4241.538461538462,4545.128205128206,4473.846153846154,4432.307692307693,4427.179487179487,4741.025641025642,4387.179487179487,4314.358974358975,4218.461538461539,4569.2307692307695
1827.1483,0.24317452,0.34945172,0.33333334,0.5522388,0,0.0,0.0,0.0,0.0,0.0,0,0,0.0,0.0,0,0,11.0,0.0,536.0,4682.564102564103,3978.9743589743593,4541.538461538462,4469.2307692307695,4264.615384615385,4567.6923076923085,4494.358974358975,4480.000000000001,4466.153846153847,4764.102564102564,4393.846153846154,4332.307692307693,4263.076923076924,4603.589743589744
1827.3673,0.24317452,0.34945172,0.33333334,0.5522388,0,0.0,0.0,0.0,0.0,0.037132617,0,0,0.0,0.0,0,0,39.0,0.0,0.0,4663.076923076924,3958.9743589743593,4513.846153846154,4451.794871794872,4249.74358974359,4540.512820512821,4473.846153846154,4443.076923076924,4441.025641025642,4750.769230769231,4390.256410256411,4327.6923076923085,4238.974358974359,4583.589743589744
1827.6488,0.2944149,0.36256543,0.33333334,0.5522388,0,0.0,0.0,0.0,0.0,0.0,0,0,0.0,0.0,0,0,75.0,0.0,534.0,4651.794871794872,3943.076923076924,4513.846153846154,4450.256410256411,4250.256410256411,4539.48717948718,4472.307692307693,4435.8974358974365,4434.871794871796,4726.666666666667,4389.2307692307695,4320.512820512821,4230.769230769231,4569.743589743591
1827.6488,0.2944149,0.36256543,0.33333334,0.5522388,0,0.0,0.0,0.0,0.0,0.0,0,0,0.0,0.0,0,0,75.0,0.0,534.0,4651.794871794872,3943.076923076924,4513.846153846154,4450.256410256411,4250.256410256411,4539.48717948718,4472.307692307693,4435.8974358974365,4434.871794871796,4726.666666666667,4389.2307692307695,4320.512820512821,4230.769230769231,4569.743589743591
1828.1492,0.29439035,0.35851234,0.33333334,0.5522388,0,0.0,0.0,0.0,0.0,0.0,0,0,0.0,0.0,0,0,10.0,0.0,545.0,4642.564102564103,3958.9743589743593,4511.794871794872,4449.743589743591,4244.102564102564,4538.974358974359,4475.8974358974365,4449.743589743591,4432.307692307693,4738.461538461539,4388.717948717949,4324.615384615385,4215.8974358974365,4572.307692307693
1828.1492,0.29439035,0.35851234,0.33333334,0.5522388,0,0.0,0.0,0.0,0.0,0.0,0,0,0.0,0.0,0,0,10.0,0.0,545.0,4642.564102564103,3958.9743589743593,4511.794871794872,4449.743589743591,4244.102564102564,4538.974358974359,4475.8974358974365,4449.743589743591,4432.307692307693,4738.461538461539,4388.717948717949,4324.615384615385,4215.8974358974365,4572.307692307693
1828.6497,0.3082595,0.35712242,0.33333334,0.5522388,0,0.0,0.0,0.0,0.0,0.0,0,0,0.0,0.0,0,0,74.0,0.0,545.0,4617.948717948719,3937.9487179487182,4494.871794871796,4443.076923076924,4249.74358974359,4541.538461538462,4470.769230769231,4432.820512820514,4408.205128205129,4723.589743589744,4378.974358974359,4320.000000000001,4193.846153846154,4544.102564102564
1828.6497,0.3082595,0.35712242,0.33333334,0.5522388,0,0.0,0.0,0.0,0.0,0.0,0,0,0.0,0.0,0,0,74.0,0.0,545.0,4617.948717948719,3937.9487179487182,4494.871794871796,4443.076923076924,4249.74358974359,4541.538461538462,4470.769230769231,4432.820512820514,4408.205128205129,4723.589743589744,4378.974358974359,4320.000000000001,4193.846153846154,4544.102564102564
1829.15,0.29977912,0.35246396,0.33333334,0.5522388,0,0.0,0.0,0.0,0.0,0.0,0,0,0.0,0.0,0,0,9.0,0.0,482.0,4630.769230769231,3952.820512820513,4502.051282051282,4442.564102564103,4244.102564102564,4536.410256410257,4456.923076923077,4415.8974358974365,4412.820512820514,4710.769230769231,4353.333333333334,4321.538461538462,4205.641025641026,4557.435897435898
1829.15,0.29977912,0.35246396,0.33333334,0.5522388,0,0.0,0.0,0.0,0.0,0.0,0,0,0.0,0.0,0,0,9.0,0.0,482.0,4630.769230769231,3952.820512820513,4502.051282051282,4442.564102564103,4244.102564102564,4536.410256410257,4456.923076923077,4415.8974358974365,4412.820512820514,4710.769230769231,4353.333333333334,4321.538461538462,4205.641025641026,4557.435897435898
1829.6505,0.30960813,0.35076243,0.33333334,0.5522388,0,0.0,0.0,0.0,0.0,1.0,0,0,0.0,0.0,0,0,73.0,0.0,482.0,4637.948717948719,3953.8461538461543,4508.717948717949,4443.589743589744,4246.153846153847,4538.974358974359,4457.435897435898,4413.333333333334,4401.025641025642,4725.128205128206,4352.307692307693,4314.358974358975,4196.410256410257,4567.6923076923085
1829.6505,0.30960813,0.35076243,0.33333334,0.5522388,0,0.0,0.0,0.0,0.0,1.0,0,0,0.0,0.0,0,0,73.0,0.0,482.0,4637.948717948719,3953.8461538461543,4508.717948717949,4443.589743589744,4246.153846153847,4538.974358974359,4457.435897435898,4413.333333333334,4401.025641025642,4725.128205128206,4352.307692307693,4314.358974358975,4196.410256410257,4567.6923076923085
1830.1509,0.23013788,0.36134806,0.33333334,0.5522388,0,0.0,0.0,0.0,0.0,0.02530401,0,0,0.0,0.0,0,0,8.0,0.0,483.0,4640.000000000001,3951.2820512820517,4506.153846153847,4445.128205128206,4250.256410256411,4543.076923076924,4474.358974358975,4428.205128205129,4420.512820512821,4736.923076923077,4359.48717948718,4315.8974358974365,4211.282051282052,4573.333333333334
1830.3699,0.23013788,0.36134806,0.33333334,0.5522388,0,0.0,0.0,0.0,0.0,0.0,0,0,0.0,0.0,0,0,36.0,0.0,0.0,4656.410256410257,3941.0256410256416,4510.769230769231,4442.051282051282,4247.6923076923085,4540.512820512821,4462.564102564103,4440.512820512821,4425.641025641026,4738.461538461539,4359.48717948718,4311.794871794872,4213.846153846154,4586.153846153847
1830.6514,0.19147713,0.3805671,0.33333334,0.5522388,0,0.0,0.0,0.0,0.0,0.0,0,0,0.0,0.0,0,0,72.0,0.0,483.0,4655.8974358974365,3943.589743589744,4506.153846153847,4442.051282051282,4251.794871794872,4551.282051282052,4477.948717948719,4444.615384615385,4422.564102564103,4738.461538461539,4356.923076923077,4312.307692307693,4209.2307692307695,4565.641025641026
1830.8702,0.19147713,0.3805671,0.33333334,0.5522388,0,0.0,0.0,0.0,0.0,0.056273106,0,0,0.0,0.0,0,0,100.0,0.0,19.0,4643.589743589744,3931.2820512820517,4489.2307692307695,4432.820512820514,4247.179487179487,4538.461538461539,4458.974358974359,4414.871794871796,4410.256410256411,4736.923076923077,4356.410256410257,4308.717948717949,4205.641025641026,4552.820512820514
1831.1517,0.1638963,0.38596836,0.33333334,0.5522388,0,0.0,0.0,0.0,0.0,0.053645276,0,0,0.0,0.0,0,0,7.0,0.0,497.0,4638.974358974359,3940.0000000000005,4493.846153846154,4438.974358974359,4247.6923076923085,4539.48717948718,4472.820512820514,4437.948717948719,4421.538461538462,4742.564102564103,4357.948717948719,4306.666666666667,4207.6923076923085,4553.846153846154
1831.2456,0.1638963,0.38596836,0.33333334,0.5522388,0,0.0,0.0,0.0,0.0,0.0,0,0,0.0,0.0,0,0,19.0,0.0,0.0,4633.333333333334,3940.0000000000005,4492.307692307693,4443.076923076924,4250.769230769231,4549.743589743591,4460.000000000001,4416.923076923077,4404.102564102564,4713.846153846154,4355.384615384616,4307.179487179487,4186.153846153847,4541.538461538462
1831.6522,0.16646454,0.372198,0.33333334,0.5522388,0,0.0,0.0,0.0,0.0,0.053786263,0,0,0.0,0.0,0,0,71.0,0.0,497.0,4666.153846153847,3945.6410256410263,4504.102564102564,4444.102564102564,4255.8974358974365,4552.820512820514,4473.846153846154,4425.641025641026,4411.794871794872,4721.025641025642,4356.923076923077,4310.256410256411,4201.025641025642,4569.743589743591
1831.8711,0.16646454,0.372198,0.33333334,0.5522388,0,0.0,0.0,0.0,0.0,0.09353028,0,0,0.0,0.0,0,0,99.0,0.0,536.0,4672.820512820514,3942.564102564103,4506.153846153847,4445.641025641026,4250.256410256411,4545.128205128206,4470.256410256411,4412.820512820514,4404.102564102564,4720.512820512821,4353.846153846154,4308.205128205129,4197.948717948719,4571.794871794872
1832.1526,0.1515174,0.35695785,0.33333334,0.5522388,0,0.0,0.0,0.0,0.0,0.030335467,0,0,0.0,0.0,0,0,6.0,0.0,544.0,4655.384615384616,3943.589743589744,4494.871794871796,4445.128205128206,4251.794871794872,4555.8974358974365,4475.8974358974365,4442.564102564103,4415.384615384616,4723.076923076924,4362.564102564103,4303.076923076924,4193.846153846154,4556.410256410257
1832.3716,0.1515174,0.35695785,0.33333334,0.5522388,0,0.0,0.0,0.0,0.0,0.04831048,0,0,0.0,0.0,0,0,34.0,0.0,0.0,4654.358974358975,3959.48717948718,4496.410256410257,4449.743589743591,4248.717948717949,4543.589743589744,4457.948717948719,4413.846153846154,4407.179487179487,4723.589743589744,4363.589743589744,4302.051282051282,4205.128205128206,4555.384615384616
1832.6531,0.13278992,0.3361108,0.33333334,0.5522388,0,0.0,0.0,0.0,0.0,0.0,0,0,0.0,0.0,0,0,70.0,0.0,544.0,4650.769230769231,3960.5128205128212,4508.717948717949,4448.717948717949,4249.74358974359,4547.6923076923085,4462.564102564103,4424.102564102564,4418.974358974359,4718.461538461539,4363.589743589744,4306.153846153847,4209.2307692307695,4567.6923076923085
1832.6531,0.13278992,0.3361108,0.33333334,0.5522388,0,0.0,0.0,0.0,0.0,0.0,0,0,0.0,0.0,0,0,70.0,0.0,544.0,4650.769230769231,3960.5128205128212,4508.717948717949,4448.717948717949,4249.74358974359,4547.6923076923085,4462.564102564103,4424.102564102564,4418.974358974359,4718.461538461539,4363.589743589744,4306.153846153847,4209.2307692307695,4567.6923076923085
1833.1534,0.08650566,0.31378952,0.33333334,0.5522388,0,0.0,0.0,0.0,0.0,0.063748404,0,0,0.0,0.0,0,0,5.0,0.0,573.0,4643.076923076924,3962.0512820512827,4492.820512820514,4446.153846153847,4247.179487179487,4541.025641025642,4459.48717948718,4457.948717948719,4437.948717948719,4734.358974358975,4364.615384615385,4317.435897435898,4220.512820512821,4554.358974358975
1833.3724,0.08650566,0.31378952,0.33333334,0.5522388,0,0.0,0.0,0.0,0.0,1.0,0,0,0.0,0.0,0,0,33.0,0.0,0.0,4629.743589743591,3944.615384615385,4488.205128205129,4433.333333333334,4234.871794871796,4533.333333333334,4445.641025641026,4418.974358974359,4417.435897435898,4725.128205128206,4363.589743589744,4306.666666666667,4204.102564102564,4541.025641025642
1833.6539,0.108587146,0.30103266,0.33333334,0.5522388,0,0.0,0.0,0.0,0.0,1.0,0,0,0.0,0.0,0,0,69.0,0.0,573.0,4633.846153846154,3954.8717948717954,4505.641025641026,4443.589743589744,4235.384615384616,4536.923076923077,4456.410256410257,4430.769230769231,4426.153846153847,4723.589743589744,4364.615384615385,4307.179487179487,4207.179487179487,4550.769230769231
1833.8729,0.108587146,0.30103266,0.33333334,0.5522388,0,0.0,0.0,0.0,0.0,0.06654606,0,0,0.0,0.0,0,0,97.0,0.0,114.0,4642.051282051282,3950.2564102564106,4496.410256410257,4441.538461538462,4235.8974358974365,4537.435897435898,4445.641025641026,4414.358974358975,4416.410256410257,4720.000000000001,4365.641025641026,4317.435897435898,4206.153846153847,4539.48717948718
1834.1544,0.11319937,0.29754344,0.33333334,0.5522388,0,0.0,0.0,0.0,0.0,0.09108116,0,0,0.0,0.0,0,0,4.0,0.0,578.0,4634.871794871796,3942.0512820512827,4507.6923076923085,4439.48717948718,4244.102564102564,4539.48717948718,4467.179487179487,4418.974358974359,4416.923076923077,4710.256410256411,4365.641025641026,4316.923076923077,4201.025641025642,4552.307692307693
1834.3733,0.11319937,0.29754344,0.33333334,0.5522388,0,0.0,0.0,0.0,0.0,0.057323676,0,0,0.0,0.0,0,0,32.0,0.0,0.0,4636.923076923077,3946.1538461538466,4497.435897435898,4441.538461538462,4241.538461538462,4537.435897435898,4458.974358974359,4420.000000000001,4416.923076923077,4706.153846153847,4362.564102564103,4310.769230769231,4196.923076923077,4558.461538461539
1834.6548,0.08393467,0.30245963,0.33333334,0.5522388,0,0.0,0.0,0.0,0.0,0.0,0,0,0.0,0.0,0,0,68.0,0.0,578.0,4648.717948717949,3951.7948717948725,4506.153846153847,4443.589743589744,4248.205128205129,4544.102564102564,4467.179487179487,4443.076923076924,4432.307692307693,4715.8974358974365,4365.128205128206,4312.820512820514,4213.846153846154,4572.307692307693
1834.6548,0.08393467,0.30245963,0.33333334,0.5522388,0,0.0,0.0,0.0,0.0,0.0,0,0,0.0,0.0,0,0,68.0,0.0,578.0,4648.717948717949,3951.7948717948725,4506.153846153847,4443.589743589744,4248.205128205129,4544.102564102564,4467.179487179487,4443.076923076924,4432.307692307693,4715.8974358974365,4365.128205128206,4312.820512820514,4213.846153846154,4572.307692307693
1835.1553,0.05802571,0.3009904,0.33333334,0.5522388,0,0.0,0.0,0.0,0.0,1.0,0,0,0.0,0.0,0,0,3.0,0.0,555.0,4619.48717948718,3944.615384615385,4489.743589743591,4445.128205128206,4253.846153846154,4552.307692307693,4461.025641025642,4447.179487179487,4429.2307692307695,4720.000000000001,4362.051282051282,4307.179487179487,4176.923076923077,4526.666666666667
1835.1553,0.05802571,0.3009904,0.33333334,0.5522388,0,0.0,0.0,0.0,0.0,1.0,0,0,0.0,0.0,0,0,3.0,0.0,555.0,4619.48717948718,3944.615384615385,4489.743589743591,4445.128205128206,4253.846153846154,4552.307692307693,4461.025641025642,4447.179487179487,4429.2307692307695,4720.000000000001,4362.051282051282,4307.179487179487,4176.923076923077,4526.666666666667
1835.6556,0.023376422,0.307044,0.33333334,0.5522388,0,0.0,0.0,0.0,0.0,0.08392633,0,0,0.0,0.0,0,0,67.0,0.0,555.0,4623.589743589744,3945.6410256410263,4489.743589743591,4442.564102564103,4250.256410256411,4542.564102564103,4456.410256410257,4411.282051282052,4403.076923076924,4686.666666666667,4358.974358974359,4303.589743589744,4166.666666666667,4551.282051282052
1835.8746,0.023376422,0.307044,0.33333334,0.5522388,0,0.0,0.0,0.0,0.0,0.0,0,0,0.0,0.0,0,0,95.0,0.0,535.0,4625.128205128206,3944.615384615385,4494.358974358975,4444.102564102564,4252.307692307693,4544.615384615385,4456.923076923077,4409.2307692307695,4407.6923076923085,4708.205128205129,4358.974358974359,4311.282051282052,4178.461538461539,4544.102564102564
1836.1561,0.05513011,0.31153733,0.33333334,0.5522388,0,0.0,0.0,0.0,0.0,0.0,0,0,0.0,0.0,0,0,2.0,0.0,442.0,4651.794871794872,3946.666666666667,4511.794871794872,4443.076923076924,4247.6923076923085,4541.025641025642,4457.435897435898,4397.435897435898,4405.128205128206,4705.128205128206,4363.589743589744,4312.820512820514,4191.794871794872,4572.820512820514
1836.1561,0.05513011,0.31153733,0.33333334,0.5522388,0,0.0,0.0,0.0,0.0,0.0,0,0,0.0,0.0,0,0,2.0,0.0,442.0,4651.794871794872,3946.666666666667,4511.794871794872,4443.076923076924,4247.6923076923085,4541.025641025642,4457.435897435898,4397.435897435898,4405.128205128206,4705.128205128206,4363.589743589744,4312.820512820514,4191.794871794872,4572.820512820514
1836.6565,0.055369433,0.30925176,0.33333334,0.5522388,0,0.0,0.0,0.0,0.0,0.0,0,0,0.0,0.0,0,0,66.0,0.0,442.0,4648.205128205129,3952.820512820513,4505.641025641026,4446.153846153847,4248.717948717949,4544.102564102564,4459.48717948718,4408.205128205129,4402.051282051282,4700.000000000001,4353.333333333334,4313.333333333334,4182.564102564103,4547.6923076923085
1836.6565,0.055369433,0.30925176,0.33333334,0.5522388,0,0.0,0.0,0.0,0.0,0.0,0,0,0.0,0.0,0,0,66.0,0.0,442.0,4648.205128205129,3952.820512820513,4505.641025641026,4446.153846153847,4248.717948717949,4544.102564102564,4459.48717948718,4408.205128205129,4402.051282051282,4700.000000000001,4353.333333333334,4313.333333333334,4182.564102564103,4547.6923076923085
1837.157,0.048301548,0.30921295,0.33333334,0.5522388,0,0.0,0.0,0.0,0.0,0.0,0,0,0.0,0.0,0,0,1.0,0.0,452.0,4651.794871794872,3941.0256410256416,4504.615384615385,4441.538461538462,4249.2307692307695,4540.512820512821,4461.025641025642,4429.2307692307695,4411.282051282052,4717.948717948719,4360.000000000001,4323.589743589744,4194.871794871796,4551.794871794872
1837.157,0.048301548,0.30921295,0.33333334,0.5522388,0,0.0,0.0,0.0,0.0,0.0,0,0,0.0,0.0,0,0,1.0,0.0,452.0,4651.794871794872,3941.0256410256416,4504.615384615385,4441.538461538462,4249.2307692307695,4540.512820512821,4461.025641025642,4429.2307692307695,4411.282051282052,4717.948717948719,4360.000000000001,4323.589743589744,4194.871794871796,4551.794871794872
1837.6573,0.081581146,0.29032767,0.33333334,0.5522388,0,0.0,0.0,0.0,0.0,0.0,0,0,0.0,0.0,0,0,65.0,0.0,452.0,4648.205128205129,3940.5128205128212,4499.48717948718,4443.589743589744,4252.307692307693,4551.794871794872,4461.538461538462,4444.102564102564,4411.794871794872,4717.435897435898,4362.051282051282,4318.974358974359,4203.076923076924,4554.358974358975
1837.6573,0.081581146,0.29032767,0.33333334,0.5522388,0,0.0,0.0,0.0,0.0,0.0,0,0,0.0,0.0,0,0,65.0,0.0,452.0,4648.205128205129,3940.5128205128212,4499.48717948718,4443.589743589744,4252.307692307693,4551.794871794872,4461.538461538462,4444.102564102564,4411.794871794872,4717.435897435898,4362.051282051282,4318.974358974359,4203.076923076924,4554.358974358975
1838.1578,0.14570403,0.2773086,0.33333334,0.5522388,0,0.0,0.0,0.0,0.0,1.0,0,0,0.0,0.0,0,0,0.0,0.0,541.0,4661.538461538462,3955.8974358974365,4493.333333333334,4445.641025641026,4248.717948717949,4541.538461538462,4446.153846153847,4405.641025641026,4388.717948717949,4711.282051282052,4362.051282051282,4315.8974358974365,4171.282051282052,4553.846153846154
1838.1578,0.14570403,0.2773086,0.33333334,0.5522388,0,0.0,0.0,0.0,0.0,1.0,0,0,0.0,0.0,0,0,0.0,0.0,541.0,4661.538461538462,3955.8974358974365,4493.333333333334,4445.641025641026,4248.717948717949,4541.538461538462,4446.153846153847,4405.641025641026,4388.717948717949,4711.282051282052,4362.051282051282,4315.8974358974365,4171.282051282052,4553.846153846154
1838.6582,0.14005768,0.27119672,0.33333334,0.5522388,0,0.0,0.0,0.0,0.0,0.042818017,0,0,0.0,0.0,0,0,64.0,0.0,541.0,4656.410256410257,3941.538461538462,4483.076923076924,4442.051282051282,4249.74358974359,4544.615384615385,4461.025641025642,4428.717948717949,4406.153846153847,4729.2307692307695,4364.102564102564,4321.025641025642,4189.74358974359,4568.717948717949
1838.8772,0.14005768,0.27119672,0.33333334,0.5522388,0,0.0,0.0,0.0,0.0,0.061608583,0,0,0.0,0.0,0,0,92.0,0.0,17.0,4678.974358974359,3957.9487179487182,4489.2307692307695,4442.051282051282,4237.435897435898,4534.358974358975,4447.179487179487,4421.025641025642,4400.000000000001,4716.410256410257,4361.025641025642,4316.923076923077,4192.820512820514,4585.641025641026
1839.1587,0.12635142,0.27068096,0.33333334,0.5522388,0,0.0,0.0,0.0,0.0,0.054683853,0,0,0.0,0.0,0,0,128.0,0.0,17.0,4678.461538461539,3958.9743589743593,4500.000000000001,4446.666666666667,4262.051282051282,4555.384615384616,4467.6923076923085,4441.538461538462,4413.846153846154,4722.051282051282,4366.666666666667,4316.923076923077,4200.000000000001,4578.974358974359
1839.3776,0.12635142,0.27068096,0.33333334,0.5522388,0,0.0,0.0,0.0,0.0,0.045006324,0,0,0.0,0.0,0,0,27.0,0.0,0.0,4662.564102564103,3941.538461538462,4492.307692307693,4442.051282051282,4250.256410256411,4551.282051282052,4461.025641025642,4428.717948717949,4415.8974358974365,4737.948717948719,4363.589743589744,4315.384615384616,4200.000000000001,4565.641025641026
1839.659,0.09162793,0.26855987,0.33333334,0.5522388,0,0.0,0.0,0.0,0.0,0.03370016,0,0,0.0,0.0,0,0,63.0,0.0,0.0,4664.615384615386,3939.48717948718,4489.743589743591,4433.846153846154,4249.74358974359,4551.282051282052,4473.333333333334,4424.102564102564,4408.717948717949,4713.846153846154,4363.076923076924,4310.256410256411,4193.333333333334,4557.948717948719
1839.878,0.09162793,0.26855987,0.33333334,0.5522388,0,0.0,0.0,0.0,0.0,0.041552152,0,0,0.0,0.0,0,0,91.0,0.0,534.0,4678.974358974359,3960.5128205128212,4503.589743589744,4422.051282051282,4263.589743589744,4565.641025641026,4470.769230769231,4426.666666666667,4416.923076923077,4729.2307692307695,4363.589743589744,4311.794871794872,4210.256410256411,4566.153846153847
1840.1595,0.12691358,0.26529217,0.33333334,0.5522388,0,0.0,0.0,0.0,0.0,1.0,0,0,0.0,0.0,0,0,127.0,0.0,534.0,4679.48717948718,3939.48717948718,4487.6923076923085,4405.128205128206,4249.2307692307695,4549.2307692307695,4472.820512820514,4428.205128205129,4416.923076923077,4717.435897435898,4363.589743589744,4298.974358974359,4201.025641025642,4553.846153846154
1840.1595,0.12691358,0.26529217,0.33333334,0.5522388,0,0.0,0.0,0.0,0.0,1.0,0,0,0.0,0.0,0,0,127.0,0.0,534.0,4679.48717948718,3939.48717948718,4487.6923076923085,4405.128205128206,4249.2307692307695,4549.2307692307695,4472.820512820514,4428.205128205129,4416.923076923077,4717.435897435898,4363.589743589744,4298.974358974359,4201.025641025642,4553.846153846154
1840.6599,0.08221969,0.26396045,0.33333334,0.5522388,0,0.0,0.0,0.0,0.0,0.18726398,0,0,0.0,0.0,0,0,62.0,0.0,0.0,4690.769230769231,3943.589743589744,4504.615384615385,4413.333333333334,4235.384615384616,4554.871794871796,4476.410256410257,4443.076923076924,4430.256410256411,4725.128205128206,4368.205128205129,4309.2307692307695,4211.794871794872,4573.333333333334
