timestamp,excitement,frustration,meditation,engagementBoredom,blink,clench,laugh,smile,eyebrow,furrowBrow,lookLeft,lookRight,smirkLeft,smirkRight,winkLeft,winkRight,eeg0,eeg1,eeg2,eeg3,eeg4,eeg5,eeg6,eeg7,eeg8,eeg9,eeg10,eeg11,eeg12,eeg13,eeg14,eeg15,eeg16
391.1017,0.7838131,0.4128245,0.33333334,0.5522388,0,0.0,0.0,0.0,0.0,0.5455762,0,0,0.0,0.0,0,0,73.0,0.0,224.0,4461.025641025642,3953.333333333334,4404.615384615385,4422.564102564103,4225.128205128206,4522.051282051282,4335.8974358974365,4293.846153846154,4355.384615384616,4679.48717948718,4287.179487179487,4112.820512820514,4104.102564102564,4366.666666666667
391.35196,0.8594675,0.41607004,0.33333334,0.5522388,0,0.0,0.0,0.0,0.0,0.29621854,0,0,0.0,0.0,0,0,105.0,0.0,518.0,4451.282051282052,3922.0512820512827,4366.666666666667,4416.410256410257,4204.102564102564,4503.076923076924,4345.128205128206,4313.333333333334,4341.538461538462,4698.974358974359,4303.589743589744,4086.666666666667,4084.1025641025644,4468.205128205129
391.47705,0.8594675,0.41607004,0.33333334,0.5522388,0,0.0,0.0,0.0,0.0,1.0,0,0,0.0,0.0,0,0,121.0,0.0,518.0,4476.410256410257,3953.8461538461543,4384.102564102564,4422.564102564103,4230.769230769231,4533.846153846154,4386.666666666667,4345.641025641026,4383.076923076924,4632.307692307693,4331.794871794872,4115.384615384616,4016.410256410257,4614.358974358975
391.8524,0.8747209,0.41893587,0.33333334,0.5522388,0,0.0,0.0,0.0,0.0,0.10101106,0,0,0.0,0.0,0,0,40.0,0.0,0.0,4534.871794871796,3972.307692307693,4400.512820512821,4413.846153846154,4267.179487179487,4566.666666666667,4445.128205128206,4433.333333333334,4465.128205128206,4634.358974358975,4333.333333333334,4220.512820512821,4136.410256410257,4698.974358974359
391.97748,0.8747209,0.41893587,0.33333334,0.5522388,0,0.0,0.0,0.0,0.0,0.0,0,0,0.0,0.0,0,0,56.0,0.0,0.0,4604.615384615385,3948.717948717949,4409.743589743591,4411.282051282052,4222.051282051282,4520.000000000001,4397.435897435898,4385.641025641026,4422.051282051282,4696.923076923077,4366.666666666667,4202.564102564103,4122.051282051282,4847.179487179488
392.3528,0.9701009,0.42151514,0.33333334,0.5522388,0,0.0,0.0,0.0,0.0,0.4441765,0,0,0.0,0.0,0,1,104.0,0.0,124.0,4707.6923076923085,3953.8461538461543,4423.076923076924,4429.743589743591,4239.48717948718,4532.820512820514,4400.000000000001,4382.564102564103,4426.153846153847,4755.384615384616,4360.000000000001,4176.923076923077,4147.179487179487,4819.48717948718
392.60303,0.9701009,0.42151514,0.33333334,0.5522388,0,0.0,0.0,0.0,0.0,1.0,0,0,0.0,0.0,0,0,7.0,0.0,498.0,4792.307692307693,3960.5128205128212,4424.615384615385,4446.153846153847,4229.2307692307695,4541.025641025642,4380.512820512821,4358.974358974359,4392.820512820514,4745.641025641026,4377.948717948719,4157.435897435898,4163.076923076924,4754.358974358975
392.85324,0.9447613,0.42383644,0.33333334,0.5522388,0,0.0,0.0,0.0,0.0,1.0,0,0,0.0,0.0,0,0,39.0,0.0,0.0,4868.205128205129,3941.0256410256416,4384.102564102564,4446.153846153847,4243.076923076924,4551.282051282052,4404.615384615385,4375.384615384616,4401.538461538462,4733.333333333334,4390.769230769231,4148.717948717949,4086.666666666667,4646.666666666667
393.10345,0.9447613,0.42383644,0.33333334,0.5522388,0,0.0,0.0,0.0,0.0,0.47305736,0,0,0.0,0.0,0,0,71.0,0.0,498.0,4860.512820512821,3946.666666666667,4383.589743589744,4449.743589743591,4248.205128205129,4551.282051282052,4414.871794871796,4403.076923076924,4429.743589743591,4743.589743589744,4378.974358974359,4167.179487179487,4094.358974358975,4613.846153846154
393.35367,0.890944,0.42592564,0.33333334,0.5522388,0,0.0,0.0,0.0,0.0,0.43429318,0,0,0.0,0.0,0,0,103.0,0.0,518.0,4953.333333333334,3974.358974358975,4442.051282051282,4453.846153846154,4247.179487179487,4537.948717948719,4408.205128205129,4389.743589743591,4406.666666666667,4746.153846153847,4378.974358974359,4225.641025641026,4140.512820512821,4768.205128205129
393.60388,0.890944,0.42592564,0.33333334,0.5522388,0,0.0,0.0,0.0,0.0,0.57966757,0,0,0.0,0.0,0,0,6.0,0.0,590.0,4754.358974358975,3916.410256410257,4393.846153846154,4432.307692307693,4232.307692307693,4515.384615384616,4397.948717948719,4396.923076923077,4405.641025641026,4736.410256410257,4327.179487179487,4185.128205128206,4102.051282051282,4591.282051282052
393.8541,0.93980664,0.5087382,0.33333334,0.5522388,0,0.0,0.0,0.0,0.0,0.5955885,0,0,0.0,0.0,0,0,38.0,0.0,0.0,4752.820512820514,3926.666666666667,4409.2307692307695,4432.307692307693,4203.076923076924,4477.435897435898,4362.051282051282,4363.076923076924,4362.051282051282,4731.282051282052,4320.000000000001,4177.948717948719,4112.307692307693,4610.256410256411
394.1043,0.93980664,0.5087382,0.33333334,0.5522388,0,0.0,0.0,0.0,0.0,0.921617,0,0,0.0,0.0,0,0,70.0,0.0,590.0,4607.179487179488,3898.9743589743593,4372.820512820514,4427.6923076923085,4213.333333333334,4481.025641025642,4366.666666666667,4369.743589743591,4368.205128205129,4722.564102564103,4322.051282051282,4116.410256410257,4069.23076923077,4460.000000000001
394.35452,0.88560146,0.5341276,0.33333334,0.5522388,0,0.0,0.0,0.0,0.0,0.41765612,0,0,0.0,0.0,0,0,102.0,0.0,557.0,4578.974358974359,3874.358974358975,4378.461538461539,4421.538461538462,4217.435897435898,4489.2307692307695,4398.461538461539,4405.641025641026,4379.48717948718,4726.153846153847,4262.051282051282,4097.435897435898,4100.000000000001,4468.717948717949
394.60474,0.88560146,0.5341276,0.33333334,0.5522388,0,0.0,0.0,0.0,0.0,0.2270526,0,0,0.0,0.0,0,0,5.0,0.0,572.0,4581.538461538462,3881.0256410256416,4399.48717948718,4429.743589743591,4223.076923076924,4498.974358974359,4382.564102564103,4398.974358974359,4364.102564102564,4726.666666666667,4261.538461538462,4128.717948717949,4124.102564102564,4462.051282051282
394.85495,0.8670899,0.54929274,0.33333334,0.5522388,0,0.0,0.0,0.0,0.0,0.20833834,0,0,0.0,0.0,0,0,37.0,0.0,0.0,4620.000000000001,3891.2820512820517,4449.743589743591,4427.179487179487,4229.2307692307695,4513.333333333334,4420.000000000001,4437.435897435898,4337.948717948719,4730.256410256411,4248.205128205129,4180.512820512821,4151.794871794872,4467.179487179487
395.10516,0.8670899,0.54929274,0.33333334,0.5522388,0,0.0,0.0,0.0,0.0,0.046410847,0,0,0.0,0.0,0,0,69.0,0.0,572.0,4640.512820512821,3864.615384615385,4510.256410256411,4423.076923076924,4231.794871794872,4515.8974358974365,4483.589743589744,4517.435897435898,4339.48717948718,4745.128205128206,4264.102564102564,4292.820512820514,4265.641025641026,4549.743589743591
395.35538,0.9172392,0.5723112,0.33333334,0.5522388,0,0.0,0.0,0.0,0.0,0.06342133,0,0,0.0,0.0,0,0,101.0,0.0,521.0,4678.974358974359,3876.410256410257,4585.128205128206,4423.589743589744,4230.256410256411,4517.435897435898,4533.846153846154,4569.2307692307695,4308.717948717949,4745.128205128206,4281.025641025642,4383.589743589744,4295.8974358974365,4570.769230769231
395.6056,0.9172392,0.5723112,0.33333334,0.5522388,0,0.0,0.0,0.0,0.0,0.051327,0,0,0.0,0.0,0,0,4.0,0.0,574.0,4708.717948717949,3895.3846153846157,4616.410256410257,4429.743589743591,4228.205128205129,4517.948717948719,4583.589743589744,4608.205128205129,4297.435897435898,4753.846153846154,4294.871794871796,4455.8974358974365,4329.2307692307695,4634.871794871796
395.8558,1.0,0.56901515,0.33333334,0.5522388,0,0.0,0.0,0.0,0.0,0.25725782,0,0,0.0,0.0,0,0,36.0,0.0,0.0,4795.8974358974365,3915.3846153846157,4661.025641025642,4434.871794871796,4205.128205128206,4500.000000000001,4592.307692307693,4603.589743589744,4263.076923076924,4754.871794871796,4293.333333333334,4518.974358974359,4292.307692307693,4646.666666666667
396.10602,1.0,0.56901515,0.33333334,0.5522388,0,0.0,0.0,0.0,0.0,0.7333827,0,0,0.0,0.0,0,0,68.0,0.0,574.0,4895.8974358974365,3949.7435897435903,4681.025641025642,4448.205128205129,4218.974358974359,4510.769230769231,4605.128205128206,4610.769230769231,4266.666666666667,4740.000000000001,4322.564102564103,4555.384615384616,4250.256410256411,4721.025641025642
396.35623,0.98069906,0.5660918,0.33333334,0.5522388,0,0.0,0.0,0.0,0.0,0.6863614,0,0,0.0,0.0,0,0,100.0,0.0,124.0,4767.179487179488,3941.0256410256416,4631.282051282052,4447.6923076923085,4216.923076923077,4514.358974358975,4570.769230769231,4594.358974358975,4286.153846153847,4711.282051282052,4333.333333333334,4521.538461538462,4158.974358974359,4621.538461538462
396.60645,0.98069906,0.5660918,0.33333334,0.5522388,0,0.0,0.0,0.0,0.0,0.37703687,0,0,0.0,0.0,0,0,3.0,0.0,548.0,4770.769230769231,3946.1538461538466,4623.076923076924,4445.641025641026,4230.256410256411,4517.948717948719,4545.641025641026,4577.435897435898,4322.051282051282,4700.000000000001,4363.589743589744,4544.102564102564,4171.282051282052,4609.2307692307695
396.8567,0.9878308,0.56346077,0.33333334,0.5522388,0,0.0,0.0,0.0,0.0,0.06633343,0,0,0.0,0.0,0,0,35.0,0.0,0.0,4711.794871794872,3951.2820512820517,4576.923076923077,4445.641025641026,4227.179487179487,4520.512820512821,4498.974358974359,4525.641025641026,4302.051282051282,4672.820512820514,4362.051282051282,4503.589743589744,4115.384615384616,4563.076923076924
397.1069,0.9878308,0.56346077,0.33333334,0.5522388,0,0.0,0.0,0.0,0.0,0.09829579,0,0,0.0,0.0,0,0,67.0,0.0,548.0,4661.025641025642,3957.435897435898,4537.435897435898,4456.410256410257,4237.948717948719,4533.333333333334,4456.923076923077,4479.48717948718,4318.974358974359,4678.461538461539,4369.2307692307695,4456.923076923077,4119.48717948718,4529.743589743591
397.35712,0.90456563,0.56109285,0.33333334,0.5522388,0,0.0,0.0,0.0,0.0,0.0,0,0,0.0,0.0,0,0,99.0,0.0,518.0,4640.000000000001,3957.435897435898,4525.641025641026,4457.948717948719,4241.538461538462,4532.820512820514,4435.384615384616,4446.666666666667,4340.000000000001,4685.128205128206,4373.333333333334,4440.000000000001,4144.102564102564,4541.025641025642
397.3884,0.90456563,0.56109285,0.33333334,0.5522388,0,0.0,0.0,0.0,0.0,0.0,0,0,0.0,0.0,0,0,103.0,0.0,518.0,4629.743589743591,3957.435897435898,4526.153846153847,4457.435897435898,4240.000000000001,4531.794871794872,4428.717948717949,4441.025641025642,4336.410256410257,4683.076923076924,4371.794871794872,4417.948717948719,4135.8974358974365,4523.589743589744
397.85754,0.99906874,0.5589617,0.33333334,0.5522388,0,0.0,0.0,0.0,0.0,0.17688785,0,0,0.0,0.0,0,0,34.0,0.0,0.0,4581.538461538462,3944.1025641025644,4489.743589743591,4446.666666666667,4239.48717948718,4528.717948717949,4403.076923076924,4415.384615384616,4360.512820512821,4686.153846153847,4361.538461538462,4338.974358974359,4145.128205128206,4488.717948717949
398.10776,0.99906874,0.5589617,0.33333334,0.5522388,0,0.0,0.0,0.0,0.0,0.20036702,0,0,0.0,0.0,0,0,66.0,0.0,514.0,4598.974358974359,3944.1025641025644,4509.2307692307695,4455.384615384616,4231.794871794872,4526.666666666667,4413.333333333334,4431.282051282052,4344.102564102564,4687.179487179488,4373.846153846154,4345.128205128206,4159.48717948718,4516.923076923077
398.35797,1.0,0.5188836,0.33333334,0.5522388,0,0.0,0.0,0.0,0.0,0.11752043,0,0,0.0,0.0,0,0,98.0,0.0,557.0,4611.794871794872,3952.307692307693,4523.589743589744,4452.820512820514,4226.153846153847,4519.48717948718,4435.384615384616,4453.333333333334,4325.641025641026,4689.743589743591,4373.846153846154,4340.000000000001,4177.948717948719,4526.153846153847
398.6082,1.0,0.5188836,0.33333334,0.5522388,0,0.0,0.0,0.0,0.0,0.16738953,0,0,0.0,0.0,0,0,1.0,0.0,460.0,4635.384615384616,3953.8461538461543,4554.358974358975,4456.410256410257,4220.000000000001,4516.923076923077,4465.128205128206,4503.076923076924,4342.564102564103,4698.461538461539,4388.717948717949,4391.282051282052,4221.025641025642,4572.307692307693
398.8584,0.97670907,0.4921962,0.33333334,0.5522388,0,0.0,0.0,0.0,0.0,0.16947939,0,0,0.0,0.0,0,0,33.0,0.0,0.0,4625.641025641026,3951.2820512820517,4552.307692307693,4449.743589743591,4223.589743589744,4516.923076923077,4461.538461538462,4496.410256410257,4329.2307692307695,4686.666666666667,4394.358974358975,4382.564102564103,4191.282051282052,4565.128205128206
399.1086,0.97670907,0.4921962,0.33333334,0.5522388,0,0.0,0.0,0.0,0.0,0.14169472,0,0,0.0,0.0,0,0,65.0,0.0,460.0,4666.666666666667,3964.615384615385,4572.820512820514,4457.435897435898,4230.769230769231,4523.076923076924,4487.6923076923085,4518.461538461539,4356.923076923077,4693.846153846154,4407.179487179487,4415.384615384616,4211.282051282052,4591.794871794872
399.35883,0.87786674,0.4716589,0.33333334,0.5522388,0,0.0,0.0,0.0,0.0,0.1313446,0,0,0.0,0.0,0,0,97.0,0.0,512.0,4624.615384615385,3964.615384615385,4550.256410256411,4457.948717948719,4230.256410256411,4521.538461538462,4457.948717948719,4479.48717948718,4334.358974358975,4669.743589743591,4398.461538461539,4384.102564102564,4189.74358974359,4552.307692307693
399.60904,0.87786674,0.4716589,0.33333334,0.5522388,0,0.0,0.0,0.0,0.0,0.19472934,0,0,0.0,0.0,0,0,0.0,0.0,510.0,4683.589743589744,3988.205128205129,4559.48717948718,4449.2307692307695,4214.358974358975,4509.2307692307695,4402.564102564103,4424.615384615385,4314.358974358975,4647.6923076923085,4376.410256410257,4339.48717948718,4134.871794871796,4544.615384615385
399.85925,0.8263647,0.45940495,0.33333334,0.5522388,0,0.0,0.0,0.0,0.0,0.44250527,0,0,0.0,0.0,0,0,32.0,0.0,0.0,4597.948717948719,3970.2564102564106,4543.589743589744,4460.000000000001,4236.923076923077,4531.282051282052,4426.666666666667,4433.846153846154,4341.538461538462,4649.743589743591,4367.6923076923085,4316.410256410257,4128.205128205129,4488.717948717949
400.10947,0.8263647,0.45940495,0.33333334,0.5522388,0,0.0,0.0,0.0,0.0,0.6658297,0,0,0.0,0.0,0,0,64.0,0.0,510.0,4565.128205128206,3962.0512820512827,4524.102564102564,4456.410256410257,4241.025641025642,4539.48717948718,4416.923076923077,4411.794871794872,4354.358974358975,4648.717948717949,4363.589743589744,4283.589743589744,4138.974358974359,4475.384615384616
400.35968,0.88312817,0.44660076,0.33333334,0.5522388,0,0.0,0.0,0.0,0.0,0.1415767,0,0,0.0,0.0,0,0,96.0,0.0,120.0,4550.769230769231,3941.538461538462,4494.871794871796,4438.974358974359,4228.205128205129,4521.538461538462,4383.589743589744,4373.333333333334,4340.512820512821,4641.538461538462,4348.717948717949,4245.128205128206,4157.435897435898,4456.923076923077
400.6099,0.88312817,0.44660076,0.33333334,0.5522388,0,0.0,0.0,0.0,0.0,0.3310559,0,0,0.0,0.0,0,0,128.0,0.0,120.0,4525.641025641026,3940.5128205128212,4491.282051282052,4442.051282051282,4240.000000000001,4540.512820512821,4386.153846153847,4372.820512820514,4364.102564102564,4648.205128205129,4344.102564102564,4249.74358974359,4165.128205128206,4465.128205128206
400.8601,0.88386375,0.42013395,0.33333334,0.5522388,0,0.0,0.0,0.0,0.0,0.11655007,0,0,0.0,0.0,0,0,31.0,0.0,0.0,4518.974358974359,3938.9743589743593,4479.48717948718,4438.974358974359,4236.410256410257,4532.307692307693,4396.923076923077,4378.461538461539,4382.051282051282,4663.076923076924,4344.102564102564,4232.307692307693,4191.282051282052,4474.871794871796
401.11032,0.88386375,0.42013395,0.33333334,0.5522388,0,0.0,0.0,0.0,0.0,0.12191678,0,0,0.0,0.0,0,0,63.0,0.0,0.0,4508.205128205129,3932.307692307693,4465.641025641026,4437.948717948719,4241.538461538462,4539.48717948718,4395.8974358974365,4382.564102564103,4394.358974358975,4669.743589743591,4332.820512820514,4189.74358974359,4187.179487179487,4432.307692307693
401.36053,0.90718985,0.39620632,0.33333334,0.5522388,0,0.0,0.0,0.0,0.0,0.0,0,0,0.0,0.0,0,0,95.0,0.0,520.0,4526.153846153847,3941.538461538462,4473.846153846154,4443.076923076924,4238.461538461539,4535.384615384616,4383.076923076924,4364.615384615385,4402.051282051282,4683.076923076924,4329.2307692307695,4197.948717948719,4196.410256410257,4456.410256410257
401.3918,0.90718985,0.39620632,0.33333334,0.5522388,0,0.0,0.0,0.0,0.0,0.0,0,0,0.0,0.0,0,0,99.0,0.0,520.0,4526.153846153847,3941.538461538462,4466.666666666667,4436.410256410257,4241.025641025642,4541.025641025642,4386.666666666667,4371.282051282052,4406.153846153847,4685.128205128206,4331.282051282052,4190.769230769231,4205.641025641026,4448.717948717949
401.86096,0.89750874,0.37061608,0.33333334,0.5522388,0,0.0,0.0,0.0,0.0,0.0,0,0,0.0,0.0,0,0,19.0,0.0,0.0,4536.410256410257,3937.435897435898,4463.076923076924,4428.205128205129,4238.461538461539,4532.307692307693,4389.2307692307695,4360.512820512821,4401.538461538462,4682.564102564103,4330.256410256411,4174.358974358975,4186.666666666667,4427.6923076923085
402.1112,0.89750874,0.37061608,0.33333334,0.5522388,0,0.0,0.0,0.0,0.0,0.7943345,0,0,0.0,0.0,0,0,62.0,0.0,0.0,4507.179487179488,3930.2564102564106,4456.923076923077,4440.000000000001,4253.846153846154,4551.282051282052,4397.435897435898,4367.179487179487,4426.666666666667,4702.564102564103,4317.948717948719,4152.307692307693,4180.512820512821,4421.025641025642
402.36142,0.83425987,0.3522886,0.33333334,0.5522388,0,0.0,0.0,0.0,0.0,0.6171386,0,0,0.0,0.0,0,0,94.0,0.0,557.0,4522.051282051282,3934.358974358975,4466.153846153847,4440.000000000001,4254.358974358975,4554.871794871796,4407.6923076923085,4367.179487179487,4429.2307692307695,4713.333333333334,4326.666666666667,4166.666666666667,4213.846153846154,4449.2307692307695
402.61163,0.83425987,0.3522886,0.33333334,0.5522388,0,0.0,0.0,0.0,0.0,0.23358843,0,0,0.0,0.0,0,0,126.0,0.0,557.0,4531.794871794872,3938.461538461539,4491.282051282052,4441.538461538462,4257.435897435898,4561.025641025642,4431.282051282052,4405.128205128206,4454.358974358975,4734.871794871796,4327.179487179487,4195.8974358974365,4229.74358974359,4468.717948717949
402.86185,0.90409535,0.3414948,0.33333334,0.5522388,0,0.0,0.0,0.0,0.0,0.0,0,0,0.0,0.0,0,0,29.0,0.0,0.0,4506.153846153847,3935.3846153846157,4455.8974358974365,4430.256410256411,4248.717948717949,4551.282051282052,4411.282051282052,4370.769230769231,4442.564102564103,4730.256410256411,4320.000000000001,4152.307692307693,4217.948717948719,4442.051282051282
402.89313,0.90409535,0.3414948,0.33333334,0.5522388,0,0.0,0.0,0.0,0.0,0.0,0,0,0.0,0.0,0,0,33.0,0.0,0.0,4490.769230769231,3926.666666666667,4460.000000000001,4430.256410256411,4253.846153846154,4556.410256410257,4423.589743589744,4380.000000000001,4439.48717948718,4730.256410256411,4322.051282051282,4155.8974358974365,4207.179487179487,4449.743589743591
403.36227,0.8250756,0.33312112,0.33333334,0.5522388,0,0.0,0.0,0.0,0.0,0.0,0,0,0.0,0.0,0,0,93.0,0.0,517.0,4489.743589743591,3933.333333333334,4456.923076923077,4429.2307692307695,4253.333333333334,4552.820512820514,4411.794871794872,4357.948717948719,4420.512820512821,4733.333333333334,4305.641025641026,4142.564102564103,4189.2307692307695,4437.435897435898
403.39355,0.8250756,0.33312112,0.33333334,0.5522388,0,0.0,0.0,0.0,0.0,0.0,0,0,0.0,0.0,0,0,97.0,0.0,517.0,4502.564102564103,3941.538461538462,4474.358974358975,4433.846153846154,4252.307692307693,4555.384615384616,4423.076923076924,4392.820512820514,4456.410256410257,4753.846153846154,4318.461538461539,4171.794871794872,4220.512820512821,4457.435897435898
403.8627,0.79334295,0.32028311,0.33333334,0.5522388,0,0.0,0.0,0.0,0.0,0.0,0,0,0.0,0.0,0,0,15.0,0.0,522.0,4486.153846153847,3941.0256410256416,4455.8974358974365,4435.8974358974365,4245.641025641026,4549.743589743591,4403.076923076924,4355.384615384616,4429.2307692307695,4741.025641025642,4305.641025641026,4126.153846153847,4182.564102564103,4439.48717948718
404.1129,0.79334295,0.32028311,0.33333334,0.5522388,0,0.0,0.0,0.0,0.0,0.8975677,0,0,0.0,0.0,0,0,60.0,0.0,0.0,4485.641025641026,3930.7692307692314,4462.051282051282,4428.205128205129,4250.256410256411,4551.794871794872,4414.358974358975,4372.820512820514,4428.717948717949,4748.717948717949,4308.717948717949,4152.307692307693,4186.153846153847,4455.8974358974365
404.36313,0.7234059,0.31108147,0.33333334,0.5522388,0,0.0,0.0,0.0,0.0,0.78270555,0,0,0.0,0.0,0,0,92.0,0.0,120.0,4492.820512820514,3943.076923076924,4460.000000000001,4435.384615384616,4245.641025641026,4545.641025641026,4412.307692307693,4383.076923076924,4445.641025641026,4757.435897435898,4310.769230769231,4155.384615384616,4196.410256410257,4475.384615384616
404.61334,0.7234059,0.31108147,0.33333334,0.5522388,0,0.0,0.0,0.0,0.0,0.0,0,0,0.0,0.0,0,0,124.0,0.0,120.0,4506.666666666667,3943.076923076924,4458.461538461539,4429.2307692307695,4245.128205128206,4545.128205128206,4423.589743589744,4397.948717948719,4434.871794871796,4753.846153846154,4305.128205128206,4141.025641025642,4173.846153846154,4450.769230769231
404.86356,0.63793945,0.3011669,0.33333334,0.5522388,0,0.0,0.0,0.0,0.0,0.0,0,0,0.0,0.0,0,0,27.0,0.0,0.0,4517.948717948719,3944.1025641025644,4461.538461538462,4429.2307692307695,4241.025641025642,4545.128205128206,4403.589743589744,4385.128205128206,4431.794871794872,4758.461538461539,4304.102564102564,4152.307692307693,4202.051282051282,4488.205128205129
404.89484,0.63793945,0.3011669,0.33333334,0.5522388,0,0.0,0.0,0.0,0.0,0.0,0,0,0.0,0.0,0,0,31.0,0.0,0.0,4517.435897435898,3943.589743589744,4471.794871794872,4430.256410256411,4241.025641025642,4543.589743589744,4410.256410256411,4395.8974358974365,4440.000000000001,4762.564102564103,4303.589743589744,4159.48717948718,4190.769230769231,4468.717948717949
405.36398,0.5979592,0.29235968,0.33333334,0.5522388,0,0.0,0.0,0.0,0.0,0.0,0,0,0.0,0.0,0,0,70.0,0.0,589.0,4521.538461538462,3937.9487179487182,4472.820512820514,4431.282051282052,4246.666666666667,4550.769230769231,4422.051282051282,4412.820512820514,4434.871794871796,4764.615384615386,4306.666666666667,4152.820512820514,4184.102564102564,4472.307692307693
405.39526,0.5979592,0.29235968,0.33333334,0.5522388,0,0.0,0.0,0.0,0.0,0.0,0,0,0.0,0.0,0,0,95.0,0.0,522.0,4553.846153846154,3943.076923076924,4486.666666666667,4439.48717948718,4250.256410256411,4555.8974358974365,4427.6923076923085,4428.205128205129,4441.538461538462,4772.307692307693,4307.6923076923085,4191.794871794872,4187.6923076923085,4492.820512820514
405.8644,0.59198654,0.29013968,0.33333334,0.5522388,0,0.0,0.0,0.0,0.0,0.0,0,0,0.0,0.0,0,0,20.0,0.0,0.0,4543.589743589744,3950.7692307692314,4494.358974358975,4443.589743589744,4251.794871794872,4556.410256410257,4451.794871794872,4453.846153846154,4448.205128205129,4778.461538461539,4316.410256410257,4181.538461538462,4203.076923076924,4510.769230769231
405.8957,0.59198654,0.29013968,0.33333334,0.5522388,0,0.0,0.0,0.0,0.0,0.0,0,0,0.0,0.0,0,0,30.0,0.0,0.0,4538.974358974359,3943.076923076924,4486.666666666667,4437.435897435898,4245.641025641026,4547.179487179488,4419.48717948718,4419.48717948718,4423.589743589744,4767.6923076923085,4313.333333333334,4179.48717948718,4196.410256410257,4508.717948717949
406.36484,0.54810244,0.2750746,0.33333334,0.5522388,0,0.0,0.0,0.0,0.0,0.25456965,0,0,0.0,0.0,0,0,72.0,0.0,504.0,4557.948717948719,3960.5128205128212,4486.666666666667,4445.641025641026,4245.641025641026,4543.589743589744,4433.333333333334,4430.256410256411,4432.820512820514,4775.8974358974365,4310.256410256411,4169.2307692307695,4163.589743589744,4480.512820512821
406.61505,0.54810244,0.2750746,0.33333334,0.5522388,0,0.0,0.0,0.0,0.0,0.16318728,0,0,0.0,0.0,0,0,122.0,0.0,557.0,4576.923076923077,3958.461538461539,4491.282051282052,4444.102564102564,4246.153846153847,4545.128205128206,4431.282051282052,4417.948717948719,4418.461538461539,4767.6923076923085,4312.820512820514,4192.307692307693,4176.410256410257,4503.589743589744
406.86526,0.5047524,0.26019496,0.33333334,0.5522388,0,0.0,0.0,0.0,0.0,0.0,0,0,0.0,0.0,0,0,25.0,0.0,0.0,4591.282051282052,3963.076923076924,4504.615384615385,4447.179487179487,4248.717948717949,4544.102564102564,4426.666666666667,4426.153846153847,4434.871794871796,4775.8974358974365,4320.512820512821,4211.282051282052,4184.615384615385,4505.128205128206
406.89655,0.5047524,0.26019496,0.33333334,0.5522388,0,0.0,0.0,0.0,0.0,0.0,0,0,0.0,0.0,0,0,29.0,0.0,0.0,4571.794871794872,3953.8461538461543,4504.102564102564,4447.179487179487,4253.333333333334,4549.2307692307695,4437.435897435898,4416.923076923077,4416.410256410257,4764.102564102564,4310.256410256411,4188.717948717949,4164.615384615385,4489.2307692307695
407.3657,0.46906245,0.24585779,0.33333334,0.5522388,0,0.0,0.0,0.0,0.0,0.0,0,0,0.0,0.0,0,0,71.0,0.0,496.0,4568.717948717949,3950.7692307692314,4489.743589743591,4445.641025641026,4248.205128205129,4553.846153846154,4440.000000000001,4413.846153846154,4411.282051282052,4762.051282051282,4313.846153846154,4186.153846153847,4178.974358974359,4505.128205128206
407.61594,0.46906245,0.24585779,0.33333334,0.5522388,0,0.0,0.0,0.0,0.0,0.92488325,0,0,0.0,0.0,0,0,121.0,0.0,517.0,4555.8974358974365,3940.0000000000005,4476.410256410257,4441.538461538462,4249.74358974359,4549.743589743591,4449.2307692307695,4425.128205128206,4419.48717948718,4764.615384615386,4318.974358974359,4182.051282051282,4168.205128205129,4505.128205128206
407.86615,0.42868042,0.2362389,0.33333334,0.5522388,0,0.0,0.0,0.0,0.0,0.70445764,0,0,0.0,0.0,0,0,24.0,0.0,0.0,4543.589743589744,3928.717948717949,4473.333333333334,4437.435897435898,4242.564102564103,4548.205128205129,4441.025641025642,4403.589743589744,4392.307692307693,4753.333333333334,4312.820512820514,4171.794871794872,4144.615384615385,4484.615384615385
408.11636,0.42868042,0.2362389,0.33333334,0.5522388,0,0.0,0.0,0.0,0.0,0.13102946,0,0,0.0,0.0,0,0,56.0,0.0,0.0,4556.410256410257,3926.666666666667,4472.820512820514,4433.846153846154,4243.076923076924,4551.282051282052,4442.564102564103,4413.846153846154,4408.717948717949,4758.974358974359,4321.538461538462,4197.435897435898,4175.384615384616,4502.051282051282
408.36658,0.3793043,0.23431621,0.33333334,0.5522388,0,0.0,0.0,0.0,0.0,0.0,0,0,0.0,0.0,0,0,88.0,0.0,120.0,4561.538461538462,3932.307692307693,4482.564102564103,4434.358974358975,4243.076923076924,4544.102564102564,4432.820512820514,4412.820512820514,4405.128205128206,4764.102564102564,4329.2307692307695,4207.6923076923085,4186.666666666667,4500.512820512821
408.39786,0.3793043,0.23431621,0.33333334,0.5522388,0,0.0,0.0,0.0,0.0,0.0,0,0,0.0,0.0,0,0,92.0,0.0,120.0,4556.923076923077,3935.8974358974365,4487.6923076923085,4438.461538461539,4245.128205128206,4540.000000000001,4431.794871794872,4417.948717948719,4408.717948717949,4764.102564102564,4334.871794871796,4211.794871794872,4194.871794871796,4516.410256410257
408.867,0.34683725,0.23242345,0.33333334,0.5522388,0,0.0,0.0,0.0,0.0,0.0,0,0,0.0,0.0,0,0,113.0,0.0,517.0,4544.615384615385,3923.076923076924,4473.333333333334,4428.717948717949,4249.74358974359,4540.000000000001,4435.384615384616,4408.205128205129,4401.025641025642,4759.48717948718,4328.205128205129,4203.076923076924,4168.717948717949,4507.6923076923085
409.11722,0.34683725,0.23242345,0.33333334,0.5522388,0,0.0,0.0,0.0,0.0,0.14847909,0,0,0.0,0.0,0,0,55.0,0.0,0.0,4561.538461538462,3944.615384615385,4492.820512820514,4439.48717948718,4248.717948717949,4544.102564102564,4441.538461538462,4408.717948717949,4398.461538461539,4756.923076923077,4326.666666666667,4211.794871794872,4162.564102564103,4484.102564102564
409.36743,0.3452276,0.23148338,0.33333334,0.5522388,0,0.0,0.0,0.0,0.0,0.0,0,0,0.0,0.0,0,0,87.0,0.0,522.0,4576.410256410257,3945.6410256410263,4499.48717948718,4440.000000000001,4248.205128205129,4544.102564102564,4452.307692307693,4427.6923076923085,4425.128205128206,4767.6923076923085,4340.512820512821,4227.179487179487,4202.564102564103,4506.666666666667
409.3987,0.3452276,0.23148338,0.33333334,0.5522388,0,0.0,0.0,0.0,0.0,0.0,0,0,0.0,0.0,0,0,91.0,0.0,522.0,4560.000000000001,3938.461538461539,4490.769230769231,4438.974358974359,4252.307692307693,4547.179487179488,4442.051282051282,4420.000000000001,4408.717948717949,4762.564102564103,4334.871794871796,4215.384615384616,4188.717948717949,4489.2307692307695
409.86786,0.2940721,0.22813992,0.33333334,0.5522388,0,0.0,0.0,0.0,0.0,0.17877863,0,0,0.0,0.0,0,0,16.0,0.0,0.0,4580.000000000001,3937.9487179487182,4507.6923076923085,4436.410256410257,4244.615384615385,4545.128205128206,4440.512820512821,4423.076923076924,4405.641025641026,4762.564102564103,4344.615384615385,4232.307692307693,4203.589743589744,4532.307692307693
410.11807,0.2940721,0.22813992,0.33333334,0.5522388,0,0.0,0.0,0.0,0.0,0.33675703,0,0,0.0,0.0,0,0,54.0,0.0,0.0,4567.6923076923085,3926.1538461538466,4504.615384615385,4435.8974358974365,4244.102564102564,4540.512820512821,4448.205128205129,4436.923076923077,4420.512820512821,4769.2307692307695,4346.153846153847,4235.384615384616,4205.641025641026,4523.589743589744
410.3683,0.32395712,0.22497354,0.33333334,0.5522388,0,0.0,0.0,0.0,0.0,0.0,0,0,0.0,0.0,0,0,80.0,0.0,120.0,4584.615384615385,3942.0512820512827,4506.153846153847,4442.564102564103,4246.666666666667,4543.076923076924,4438.461538461539,4416.410256410257,4391.794871794872,4763.589743589744,4345.128205128206,4213.846153846154,4196.410256410257,4516.923076923077
410.6185,0.32395712,0.22497354,0.33333334,0.5522388,0,0.0,0.0,0.0,0.0,0.22756547,0,0,0.0,0.0,0,0,118.0,0.0,557.0,4589.743589743591,3935.8974358974365,4505.641025641026,4442.051282051282,4248.717948717949,4546.666666666667,4449.743589743591,4415.384615384616,4397.948717948719,4763.589743589744,4348.205128205129,4227.6923076923085,4188.205128205129,4512.307692307693
410.8687,0.3198831,0.22207613,0.33333334,0.5522388,0,0.0,0.0,0.0,0.0,0.17828353,0,0,0.0,0.0,0,0,16.0,0.0,0.0,4578.461538461539,3928.717948717949,4498.974358974359,4441.538461538462,4244.615384615385,4545.641025641026,4446.666666666667,4418.461538461539,4398.974358974359,4762.564102564103,4346.666666666667,4220.000000000001,4186.153846153847,4497.948717948719
411.11893,0.3198831,0.22207613,0.33333334,0.5522388,1,0.0,0.0,0.0,0.0,0.711129,0,0,0.0,0.0,0,0,53.0,0.0,0.0,4550.769230769231,3928.205128205129,4489.2307692307695,4439.48717948718,4245.641025641026,4545.641025641026,4440.000000000001,4424.102564102564,4410.769230769231,4761.025641025642,4344.102564102564,4194.358974358975,4176.923076923077,4525.128205128206
411.24405,0.3198831,0.22207613,0.33333334,0.5522388,0,0.0,0.0,0.0,0.0,0.6268822,0,0,0.0,0.0,0,0,69.0,0.0,572.0,4565.128205128206,3929.2307692307695,4490.256410256411,4437.435897435898,4246.666666666667,4548.205128205129,4452.307692307693,4422.564102564103,4409.2307692307695,4765.641025641026,4351.282051282052,4207.179487179487,4188.717948717949,4526.666666666667
411.61935,0.29790178,0.23214841,0.33333334,0.5522388,0,0.0,0.0,0.0,0.0,0.30510226,0,0,0.0,0.0,0,0,117.0,0.0,517.0,4619.48717948718,3950.2564102564106,4509.2307692307695,4430.769230769231,4235.8974358974365,4535.8974358974365,4443.076923076924,4412.307692307693,4392.820512820514,4758.974358974359,4343.589743589744,4225.641025641026,4149.2307692307695,4521.538461538462
411.74448,0.29790178,0.23214841,0.33333334,0.5522388,0,0.0,0.0,0.0,0.0,0.0,0,0,0.0,0.0,0,0,4.0,0.0,574.0,4580.512820512821,3938.461538461539,4488.717948717949,4434.871794871796,4242.051282051282,4541.025641025642,4451.282051282052,4409.743589743591,4384.102564102564,4752.307692307693,4373.333333333334,4176.923076923077,4115.8974358974365,4485.641025641026
412.11978,0.29396623,0.24522799,0.33333334,0.5522388,0,0.0,0.0,0.0,0.0,0.6091282,0,0,0.0,0.0,0,0,52.0,0.0,0.0,4523.076923076924,3909.7435897435903,4472.820512820514,4425.128205128206,4192.820512820514,4537.948717948719,4437.435897435898,4415.8974358974365,4403.076923076924,4756.923076923077,4347.179487179487,4196.410256410257,4164.615384615385,4455.8974358974365
412.2449,0.29396623,0.24522799,0.33333334,0.5522388,0,0.0,0.0,0.0,0.0,0.65603614,0,0,0.0,0.0,0,0,68.0,0.0,574.0,4529.743589743591,3908.717948717949,4460.512820512821,4421.538461538462,4192.307692307693,4524.102564102564,4421.025641025642,4392.307692307693,4386.666666666667,4742.051282051282,4339.48717948718,4169.2307692307695,4146.153846153847,4440.512820512821
412.6202,0.316006,0.27080512,0.33333334,0.5522388,0,0.0,0.0,0.0,0.0,0.69867766,0,0,0.0,0.0,1,0,116.0,0.0,120.0,4539.48717948718,3893.8461538461543,4498.461538461539,4416.410256410257,4227.179487179487,4530.769230769231,4443.076923076924,4426.153846153847,4400.512820512821,4755.8974358974365,4331.282051282052,4206.153846153847,4171.282051282052,4495.384615384616
412.74533,0.316006,0.27080512,0.33333334,0.5522388,0,0.0,0.0,0.0,0.0,0.5375471,0,0,0.0,0.0,0,0,3.0,0.0,548.0,4570.256410256411,3908.205128205129,4521.538461538462,4427.6923076923085,4236.410256410257,4530.769230769231,4442.564102564103,4423.076923076924,4404.615384615385,4770.769230769231,4344.615384615385,4229.74358974359,4183.589743589744,4531.282051282052
413.12067,0.31510195,0.3151676,0.33333334,0.5522388,0,0.0,0.0,0.0,0.0,0.086482145,0,0,0.0,0.0,0,0,50.0,0.0,0.0,4630.256410256411,3930.7692307692314,4554.358974358975,4426.153846153847,4266.153846153847,4562.051282051282,4520.512820512821,4505.641025641026,4475.384615384616,4810.769230769231,4357.435897435898,4263.076923076924,4246.153846153847,4562.051282051282
413.24576,0.31510195,0.3151676,0.33333334,0.5522388,0,0.0,0.0,0.0,0.0,0.15415716,0,0,0.0,0.0,0,0,67.0,0.0,548.0,4644.102564102564,3949.7435897435903,4573.846153846154,4438.974358974359,4268.205128205129,4565.641025641026,4497.948717948719,4477.948717948719,4460.512820512821,4805.641025641026,4361.025641025642,4282.564102564103,4262.564102564103,4578.974358974359
413.6211,0.4696704,0.3336947,0.33333334,0.5522388,0,0.0,0.0,0.0,0.0,0.12959914,0,0,0.0,0.0,0,0,114.0,0.0,557.0,4611.282051282052,3938.461538461539,4537.948717948719,4437.435897435898,4240.000000000001,4540.000000000001,4456.923076923077,4451.282051282052,4419.48717948718,4788.205128205129,4341.025641025642,4252.307692307693,4192.820512820514,4525.128205128206
413.7462,0.4696704,0.3336947,0.33333334,0.5522388,0,0.0,0.0,0.0,0.0,0.13095948,0,0,0.0,0.0,0,0,2.0,0.0,519.0,4576.923076923077,3925.1282051282055,4504.615384615385,4428.205128205129,4235.384615384616,4538.461538461539,4445.128205128206,4432.820512820514,4403.589743589744,4776.410256410257,4339.48717948718,4221.025641025642,4180.512820512821,4499.48717948718
414.12152,0.53227025,0.34434012,0.33333334,0.5522388,0,0.0,0.0,0.0,0.0,0.13217984,0,0,0.0,0.0,0,0,47.0,0.0,0.0,4580.000000000001,3926.1538461538466,4490.769230769231,4423.076923076924,4230.256410256411,4532.820512820514,4422.051282051282,4416.410256410257,4397.948717948719,4780.512820512821,4338.974358974359,4231.794871794872,4175.8974358974365,4494.358974358975
414.2466,0.53227025,0.34434012,0.33333334,0.5522388,0,0.0,0.0,0.0,0.0,0.16377057,0,0,0.0,0.0,0,0,66.0,0.0,519.0,4613.333333333334,3933.8461538461543,4494.358974358975,4431.282051282052,4250.256410256411,4546.666666666667,4424.615384615385,4402.051282051282,4393.846153846154,4774.358974358975,4351.282051282052,4236.410256410257,4194.358974358975,4494.358974358975
414.49683,0.46761438,0.3294137,0.33333334,0.5522388,0,0.0,0.0,0.0,0.0,0.20043708,0,0,0.0,0.0,0,0,98.0,0.0,557.0,4632.307692307693,3934.8717948717954,4504.102564102564,4428.205128205129,4234.871794871796,4542.051282051282,4417.948717948719,4405.641025641026,4388.717948717949,4773.846153846154,4359.48717948718,4246.153846153847,4183.589743589744,4493.846153846154
414.74704,0.46761438,0.3294137,0.33333334,0.5522388,0,0.0,0.0,0.0,0.0,0.0,0,0,0.0,0.0,0,0,1.0,0.0,460.0,4617.948717948719,3935.8974358974365,4488.717948717949,4429.743589743591,4248.205128205129,4548.205128205129,4422.051282051282,4411.794871794872,4393.846153846154,4762.051282051282,4350.769230769231,4222.051282051282,4145.641025641026,4460.000000000001
414.99725,0.42346647,0.31416628,0.33333334,0.5522388,0,0.0,0.0,0.0,0.0,0.18163338,0,0,0.0,0.0,0,0,33.0,0.0,0.0,4604.615384615385,3927.1794871794878,4475.384615384616,4428.717948717949,4246.153846153847,4549.743589743591,4421.538461538462,4400.512820512821,4378.461538461539,4760.512820512821,4348.717948717949,4217.435897435898,4155.384615384616,4472.820512820514
415.24747,0.42346647,0.31416628,0.33333334,0.5522388,0,0.0,0.0,0.0,0.0,0.34216237,0,0,0.0,0.0,0,0,65.0,0.0,460.0,4598.461538461539,3932.307692307693,4489.743589743591,4429.2307692307695,4240.000000000001,4544.615384615385,4428.205128205129,4393.846153846154,4374.358974358975,4754.358974358975,4347.6923076923085,4212.820512820514,4155.8974358974365,4494.871794871796
415.49768,0.37472656,0.29522002,0.33333334,0.5522388,0,0.0,0.0,0.0,0.0,0.22094098,0,0,0.0,0.0,0,0,97.0,0.0,517.0,4568.205128205129,3933.333333333334,4462.564102564103,4428.717948717949,4239.48717948718,4540.000000000001,4411.794871794872,4382.564102564103,4373.846153846154,4748.717948717949,4352.307692307693,4208.205128205129,4148.717948717949,4478.461538461539
415.74792,0.37472656,0.29522002,0.33333334,0.5522388,0,0.0,0.0,0.0,0.0,0.20936513,0,0,0.0,0.0,0,0,0.0,0.0,510.0,4590.256410256411,3943.076923076924,4489.2307692307695,4437.435897435898,4241.538461538462,4542.051282051282,4428.717948717949,4404.102564102564,4377.435897435898,4750.256410256411,4353.846153846154,4223.589743589744,4162.051282051282,4505.641025641026
415.9043,0.38028353,0.27806854,0.33333334,0.5522388,0,0.0,0.0,0.0,0.0,0.0,0,0,0.0,0.0,0,0,20.0,0.0,0.0,4575.384615384616,3946.1538461538466,4490.256410256411,4443.076923076924,4238.461538461539,4542.564102564103,4420.000000000001,4398.974358974359,4383.076923076924,4752.307692307693,4353.846153846154,4233.333333333334,4164.615384615385,4503.076923076924
415.9043,0.38028353,0.27806854,0.33333334,0.5522388,0,0.0,0.0,0.0,0.0,0.0,0,0,0.0,0.0,0,0,20.0,0.0,0.0,4575.384615384616,3946.1538461538466,4490.256410256411,4443.076923076924,4238.461538461539,4542.564102564103,4420.000000000001,4398.974358974359,4383.076923076924,4752.307692307693,4353.846153846154,4233.333333333334,4164.615384615385,4503.076923076924
416.40472,0.34145957,0.2616901,0.33333334,0.5522388,0,0.0,0.0,0.0,0.0,0.0,0,0,0.0,0.0,0,0,84.0,0.0,118.0,4578.974358974359,3925.1282051282055,4472.307692307693,4429.2307692307695,4227.179487179487,4523.589743589744,4403.076923076924,4393.333333333334,4377.435897435898,4747.179487179488,4355.8974358974365,4203.589743589744,4161.538461538462,4487.6923076923085
416.78006,0.34145957,0.2616901,0.33333334,0.5522388,0,0.0,0.0,0.0,0.0,0.9228674,0,0,0.0,0.0,0,0,3.0,0.0,548.0,4591.282051282052,3934.358974358975,4481.025641025642,4435.8974358974365,4238.974358974359,4538.461538461539,4427.179487179487,4414.871794871796,4392.307692307693,4749.2307692307695,4365.641025641026,4213.333333333334,4175.384615384616,4483.589743589744
416.999,0.3393268,0.2483035,0.33333334,0.5522388,0,0.0,0.0,0.0,0.0,0.53049463,0,0,0.0,0.0,0,0,31.0,0.0,0.0,4568.717948717949,3926.666666666667,4484.615384615385,4430.769230769231,4237.435897435898,4538.461538461539,4429.743589743591,4420.512820512821,4385.641025641026,4750.256410256411,4364.615384615385,4209.2307692307695,4177.948717948719,4484.102564102564
417.2492,0.3393268,0.2483035,0.33333334,0.5522388,0,0.0,0.0,0.0,0.0,0.24519974,0,0,0.0,0.0,0,0,63.0,0.0,0.0,4570.256410256411,3926.666666666667,4474.871794871796,4429.2307692307695,4238.461538461539,4538.974358974359,4430.256410256411,4420.512820512821,4394.871794871796,4752.820512820514,4373.333333333334,4214.358974358975,4164.102564102564,4501.538461538462
417.49942,0.2899998,0.24257615,0.33333334,0.5522388,0,0.0,0.0,0.0,0.0,0.2505829,0,0,0.0,0.0,0,0,95.0,0.0,521.0,4552.307692307693,3924.1025641025644,4475.384615384616,4428.717948717949,4231.282051282052,4535.384615384616,4425.641025641026,4417.948717948719,4388.205128205129,4747.179487179488,4367.179487179487,4206.153846153847,4156.410256410257,4492.820512820514
417.74963,0.2899998,0.24257615,0.33333334,0.5522388,0,0.0,0.0,0.0,0.0,0.0,0,0,0.0,0.0,0,0,127.0,0.0,521.0,4551.282051282052,3925.1282051282055,4475.8974358974365,4427.179487179487,4240.000000000001,4541.538461538462,4437.948717948719,4414.358974358975,4388.205128205129,4744.615384615386,4370.256410256411,4207.6923076923085,4154.871794871796,4465.641025641026
417.906,0.25857195,0.23192388,0.33333334,0.5522388,0,0.0,0.0,0.0,0.0,0.0,0,0,0.0,0.0,0,0,18.0,0.0,0.0,4557.948717948719,3935.8974358974365,4475.8974358974365,4429.743589743591,4241.538461538462,4545.641025641026,4424.102564102564,4402.564102564103,4378.461538461539,4741.025641025642,4364.102564102564,4193.333333333334,4125.128205128206,4462.564102564103
417.906,0.25857195,0.23192388,0.33333334,0.5522388,0,0.0,0.0,0.0,0.0,0.0,0,0,0.0,0.0,0,0,18.0,0.0,0.0,4557.948717948719,3935.8974358974365,4475.8974358974365,4429.743589743591,4241.538461538462,4545.641025641026,4424.102564102564,4402.564102564103,4378.461538461539,4741.025641025642,4364.102564102564,4193.333333333334,4125.128205128206,4462.564102564103
418.50027,0.2574683,0.23898824,0.33333334,0.5522388,0,0.0,0.0,0.0,0.0,1.0,0,0,0.0,0.0,0,0,94.0,0.0,557.0,4550.769230769231,3932.307692307693,4485.641025641026,4432.820512820514,4248.717948717949,4548.717948717949,4450.769230769231,4426.153846153847,4401.538461538462,4753.846153846154,4368.205128205129,4208.717948717949,4173.333333333334,4300.512820512821
418.50027,0.2574683,0.23898824,0.33333334,0.5522388,0,0.0,0.0,0.0,0.0,1.0,0,0,0.0,0.0,0,0,94.0,0.0,557.0,4550.769230769231,3932.307692307693,4485.641025641026,4432.820512820514,4248.717948717949,4548.717948717949,4450.769230769231,4426.153846153847,4401.538461538462,4753.846153846154,4368.205128205129,4208.717948717949,4173.333333333334,4300.512820512821
418.90686,0.26150972,0.23529038,0.33333334,0.5522388,0,0.0,0.0,0.0,0.0,1.0,0,0,0.0,0.0,0,0,17.0,0.0,0.0,4580.000000000001,3932.307692307693,4490.256410256411,4432.307692307693,4240.000000000001,4543.076923076924,4435.384615384616,4404.102564102564,4393.846153846154,4754.358974358975,4354.871794871796,4203.589743589744,4170.256410256411,4429.2307692307695
418.90686,0.26150972,0.23529038,0.33333334,0.5522388,0,0.0,0.0,0.0,0.0,1.0,0,0,0.0,0.0,0,0,17.0,0.0,0.0,4580.000000000001,3932.307692307693,4490.256410256411,4432.307692307693,4240.000000000001,4543.076923076924,4435.384615384616,4404.102564102564,4393.846153846154,4754.358974358975,4354.871794871796,4203.589743589744,4170.256410256411,4429.2307692307695
419.50113,0.2535021,0.23807041,0.33333334,0.5522388,0,0.0,0.0,0.0,0.0,0.66007715,0,0,0.0,0.0,0,0,93.0,0.0,517.0,4568.717948717949,3932.820512820513,4492.820512820514,4440.000000000001,4250.769230769231,4551.282051282052,4445.128205128206,4419.48717948718,4410.769230769231,4763.076923076924,4365.641025641026,4217.948717948719,4191.282051282052,4551.282051282052
419.75134,0.2535021,0.23807041,0.33333334,0.5522388,0,0.0,0.0,0.0,0.0,0.1901681,0,0,0.0,0.0,0,0,125.0,0.0,517.0,4590.256410256411,3944.1025641025644,4508.205128205129,4443.589743589744,4246.153846153847,4551.794871794872,4444.102564102564,4415.8974358974365,4409.743589743591,4765.641025641026,4366.153846153847,4222.564102564103,4195.8974358974365,4547.179487179488
419.90775,0.25901577,0.24161425,0.33333334,0.5522388,0,0.0,0.0,0.0,0.0,0.0,0,0,0.0,0.0,0,0,16.0,0.0,0.0,4601.538461538462,3943.589743589744,4507.179487179488,4441.025641025642,4237.948717948719,4541.025641025642,4427.179487179487,4412.307692307693,4394.358974358975,4759.48717948718,4360.000000000001,4205.641025641026,4169.2307692307695,4555.384615384616
419.90775,0.25901577,0.24161425,0.33333334,0.5522388,0,0.0,0.0,0.0,0.0,0.0,0,0,0.0,0.0,0,0,16.0,0.0,0.0,4601.538461538462,3943.589743589744,4507.179487179488,4441.025641025642,4237.948717948719,4541.025641025642,4427.179487179487,4412.307692307693,4394.358974358975,4759.48717948718,4360.000000000001,4205.641025641026,4169.2307692307695,4555.384615384616
420.40817,0.28099236,0.24309614,0.33333334,0.5522388,0,0.0,0.0,0.0,0.0,0.0,0,0,0.0,0.0,0,0,80.0,0.0,117.0,4585.641025641026,3941.0256410256416,4488.205128205129,4445.128205128206,4257.435897435898,4560.512820512821,4435.384615384616,4420.000000000001,4404.102564102564,4765.128205128206,4363.589743589744,4214.358974358975,4188.205128205129,4546.153846153847
420.40817,0.28099236,0.24309614,0.33333334,0.5522388,0,0.0,0.0,0.0,0.0,0.0,0,0,0.0,0.0,0,0,80.0,0.0,117.0,4585.641025641026,3941.0256410256416,4488.205128205129,4445.128205128206,4257.435897435898,4560.512820512821,4435.384615384616,4420.000000000001,4404.102564102564,4765.128205128206,4363.589743589744,4214.358974358975,4188.205128205129,4546.153846153847
420.9086,0.320607,0.23852699,0.33333334,0.5522388,0,0.0,0.0,0.0,0.0,0.0,0,0,0.0,0.0,0,0,15.0,0.0,521.0,4588.205128205129,3930.2564102564106,4495.8974358974365,4442.051282051282,4249.74358974359,4552.307692307693,4444.615384615385,4431.282051282052,4403.589743589744,4765.128205128206,4356.923076923077,4211.794871794872,4173.333333333334,4518.974358974359
420.9086,0.320607,0.23852699,0.33333334,0.5522388,0,0.0,0.0,0.0,0.0,0.0,0,0,0.0,0.0,0,0,15.0,0.0,521.0,4588.205128205129,3930.2564102564106,4495.8974358974365,4442.051282051282,4249.74358974359,4552.307692307693,4444.615384615385,4431.282051282052,4403.589743589744,4765.128205128206,4356.923076923077,4211.794871794872,4173.333333333334,4518.974358974359
421.40903,0.30078742,0.23084182,0.33333334,0.5522388,0,0.0,0.0,0.0,0.0,0.0,0,0,0.0,0.0,0,0,79.0,0.0,521.0,4594.358974358975,3938.461538461539,4489.2307692307695,4434.871794871796,4254.358974358975,4553.333333333334,4447.179487179487,4437.435897435898,4400.000000000001,4759.48717948718,4347.6923076923085,4204.615384615385,4155.384615384616,4537.435897435898
421.40903,0.30078742,0.23084182,0.33333334,0.5522388,0,0.0,0.0,0.0,0.0,0.0,0,0,0.0,0.0,0,0,79.0,0.0,521.0,4594.358974358975,3938.461538461539,4489.2307692307695,4434.871794871796,4254.358974358975,4553.333333333334,4447.179487179487,4437.435897435898,4400.000000000001,4759.48717948718,4347.6923076923085,4204.615384615385,4155.384615384616,4537.435897435898
422.0033,0.30416635,0.22238229,0.33333334,0.5522388,0,0.0,0.0,0.0,0.0,0.09432998,0,0,0.0,0.0,0,0,26.0,0.0,0.0,4625.128205128206,3947.692307692308,4496.410256410257,4440.512820512821,4256.410256410257,4556.410256410257,4434.871794871796,4420.000000000001,4402.051282051282,4764.102564102564,4358.974358974359,4228.205128205129,4189.74358974359,4535.384615384616
422.2535,0.30416635,0.22238229,0.33333334,0.5522388,0,0.0,0.0,0.0,0.0,0.0,0,0,0.0,0.0,0,0,58.0,0.0,0.0,4608.205128205129,3942.0512820512827,4504.102564102564,4437.948717948719,4251.282051282052,4555.384615384616,4437.948717948719,4419.48717948718,4396.923076923077,4762.564102564103,4358.974358974359,4218.461538461539,4184.102564102564,4529.2307692307695
422.40988,0.29299194,0.21337233,0.33333334,0.5522388,0,0.0,0.0,0.0,0.0,0.0,0,0,0.0,0.0,0,0,78.0,0.0,557.0,4590.769230769231,3945.6410256410263,4491.282051282052,4443.589743589744,4262.564102564103,4561.025641025642,4448.205128205129,4420.000000000001,4406.153846153847,4763.076923076924,4362.564102564103,4207.179487179487,4177.435897435898,4542.051282051282
422.78522,0.29299194,0.21337233,0.33333334,0.5522388,0,0.0,0.0,0.0,0.0,0.0,0,0,0.0,0.0,0,0,126.0,0.0,557.0,4583.589743589744,3936.9230769230776,4502.564102564103,4434.871794871796,4253.333333333334,4553.333333333334,4457.948717948719,4423.076923076924,4407.6923076923085,4769.2307692307695,4376.410256410257,4218.974358974359,4181.025641025642,4525.641025641026
423.00415,0.2709024,0.20900258,0.33333334,0.5522388,0,0.0,0.0,0.0,0.0,0.6828727,0,0,0.0,0.0,0,0,25.0,0.0,0.0,4644.102564102564,3923.589743589744,4523.076923076924,4426.666666666667,4231.282051282052,4534.358974358975,4462.564102564103,4419.48717948718,4406.153846153847,4770.769230769231,4374.358974358975,4235.8974358974365,4205.641025641026,4549.2307692307695
423.25436,0.2709024,0.20900258,0.33333334,0.5522388,0,0.0,0.0,0.0,0.0,0.0,0,0,0.0,0.0,0,0,57.0,0.0,0.0,4650.256410256411,3928.205128205129,4528.205128205129,4417.948717948719,4244.102564102564,4538.974358974359,4475.384615384616,4423.076923076924,4416.410256410257,4775.8974358974365,4358.461538461539,4239.48717948718,4201.538461538462,4557.948717948719
423.50458,0.30528313,0.20867474,0.33333334,0.5522388,0,0.0,0.0,0.0,0.0,0.11434602,0,0,0.0,0.0,0,0,89.0,0.0,517.0,4654.871794871796,3933.333333333334,4525.641025641026,4421.538461538462,4249.2307692307695,4548.717948717949,4472.820512820514,4434.358974358975,4434.358974358975,4781.538461538462,4360.000000000001,4243.589743589744,4203.076923076924,4547.6923076923085
423.62967,0.30528313,0.20867474,0.33333334,0.5522388,0,0.0,0.0,0.0,0.0,0.0,0,0,0.0,0.0,0,0,105.0,0.0,517.0,4654.358974358975,3948.205128205129,4523.589743589744,4430.256410256411,4255.8974358974365,4555.8974358974365,4457.435897435898,4414.358974358975,4433.333333333334,4781.538461538462,4365.641025641026,4245.128205128206,4229.2307692307695,4550.769230769231
424.09885,0.28013432,0.2134788,0.33333334,0.5522388,1,0.0,0.0,0.0,0.0,0.0,0,0,0.0,0.0,0,0,36.0,0.0,0.0,4707.179487179488,3968.205128205129,4522.564102564103,4433.333333333334,4265.128205128206,4568.717948717949,4452.820512820514,4403.589743589744,4408.205128205129,4778.974358974359,4363.076923076924,4241.538461538462,4224.102564102564,4593.846153846154
424.25522,0.28013432,0.2134788,0.33333334,0.5522388,0,0.0,0.0,0.0,0.0,0.0,0,0,0.0,0.0,0,0,56.0,0.0,0.0,4638.974358974359,3956.9230769230776,4507.6923076923085,4431.794871794872,4270.256410256411,4571.794871794872,4449.743589743591,4401.538461538462,4412.820512820514,4772.820512820514,4360.000000000001,4215.384615384616,4211.794871794872,4545.128205128206
424.4116,0.2935303,0.23262112,0.33333334,0.5522388,0,0.0,0.0,0.0,0.0,0.0,0,0,0.0,0.0,0,0,76.0,0.0,115.0,4617.948717948719,3961.0256410256416,4506.666666666667,4426.666666666667,4261.538461538462,4568.205128205129,4446.666666666667,4394.358974358975,4394.871794871796,4767.6923076923085,4353.846153846154,4201.025641025642,4208.717948717949,4541.025641025642
424.75565,0.2935303,0.23262112,0.33333334,0.5522388,0,0.0,0.0,0.0,0.0,0.07125431,0,0,0.0,0.0,0,0,120.0,0.0,115.0,4605.641025641026,3967.692307692308,4504.615384615385,4430.769230769231,4257.948717948719,4570.256410256411,4437.435897435898,4380.000000000001,4399.48717948718,4758.461538461539,4355.384615384616,4202.564102564103,4207.6923076923085,4521.025641025642
424.91205,0.31732556,0.23025085,0.33333334,0.5522388,0,0.0,0.0,0.0,0.0,0.0,0,0,0.0,0.0,0,0,11.0,0.0,521.0,4616.410256410257,3967.1794871794878,4507.179487179488,4427.6923076923085,4252.820512820514,4559.48717948718,4439.48717948718,4397.948717948719,4405.641025641026,4761.538461538462,4358.974358974359,4202.051282051282,4210.256410256411,4534.871794871796
424.91205,0.31732556,0.23025085,0.33333334,0.5522388,0,0.0,0.0,0.0,0.0,0.0,0,0,0.0,0.0,0,0,11.0,0.0,521.0,4616.410256410257,3967.1794871794878,4507.179487179488,4427.6923076923085,4252.820512820514,4559.48717948718,4439.48717948718,4397.948717948719,4405.641025641026,4761.538461538462,4358.974358974359,4202.051282051282,4210.256410256411,4534.871794871796
425.5063,0.3295947,0.22281677,0.33333334,0.5522388,0,0.0,0.0,0.0,0.0,0.15625766,0,0,0.0,0.0,0,0,87.0,0.0,521.0,4596.410256410257,4013.8461538461543,4493.333333333334,4444.102564102564,4240.512820512821,4544.102564102564,4408.717948717949,4378.974358974359,4385.128205128206,4738.461538461539,4345.641025641026,4200.512820512821,4173.846153846154,4492.307692307693
425.6314,0.3295947,0.22281677,0.33333334,0.5522388,0,0.0,0.0,0.0,0.0,0.0,0,0,0.0,0.0,0,0,103.0,0.0,521.0,4582.564102564103,4018.461538461539,4488.717948717949,4450.769230769231,4243.589743589744,4548.205128205129,4418.974358974359,4391.794871794872,4389.743589743591,4736.410256410257,4348.717948717949,4189.74358974359,4165.128205128206,4480.512820512821
425.9129,0.36563507,0.21479869,0.33333334,0.5522388,0,0.0,0.0,0.0,0.0,0.0,0,0,0.0,0.0,0,0,10.0,0.0,557.0,4599.48717948718,4011.2820512820517,4491.282051282052,4442.564102564103,4232.820512820514,4540.000000000001,4423.076923076924,4389.743589743591,4380.512820512821,4732.820512820514,4345.641025641026,4202.564102564103,4150.256410256411,4472.820512820514
425.9129,0.36563507,0.21479869,0.33333334,0.5522388,0,0.0,0.0,0.0,0.0,0.0,0,0,0.0,0.0,0,0,10.0,0.0,557.0,4599.48717948718,4011.2820512820517,4491.282051282052,4442.564102564103,4232.820512820514,4540.000000000001,4423.076923076924,4389.743589743591,4380.512820512821,4732.820512820514,4345.641025641026,4202.564102564103,4150.256410256411,4472.820512820514
426.50717,0.4236552,0.20569561,0.33333334,0.5522388,0,0.0,0.0,0.0,0.0,0.15774357,0,0,0.0,0.0,0,0,86.0,0.0,557.0,4607.179487179488,3988.717948717949,4505.128205128206,4445.641025641026,4251.282051282052,4556.923076923077,4441.025641025642,4411.794871794872,4392.307692307693,4738.974358974359,4357.435897435898,4227.179487179487,4162.564102564103,4475.8974358974365
426.7574,0.4236552,0.20569561,0.33333334,0.5522388,0,0.0,0.0,0.0,0.0,0.39332497,0,0,0.0,0.0,0,0,118.0,0.0,557.0,4610.769230769231,3964.615384615385,4507.179487179488,4444.615384615385,4248.205128205129,4552.820512820514,4447.179487179487,4419.48717948718,4403.076923076924,4740.512820512821,4354.358974358975,4225.128205128206,4156.410256410257,4504.615384615385
427.0076,0.3827877,0.19739617,0.33333334,0.5522388,0,0.0,0.0,0.0,0.0,0.3929672,0,0,0.0,0.0,0,0,21.0,0.0,0.0,4618.461538461539,3963.589743589744,4510.769230769231,4444.615384615385,4251.282051282052,4556.410256410257,4447.6923076923085,4423.076923076924,4413.333333333334,4750.769230769231,4358.461538461539,4239.48717948718,4182.564102564103,4529.743589743591
427.2578,0.3827877,0.19739617,0.33333334,0.5522388,0,0.0,0.0,0.0,0.0,0.4294112,0,0,0.0,0.0,0,0,53.0,0.0,0.0,4601.025641025642,3926.666666666667,4503.076923076924,4428.717948717949,4247.6923076923085,4553.333333333334,4460.512820512821,4434.358974358975,4421.538461538462,4759.48717948718,4371.282051282052,4249.2307692307695,4222.564102564103,4546.153846153847
427.50803,0.37818578,0.19313051,0.33333334,0.5522388,0,0.0,0.0,0.0,0.0,0.1653428,0,0,0.0,0.0,0,0,85.0,0.0,517.0,4601.538461538462,3931.2820512820517,4493.333333333334,4427.179487179487,4251.794871794872,4556.410256410257,4458.974358974359,4433.846153846154,4426.153846153847,4763.589743589744,4371.282051282052,4235.8974358974365,4223.589743589744,4539.48717948718
427.63312,0.37818578,0.19313051,0.33333334,0.5522388,0,0.0,0.0,0.0,0.0,0.0,0,0,0.0,0.0,0,0,101.0,0.0,517.0,4595.384615384616,3933.333333333334,4486.666666666667,4437.435897435898,4258.461538461539,4561.538461538462,4457.435897435898,4446.153846153847,4444.102564102564,4774.871794871796,4377.435897435898,4248.717948717949,4241.538461538462,4556.410256410257
427.9146,0.3857964,0.189253,0.33333334,0.5522388,0,0.0,0.0,0.0,0.0,0.0,0,0,0.0,0.0,0,0,8.0,0.0,504.0,4608.205128205129,3950.7692307692314,4505.641025641026,4437.435897435898,4251.282051282052,4555.8974358974365,4462.051282051282,4436.923076923077,4413.333333333334,4756.923076923077,4357.948717948719,4232.307692307693,4158.974358974359,4502.051282051282
427.9146,0.3857964,0.189253,0.33333334,0.5522388,0,0.0,0.0,0.0,0.0,0.0,0,0,0.0,0.0,0,0,8.0,0.0,504.0,4608.205128205129,3950.7692307692314,4505.641025641026,4437.435897435898,4251.282051282052,4555.8974358974365,4462.051282051282,4436.923076923077,4413.333333333334,4756.923076923077,4357.948717948719,4232.307692307693,4158.974358974359,4502.051282051282
428.4776,0.36176515,0.18611422,0.33333334,0.5522388,1,0.0,0.0,0.0,0.0,0.0,0,0,0.0,0.0,0,0,80.0,0.0,114.0,4654.871794871796,3956.410256410257,4503.076923076924,4435.384615384616,4253.846153846154,4561.025641025642,4437.948717948719,4423.076923076924,4409.743589743591,4757.948717948719,4362.051282051282,4231.794871794872,4173.333333333334,4552.820512820514
428.7591,0.36176515,0.18611422,0.33333334,0.5522388,0,0.0,0.0,0.0,0.0,0.59573656,0,0,0.0,0.0,0,0,116.0,0.0,114.0,4642.564102564103,3938.9743589743593,4506.666666666667,4428.717948717949,4249.74358974359,4552.820512820514,4463.589743589744,4446.666666666667,4420.512820512821,4766.666666666667,4362.564102564103,4257.435897435898,4181.025641025642,4546.666666666667
429.0093,0.31592727,0.18986143,0.33333334,0.5522388,0,0.0,0.0,0.0,0.0,0.0,0,0,0.0,0.0,0,0,19.0,0.0,0.0,4629.743589743591,3927.1794871794878,4492.820512820514,4426.666666666667,4262.564102564103,4564.102564102564,4460.512820512821,4442.051282051282,4415.8974358974365,4761.538461538462,4358.461538461539,4235.8974358974365,4172.820512820514,4540.000000000001
429.0093,0.31592727,0.18986143,0.33333334,0.5522388,0,0.0,0.0,0.0,0.0,0.0,0,0,0.0,0.0,0,0,19.0,0.0,0.0,4629.743589743591,3927.1794871794878,4492.820512820514,4426.666666666667,4262.564102564103,4564.102564102564,4460.512820512821,4442.051282051282,4415.8974358974365,4761.538461538462,4358.461538461539,4235.8974358974365,4172.820512820514,4540.000000000001
429.4159,0.31944633,0.19192766,0.33333334,0.5522388,0,0.0,0.0,0.0,0.0,0.0,0,0,0.0,0.0,0,0,71.0,0.0,496.0,4649.743589743591,3948.205128205129,4518.974358974359,4442.051282051282,4271.794871794872,4576.410256410257,4464.102564102564,4466.153846153847,4449.743589743591,4785.641025641026,4373.333333333334,4271.794871794872,4225.641025641026,4568.205128205129
429.4159,0.31944633,0.19192766,0.33333334,0.5522388,0,0.0,0.0,0.0,0.0,0.0,0,0,0.0,0.0,0,0,71.0,0.0,496.0,4649.743589743591,3948.205128205129,4518.974358974359,4442.051282051282,4271.794871794872,4576.410256410257,4464.102564102564,4466.153846153847,4449.743589743591,4785.641025641026,4373.333333333334,4271.794871794872,4225.641025641026,4568.205128205129
429.91635,0.29109722,0.20029515,0.33333334,0.5522388,0,0.0,0.0,0.0,0.0,0.0,0,0,0.0,0.0,0,0,6.0,0.0,589.0,4604.615384615385,3938.461538461539,4508.205128205129,4438.461538461539,4267.6923076923085,4572.820512820514,4476.923076923077,4469.2307692307695,4438.974358974359,4773.333333333334,4364.615384615385,4259.48717948718,4199.48717948718,4536.923076923077
429.91635,0.29109722,0.20029515,0.33333334,0.5522388,0,0.0,0.0,0.0,0.0,0.0,0,0,0.0,0.0,0,0,6.0,0.0,589.0,4604.615384615385,3938.461538461539,4508.205128205129,4438.461538461539,4267.6923076923085,4572.820512820514,4476.923076923077,4469.2307692307695,4438.974358974359,4773.333333333334,4364.615384615385,4259.48717948718,4199.48717948718,4536.923076923077
430.41678,0.28887105,0.20001723,0.33333334,0.5522388,0,0.0,0.0,0.0,0.0,0.0,0,0,0.0,0.0,0,0,70.0,0.0,589.0,4603.589743589744,3943.589743589744,4506.153846153847,4443.076923076924,4283.589743589744,4589.2307692307695,4480.512820512821,4468.205128205129,4450.256410256411,4786.666666666667,4371.794871794872,4269.74358974359,4220.000000000001,4551.282051282052
430.41678,0.28887105,0.20001723,0.33333334,0.5522388,0,0.0,0.0,0.0,0.0,0.0,0,0,0.0,0.0,0,0,70.0,0.0,589.0,4603.589743589744,3943.589743589744,4506.153846153847,4443.076923076924,4283.589743589744,4589.2307692307695,4480.512820512821,4468.205128205129,4450.256410256411,4786.666666666667,4371.794871794872,4269.74358974359,4220.000000000001,4551.282051282052
430.9172,0.37568355,0.19282526,0.33333334,0.5522388,0,0.0,0.0,0.0,0.0,0.0,0,0,0.0,0.0,0,0,5.0,0.0,572.0,4572.820512820514,3911.7948717948725,4491.794871794872,4428.717948717949,4279.48717948718,4584.615384615385,4460.512820512821,4459.48717948718,4441.025641025642,4786.666666666667,4371.794871794872,4224.615384615385,4234.871794871796,4530.769230769231
430.9172,0.37568355,0.19282526,0.33333334,0.5522388,0,0.0,0.0,0.0,0.0,0.0,0,0,0.0,0.0,0,0,5.0,0.0,572.0,4572.820512820514,3911.7948717948725,4491.794871794872,4428.717948717949,4279.48717948718,4584.615384615385,4460.512820512821,4459.48717948718,4441.025641025642,4786.666666666667,4371.794871794872,4224.615384615385,4234.871794871796,4530.769230769231
431.41763,0.3508907,0.19089602,0.33333334,0.5522388,0,0.0,0.0,0.0,0.0,0.0,0,0,0.0,0.0,0,0,69.0,0.0,572.0,4575.384615384616,3894.358974358975,4499.48717948718,4417.435897435898,4265.641025641026,4570.256410256411,4470.769230769231,4455.384615384616,4413.846153846154,4769.743589743591,4357.435897435898,4212.820512820514,4209.74358974359,4498.461538461539
431.41763,0.3508907,0.19089602,0.33333334,0.5522388,0,0.0,0.0,0.0,0.0,0.0,0,0,0.0,0.0,0,0,69.0,0.0,572.0,4575.384615384616,3894.358974358975,4499.48717948718,4417.435897435898,4265.641025641026,4570.256410256411,4470.769230769231,4455.384615384616,4413.846153846154,4769.743589743591,4357.435897435898,4212.820512820514,4209.74358974359,4498.461538461539
431.91806,0.3403149,0.18383566,0.33333334,0.5522388,0,0.0,0.0,0.0,0.0,0.0,0,0,0.0,0.0,0,0,4.0,0.0,574.0,4604.615384615385,3902.0512820512827,4518.461538461539,4420.000000000001,4256.410256410257,4563.589743589744,4465.128205128206,4445.128205128206,4409.2307692307695,4775.8974358974365,4367.179487179487,4225.641025641026,4241.025641025642,4531.282051282052
431.91806,0.3403149,0.18383566,0.33333334,0.5522388,0,0.0,0.0,0.0,0.0,0.0,0,0,0.0,0.0,0,0,4.0,0.0,574.0,4604.615384615385,3902.0512820512827,4518.461538461539,4420.000000000001,4256.410256410257,4563.589743589744,4465.128205128206,4445.128205128206,4409.2307692307695,4775.8974358974365,4367.179487179487,4225.641025641026,4241.025641025642,4531.282051282052
432.4185,0.34463713,0.17644802,0.33333334,0.5522388,0,0.0,0.0,0.0,0.0,0.0,0,0,0.0,0.0,0,0,68.0,0.0,574.0,4595.384615384616,3901.538461538462,4520.512820512821,4412.820512820514,4238.974358974359,4544.102564102564,4484.102564102564,4468.205128205129,4400.000000000001,4769.743589743591,4377.435897435898,4246.666666666667,4224.102564102564,4528.717948717949
432.82507,0.34463713,0.17644802,0.33333334,0.5522388,0,0.0,0.0,0.0,0.0,0.0,0,0,0.0,0.0,1,0,120.0,0.0,113.0,4682.051282051282,3923.589743589744,4540.512820512821,4418.974358974359,4223.589743589744,4529.2307692307695,4449.2307692307695,4445.641025641026,4398.974358974359,4771.794871794872,4374.871794871796,4282.051282051282,4207.179487179487,4587.179487179488
432.9189,0.30576307,0.17695652,0.33333334,0.5522388,0,0.0,0.0,0.0,0.0,0.0,0,0,0.0,0.0,1,0,3.0,0.0,548.0,4626.153846153847,3904.1025641025644,4518.974358974359,4413.846153846154,4230.256410256411,4533.333333333334,4469.743589743591,4458.461538461539,4412.307692307693,4768.205128205129,4365.641025641026,4263.589743589744,4194.871794871796,4540.512820512821
433.26297,0.30576307,0.17695652,0.33333334,0.5522388,0,0.0,0.0,0.0,0.0,0.42866728,0,0,0.0,0.0,0,0,47.0,0.0,0.0,4603.589743589744,3928.717948717949,4508.205128205129,4426.666666666667,4218.974358974359,4530.769230769231,4456.410256410257,4443.076923076924,4399.48717948718,4760.512820512821,4361.025641025642,4255.384615384616,4169.74358974359,4525.641025641026
433.51318,0.31843597,0.17418933,0.33333334,0.5522388,0,0.0,0.0,0.0,0.0,0.0,0,0,0.0,0.0,0,0,79.0,0.0,521.0,4605.641025641026,3939.48717948718,4491.794871794872,4428.205128205129,4225.128205128206,4531.282051282052,4445.128205128206,4425.641025641026,4391.282051282052,4755.8974358974365,4352.307692307693,4244.615384615385,4154.871794871796,4494.871794871796
433.51318,0.31843597,0.17418933,0.33333334,0.5522388,0,0.0,0.0,0.0,0.0,0.0,0,0,0.0,0.0,0,0,79.0,0.0,521.0,4605.641025641026,3939.48717948718,4491.794871794872,4428.205128205129,4225.128205128206,4531.282051282052,4445.128205128206,4425.641025641026,4391.282051282052,4755.8974358974365,4352.307692307693,4244.615384615385,4154.871794871796,4494.871794871796
433.91977,0.32172215,0.17152174,0.33333334,0.5522388,0,0.0,0.0,0.0,0.0,0.0,0,0,0.0,0.0,0,0,2.0,0.0,519.0,4615.384615384616,3986.666666666667,4489.743589743591,4444.102564102564,4240.512820512821,4544.615384615385,4440.512820512821,4430.769230769231,4406.153846153847,4762.564102564103,4349.2307692307695,4246.666666666667,4165.641025641026,4500.000000000001
433.91977,0.32172215,0.17152174,0.33333334,0.5522388,0,0.0,0.0,0.0,0.0,0.0,0,0,0.0,0.0,0,0,2.0,0.0,519.0,4615.384615384616,3986.666666666667,4489.743589743591,4444.102564102564,4240.512820512821,4544.615384615385,4440.512820512821,4430.769230769231,4406.153846153847,4762.564102564103,4349.2307692307695,4246.666666666667,4165.641025641026,4500.000000000001
434.4202,0.40774378,0.16951998,0.33333334,0.5522388,0,0.0,0.0,0.0,0.0,0.0,0,0,0.0,0.0,0,0,66.0,0.0,519.0,4592.820512820514,3998.9743589743593,4472.307692307693,4444.615384615385,4230.769230769231,4530.256410256411,4413.333333333334,4391.282051282052,4368.205128205129,4740.000000000001,4338.974358974359,4221.538461538462,4160.000000000001,4480.000000000001
434.4202,0.40774378,0.16951998,0.33333334,0.5522388,0,0.0,0.0,0.0,0.0,0.0,0,0,0.0,0.0,0,0,66.0,0.0,519.0,4592.820512820514,3998.9743589743593,4472.307692307693,4444.615384615385,4230.769230769231,4530.256410256411,4413.333333333334,4391.282051282052,4368.205128205129,4740.000000000001,4338.974358974359,4221.538461538462,4160.000000000001,4480.000000000001
434.92062,0.47334123,0.16284226,0.33333334,0.5522388,0,0.0,0.0,0.0,0.0,0.0,0,0,0.0,0.0,0,0,1.0,0.0,460.0,4592.307692307693,4001.538461538462,4476.410256410257,4446.666666666667,4240.512820512821,4543.589743589744,4410.769230769231,4389.743589743591,4364.102564102564,4727.6923076923085,4335.384615384616,4213.333333333334,4130.256410256411,4461.538461538462
434.92062,0.47334123,0.16284226,0.33333334,0.5522388,0,0.0,0.0,0.0,0.0,0.0,0,0,0.0,0.0,0,0,1.0,0.0,460.0,4592.307692307693,4001.538461538462,4476.410256410257,4446.666666666667,4240.512820512821,4543.589743589744,4410.769230769231,4389.743589743591,4364.102564102564,4727.6923076923085,4335.384615384616,4213.333333333334,4130.256410256411,4461.538461538462
435.5149,0.53061855,0.15785328,0.33333334,0.5522388,1,0.0,0.0,0.0,0.0,0.0,0,0,0.0,0.0,0,0,77.0,0.0,517.0,4622.564102564103,4017.9487179487182,4488.717948717949,4456.923076923077,4249.74358974359,4554.358974358975,4427.6923076923085,4407.6923076923085,4391.794871794872,4741.538461538462,4342.051282051282,4245.128205128206,4157.948717948719,4505.128205128206
435.6713,0.53061855,0.15785328,0.33333334,0.5522388,0,0.0,0.0,0.0,0.0,0.0,0,0,0.0,0.0,0,0,97.0,0.0,517.0,4594.871794871796,4014.8717948717954,4480.000000000001,4456.410256410257,4255.384615384616,4563.589743589744,4429.2307692307695,4412.820512820514,4400.512820512821,4742.564102564103,4340.000000000001,4240.512820512821,4155.8974358974365,4502.051282051282
436.01532,0.57500833,0.1556849,0.33333334,0.5522388,0,0.0,0.0,0.0,0.0,0.060819518,0,0,0.0,0.0,0,0,12.0,0.0,112.0,4547.6923076923085,4050.7692307692314,4436.410256410257,4459.48717948718,4218.461538461539,4522.564102564103,4353.846153846154,4334.871794871796,4320.000000000001,4692.820512820514,4305.641025641026,4141.025641025642,4045.6410256410263,4403.589743589744
436.26553,0.57500833,0.1556849,0.33333334,0.5522388,0,0.0,0.0,0.0,0.0,0.1380801,0,0,0.0,0.0,0,0,44.0,0.0,0.0,4557.948717948719,3966.1538461538466,4430.769230769231,4445.128205128206,4244.615384615385,4548.205128205129,4391.282051282052,4365.128205128206,4351.794871794872,4700.512820512821,4303.076923076924,4160.512820512821,4086.666666666667,4421.025641025642
436.51575,0.68861645,0.16087459,0.33333334,0.5522388,0,0.0,0.0,0.0,0.0,0.23847674,0,0,0.0,0.0,0,0,76.0,0.0,112.0,4634.358974358975,3995.8974358974365,4448.205128205129,4454.871794871796,4239.48717948718,4543.076923076924,4371.282051282052,4355.8974358974365,4343.076923076924,4704.102564102564,4297.435897435898,4143.076923076924,4129.74358974359,4450.256410256411
436.76596,0.68861645,0.16087459,0.33333334,0.5522388,0,0.0,0.0,0.0,0.0,0.32028297,0,0,0.0,0.0,0,0,108.0,0.0,112.0,4656.923076923077,3949.7435897435903,4461.025641025642,4445.128205128206,4260.000000000001,4563.076923076924,4418.974358974359,4403.589743589744,4356.410256410257,4723.589743589744,4300.000000000001,4159.48717948718,4178.461538461539,4465.641025641026
437.01617,0.71089417,0.17640132,0.33333334,0.5522388,0,0.0,0.0,0.0,0.0,0.017296566,0,0,0.0,0.0,0,0,11.0,0.0,521.0,4672.820512820514,3883.589743589744,4488.205128205129,4430.769230769231,4265.641025641026,4570.769230769231,4444.102564102564,4448.717948717949,4371.794871794872,4738.974358974359,4306.666666666667,4193.846153846154,4260.000000000001,4489.2307692307695
437.2664,0.71089417,0.17640132,0.33333334,0.5522388,0,0.0,0.0,0.0,0.0,0.09260374,0,0,0.0,0.0,0,0,43.0,0.0,0.0,4689.743589743591,3869.7435897435903,4517.948717948719,4426.153846153847,4258.974358974359,4561.538461538462,4451.282051282052,4454.871794871796,4352.307692307693,4735.384615384616,4306.666666666667,4220.000000000001,4283.076923076924,4525.128205128206
437.51663,0.78624845,0.19391981,0.33333334,0.5522388,0,0.0,0.0,0.0,0.0,0.3369821,0,0,0.0,0.0,0,0,75.0,0.0,521.0,4678.974358974359,3903.076923076924,4526.153846153847,4437.948717948719,4249.74358974359,4556.923076923077,4457.948717948719,4473.333333333334,4343.076923076924,4736.410256410257,4311.282051282052,4236.410256410257,4256.410256410257,4506.153846153847
437.76685,0.78624845,0.19391981,0.33333334,0.5522388,0,0.0,0.0,0.0,0.0,0.23700595,0,0,0.0,0.0,0,0,107.0,0.0,521.0,4665.641025641026,3910.7692307692314,4525.641025641026,4444.102564102564,4248.717948717949,4551.794871794872,4453.333333333334,4439.48717948718,4288.717948717949,4706.153846153847,4307.179487179487,4205.128205128206,4186.666666666667,4501.538461538462
438.01706,0.84316117,0.20268397,0.33333334,0.5522388,0,0.0,0.0,0.0,0.0,0.14626545,0,0,0.0,0.0,0,0,10.0,0.0,557.0,4659.48717948718,3911.2820512820517,4513.333333333334,4442.564102564103,4238.974358974359,4538.974358974359,4445.641025641026,4438.461538461539,4286.666666666667,4702.564102564103,4304.615384615385,4205.641025641026,4165.128205128206,4493.333333333334
438.26727,0.84316117,0.20268397,0.33333334,0.5522388,0,0.0,0.0,0.0,0.0,0.16942173,0,0,0.0,0.0,0,0,42.0,0.0,0.0,4684.102564102564,3934.8717948717954,4518.461538461539,4445.641025641026,4232.820512820514,4536.410256410257,4445.641025641026,4420.512820512821,4278.974358974359,4694.358974358975,4304.102564102564,4233.333333333334,4163.589743589744,4502.564102564103
438.5175,0.7841399,0.20772065,0.33333334,0.5522388,0,0.0,0.0,0.0,0.0,0.086399876,0,0,0.0,0.0,0,0,74.0,0.0,557.0,4681.025641025642,3964.1025641025644,4508.205128205129,4450.769230769231,4233.333333333334,4534.358974358975,4439.48717948718,4416.410256410257,4289.2307692307695,4696.410256410257,4312.307692307693,4236.923076923077,4159.48717948718,4497.435897435898
438.7677,0.7841399,0.20772065,0.33333334,0.5522388,0,0.0,0.0,0.0,0.0,0.09026116,0,0,0.0,0.0,0,0,106.0,0.0,557.0,4668.205128205129,3964.615384615385,4494.358974358975,4444.102564102564,4224.615384615385,4528.205128205129,4442.564102564103,4423.076923076924,4302.051282051282,4698.461538461539,4314.358974358975,4242.564102564103,4146.153846153847,4492.307692307693
439.0179,0.72184235,0.20242956,0.33333334,0.5522388,0,0.0,0.0,0.0,0.0,0.0,0,0,0.0,0.0,0,0,9.0,0.0,212.0,4645.641025641026,3959.48717948718,4494.871794871796,4445.128205128206,4225.641025641026,4522.564102564103,4448.717948717949,4426.666666666667,4329.2307692307695,4694.871794871796,4318.461538461539,4241.538461538462,4141.025641025642,4480.512820512821
439.26813,0.72184235,0.20242956,0.33333334,0.5522388,0,0.0,0.0,0.0,0.0,0.22836328,0,0,0.0,0.0,0,0,41.0,0.0,0.0,4633.333333333334,3960.0000000000005,4480.512820512821,4443.589743589744,4226.666666666667,4526.153846153847,4442.051282051282,4423.589743589744,4342.051282051282,4703.589743589744,4322.564102564103,4246.153846153847,4151.282051282052,4493.846153846154
439.51834,0.67553777,0.19424465,0.33333334,0.5522388,0,0.0,0.0,0.0,0.0,0.25410533,0,0,0.0,0.0,0,0,73.0,0.0,212.0,4629.2307692307695,3973.8461538461543,4482.564102564103,4443.076923076924,4235.8974358974365,4535.384615384616,4453.333333333334,4428.205128205129,4362.564102564103,4708.717948717949,4329.2307692307695,4253.846153846154,4161.025641025642,4494.358974358975
439.64343,0.67553777,0.19424465,0.33333334,0.5522388,0,0.0,0.0,0.0,0.0,0.0,0,0,0.0,0.0,0,0,89.0,0.0,517.0,4602.051282051282,3969.7435897435903,4485.128205128206,4444.615384615385,4241.025641025642,4539.48717948718,4454.871794871796,4418.974358974359,4364.102564102564,4708.717948717949,4326.666666666667,4254.871794871796,4158.461538461539,4489.2307692307695
440.01877,0.61538994,0.1863297,0.33333334,0.5522388,1,0.0,0.0,0.0,0.0,0.67570233,0,0,0.0,0.0,0,0,8.0,0.0,504.0,4614.358974358975,3973.333333333334,4485.128205128206,4437.435897435898,4249.74358974359,4548.205128205129,4449.743589743591,4429.743589743591,4406.153846153847,4722.564102564103,4333.333333333334,4258.461538461539,4191.794871794872,4505.641025641026
440.26898,0.61538994,0.1863297,0.33333334,0.5522388,0,0.0,0.0,0.0,0.0,0.61292297,0,0,0.0,0.0,0,0,40.0,0.0,0.0,4614.871794871796,3965.6410256410263,4477.435897435898,4430.769230769231,4246.666666666667,4553.333333333334,4454.358974358975,4437.948717948719,4422.564102564103,4728.717948717949,4337.948717948719,4256.410256410257,4188.205128205129,4499.48717948718
440.5192,0.5506367,0.18486585,0.33333334,0.5522388,0,0.0,0.0,0.0,0.0,0.1184042,0,0,0.0,0.0,0,0,72.0,0.0,504.0,4593.333333333334,3957.435897435898,4474.358974358975,4427.179487179487,4244.615384615385,4549.2307692307695,4448.717948717949,4418.974358974359,4414.871794871796,4724.615384615386,4332.307692307693,4242.051282051282,4175.8974358974365,4491.794871794872
440.7694,0.5506367,0.18486585,0.33333334,0.5522388,0,0.0,0.0,0.0,0.0,0.0,0,0,0.0,0.0,0,0,104.0,0.0,108.0,4606.666666666667,3958.9743589743593,4490.256410256411,4428.205128205129,4248.717948717949,4554.358974358975,4478.974358974359,4452.820512820514,4446.666666666667,4743.076923076924,4338.974358974359,4260.000000000001,4186.153846153847,4515.384615384616
440.9258,0.5340208,0.18354647,0.33333334,0.5522388,0,0.0,0.0,0.0,0.0,0.0,0,0,0.0,0.0,0,0,124.0,0.0,108.0,4605.128205128206,3952.307692307693,4481.025641025642,4427.179487179487,4255.384615384616,4553.846153846154,4481.538461538462,4446.153846153847,4454.358974358975,4744.102564102564,4334.358974358975,4255.8974358974365,4192.820512820514,4521.025641025642
440.9258,0.5340208,0.18354647,0.33333334,0.5522388,0,0.0,0.0,0.0,0.0,0.0,0,0,0.0,0.0,0,0,124.0,0.0,108.0,4605.128205128206,3952.307692307693,4481.025641025642,4427.179487179487,4255.384615384616,4553.846153846154,4481.538461538462,4446.153846153847,4454.358974358975,4744.102564102564,4334.358974358975,4255.8974358974365,4192.820512820514,4521.025641025642
441.42624,0.4724361,0.18248966,0.33333334,0.5522388,0,0.0,0.0,0.0,0.0,0.0,0,0,0.0,0.0,0,0,59.0,0.0,0.0,4642.051282051282,3947.692307692308,4504.102564102564,4429.2307692307695,4259.48717948718,4566.153846153847,4484.102564102564,4446.666666666667,4455.384615384616,4756.410256410257,4346.153846153847,4281.538461538462,4213.333333333334,4534.871794871796
441.42624,0.4724361,0.18248966,0.33333334,0.5522388,0,0.0,0.0,0.0,0.0,0.0,0,0,0.0,0.0,0,0,59.0,0.0,0.0,4642.051282051282,3947.692307692308,4504.102564102564,4429.2307692307695,4259.48717948718,4566.153846153847,4484.102564102564,4446.666666666667,4455.384615384616,4756.410256410257,4346.153846153847,4281.538461538462,4213.333333333334,4534.871794871796
441.92667,0.4615931,0.18236722,0.33333334,0.5522388,0,0.0,0.0,0.0,0.0,0.0,0,0,0.0,0.0,0,0,123.0,0.0,521.0,4635.8974358974365,3937.9487179487182,4500.512820512821,4427.6923076923085,4263.076923076924,4568.205128205129,4481.025641025642,4441.025641025642,4462.051282051282,4759.48717948718,4356.923076923077,4287.179487179487,4218.974358974359,4550.256410256411
441.92667,0.4615931,0.18236722,0.33333334,0.5522388,0,0.0,0.0,0.0,0.0,0.0,0,0,0.0,0.0,0,0,123.0,0.0,521.0,4635.8974358974365,3937.9487179487182,4500.512820512821,4427.6923076923085,4263.076923076924,4568.205128205129,4481.025641025642,4441.025641025642,4462.051282051282,4759.48717948718,4356.923076923077,4287.179487179487,4218.974358974359,4550.256410256411
442.4271,0.4603198,0.17528948,0.33333334,0.5522388,0,0.0,0.0,0.0,0.0,0.0,0,0,0.0,0.0,0,0,58.0,0.0,0.0,4616.923076923077,3937.435897435898,4491.282051282052,4428.717948717949,4254.358974358975,4566.153846153847,4489.743589743591,4455.8974358974365,4456.410256410257,4763.589743589744,4362.564102564103,4262.564102564103,4195.8974358974365,4532.820512820514
442.4271,0.4603198,0.17528948,0.33333334,0.5522388,0,0.0,0.0,0.0,0.0,0.0,0,0,0.0,0.0,0,0,58.0,0.0,0.0,4616.923076923077,3937.435897435898,4491.282051282052,4428.717948717949,4254.358974358975,4566.153846153847,4489.743589743591,4455.8974358974365,4456.410256410257,4763.589743589744,4362.564102564103,4262.564102564103,4195.8974358974365,4532.820512820514
442.92752,0.47934106,0.17046532,0.33333334,0.5522388,0,0.0,0.0,0.0,0.0,0.0,0,0,0.0,0.0,0,0,122.0,0.0,557.0,4629.743589743591,3938.461538461539,4528.717948717949,4431.794871794872,4276.410256410257,4585.641025641026,4509.2307692307695,4484.102564102564,4483.589743589744,4778.974358974359,4370.769230769231,4305.128205128206,4217.435897435898,4564.615384615385
442.92752,0.47934106,0.17046532,0.33333334,0.5522388,0,0.0,0.0,0.0,0.0,0.0,0,0,0.0,0.0,0,0,122.0,0.0,557.0,4629.743589743591,3938.461538461539,4528.717948717949,4431.794871794872,4276.410256410257,4585.641025641026,4509.2307692307695,4484.102564102564,4483.589743589744,4778.974358974359,4370.769230769231,4305.128205128206,4217.435897435898,4564.615384615385
443.42795,0.51938367,0.16506684,0.33333334,0.5522388,0,0.0,0.0,0.0,0.0,0.0,0,0,0.0,0.0,0,0,57.0,0.0,0.0,4627.179487179488,3917.9487179487182,4520.000000000001,4424.102564102564,4261.538461538462,4568.717948717949,4489.743589743591,4469.2307692307695,4458.461538461539,4774.871794871796,4369.743589743591,4289.74358974359,4222.564102564103,4549.743589743591
443.42795,0.51938367,0.16506684,0.33333334,0.5522388,0,0.0,0.0,0.0,0.0,0.0,0,0,0.0,0.0,0,0,57.0,0.0,0.0,4627.179487179488,3917.9487179487182,4520.000000000001,4424.102564102564,4261.538461538462,4568.717948717949,4489.743589743591,4469.2307692307695,4458.461538461539,4774.871794871796,4369.743589743591,4289.74358974359,4222.564102564103,4549.743589743591
443.92838,0.443856,0.16661102,0.33333334,0.5522388,0,0.0,0.0,0.0,0.0,0.0,0,0,0.0,0.0,0,0,121.0,0.0,517.0,4622.564102564103,3910.2564102564106,4504.615384615385,4418.461538461539,4255.384615384616,4565.641025641026,4490.769230769231,4474.871794871796,4454.871794871796,4777.948717948719,4377.435897435898,4276.923076923077,4215.384615384616,4549.2307692307695
443.92838,0.443856,0.16661102,0.33333334,0.5522388,0,0.0,0.0,0.0,0.0,0.0,0,0,0.0,0.0,0,0,121.0,0.0,517.0,4622.564102564103,3910.2564102564106,4504.615384615385,4418.461538461539,4255.384615384616,4565.641025641026,4490.769230769231,4474.871794871796,4454.871794871796,4777.948717948719,4377.435897435898,4276.923076923077,4215.384615384616,4549.2307692307695
444.4288,0.42037922,0.16631176,0.33333334,0.5522388,0,0.0,0.0,0.0,0.0,0.0,0,0,0.0,0.0,0,0,56.0,0.0,0.0,4613.333333333334,3906.666666666667,4506.666666666667,4415.8974358974365,4254.358974358975,4562.051282051282,4488.717948717949,4468.205128205129,4439.48717948718,4763.076923076924,4368.205128205129,4273.333333333334,4208.717948717949,4530.256410256411
444.4288,0.42037922,0.16631176,0.33333334,0.5522388,0,0.0,0.0,0.0,0.0,0.0,0,0,0.0,0.0,0,0,56.0,0.0,0.0,4613.333333333334,3906.666666666667,4506.666666666667,4415.8974358974365,4254.358974358975,4562.051282051282,4488.717948717949,4468.205128205129,4439.48717948718,4763.076923076924,4368.205128205129,4273.333333333334,4208.717948717949,4530.256410256411
444.92923,0.39947662,0.16523054,0.33333334,0.5522388,0,0.0,0.0,0.0,0.0,0.0,0,0,0.0,0.0,0,0,120.0,0.0,106.0,4617.435897435898,3941.0256410256416,4507.179487179488,4429.743589743591,4262.051282051282,4566.666666666667,4468.205128205129,4454.358974358975,4426.153846153847,4760.512820512821,4383.076923076924,4263.589743589744,4206.153846153847,4533.333333333334
444.92923,0.39947662,0.16523054,0.33333334,0.5522388,0,0.0,0.0,0.0,0.0,0.0,0,0,0.0,0.0,0,0,120.0,0.0,106.0,4617.435897435898,3941.0256410256416,4507.179487179488,4429.743589743591,4262.051282051282,4566.666666666667,4468.205128205129,4454.358974358975,4426.153846153847,4760.512820512821,4383.076923076924,4263.589743589744,4206.153846153847,4533.333333333334
445.42966,0.37404507,0.16294788,0.33333334,0.5522388,0,0.0,0.0,0.0,0.0,0.0,0,0,0.0,0.0,0,0,55.0,0.0,0.0,4620.000000000001,3926.1538461538466,4507.6923076923085,4427.179487179487,4258.974358974359,4564.615384615385,4470.256410256411,4469.2307692307695,4434.358974358975,4760.000000000001,4381.025641025642,4252.307692307693,4198.974358974359,4513.333333333334
445.42966,0.37404507,0.16294788,0.33333334,0.5522388,0,0.0,0.0,0.0,0.0,0.0,0,0,0.0,0.0,0,0,55.0,0.0,0.0,4620.000000000001,3926.1538461538466,4507.6923076923085,4427.179487179487,4258.974358974359,4564.615384615385,4470.256410256411,4469.2307692307695,4434.358974358975,4760.000000000001,4381.025641025642,4252.307692307693,4198.974358974359,4513.333333333334
445.93008,0.3210744,0.16009541,0.33333334,0.5522388,0,0.0,0.0,0.0,0.0,0.0,0,0,0.0,0.0,0,0,119.0,0.0,521.0,4602.564102564103,3918.461538461539,4496.410256410257,4428.717948717949,4265.641025641026,4572.307692307693,4448.717948717949,4440.512820512821,4415.8974358974365,4755.8974358974365,4376.923076923077,4235.384615384616,4198.461538461539,4497.435897435898
445.93008,0.3210744,0.16009541,0.33333334,0.5522388,0,0.0,0.0,0.0,0.0,0.0,0,0,0.0,0.0,0,0,119.0,0.0,521.0,4602.564102564103,3918.461538461539,4496.410256410257,4428.717948717949,4265.641025641026,4572.307692307693,4448.717948717949,4440.512820512821,4415.8974358974365,4755.8974358974365,4376.923076923077,4235.384615384616,4198.461538461539,4497.435897435898
446.43054,0.3659621,0.15780833,0.33333334,0.5522388,0,0.0,0.0,0.0,0.0,0.0,0,0,0.0,0.0,0,0,54.0,0.0,0.0,4600.000000000001,3918.9743589743593,4497.948717948719,4428.717948717949,4265.641025641026,4570.769230769231,4453.846153846154,4451.794871794872,4422.051282051282,4765.128205128206,4377.948717948719,4265.128205128206,4227.179487179487,4511.282051282052
446.43054,0.3659621,0.15780833,0.33333334,0.5522388,0,0.0,0.0,0.0,0.0,0.0,0,0,0.0,0.0,0,0,54.0,0.0,0.0,4600.000000000001,3918.9743589743593,4497.948717948719,4428.717948717949,4265.641025641026,4570.769230769231,4453.846153846154,4451.794871794872,4422.051282051282,4765.128205128206,4377.948717948719,4265.128205128206,4227.179487179487,4511.282051282052
447.11862,0.3649855,0.1535529,0.33333334,0.5522388,0,0.0,0.0,0.0,0.0,0.0,0,0,0.0,0.0,0,0,13.0,0.0,517.0,4606.153846153847,3931.7948717948725,4510.256410256411,4438.974358974359,4263.076923076924,4566.666666666667,4471.282051282052,4467.6923076923085,4424.615384615385,4769.743589743591,4387.179487179487,4274.871794871796,4216.923076923077,4513.846153846154
447.11862,0.3649855,0.1535529,0.33333334,0.5522388,0,0.0,0.0,0.0,0.0,0.0,0,0,0.0,0.0,0,0,13.0,0.0,517.0,4606.153846153847,3931.7948717948725,4510.256410256411,4438.974358974359,4263.076923076924,4566.666666666667,4471.282051282052,4467.6923076923085,4424.615384615385,4769.743589743591,4387.179487179487,4274.871794871796,4216.923076923077,4513.846153846154
447.5252,0.37009802,0.15476789,0.33333334,0.5522388,0,0.0,0.0,0.0,0.0,0.090330794,0,0,0.0,0.0,0,0,65.0,0.0,460.0,4588.205128205129,3929.7435897435903,4490.256410256411,4433.846153846154,4250.256410256411,4552.820512820514,4456.410256410257,4452.820512820514,4409.2307692307695,4757.948717948719,4383.589743589744,4240.000000000001,4195.384615384616,4495.384615384616
447.77542,0.37009802,0.15476789,0.33333334,0.5522388,0,0.0,0.0,0.0,0.0,0.0,0,0,0.0,0.0,0,0,97.0,0.0,517.0,4603.076923076924,3930.2564102564106,4498.974358974359,4427.6923076923085,4244.102564102564,4545.128205128206,4457.948717948719,4430.769230769231,4391.282051282052,4752.820512820514,4378.974358974359,4248.717948717949,4195.8974358974365,4517.435897435898
447.93182,0.34479544,0.15484965,0.33333334,0.5522388,0,0.0,0.0,0.0,0.0,0.0,0,0,0.0,0.0,0,0,117.0,0.0,517.0,4597.948717948719,3935.8974358974365,4502.564102564103,4430.256410256411,4249.2307692307695,4552.820512820514,4462.564102564103,4449.743589743591,4405.128205128206,4757.435897435898,4380.000000000001,4242.564102564103,4197.948717948719,4514.871794871796
447.93182,0.34479544,0.15484965,0.33333334,0.5522388,0,0.0,0.0,0.0,0.0,0.0,0,0,0.0,0.0,0,0,117.0,0.0,517.0,4597.948717948719,3935.8974358974365,4502.564102564103,4430.256410256411,4249.2307692307695,4552.820512820514,4462.564102564103,4449.743589743591,4405.128205128206,4757.435897435898,4380.000000000001,4242.564102564103,4197.948717948719,4514.871794871796
448.43225,0.34291732,0.15427753,0.33333334,0.5522388,0,0.0,0.0,0.0,0.0,0.0,0,0,0.0,0.0,0,0,52.0,0.0,0.0,4605.641025641026,3942.564102564103,4492.820512820514,4437.948717948719,4250.256410256411,4551.794871794872,4456.410256410257,4448.717948717949,4407.179487179487,4758.974358974359,4388.205128205129,4253.333333333334,4211.282051282052,4521.025641025642
448.43225,0.34291732,0.15427753,0.33333334,0.5522388,0,0.0,0.0,0.0,0.0,0.0,0,0,0.0,0.0,0,0,52.0,0.0,0.0,4605.641025641026,3942.564102564103,4492.820512820514,4437.948717948719,4250.256410256411,4551.794871794872,4456.410256410257,4448.717948717949,4407.179487179487,4758.974358974359,4388.205128205129,4253.333333333334,4211.282051282052,4521.025641025642
448.93268,0.35619932,0.15384485,0.33333334,0.5522388,0,0.0,0.0,0.0,0.0,0.0,0,0,0.0,0.0,0,0,116.0,0.0,104.0,4598.461538461539,3942.0512820512827,4487.6923076923085,4434.871794871796,4248.205128205129,4549.743589743591,4449.2307692307695,4424.102564102564,4390.256410256411,4747.6923076923085,4388.205128205129,4235.384615384616,4186.666666666667,4523.589743589744
448.93268,0.35619932,0.15384485,0.33333334,0.5522388,0,0.0,0.0,0.0,0.0,0.0,0,0,0.0,0.0,0,0,116.0,0.0,104.0,4598.461538461539,3942.0512820512827,4487.6923076923085,4434.871794871796,4248.205128205129,4549.743589743591,4449.2307692307695,4424.102564102564,4390.256410256411,4747.6923076923085,4388.205128205129,4235.384615384616,4186.666666666667,4523.589743589744
449.4331,0.38233468,0.14880557,0.33333334,0.5522388,0,0.0,0.0,0.0,0.0,0.0,0,0,0.0,0.0,0,0,51.0,0.0,0.0,4623.589743589744,3930.2564102564106,4493.333333333334,4420.512820512821,4225.641025641026,4529.2307692307695,4431.794871794872,4414.358974358975,4385.641025641026,4740.512820512821,4392.820512820514,4252.307692307693,4176.410256410257,4527.179487179488
449.4331,0.38233468,0.14880557,0.33333334,0.5522388,0,0.0,0.0,0.0,0.0,0.0,0,0,0.0,0.0,0,0,51.0,0.0,0.0,4623.589743589744,3930.2564102564106,4493.333333333334,4420.512820512821,4225.641025641026,4529.2307692307695,4431.794871794872,4414.358974358975,4385.641025641026,4740.512820512821,4392.820512820514,4252.307692307693,4176.410256410257,4527.179487179488
449.9961,0.31939816,0.14679389,0.33333334,0.5522388,1,0.0,0.0,0.0,0.0,0.0,0,0,0.0,0.0,0,0,123.0,0.0,521.0,4629.743589743591,3964.615384615385,4504.615384615385,4445.128205128206,4258.461538461539,4560.000000000001,4460.512820512821,4426.153846153847,4406.666666666667,4747.179487179488,4396.923076923077,4263.589743589744,4164.615384615385,4535.8974358974365
450.2776,0.31939816,0.14679389,0.33333334,0.5522388,0,0.0,0.0,0.0,0.0,0.7684277,0,0,0.0,0.0,0,0,30.0,0.0,0.0,4602.564102564103,3942.564102564103,4490.769230769231,4429.743589743591,4243.076923076924,4545.128205128206,4450.769230769231,4414.358974358975,4390.256410256411,4734.358974358975,4390.769230769231,4245.128205128206,4171.282051282052,4492.307692307693
450.5278,0.29944745,0.14698169,0.33333334,0.5522388,0,0.0,0.0,0.0,0.0,0.12624997,0,0,0.0,0.0,0,0,62.0,0.0,0.0,4632.820512820514,3954.358974358975,4518.974358974359,4443.076923076924,4254.358974358975,4552.307692307693,4454.871794871796,4424.102564102564,4409.2307692307695,4746.666666666667,4393.846153846154,4275.384615384616,4197.435897435898,4523.589743589744
450.778,0.29944745,0.14698169,0.33333334,0.5522388,0,0.0,0.0,0.0,0.0,0.0,0,0,0.0,0.0,0,0,94.0,0.0,557.0,4583.589743589744,3925.6410256410263,4472.307692307693,4425.128205128206,4246.666666666667,4545.641025641026,4466.666666666667,4443.076923076924,4412.820512820514,4747.179487179488,4396.410256410257,4253.333333333334,4205.641025641026,4518.461538461539
450.9344,0.28360784,0.15052488,0.33333334,0.5522388,0,0.0,0.0,0.0,0.0,0.0,0,0,0.0,0.0,0,0,114.0,0.0,557.0,4604.615384615385,3943.076923076924,4475.384615384616,4429.2307692307695,4252.307692307693,4549.743589743591,4454.871794871796,4428.205128205129,4397.435897435898,4741.025641025642,4387.179487179487,4228.717948717949,4173.846153846154,4495.8974358974365
450.9344,0.28360784,0.15052488,0.33333334,0.5522388,0,0.0,0.0,0.0,0.0,0.0,0,0,0.0,0.0,0,0,114.0,0.0,557.0,4604.615384615385,3943.076923076924,4475.384615384616,4429.2307692307695,4252.307692307693,4549.743589743591,4454.871794871796,4428.205128205129,4397.435897435898,4741.025641025642,4387.179487179487,4228.717948717949,4173.846153846154,4495.8974358974365
451.52866,0.26442182,0.15189879,0.33333334,0.5522388,0,0.0,0.0,0.0,0.0,0.14806119,0,0,0.0,0.0,0,0,61.0,0.0,0.0,4629.743589743591,3938.461538461539,4494.358974358975,4432.307692307693,4247.179487179487,4549.743589743591,4456.410256410257,4424.615384615385,4388.717948717949,4729.2307692307695,4380.512820512821,4233.846153846154,4157.948717948719,4496.923076923077
451.65378,0.26442182,0.15189879,0.33333334,0.5522388,0,0.0,0.0,0.0,0.0,0.0,0,0,0.0,0.0,0,0,77.0,0.0,517.0,4755.384615384616,3937.9487179487182,4540.000000000001,4426.666666666667,4256.410256410257,4561.025641025642,4507.179487179488,4493.333333333334,4464.102564102564,4781.025641025642,4423.589743589744,4350.256410256411,4315.8974358974365,4707.179487179488
452.02908,0.3488426,0.1731181,0.33333334,0.5522388,0,0.0,0.0,0.0,0.0,0.6397523,0,0,0.0,0.0,0,0,125.0,0.0,517.0,4645.128205128206,3942.0512820512827,4520.512820512821,4429.2307692307695,4261.025641025642,4567.6923076923085,4496.410256410257,4470.256410256411,4438.974358974359,4764.615384615386,4400.000000000001,4275.384615384616,4213.846153846154,4529.2307692307695
452.2793,0.3488426,0.1731181,0.33333334,0.5522388,0,0.0,0.0,0.0,0.0,0.0,0,0,0.0,0.0,0,0,28.0,0.0,0.0,4622.564102564103,3948.717948717949,4505.641025641026,4438.461538461539,4266.666666666667,4568.717948717949,4493.333333333334,4465.128205128206,4431.794871794872,4758.461538461539,4397.948717948719,4257.948717948719,4208.717948717949,4515.384615384616
452.4357,0.35188463,0.18414415,0.33333334,0.5522388,0,0.0,0.0,0.0,0.0,0.0,0,0,0.0,0.0,0,0,48.0,0.0,0.0,4608.205128205129,3934.8717948717954,4488.717948717949,4427.6923076923085,4254.358974358975,4558.974358974359,4481.538461538462,4457.948717948719,4414.871794871796,4752.307692307693,4389.2307692307695,4240.512820512821,4171.282051282052,4502.564102564103
452.4357,0.35188463,0.18414415,0.33333334,0.5522388,0,0.0,0.0,0.0,0.0,0.0,0,0,0.0,0.0,0,0,48.0,0.0,0.0,4608.205128205129,3934.8717948717954,4488.717948717949,4427.6923076923085,4254.358974358975,4558.974358974359,4481.538461538462,4457.948717948719,4414.871794871796,4752.307692307693,4389.2307692307695,4240.512820512821,4171.282051282052,4502.564102564103
452.93613,0.37131125,0.1892161,0.33333334,0.5522388,0,0.0,0.0,0.0,0.0,0.0,0,0,0.0,0.0,0,0,112.0,0.0,102.0,4607.179487179488,3943.076923076924,4490.256410256411,4424.102564102564,4244.102564102564,4547.6923076923085,4469.743589743591,4446.153846153847,4394.358974358975,4743.076923076924,4377.435897435898,4229.2307692307695,4155.384615384616,4497.948717948719
452.93613,0.37131125,0.1892161,0.33333334,0.5522388,0,0.0,0.0,0.0,0.0,0.0,0,0,0.0,0.0,0,0,112.0,0.0,102.0,4607.179487179488,3943.076923076924,4490.256410256411,4424.102564102564,4244.102564102564,4547.6923076923085,4469.743589743591,4446.153846153847,4394.358974358975,4743.076923076924,4377.435897435898,4229.2307692307695,4155.384615384616,4497.948717948719
453.43655,0.37517002,0.18904445,0.33333334,0.5522388,0,0.0,0.0,0.0,0.0,0.0,0,0,0.0,0.0,0,0,47.0,0.0,0.0,4594.358974358975,3946.1538461538466,4491.282051282052,4427.6923076923085,4239.48717948718,4545.128205128206,4454.871794871796,4448.717948717949,4409.743589743591,4742.051282051282,4376.410256410257,4244.615384615385,4160.512820512821,4487.179487179488
453.43655,0.37517002,0.18904445,0.33333334,0.5522388,0,0.0,0.0,0.0,0.0,0.0,0,0,0.0,0.0,0,0,47.0,0.0,0.0,4594.358974358975,3946.1538461538466,4491.282051282052,4427.6923076923085,4239.48717948718,4545.128205128206,4454.871794871796,4448.717948717949,4409.743589743591,4742.051282051282,4376.410256410257,4244.615384615385,4160.512820512821,4487.179487179488
453.93698,0.39379916,0.18287708,0.33333334,0.5522388,0,0.0,0.0,0.0,0.0,0.0,0,0,0.0,0.0,0,0,111.0,0.0,521.0,4535.384615384616,3928.205128205129,4461.538461538462,4425.641025641026,4240.000000000001,4544.102564102564,4450.769230769231,4434.358974358975,4403.589743589744,4741.538461538462,4368.717948717949,4217.948717948719,4159.48717948718,4483.076923076924
453.93698,0.39379916,0.18287708,0.33333334,0.5522388,0,0.0,0.0,0.0,0.0,0.0,0,0,0.0,0.0,0,0,111.0,0.0,521.0,4535.384615384616,3928.205128205129,4461.538461538462,4425.641025641026,4240.000000000001,4544.102564102564,4450.769230769231,4434.358974358975,4403.589743589744,4741.538461538462,4368.717948717949,4217.948717948719,4159.48717948718,4483.076923076924
454.4374,0.39088005,0.17894457,0.33333334,0.5522388,0,0.0,0.0,0.0,0.0,0.0,0,0,0.0,0.0,0,0,46.0,0.0,0.0,4527.6923076923085,3905.1282051282055,4480.512820512821,4420.512820512821,4256.410256410257,4560.000000000001,4448.717948717949,4439.48717948718,4420.000000000001,4750.256410256411,4350.769230769231,4172.820512820514,4237.948717948719,4468.717948717949
454.4374,0.39088005,0.17894457,0.33333334,0.5522388,0,0.0,0.0,0.0,0.0,0.0,0,0,0.0,0.0,0,0,46.0,0.0,0.0,4527.6923076923085,3905.1282051282055,4480.512820512821,4420.512820512821,4256.410256410257,4560.000000000001,4448.717948717949,4439.48717948718,4420.000000000001,4750.256410256411,4350.769230769231,4172.820512820514,4237.948717948719,4468.717948717949
455.03168,0.43415806,0.17904079,0.33333334,0.5522388,0,0.0,0.0,0.0,0.0,0.04493207,0,0,0.0,0.0,0,0,122.0,0.0,557.0,4510.256410256411,3842.0512820512827,4494.871794871796,4408.717948717949,4254.871794871796,4560.512820512821,4466.153846153847,4486.666666666667,4342.051282051282,4744.615384615386,4322.564102564103,4147.179487179487,4271.794871794872,4445.128205128206
455.2819,0.43415806,0.17904079,0.33333334,0.5522388,0,0.0,0.0,0.0,0.0,0.1714773,0,0,0.0,0.0,0,0,25.0,0.0,0.0,4555.8974358974365,3839.48717948718,4550.256410256411,4426.666666666667,4233.846153846154,4530.769230769231,4434.358974358975,4462.564102564103,4271.794871794872,4724.102564102564,4317.948717948719,4180.512820512821,4234.871794871796,4452.307692307693
455.43826,0.519142,0.18257141,0.33333334,0.5522388,0,0.0,0.0,0.0,0.0,0.0,0,0,0.0,0.0,0,0,45.0,0.0,0.0,4585.128205128206,3857.435897435898,4551.282051282052,4429.2307692307695,4229.2307692307695,4524.102564102564,4444.102564102564,4481.025641025642,4252.820512820514,4726.153846153847,4323.076923076924,4179.48717948718,4243.076923076924,4466.153846153847
455.78232,0.519142,0.18257141,0.33333334,0.5522388,0,0.0,0.0,0.0,0.0,1.0,0,0,0.0,0.0,0,0,89.0,0.0,517.0,4664.615384615386,3887.1794871794878,4585.128205128206,4442.051282051282,4220.512820512821,4513.846153846154,4468.205128205129,4502.564102564103,4245.128205128206,4724.615384615386,4325.128205128206,4218.461538461539,4204.102564102564,4469.743589743591
456.03253,0.53764284,0.19637066,0.33333334,0.5522388,0,0.0,0.0,0.0,0.0,0.567534,0,0,0.0,0.0,0,0,121.0,0.0,517.0,4674.871794871796,3912.307692307693,4586.153846153847,4444.102564102564,4215.384615384616,4508.717948717949,4469.743589743591,4486.153846153847,4240.000000000001,4716.410256410257,4340.512820512821,4240.512820512821,4167.6923076923085,4458.461538461539
456.28275,0.53764284,0.19637066,0.33333334,0.5522388,0,0.0,0.0,0.0,0.0,0.0,0,0,0.0,0.0,0,0,24.0,0.0,0.0,4688.717948717949,3926.1538461538466,4555.384615384616,4450.769230769231,4236.923076923077,4531.282051282052,4486.666666666667,4510.256410256411,4284.615384615385,4734.358974358975,4359.48717948718,4271.282051282052,4204.102564102564,4498.461538461539
456.53296,0.56562084,0.21054016,0.33333334,0.5522388,0,0.0,0.0,0.0,0.0,0.13000362,0,0,0.0,0.0,0,0,56.0,0.0,0.0,4668.717948717949,3941.0256410256416,4517.435897435898,4446.666666666667,4241.025641025642,4537.435897435898,4471.282051282052,4469.2307692307695,4295.8974358974365,4721.538461538462,4355.384615384616,4233.846153846154,4157.435897435898,4461.025641025642
456.78317,0.56562084,0.21054016,0.33333334,0.5522388,0,0.0,0.0,0.0,0.0,0.12917863,0,0,0.0,0.0,0,0,88.0,0.0,102.0,4676.923076923077,3947.1794871794878,4519.48717948718,4442.564102564103,4229.74358974359,4531.794871794872,4468.717948717949,4469.2307692307695,4332.307692307693,4731.282051282052,4362.051282051282,4266.666666666667,4177.948717948719,4489.2307692307695
457.0334,0.5750775,0.22375116,0.33333334,0.5522388,0,0.0,0.0,0.0,0.0,0.0,0,0,0.0,0.0,0,0,120.0,0.0,102.0,4694.871794871796,3944.615384615385,4523.076923076924,4429.743589743591,4226.153846153847,4528.205128205129,4456.923076923077,4477.435897435898,4346.153846153847,4742.051282051282,4389.743589743591,4283.076923076924,4199.48717948718,4474.358974358975
457.0334,0.5750775,0.22375116,0.33333334,0.5522388,0,0.0,0.0,0.0,0.0,0.0,0,0,0.0,0.0,0,0,120.0,0.0,102.0,4694.871794871796,3944.615384615385,4523.076923076924,4429.743589743591,4226.153846153847,4528.205128205129,4456.923076923077,4477.435897435898,4346.153846153847,4742.051282051282,4389.743589743591,4283.076923076924,4199.48717948718,4474.358974358975
457.5338,0.5773663,0.23484954,0.33333334,0.5522388,0,0.0,0.0,0.0,0.0,0.1882272,0,0,0.0,0.0,0,0,55.0,0.0,0.0,4753.333333333334,3938.461538461539,4522.051282051282,4426.666666666667,4223.589743589744,4528.717948717949,4498.974358974359,4532.820512820514,4346.666666666667,4753.846153846154,4423.076923076924,4357.948717948719,4231.794871794872,4527.6923076923085
457.78403,0.5773663,0.23484954,0.33333334,0.5522388,0,0.0,0.0,0.0,0.0,0.27582684,0,0,0.0,0.0,0,0,87.0,0.0,521.0,4759.48717948718,3934.358974358975,4494.358974358975,4422.051282051282,4217.435897435898,4515.384615384616,4493.333333333334,4530.256410256411,4342.564102564103,4745.641025641026,4431.794871794872,4362.564102564103,4173.846153846154,4526.153846153847
458.03424,0.6008637,0.24012452,0.33333334,0.5522388,0,0.0,0.0,0.0,0.0,0.36490527,0,0,0.0,0.0,0,0,119.0,0.0,521.0,4777.435897435898,3944.615384615385,4458.461538461539,4433.333333333334,4222.051282051282,4520.512820512821,4497.948717948719,4536.410256410257,4346.666666666667,4745.641025641026,4441.538461538462,4367.179487179487,4164.102564102564,4521.025641025642
458.28445,0.6008637,0.24012452,0.33333334,0.5522388,0,0.0,0.0,0.0,0.0,0.07440177,0,0,0.0,0.0,0,0,22.0,0.0,0.0,4778.974358974359,3946.666666666667,4434.871794871796,4429.743589743591,4216.410256410257,4515.384615384616,4452.307692307693,4494.358974358975,4334.871794871796,4730.769230769231,4438.461538461539,4363.076923076924,4140.000000000001,4503.589743589744
458.53467,0.56863236,0.23935507,0.33333334,0.5522388,0,0.0,0.0,0.0,0.0,0.023157747,0,0,0.0,0.0,0,0,54.0,0.0,0.0,4770.769230769231,3956.410256410257,4423.589743589744,4443.076923076924,4227.6923076923085,4521.538461538462,4458.974358974359,4500.512820512821,4354.871794871796,4741.025641025642,4445.641025641026,4374.871794871796,4175.384615384616,4518.461538461539
458.78488,0.56863236,0.23935507,0.33333334,0.5522388,0,0.0,0.0,0.0,0.0,0.17290998,0,0,0.0,0.0,0,0,86.0,0.0,557.0,4744.615384615386,3949.7435897435903,4400.000000000001,4442.051282051282,4230.769230769231,4528.717948717949,4449.743589743591,4470.256410256411,4378.461538461539,4740.000000000001,4448.205128205129,4352.307692307693,4180.512820512821,4489.743589743591
459.03513,0.52439564,0.23648751,0.33333334,0.5522388,0,0.0,0.0,0.0,0.0,0.24448602,0,0,0.0,0.0,1,0,118.0,0.0,557.0,4756.923076923077,3962.564102564103,4433.846153846154,4444.102564102564,4234.358974358975,4537.948717948719,4437.948717948719,4453.333333333334,4392.307692307693,4741.025641025642,4443.589743589744,4376.410256410257,4194.871794871796,4503.589743589744
459.34787,0.52439564,0.23648751,0.33333334,0.5522388,0,0.0,0.0,0.0,0.0,0.9500716,0,0,0.0,0.0,0,0,29.0,0.0,0.0,4665.128205128206,3950.7692307692314,4426.153846153847,4444.615384615385,4243.589743589744,4544.102564102564,4439.48717948718,4435.8974358974365,4407.179487179487,4731.282051282052,4435.8974358974365,4317.948717948719,4192.820512820514,4467.179487179487
459.53555,0.52510476,0.2367557,0.33333334,0.5522388,0,0.0,0.0,0.0,0.0,0.40403646,0,0,0.0,0.0,0,0,53.0,0.0,0.0,4661.538461538462,3957.435897435898,4432.820512820514,4442.564102564103,4247.179487179487,4543.076923076924,4430.256410256411,4433.846153846154,4412.820512820514,4738.461538461539,4438.461538461539,4315.8974358974365,4213.846153846154,4476.410256410257
459.78577,0.52510476,0.2367557,0.33333334,0.5522388,0,0.0,0.0,0.0,0.0,0.0,0,0,0.0,0.0,0,0,85.0,0.0,517.0,4655.8974358974365,3959.48717948718,4431.794871794872,4447.6923076923085,4248.205128205129,4543.076923076924,4414.871794871796,4401.538461538462,4395.384615384616,4723.076923076924,4418.974358974359,4285.641025641026,4200.000000000001,4440.512820512821
459.94214,0.52915704,0.23137434,0.33333334,0.5522388,0,0.0,0.0,0.0,0.0,0.0,0,0,0.0,0.0,0,0,105.0,0.0,517.0,4634.358974358975,3955.8974358974365,4422.564102564103,4443.589743589744,4237.435897435898,4536.923076923077,4396.410256410257,4384.615384615385,4380.512820512821,4710.769230769231,4408.205128205129,4243.589743589744,4176.410256410257,4429.2307692307695
460.2862,0.52915704,0.23137434,0.33333334,0.5522388,0,0.0,0.0,0.0,0.0,0.50650775,0,0,0.0,0.0,0,1,20.0,0.0,0.0,4601.025641025642,3957.9487179487182,4411.794871794872,4445.128205128206,4244.615384615385,4542.051282051282,4396.410256410257,4372.307692307693,4366.666666666667,4694.871794871796,4392.820512820514,4205.641025641026,4151.282051282052,4408.205128205129
460.5364,0.52576166,0.23133762,0.33333334,0.5522388,0,0.0,0.0,0.0,0.0,0.676364,0,0,0.0,0.0,0,0,52.0,0.0,0.0,4605.641025641026,3967.1794871794878,4424.102564102564,4457.435897435898,4253.846153846154,4549.743589743591,4411.794871794872,4392.820512820514,4383.589743589744,4706.666666666667,4393.333333333334,4225.641025641026,4190.256410256411,4432.307692307693
460.78662,0.52576166,0.23133762,0.33333334,0.5522388,0,0.0,0.0,0.0,0.0,0.14902179,0,0,0.0,0.0,0,0,84.0,0.0,99.0,4603.589743589744,3961.0256410256416,4434.358974358975,4444.102564102564,4260.512820512821,4563.076923076924,4420.512820512821,4398.974358974359,4407.6923076923085,4713.333333333334,4386.666666666667,4227.6923076923085,4211.282051282052,4451.794871794872
460.943,0.61674917,0.23284346,0.33333334,0.5522388,0,0.0,0.0,0.0,0.0,0.0,0,0,0.0,0.0,0,0,104.0,0.0,99.0,4586.153846153847,3957.9487179487182,4433.333333333334,4444.102564102564,4253.333333333334,4557.948717948719,4413.846153846154,4388.717948717949,4394.871794871796,4706.666666666667,4378.461538461539,4219.48717948718,4207.179487179487,4453.846153846154
460.943,0.61674917,0.23284346,0.33333334,0.5522388,0,0.0,0.0,0.0,0.0,0.0,0,0,0.0,0.0,0,0,104.0,0.0,99.0,4586.153846153847,3957.9487179487182,4433.333333333334,4444.102564102564,4253.333333333334,4557.948717948719,4413.846153846154,4388.717948717949,4394.871794871796,4706.666666666667,4378.461538461539,4219.48717948718,4207.179487179487,4453.846153846154
461.44342,0.5795785,0.22478613,0.33333334,0.5522388,0,0.0,0.0,0.0,0.0,0.0,0,0,0.0,0.0,0,0,39.0,0.0,0.0,4556.410256410257,3961.0256410256416,4462.564102564103,4448.205128205129,4258.461538461539,4557.435897435898,4416.923076923077,4388.205128205129,4397.435897435898,4709.2307692307695,4371.794871794872,4208.205128205129,4209.2307692307695,4455.384615384616
461.44342,0.5795785,0.22478613,0.33333334,0.5522388,0,0.0,0.0,0.0,0.0,0.0,0,0,0.0,0.0,0,0,39.0,0.0,0.0,4556.410256410257,3961.0256410256416,4462.564102564103,4448.205128205129,4258.461538461539,4557.435897435898,4416.923076923077,4388.205128205129,4397.435897435898,4709.2307692307695,4371.794871794872,4208.205128205129,4209.2307692307695,4455.384615384616
462.0064,0.5346702,0.21412046,0.33333334,0.5522388,0,0.0,0.0,0.0,0.0,0.0,0,0,0.0,0.0,1,0,111.0,0.0,521.0,4614.358974358975,3983.589743589744,4446.666666666667,4447.179487179487,4254.358974358975,4552.307692307693,4408.717948717949,4367.179487179487,4378.974358974359,4697.948717948719,4349.2307692307695,4171.282051282052,4171.794871794872,4470.769230769231
462.2879,0.5346702,0.21412046,0.33333334,0.5522388,0,0.0,0.0,0.0,0.0,1.0,0,0,0.0,0.0,0,0,18.0,0.0,0.0,4668.717948717949,3997.9487179487182,4474.358974358975,4451.794871794872,4249.2307692307695,4552.820512820514,4400.512820512821,4363.589743589744,4374.358974358975,4694.871794871796,4339.48717948718,4182.564102564103,4190.256410256411,4489.2307692307695
462.53812,0.4908791,0.24187756,0.33333334,0.5522388,0,0.0,0.0,0.0,0.0,0.63665515,0,0,0.0,0.0,0,0,50.0,0.0,0.0,4578.974358974359,3973.333333333334,4446.153846153847,4444.102564102564,4260.512820512821,4560.512820512821,4432.820512820514,4394.871794871796,4389.743589743591,4702.051282051282,4343.589743589744,4167.179487179487,4191.282051282052,4463.076923076924
462.78833,0.4908791,0.24187756,0.33333334,0.5522388,0,0.0,0.0,0.0,0.0,0.3271236,0,0,0.0,0.0,0,0,82.0,0.0,557.0,4594.358974358975,3973.8461538461543,4449.2307692307695,4444.615384615385,4257.435897435898,4555.384615384616,4407.6923076923085,4372.307692307693,4390.769230769231,4697.435897435898,4341.025641025642,4161.025641025642,4192.307692307693,4481.025641025642
462.94473,0.4830774,0.26345125,0.33333334,0.5522388,0,0.0,0.0,0.0,0.0,0.0,0,0,0.0,0.0,0,0,102.0,0.0,557.0,4588.717948717949,3958.9743589743593,4457.435897435898,4441.538461538462,4254.871794871796,4555.8974358974365,4419.48717948718,4372.307692307693,4385.128205128206,4699.48717948718,4333.333333333334,4169.74358974359,4187.6923076923085,4480.000000000001
463.32004,0.4830774,0.26345125,0.33333334,0.5522388,0,0.0,0.0,0.0,0.0,0.0,0,0,0.0,0.0,0,0,21.0,0.0,0.0,4578.461538461539,3963.076923076924,4464.615384615385,4438.974358974359,4243.076923076924,4544.615384615385,4413.333333333334,4374.358974358975,4386.666666666667,4693.846153846154,4330.256410256411,4173.846153846154,4189.2307692307695,4471.794871794872
463.44516,0.47929677,0.40972477,0.33333334,0.5522388,0,0.0,0.0,0.0,0.0,0.0,0,0,0.0,0.0,0,0,37.0,0.0,0.0,4547.179487179488,3956.9230769230776,4445.128205128206,4432.307692307693,4249.2307692307695,4550.256410256411,4430.256410256411,4391.794871794872,4390.769230769231,4691.794871794872,4320.000000000001,4150.769230769231,4165.128205128206,4451.282051282052
463.44516,0.47929677,0.40972477,0.33333334,0.5522388,0,0.0,0.0,0.0,0.0,0.0,0,0,0.0,0.0,0,0,37.0,0.0,0.0,4547.179487179488,3956.9230769230776,4445.128205128206,4432.307692307693,4249.2307692307695,4550.256410256411,4430.256410256411,4391.794871794872,4390.769230769231,4691.794871794872,4320.000000000001,4150.769230769231,4165.128205128206,4451.282051282052
463.9456,0.4973065,0.5411657,0.33333334,0.5522388,0,0.0,0.0,0.0,0.0,0.0,0,0,0.0,0.0,0,0,101.0,0.0,517.0,4560.000000000001,3972.820512820513,4490.256410256411,4442.051282051282,4251.282051282052,4554.871794871796,4440.000000000001,4393.333333333334,4406.153846153847,4698.974358974359,4327.179487179487,4193.333333333334,4193.333333333334,4486.666666666667
463.9456,0.4973065,0.5411657,0.33333334,0.5522388,0,0.0,0.0,0.0,0.0,0.0,0,0,0.0,0.0,0,0,101.0,0.0,517.0,4560.000000000001,3972.820512820513,4490.256410256411,4442.051282051282,4251.282051282052,4554.871794871796,4440.000000000001,4393.333333333334,4406.153846153847,4698.974358974359,4327.179487179487,4193.333333333334,4193.333333333334,4486.666666666667
464.446,0.55850095,0.50887114,0.33333334,0.5522388,0,0.0,0.0,0.0,0.0,0.0,0,0,0.0,0.0,0,0,36.0,0.0,0.0,4563.076923076924,3981.538461538462,4491.794871794872,4454.871794871796,4264.615384615385,4562.564102564103,4451.794871794872,4404.615384615385,4402.564102564103,4706.153846153847,4325.641025641026,4186.153846153847,4217.948717948719,4512.307692307693
464.446,0.55850095,0.50887114,0.33333334,0.5522388,0,0.0,0.0,0.0,0.0,0.0,0,0,0.0,0.0,0,0,36.0,0.0,0.0,4563.076923076924,3981.538461538462,4491.794871794872,4454.871794871796,4264.615384615385,4562.564102564103,4451.794871794872,4404.615384615385,4402.564102564103,4706.153846153847,4325.641025641026,4186.153846153847,4217.948717948719,4512.307692307693
464.94644,0.6184406,0.48004895,0.33333334,0.5522388,0,0.0,0.0,0.0,0.0,0.0,0,0,0.0,0.0,0,0,100.0,0.0,99.0,4536.410256410257,3958.461538461539,4497.948717948719,4437.435897435898,4249.2307692307695,4548.717948717949,4452.820512820514,4420.512820512821,4401.538461538462,4706.153846153847,4322.051282051282,4176.923076923077,4184.615384615385,4508.717948717949
464.94644,0.6184406,0.48004895,0.33333334,0.5522388,0,0.0,0.0,0.0,0.0,0.0,0,0,0.0,0.0,0,0,100.0,0.0,99.0,4536.410256410257,3958.461538461539,4497.948717948719,4437.435897435898,4249.2307692307695,4548.717948717949,4452.820512820514,4420.512820512821,4401.538461538462,4706.153846153847,4322.051282051282,4176.923076923077,4184.615384615385,4508.717948717949
465.44687,0.59083986,0.4490402,0.33333334,0.5522388,0,0.0,0.0,0.0,0.0,0.0,0,0,0.0,0.0,0,0,35.0,0.0,0.0,4548.205128205129,3943.076923076924,4504.615384615385,4426.666666666667,4232.307692307693,4531.794871794872,4421.025641025642,4398.974358974359,4404.615384615385,4706.666666666667,4321.538461538462,4200.512820512821,4173.333333333334,4525.641025641026
465.44687,0.59083986,0.4490402,0.33333334,0.5522388,0,0.0,0.0,0.0,0.0,0.0,0,0,0.0,0.0,0,0,35.0,0.0,0.0,4548.205128205129,3943.076923076924,4504.615384615385,4426.666666666667,4232.307692307693,4531.794871794872,4421.025641025642,4398.974358974359,4404.615384615385,4706.666666666667,4321.538461538462,4200.512820512821,4173.333333333334,4525.641025641026
465.9473,0.54951656,0.4252259,0.33333334,0.5522388,0,0.0,0.0,0.0,0.0,0.0,0,0,0.0,0.0,0,0,99.0,0.0,521.0,4553.333333333334,3959.48717948718,4524.615384615385,4440.000000000001,4234.871794871796,4538.974358974359,4449.743589743591,4421.025641025642,4389.743589743591,4712.307692307693,4329.2307692307695,4220.512820512821,4167.6923076923085,4515.384615384616
465.9473,0.54951656,0.4252259,0.33333334,0.5522388,0,0.0,0.0,0.0,0.0,0.0,0,0,0.0,0.0,0,0,99.0,0.0,521.0,4553.333333333334,3959.48717948718,4524.615384615385,4440.000000000001,4234.871794871796,4538.974358974359,4449.743589743591,4421.025641025642,4389.743589743591,4712.307692307693,4329.2307692307695,4220.512820512821,4167.6923076923085,4515.384615384616
466.44772,0.5915912,0.39910668,0.33333334,0.5522388,0,0.0,0.0,0.0,0.0,0.0,0,0,0.0,0.0,0,0,34.0,0.0,0.0,4578.974358974359,3965.6410256410263,4534.871794871796,4445.128205128206,4269.2307692307695,4569.743589743591,4482.051282051282,4447.179487179487,4419.48717948718,4731.282051282052,4332.820512820514,4251.282051282052,4204.102564102564,4546.153846153847
466.44772,0.5915912,0.39910668,0.33333334,0.5522388,0,0.0,0.0,0.0,0.0,0.0,0,0,0.0,0.0,0,0,34.0,0.0,0.0,4578.974358974359,3965.6410256410263,4534.871794871796,4445.128205128206,4269.2307692307695,4569.743589743591,4482.051282051282,4447.179487179487,4419.48717948718,4731.282051282052,4332.820512820514,4251.282051282052,4204.102564102564,4546.153846153847
466.94815,0.6059076,0.37612164,0.33333334,0.5522388,0,0.0,0.0,0.0,0.0,0.0,0,0,0.0,0.0,0,0,98.0,0.0,557.0,4584.615384615385,3948.717948717949,4513.846153846154,4431.794871794872,4238.974358974359,4536.410256410257,4451.794871794872,4418.974358974359,4389.743589743591,4717.435897435898,4322.564102564103,4215.384615384616,4151.282051282052,4505.641025641026
466.94815,0.6059076,0.37612164,0.33333334,0.5522388,0,0.0,0.0,0.0,0.0,0.0,0,0,0.0,0.0,0,0,98.0,0.0,557.0,4584.615384615385,3948.717948717949,4513.846153846154,4431.794871794872,4238.974358974359,4536.410256410257,4451.794871794872,4418.974358974359,4389.743589743591,4717.435897435898,4322.564102564103,4215.384615384616,4151.282051282052,4505.641025641026
467.54242,0.58041686,0.35692486,0.33333334,0.5522388,0,0.0,0.0,0.0,0.0,0.0,0,0,0.0,0.0,0,0,45.0,0.0,0.0,4534.871794871796,3942.0512820512827,4492.307692307693,4434.358974358975,4246.666666666667,4540.000000000001,4455.384615384616,4424.615384615385,4386.666666666667,4717.948717948719,4321.538461538462,4202.051282051282,4132.307692307693,4487.179487179488
467.54242,0.58041686,0.35692486,0.33333334,0.5522388,0,0.0,0.0,0.0,0.0,0.0,0,0,0.0,0.0,0,0,45.0,0.0,0.0,4534.871794871796,3942.0512820512827,4492.307692307693,4434.358974358975,4246.666666666667,4540.000000000001,4455.384615384616,4424.615384615385,4386.666666666667,4717.948717948719,4321.538461538462,4202.051282051282,4132.307692307693,4487.179487179488
467.94904,0.5769067,0.33801696,0.33333334,0.5522388,0,0.0,0.0,0.0,0.0,0.0,0,0,0.0,0.0,0,0,97.0,0.0,517.0,4574.358974358975,3941.0256410256416,4523.589743589744,4431.794871794872,4241.538461538462,4537.948717948719,4450.769230769231,4425.128205128206,4388.717948717949,4715.384615384616,4320.000000000001,4217.948717948719,4148.717948717949,4506.666666666667
467.94904,0.5769067,0.33801696,0.33333334,0.5522388,0,0.0,0.0,0.0,0.0,0.0,0,0,0.0,0.0,0,0,97.0,0.0,517.0,4574.358974358975,3941.0256410256416,4523.589743589744,4431.794871794872,4241.538461538462,4537.948717948719,4450.769230769231,4425.128205128206,4388.717948717949,4715.384615384616,4320.000000000001,4217.948717948719,4148.717948717949,4506.666666666667
468.44946,0.53462875,0.32202083,0.33333334,0.5522388,0,0.0,0.0,0.0,0.0,0.0,0,0,0.0,0.0,0,0,32.0,0.0,0.0,4582.051282051282,3943.589743589744,4518.461538461539,4433.333333333334,4241.538461538462,4540.512820512821,4448.717948717949,4437.435897435898,4404.615384615385,4731.282051282052,4335.8974358974365,4237.435897435898,4199.48717948718,4547.6923076923085
468.44946,0.53462875,0.32202083,0.33333334,0.5522388,0,0.0,0.0,0.0,0.0,0.0,0,0,0.0,0.0,0,0,32.0,0.0,0.0,4582.051282051282,3943.589743589744,4518.461538461539,4433.333333333334,4241.538461538462,4540.512820512821,4448.717948717949,4437.435897435898,4404.615384615385,4731.282051282052,4335.8974358974365,4237.435897435898,4199.48717948718,4547.6923076923085
468.9499,0.5474371,0.30698583,0.33333334,0.5522388,0,0.0,0.0,0.0,0.0,0.0,0,0,0.0,0.0,0,0,96.0,0.0,99.0,4610.769230769231,3941.538461538462,4520.512820512821,4435.8974358974365,4254.871794871796,4557.435897435898,4480.000000000001,4462.051282051282,4415.8974358974365,4742.051282051282,4341.025641025642,4262.564102564103,4203.589743589744,4547.6923076923085
468.9499,0.5474371,0.30698583,0.33333334,0.5522388,0,0.0,0.0,0.0,0.0,0.0,0,0,0.0,0.0,0,0,96.0,0.0,99.0,4610.769230769231,3941.538461538462,4520.512820512821,4435.8974358974365,4254.871794871796,4557.435897435898,4480.000000000001,4462.051282051282,4415.8974358974365,4742.051282051282,4341.025641025642,4262.564102564103,4203.589743589744,4547.6923076923085
469.45032,0.5531134,0.29352146,0.33333334,0.5522388,0,0.0,0.0,0.0,0.0,0.0,0,0,0.0,0.0,0,0,31.0,0.0,0.0,4599.48717948718,3947.692307692308,4504.615384615385,4443.076923076924,4250.256410256411,4551.794871794872,4458.461538461539,4442.564102564103,4398.974358974359,4732.820512820514,4344.102564102564,4227.6923076923085,4188.717948717949,4527.179487179488
469.45032,0.5531134,0.29352146,0.33333334,0.5522388,0,0.0,0.0,0.0,0.0,0.0,0,0,0.0,0.0,0,0,31.0,0.0,0.0,4599.48717948718,3947.692307692308,4504.615384615385,4443.076923076924,4250.256410256411,4551.794871794872,4458.461538461539,4442.564102564103,4398.974358974359,4732.820512820514,4344.102564102564,4227.6923076923085,4188.717948717949,4527.179487179488
470.0446,0.53156084,0.2871938,0.33333334,0.5522388,0,0.0,0.0,0.0,0.0,0.23279887,0,0,0.0,0.0,0,0,107.0,0.0,521.0,4602.564102564103,3933.333333333334,4506.153846153847,4441.538461538462,4252.820512820514,4557.435897435898,4483.076923076924,4460.000000000001,4405.641025641026,4740.512820512821,4351.282051282052,4246.153846153847,4196.410256410257,4542.564102564103
470.16968,0.53156084,0.2871938,0.33333334,0.5522388,0,0.0,0.0,0.0,0.0,0.0,0,0,0.0,0.0,0,0,123.0,0.0,521.0,4605.128205128206,3942.0512820512827,4518.461538461539,4445.128205128206,4260.000000000001,4563.076923076924,4484.615384615385,4470.256410256411,4412.820512820514,4743.589743589744,4356.923076923077,4253.333333333334,4197.948717948719,4535.8974358974365
470.45117,0.5490743,0.28057432,0.33333334,0.5522388,0,0.0,0.0,0.0,0.0,0.0,0,0,0.0,0.0,0,0,30.0,0.0,0.0,4624.102564102564,3935.3846153846157,4520.512820512821,4437.435897435898,4245.128205128206,4550.256410256411,4467.179487179487,4444.615384615385,4400.000000000001,4742.564102564103,4351.282051282052,4251.794871794872,4181.538461538462,4536.923076923077
470.45117,0.5490743,0.28057432,0.33333334,0.5522388,0,0.0,0.0,0.0,0.0,0.0,0,0,0.0,0.0,0,0,30.0,0.0,0.0,4624.102564102564,3935.3846153846157,4520.512820512821,4437.435897435898,4245.128205128206,4550.256410256411,4467.179487179487,4444.615384615385,4400.000000000001,4742.564102564103,4351.282051282052,4251.794871794872,4181.538461538462,4536.923076923077
471.04544,0.4921959,0.27344233,0.33333334,0.5522388,0,0.0,0.0,0.0,0.0,0.18433313,0,0,0.0,0.0,0,0,106.0,0.0,557.0,4606.153846153847,3944.615384615385,4517.948717948719,4441.538461538462,4241.538461538462,4544.102564102564,4446.666666666667,4431.282051282052,4397.435897435898,4730.256410256411,4344.615384615385,4221.538461538462,4137.948717948719,4540.512820512821
471.29565,0.4921959,0.27344233,0.33333334,0.5522388,0,0.0,0.0,0.0,0.0,0.31952003,0,0,0.0,0.0,0,0,9.0,0.0,204.0,4619.48717948718,3945.6410256410263,4521.538461538462,4449.743589743591,4248.205128205129,4552.820512820514,4466.153846153847,4438.974358974359,4404.615384615385,4733.846153846154,4352.307692307693,4241.025641025642,4183.589743589744,4568.205128205129
471.54587,0.46189126,0.26758108,0.33333334,0.5522388,0,0.0,0.0,0.0,0.0,0.16756298,0,0,0.0,0.0,0,0,41.0,0.0,0.0,4605.128205128206,3944.1025641025644,4518.974358974359,4446.153846153847,4249.74358974359,4548.205128205129,4460.000000000001,4417.948717948719,4390.256410256411,4728.717948717949,4346.153846153847,4234.358974358975,4175.384615384616,4541.025641025642
471.79608,0.46189126,0.26758108,0.33333334,0.5522388,0,0.0,0.0,0.0,0.0,0.0,0,0,0.0,0.0,0,0,73.0,0.0,204.0,4600.000000000001,3942.564102564103,4505.641025641026,4447.6923076923085,4248.717948717949,4552.820512820514,4453.333333333334,4423.076923076924,4395.384615384616,4734.358974358975,4348.717948717949,4228.717948717949,4176.923076923077,4518.461538461539
471.95245,0.39013708,0.25565493,0.33333334,0.5522388,0,0.0,0.0,0.0,0.0,0.0,0,0,0.0,0.0,0,0,93.0,0.0,517.0,4621.538461538462,3956.410256410257,4524.102564102564,4455.384615384616,4259.48717948718,4563.076923076924,4462.564102564103,4433.333333333334,4406.153846153847,4738.974358974359,4345.128205128206,4231.282051282052,4177.948717948719,4532.820512820514
472.2965,0.39013708,0.25565493,0.33333334,0.5522388,1,0.0,0.0,0.0,0.0,0.0,0,0,0.0,0.0,0,0,8.0,0.0,504.0,4673.333333333334,3955.8974358974365,4528.205128205129,4444.102564102564,4241.025641025642,4543.076923076924,4450.769230769231,4410.256410256411,4387.6923076923085,4727.6923076923085,4340.000000000001,4243.076923076924,4168.205128205129,4542.564102564103
472.45288,0.33376998,0.25237837,0.33333334,0.5522388,0,0.0,0.0,0.0,0.0,0.0,0,0,0.0,0.0,0,0,28.0,0.0,0.0,4624.102564102564,3951.2820512820517,4521.025641025642,4445.128205128206,4246.666666666667,4548.717948717949,4445.641025641026,4416.923076923077,4393.846153846154,4729.743589743591,4345.128205128206,4227.6923076923085,4160.000000000001,4499.48717948718
472.45288,0.33376998,0.25237837,0.33333334,0.5522388,0,0.0,0.0,0.0,0.0,0.0,0,0,0.0,0.0,0,0,28.0,0.0,0.0,4624.102564102564,3951.2820512820517,4521.025641025642,4445.128205128206,4246.666666666667,4548.717948717949,4445.641025641026,4416.923076923077,4393.846153846154,4729.743589743591,4345.128205128206,4227.6923076923085,4160.000000000001,4499.48717948718
473.04715,0.3005818,0.2501853,0.33333334,0.5522388,0,0.0,0.0,0.0,0.0,0.0,0,0,0.0,0.0,0,0,104.0,0.0,98.0,4622.564102564103,3936.410256410257,4524.102564102564,4440.000000000001,4245.128205128206,4547.179487179488,4467.179487179487,4432.307692307693,4398.461538461539,4734.871794871796,4342.564102564103,4248.205128205129,4174.871794871796,4528.205128205129
473.04715,0.3005818,0.2501853,0.33333334,0.5522388,0,0.0,0.0,0.0,0.0,0.0,0,0,0.0,0.0,0,0,104.0,0.0,98.0,4622.564102564103,3936.410256410257,4524.102564102564,4440.000000000001,4245.128205128206,4547.179487179488,4467.179487179487,4432.307692307693,4398.461538461539,4734.871794871796,4342.564102564103,4248.205128205129,4174.871794871796,4528.205128205129
473.45377,0.2808623,0.24848893,0.33333334,0.5522388,0,0.0,0.0,0.0,0.0,0.0,0,0,0.0,0.0,0,0,27.0,0.0,0.0,4584.102564102564,3923.076923076924,4502.564102564103,4430.769230769231,4242.051282051282,4545.641025641026,4451.794871794872,4415.384615384616,4375.384615384616,4718.974358974359,4334.871794871796,4213.333333333334,4155.384615384616,4477.948717948719
473.45377,0.2808623,0.24848893,0.33333334,0.5522388,0,0.0,0.0,0.0,0.0,0.0,0,0,0.0,0.0,0,0,27.0,0.0,0.0,4584.102564102564,3923.076923076924,4502.564102564103,4430.769230769231,4242.051282051282,4545.641025641026,4451.794871794872,4415.384615384616,4375.384615384616,4718.974358974359,4334.871794871796,4213.333333333334,4155.384615384616,4477.948717948719
