timestamp,excitement,frustration,meditation,engagementBoredom,blink,clench,laugh,smile,eyebrow,furrowBrow,lookLeft,lookRight,smirkLeft,smirkRight,winkLeft,winkRight,eeg0,eeg1,eeg2,eeg3,eeg4,eeg5,eeg6,eeg7,eeg8,eeg9,eeg10,eeg11,eeg12,eeg13,eeg14,eeg15,eeg16
0.7506451,0.0028644921,0.0,0.3167081,0.6411235,0,0.0,0.0,0.0,0.0,1.0,0,0,0.0,0.0,0,0,103.0,0.0,517.0,4382.564102564103,3934.358974358975,4491.794871794872,4445.641025641026,4241.025641025642,4534.358974358975,4428.205128205129,4427.179487179487,4412.307692307693,4710.256410256411,4308.717948717949,4216.923076923077,4154.871794871796,3847.1794871794878
1.1259676,0.006350161,0.0,0.30167052,0.7212797,0,0.0,0.0,0.0,1.0,0.0,0,0,0.0,0.0,0,0,22.0,0.0,0.0,4333.333333333334,3910.2564102564106,4491.282051282052,4442.564102564103,4243.589743589744,4535.8974358974365,4458.974358974359,4447.6923076923085,4437.435897435898,4757.948717948719,4316.410256410257,4216.410256410257,4184.615384615385,4511.282051282052
1.3761827,0.006350161,0.0,0.30167052,0.7212797,0,0.0,0.0,0.0,0.0,0.18680955,0,0,0.0,0.0,0,0,54.0,0.0,0.0,4339.48717948718,3912.820512820513,4483.589743589744,4442.564102564103,4245.128205128206,4539.48717948718,4464.102564102564,4458.974358974359,4453.333333333334,4770.769230769231,4326.153846153847,4207.6923076923085,4184.615384615385,4493.846153846154
1.6263977,0.010577227,0.0,0.29648677,0.7488979,0,0.0,0.0,0.0,0.0,0.4466231,0,0,0.0,0.0,0,0,86.0,0.0,578.0,4390.256410256411,3922.0512820512827,4492.307692307693,4442.051282051282,4247.179487179487,4538.461538461539,4463.589743589744,4451.794871794872,4442.564102564103,4769.743589743591,4315.384615384616,4209.74358974359,4178.974358974359,4503.076923076924
1.8766128,0.010577227,0.0,0.29648677,0.7488979,0,0.0,0.0,0.0,0.0,0.48114955,0,0,0.0,0.0,0,0,118.0,0.0,578.0,4434.871794871796,3930.2564102564106,4519.48717948718,4439.48717948718,4239.48717948718,4530.256410256411,4457.948717948719,4455.384615384616,4423.076923076924,4769.743589743591,4345.641025641026,4247.6923076923085,4211.282051282052,4540.512820512821
2.1268277,0.028272761,0.0,0.30025402,0.72880834,0,0.0,0.0,0.0,0.0,0.9988211,0,0,0.0,0.0,0,0,21.0,0.0,0.0,4506.666666666667,3940.5128205128212,4552.307692307693,4443.076923076924,4240.000000000001,4531.794871794872,4486.153846153847,4476.410256410257,4412.820512820514,4773.333333333334,4331.794871794872,4258.974358974359,4214.871794871796,4549.2307692307695
2.2597544,0.028272761,0.0,0.30025402,0.72880834,0,0.0,0.0,0.0,0.0,1.0,0,0,0.0,0.0,0,0,37.0,0.0,0.0,4540.000000000001,3946.1538461538466,4570.769230769231,4444.102564102564,4239.48717948718,4530.769230769231,4499.48717948718,4500.000000000001,4417.948717948719,4776.923076923077,4353.333333333334,4280.512820512821,4226.666666666667,4564.102564102564
2.635077,0.054534633,0.0,0.30365202,0.71077967,0,0.0,0.0,0.0,0.0,0.0,0,0,0.0,0.0,0,0,85.0,0.0,512.0,4532.307692307693,3941.538461538462,4553.846153846154,4454.871794871796,4229.74358974359,4521.025641025642,4486.153846153847,4485.641025641026,4375.8974358974365,4737.948717948719,4327.6923076923085,4292.307692307693,4224.102564102564,4548.205128205129
2.635077,0.054534633,0.0,0.30365202,0.71077967,0,0.0,0.0,0.0,0.0,0.0,0,0,0.0,0.0,0,0,85.0,0.0,512.0,4532.307692307693,3941.538461538462,4553.846153846154,4454.871794871796,4229.74358974359,4521.025641025642,4486.153846153847,4485.641025641026,4375.8974358974365,4737.948717948719,4327.6923076923085,4292.307692307693,4224.102564102564,4548.205128205129
3.1980608,0.075124934,0.0,0.30671692,0.6945883,0,0.0,0.0,0.0,0.0,0.66590244,0,0,0.0,0.0,0,0,28.0,0.0,0.0,4551.794871794872,3952.307692307693,4539.48717948718,4441.538461538462,4242.051282051282,4531.282051282052,4490.256410256411,4531.794871794872,4359.48717948718,4699.48717948718,4277.948717948719,4285.641025641026,4178.461538461539,4524.615384615385
3.3857222,0.075124934,0.0,0.30671692,0.6945883,0,0.0,0.0,0.0,0.0,0.6245622,0,0,0.0,0.0,0,0,52.0,0.0,0.0,4572.307692307693,3960.0000000000005,4552.820512820514,4444.102564102564,4239.48717948718,4530.256410256411,4482.564102564103,4525.128205128206,4354.871794871796,4700.512820512821,4300.512820512821,4304.102564102564,4190.769230769231,4540.512820512821
3.5108297,0.09355168,0.0,0.3094731,0.680056,0,0.0,0.0,0.0,0.0,0.0,0,0,0.0,0.0,0,0,68.0,0.0,568.0,4554.358974358975,3948.205128205129,4521.025641025642,4429.743589743591,4229.2307692307695,4526.153846153847,4462.564102564103,4505.128205128206,4342.051282051282,4671.282051282052,4265.641025641026,4270.769230769231,4167.6923076923085,4520.512820512821
3.5108297,0.09355168,0.0,0.3094731,0.680056,0,0.0,0.0,0.0,0.0,0.0,0,0,0.0,0.0,0,0,68.0,0.0,568.0,4554.358974358975,3948.205128205129,4521.025641025642,4429.743589743591,4229.2307692307695,4526.153846153847,4462.564102564103,4505.128205128206,4342.051282051282,4671.282051282052,4265.641025641026,4270.769230769231,4167.6923076923085,4520.512820512821
4.0112596,0.10955586,0.0,0.3119434,0.66702396,0,0.0,0.0,0.0,0.0,0.0,0,0,0.0,0.0,0,0,3.0,0.0,547.0,4535.8974358974365,3953.8461538461543,4519.48717948718,4420.000000000001,4234.871794871796,4531.794871794872,4452.307692307693,4471.794871794872,4349.743589743591,4658.974358974359,4251.794871794872,4260.000000000001,4162.051282051282,4524.615384615385
4.3865824,0.10955586,0.0,0.3119434,0.66702396,0,0.0,0.0,0.0,0.0,0.9110776,0,0,0.0,0.0,0,0,51.0,0.0,0.0,4538.461538461539,3992.820512820513,4518.974358974359,4435.384615384616,4247.6923076923085,4540.000000000001,4446.666666666667,4433.846153846154,4320.000000000001,4617.948717948719,4191.794871794872,4207.6923076923085,4081.0256410256416,4444.102564102564
4.6367974,0.13659738,0.0,0.31407523,0.67099756,0,0.0,0.0,0.0,0.0,0.48854423,0,0,0.0,0.0,0,0,83.0,0.0,520.0,4551.282051282052,3977.435897435898,4513.333333333334,4432.820512820514,4248.205128205129,4537.948717948719,4431.794871794872,4426.666666666667,4329.743589743591,4631.282051282052,4209.74358974359,4212.820512820514,4090.2564102564106,4458.461538461539
4.8870125,0.13659738,0.0,0.31407523,0.67099756,0,0.0,0.0,0.0,0.0,0.13092473,0,0,0.0,0.0,0,0,115.0,0.0,520.0,4564.102564102564,3964.1025641025644,4501.538461538462,4427.179487179487,4237.948717948719,4532.820512820514,4414.871794871796,4408.717948717949,4325.641025641026,4629.743589743591,4187.6923076923085,4213.846153846154,4077.435897435898,4450.256410256411
5.1372275,0.16232675,0.0,0.31505197,0.6923997,0,0.0,0.0,0.0,0.0,0.6570387,0,0,0.0,0.0,0,0,18.0,0.0,0.0,4569.743589743591,3925.6410256410263,4494.871794871796,4426.666666666667,4249.74358974359,4542.564102564103,4453.333333333334,4442.564102564103,4385.128205128206,4696.923076923077,4252.820512820514,4257.948717948719,4158.974358974359,4527.6923076923085
5.3874426,0.16232675,0.0,0.31505197,0.6923997,0,0.0,0.0,0.0,0.0,0.37592608,0,0,0.0,0.0,0,0,50.0,0.0,0.0,4575.8974358974365,3924.1025641025644,4490.256410256411,4421.025641025642,4241.538461538462,4539.48717948718,4445.128205128206,4441.025641025642,4394.871794871796,4706.153846153847,4253.333333333334,4265.128205128206,4176.410256410257,4528.205128205129
5.637657,0.21180645,0.0,0.3149722,0.71873933,0,0.0,0.0,0.0,0.0,0.117504604,0,0,0.0,0.0,0,0,82.0,0.0,578.0,4570.256410256411,3916.410256410257,4489.743589743591,4420.512820512821,4245.128205128206,4542.051282051282,4438.974358974359,4421.025641025642,4398.461538461539,4715.384615384616,4273.333333333334,4260.512820512821,4190.256410256411,4526.153846153847
5.887872,0.21180645,0.0,0.3149722,0.71873933,0,0.0,0.0,0.0,0.0,0.03186114,0,0,0.0,0.0,0,0,114.0,0.0,578.0,4595.8974358974365,3922.564102564103,4494.871794871796,4364.615384615385,4251.794871794872,4547.179487179488,4440.512820512821,4484.102564102564,4413.846153846154,4733.333333333334,4289.2307692307695,4266.666666666667,4189.74358974359,4535.8974358974365
6.1380873,0.24424325,0.0,0.31490448,0.7502197,0,0.0,0.0,0.0,0.0,0.013360949,0,0,0.0,0.0,0,0,17.0,0.0,0.0,4584.615384615385,3923.589743589744,4508.717948717949,4414.358974358975,4250.256410256411,4551.794871794872,4436.410256410257,4472.820512820514,4405.641025641026,4726.153846153847,4267.6923076923085,4252.820512820514,4174.871794871796,4520.512820512821
6.3883023,0.24424325,0.0,0.31490448,0.7502197,0,0.0,0.0,0.0,0.0,0.0,0,0,0.0,0.0,0,0,49.0,0.0,0.0,4589.2307692307695,3934.358974358975,4499.48717948718,4436.410256410257,4248.717948717949,4539.48717948718,4439.48717948718,4463.589743589744,4411.282051282052,4724.615384615386,4266.153846153847,4232.307692307693,4168.717948717949,4510.769230769231
6.51341,0.29480422,0.0,0.3158152,0.7782821,0,0.0,0.0,0.0,0.0,0.0,0,0,0.0,0.0,0,0,65.0,0.0,479.0,4563.076923076924,3934.8717948717954,4481.025641025642,4443.589743589744,4246.666666666667,4540.000000000001,4440.512820512821,4455.8974358974365,4410.256410256411,4725.641025641026,4256.923076923077,4213.333333333334,4165.641025641026,4505.128205128206
6.51341,0.29480422,0.0,0.3158152,0.7782821,0,0.0,0.0,0.0,0.0,0.0,0,0,0.0,0.0,0,0,65.0,0.0,479.0,4563.076923076924,3934.8717948717954,4481.025641025642,4443.589743589744,4246.666666666667,4540.000000000001,4440.512820512821,4455.8974358974365,4410.256410256411,4725.641025641026,4256.923076923077,4213.333333333334,4165.641025641026,4505.128205128206
7.1389475,0.33787325,0.0,0.31591332,0.81658155,0,0.0,0.0,0.0,0.0,0.0,0,0,0.12716256,0.0,0,0,16.0,0.0,0.0,4551.282051282052,3957.435897435898,4491.282051282052,4448.205128205129,4236.923076923077,4535.384615384616,4412.307692307693,4421.025641025642,4391.794871794872,4703.589743589744,4267.6923076923085,4203.589743589744,4122.051282051282,4498.461538461539
7.4204392,0.33787325,0.0,0.31591332,0.81658155,0,0.0,0.0,0.0,0.0,0.47776037,0,0,0.0,0.0,0,0,52.0,0.0,0.0,4535.384615384616,3941.538461538462,4490.256410256411,4445.128205128206,4248.717948717949,4539.48717948718,4431.282051282052,4433.333333333334,4398.974358974359,4720.000000000001,4269.2307692307695,4206.153846153847,4130.769230769231,4480.000000000001
7.6393776,0.35656145,0.0,0.31645325,0.86340994,0,0.0,0.0,0.0,0.0,0.4087901,0,0,0.0,0.0,0,0,80.0,0.0,454.0,4547.6923076923085,3941.0256410256416,4490.769230769231,4445.128205128206,4241.538461538462,4538.974358974359,4428.717948717949,4441.025641025642,4409.743589743591,4731.282051282052,4285.128205128206,4225.128205128206,4146.153846153847,4503.076923076924
7.8895926,0.35656145,0.0,0.31645325,0.86340994,0,0.0,0.0,0.0,0.0,0.02848201,0,0,0.0,0.0,0,0,112.0,0.0,454.0,4548.205128205129,3953.333333333334,4493.846153846154,4448.717948717949,4248.205128205129,4540.000000000001,4428.205128205129,4438.461538461539,4416.410256410257,4742.564102564103,4302.051282051282,4224.615384615385,4167.179487179487,4507.6923076923085
8.0147,0.36035693,0.0,0.317301,0.8960525,0,0.0,0.0,0.0,0.0,0.0,0,0,0.0,0.0,0,0,128.0,0.0,454.0,4550.256410256411,3942.564102564103,4492.820512820514,4445.128205128206,4248.717948717949,4548.205128205129,4436.923076923077,4427.179487179487,4410.769230769231,4741.025641025642,4304.615384615385,4227.179487179487,4170.769230769231,4505.641025641026
8.390022,0.36035693,0.0,0.317301,0.8960525,0,0.0,0.0,0.0,0.0,0.0,0,0,0.0,0.0,0,0,47.0,0.0,0.0,4524.102564102564,3944.1025641025644,4481.025641025642,4443.076923076924,4247.179487179487,4538.974358974359,4443.589743589744,4447.179487179487,4422.051282051282,4749.2307692307695,4297.948717948719,4222.051282051282,4189.2307692307695,4507.6923076923085
8.51513,0.34659678,0.0,0.31824818,0.9283616,0,0.0,0.0,0.0,0.0,0.0,0,0,0.0,0.0,0,0,63.0,0.0,0.0,4502.051282051282,3923.589743589744,4475.384615384616,4436.923076923077,4247.179487179487,4540.000000000001,4433.846153846154,4447.179487179487,4422.051282051282,4755.384615384616,4314.871794871796,4232.307692307693,4197.948717948719,4502.051282051282
8.51513,0.34659678,0.0,0.31824818,0.9283616,0,0.0,0.0,0.0,0.0,0.0,0,0,0.0,0.0,0,0,63.0,0.0,0.0,4502.051282051282,3923.589743589744,4475.384615384616,4436.923076923077,4247.179487179487,4540.000000000001,4433.846153846154,4447.179487179487,4422.051282051282,4755.384615384616,4314.871794871796,4232.307692307693,4197.948717948719,4502.051282051282
9.140668,0.32242095,0.0,0.3189228,0.9580643,0,0.0,0.0,0.0,0.0,0.123300485,0,0,0.0,0.0,0,0,14.0,0.0,577.0,4520.512820512821,3927.1794871794878,4474.871794871796,4436.410256410257,4246.666666666667,4540.000000000001,4430.256410256411,4422.564102564103,4422.564102564103,4748.205128205129,4316.923076923077,4228.205128205129,4215.384615384616,4521.538461538462
9.3908825,0.32242095,0.0,0.3189228,0.9580643,0,0.0,0.0,0.0,0.0,0.0,0,0,0.0,0.0,0,0,46.0,0.0,0.0,4519.48717948718,3923.589743589744,4474.358974358975,4429.743589743591,4246.666666666667,4538.461538461539,4442.051282051282,4433.333333333334,4408.205128205129,4736.410256410257,4309.743589743591,4197.948717948719,4189.74358974359,4501.025641025642
9.734928,0.30613834,0.0,0.31917238,0.9815095,0,0.0,0.0,0.0,0.0,0.6706988,0,0,0.0,0.0,0,0,90.0,0.0,577.0,4521.025641025642,3925.1282051282055,4473.846153846154,4428.205128205129,4243.076923076924,4535.8974358974365,4421.538461538462,4424.102564102564,4400.512820512821,4732.307692307693,4299.48717948718,4194.358974358975,4176.410256410257,4491.282051282052
9.891313,0.30613834,0.0,0.31917238,0.9815095,0,0.0,0.0,0.0,0.0,0.59685534,0,0,0.0,0.0,0,0,110.0,0.0,577.0,4551.794871794872,3926.1538461538466,4492.307692307693,4439.48717948718,4248.205128205129,4540.000000000001,4442.051282051282,4446.153846153847,4427.179487179487,4767.6923076923085,4323.589743589744,4233.846153846154,4200.512820512821,4522.564102564103
10.141528,0.3015867,0.62716794,0.31906056,0.99623096,0,0.0,0.0,0.0,0.0,0.43244758,0,0,0.0,0.0,0,0,13.0,0.0,512.0,4506.153846153847,3921.0256410256416,4483.076923076924,4431.282051282052,4248.205128205129,4540.512820512821,4445.641025641026,4447.179487179487,4433.333333333334,4767.6923076923085,4331.794871794872,4231.282051282052,4210.769230769231,4513.333333333334
10.391743,0.3015867,0.62716794,0.31906056,0.99623096,0,0.0,0.0,0.0,0.0,0.46674898,0,0,0.0,0.0,0,0,45.0,0.0,0.0,4507.179487179488,3924.615384615385,4490.256410256411,4435.384615384616,4248.717948717949,4541.025641025642,4451.794871794872,4452.820512820514,4440.000000000001,4775.384615384616,4340.000000000001,4234.358974358975,4210.769230769231,4541.538461538462
10.641958,0.28206187,0.71087617,0.31765038,1.0,0,0.0,0.0,0.0,0.0,0.1529076,0,0,0.0,0.0,0,0,77.0,0.0,512.0,4541.538461538462,3963.589743589744,4523.076923076924,4468.205128205129,4283.076923076924,4581.538461538462,4484.102564102564,4478.461538461539,4486.153846153847,4820.512820512821,4362.051282051282,4267.179487179487,4242.564102564103,4568.717948717949
10.892173,0.28206187,0.71087617,0.31765038,1.0,0,0.0,0.0,0.0,0.0,0.16951898,0,0,0.0,0.0,0,0,109.0,0.0,512.0,4553.846153846154,3960.5128205128212,4525.128205128206,4397.948717948719,4275.384615384616,4571.282051282052,4475.384615384616,4464.615384615385,4464.615384615385,4800.512820512821,4368.205128205129,4277.948717948719,4233.846153846154,4574.358974358975
11.017281,0.320334,0.8043909,0.31554297,1.0,0,0.0,0.0,0.0,0.0,0.0,0,0,0.0,0.0,0,0,125.0,0.0,512.0,4557.435897435898,3970.7692307692314,4532.820512820514,4404.615384615385,4283.076923076924,4583.589743589744,4485.641025641026,4477.948717948719,4463.589743589744,4805.641025641026,4353.846153846154,4259.48717948718,4241.538461538462,4561.538461538462
11.017281,0.320334,0.8043909,0.31554297,1.0,0,0.0,0.0,0.0,0.0,0.0,0,0,0.0,0.0,0,0,125.0,0.0,512.0,4557.435897435898,3970.7692307692314,4532.820512820514,4404.615384615385,4283.076923076924,4583.589743589744,4485.641025641026,4477.948717948719,4463.589743589744,4805.641025641026,4353.846153846154,4259.48717948718,4241.538461538462,4561.538461538462
11.517711,0.3478932,0.8515094,0.313354,1.0,0,0.0,0.0,0.0,0.0,0.0,0,0,0.0,0.0,0,0,60.0,0.0,0.0,4674.358974358975,3983.076923076924,4629.2307692307695,4476.410256410257,4265.128205128206,4565.128205128206,4535.384615384616,4532.820512820514,4426.153846153847,4805.641025641026,4389.743589743591,4331.794871794872,4299.48717948718,4567.6923076923085
11.767925,0.3478932,0.8515094,0.313354,1.0,0,0.0,0.0,0.0,0.0,1.0,0,0,0.0,0.0,0,0,92.0,0.0,453.0,4865.641025641026,4005.1282051282055,4678.461538461539,4477.435897435898,4230.256410256411,4521.538461538462,4522.051282051282,4504.615384615385,4336.410256410257,4744.615384615386,4388.717948717949,4390.769230769231,4267.6923076923085,4676.923076923077
12.143249,0.37338507,0.8886847,0.3111283,1.0,0,0.0,0.0,0.0,0.0,0.7273539,0,0,0.0,0.0,0,0,11.0,0.0,520.0,4767.179487179488,3975.8974358974365,4616.923076923077,4473.846153846154,4231.794871794872,4522.564102564103,4510.769230769231,4478.461538461539,4260.512820512821,4639.48717948718,4297.948717948719,4316.410256410257,4182.051282051282,4491.282051282052
12.393463,0.37338507,0.8886847,0.3111283,1.0,0,0.0,0.0,0.0,0.0,0.1399011,0,0,0.0,0.0,0,0,43.0,0.0,0.0,4738.974358974359,3956.410256410257,4594.871794871796,4470.769230769231,4231.794871794872,4521.538461538462,4489.2307692307695,4453.846153846154,4226.666666666667,4595.384615384616,4287.6923076923085,4311.794871794872,4175.384615384616,4494.871794871796
12.643679,0.41107935,0.90103966,0.30912983,1.0,0,0.0,0.0,0.0,0.0,0.2643175,0,0,0.0,0.0,0,0,75.0,0.0,520.0,4698.461538461539,3947.1794871794878,4571.282051282052,4472.820512820514,4248.205128205129,4535.8974358974365,4508.205128205129,4498.461538461539,4269.74358974359,4642.051282051282,4289.74358974359,4320.000000000001,4191.282051282052,4511.282051282052
12.893893,0.41107935,0.90103966,0.30912983,1.0,0,0.0,0.0,0.0,0.0,0.2957777,0,0,0.0,0.0,0,0,107.0,0.0,520.0,4693.846153846154,3943.589743589744,4556.410256410257,4464.615384615385,4244.102564102564,4530.769230769231,4471.794871794872,4472.307692307693,4265.641025641026,4631.282051282052,4295.8974358974365,4312.307692307693,4170.256410256411,4495.8974358974365
13.144108,0.4094285,0.8894177,0.3074533,1.0,0,0.0,0.0,0.0,0.0,0.3107461,0,0,0.0,0.0,0,0,10.0,0.0,574.0,4629.743589743591,3946.666666666667,4523.076923076924,4458.974358974359,4249.2307692307695,4537.948717948719,4450.256410256411,4458.461538461539,4284.615384615385,4629.2307692307695,4280.000000000001,4279.48717948718,4145.128205128206,4445.641025641026
13.394323,0.4094285,0.8894177,0.3074533,1.0,0,0.0,0.0,0.0,0.0,0.0,0,0,0.0,0.0,0,0,42.0,0.0,0.0,4595.384615384616,3939.48717948718,4505.128205128206,4446.153846153847,4245.641025641026,4533.846153846154,4429.2307692307695,4441.538461538462,4297.435897435898,4627.6923076923085,4261.025641025642,4256.410256410257,4115.8974358974365,4424.615384615385
13.519431,0.42129543,0.8582883,0.30674595,1.0,0,0.0,0.0,0.0,0.0,0.0,0,0,0.0,0.0,0,0,58.0,0.0,0.0,4567.179487179488,3940.0000000000005,4489.743589743591,4449.2307692307695,4250.256410256411,4538.974358974359,4431.282051282052,4441.025641025642,4307.179487179487,4628.717948717949,4253.333333333334,4229.74358974359,4104.102564102564,4403.076923076924
13.519431,0.42129543,0.8582883,0.30674595,1.0,0,0.0,0.0,0.0,0.0,0.0,0,0,0.0,0.0,0,0,58.0,0.0,0.0,4567.179487179488,3940.0000000000005,4489.743589743591,4449.2307692307695,4250.256410256411,4538.974358974359,4431.282051282052,4441.025641025642,4307.179487179487,4628.717948717949,4253.333333333334,4229.74358974359,4104.102564102564,4403.076923076924
14.019861,0.42132455,0.8044057,0.30890402,1.0,0,0.0,0.0,0.0,0.0,0.0,0,0,0.0,0.0,0,0,122.0,0.0,574.0,4508.717948717949,3913.8461538461543,4462.564102564103,4433.333333333334,4250.769230769231,4546.153846153847,4426.153846153847,4424.102564102564,4338.461538461539,4657.948717948719,4243.589743589744,4201.538461538462,4107.6923076923085,4427.6923076923085
14.395184,0.42132455,0.8044057,0.30890402,1.0,0,0.0,0.0,0.0,0.0,0.2052654,0,0,0.0,0.0,0,0,41.0,0.0,0.0,4491.794871794872,3921.538461538462,4473.333333333334,4437.435897435898,4252.820512820514,4551.794871794872,4423.589743589744,4430.256410256411,4378.461538461539,4691.794871794872,4258.974358974359,4198.974358974359,4122.564102564103,4442.051282051282
14.520291,0.43534675,0.7690151,0.31116706,1.0,0,0.0,0.0,0.0,0.0,0.0,0,0,0.0,0.0,0,0,57.0,0.0,0.0,4500.512820512821,3918.9743589743593,4482.051282051282,4436.923076923077,4248.205128205129,4547.179487179488,4420.512820512821,4423.076923076924,4376.410256410257,4689.2307692307695,4245.641025641026,4185.128205128206,4115.8974358974365,4439.48717948718
14.520291,0.43534675,0.7690151,0.31116706,1.0,0,0.0,0.0,0.0,0.0,0.0,0,0,0.0,0.0,0,0,57.0,0.0,0.0,4500.512820512821,3918.9743589743593,4482.051282051282,4436.923076923077,4248.205128205129,4547.179487179488,4420.512820512821,4423.076923076924,4376.410256410257,4689.2307692307695,4245.641025641026,4185.128205128206,4115.8974358974365,4439.48717948718
15.020721,0.44700283,0.75137293,0.31496468,1.0,0,0.0,0.0,0.0,0.0,0.0,0,0,0.0,0.0,0,0,121.0,0.0,512.0,4517.435897435898,3912.307692307693,4489.2307692307695,4432.307692307693,4246.666666666667,4541.538461538462,4425.128205128206,4440.000000000001,4374.358974358975,4697.435897435898,4239.48717948718,4193.846153846154,4141.025641025642,4468.717948717949
15.020721,0.44700283,0.75137293,0.31496468,1.0,0,0.0,0.0,0.0,0.0,0.0,0,0,0.0,0.0,0,0,121.0,0.0,512.0,4517.435897435898,3912.307692307693,4489.2307692307695,4432.307692307693,4246.666666666667,4541.538461538462,4425.128205128206,4440.000000000001,4374.358974358975,4697.435897435898,4239.48717948718,4193.846153846154,4141.025641025642,4468.717948717949
15.521151,0.43577465,0.74256116,0.31914982,1.0,0,0.0,0.0,0.0,0.0,0.0,0,0,0.0,0.0,0,0,56.0,0.0,0.0,4497.435897435898,3911.2820512820517,4474.358974358975,4366.666666666667,4238.974358974359,4537.948717948719,4410.769230769231,4415.384615384616,4371.282051282052,4690.256410256411,4251.282051282052,4189.74358974359,4140.000000000001,4445.641025641026
15.896474,0.43577465,0.74256116,0.31914982,1.0,0,0.0,0.0,0.0,0.0,0.0,0,0,0.0,0.0,0,0,104.0,0.0,453.0,4505.128205128206,3910.7692307692314,4474.871794871796,4427.179487179487,4243.076923076924,4540.000000000001,4421.538461538462,4407.6923076923085,4372.307692307693,4701.025641025642,4242.051282051282,4177.435897435898,4163.076923076924,4476.923076923077
16.021582,0.44086176,0.7494502,0.32215422,1.0,0,0.0,0.0,0.0,0.0,0.0,0,0,0.0,0.0,0,0,120.0,0.0,453.0,4505.641025641026,3921.538461538462,4494.358974358975,4445.128205128206,4247.6923076923085,4546.666666666667,4423.076923076924,4417.948717948719,4397.435897435898,4729.2307692307695,4256.410256410257,4198.974358974359,4173.333333333334,4508.205128205129
16.396904,0.44086176,0.7494502,0.32215422,1.0,0,0.0,0.0,0.0,0.0,0.20348766,0,0,0.0,0.0,0,0,39.0,0.0,0.0,4492.307692307693,3940.5128205128212,4461.025641025642,4447.179487179487,4240.512820512821,4537.948717948719,4405.128205128206,4404.102564102564,4371.794871794872,4682.564102564103,4226.666666666667,4147.179487179487,4111.282051282052,4456.410256410257
16.64712,0.42913654,0.7503823,0.32309255,1.0,0,0.0,0.0,0.0,0.0,1.0,0,0,0.0,0.0,0,0,71.0,0.0,491.0,4285.641025641026,3963.076923076924,4460.000000000001,4443.589743589744,4231.282051282052,4531.282051282052,4397.948717948719,4395.8974358974365,4365.128205128206,4667.179487179488,4222.564102564103,4128.717948717949,4087.692307692308,4431.794871794872
16.64712,0.42913654,0.7503823,0.32309255,1.0,0,0.0,0.0,0.0,0.0,1.0,0,0,0.0,0.0,0,0,71.0,0.0,491.0,4285.641025641026,3963.076923076924,4460.000000000001,4443.589743589744,4231.282051282052,4531.282051282052,4397.948717948719,4395.8974358974365,4365.128205128206,4667.179487179488,4222.564102564103,4128.717948717949,4087.692307692308,4431.794871794872
17.147549,0.43250382,0.73888147,0.32310754,1.0,0,0.0,0.0,0.0,0.0,0.057026017,0,0,0.0,0.0,0,0,6.0,0.0,584.0,4311.794871794872,3976.9230769230776,4461.025641025642,4451.282051282052,4240.512820512821,4537.948717948719,4395.384615384616,4396.410256410257,4362.564102564103,4686.153846153847,4243.589743589744,4137.435897435898,4130.769230769231,4462.564102564103
17.397764,0.43250382,0.73888147,0.32310754,1.0,0,0.0,0.0,0.0,0.0,0.08736212,0,0,0.0,0.0,0,0,38.0,0.0,0.0,4330.769230769231,4014.8717948717954,4457.948717948719,4459.48717948718,4241.538461538462,4536.410256410257,4393.333333333334,4396.923076923077,4374.358974358975,4707.6923076923085,4278.461538461539,4152.820512820514,4155.8974358974365,4486.153846153847
17.74181,0.45489773,0.73989034,0.32313856,1.0,0,0.0,0.0,0.0,0.0,0.49455544,0,0,0.0,0.0,0,0,82.0,0.0,574.0,4460.512820512821,3972.307692307693,4505.128205128206,4452.820512820514,4242.051282051282,4538.974358974359,4426.666666666667,4418.974358974359,4398.461538461539,4743.076923076924,4307.6923076923085,4201.025641025642,4187.179487179487,4566.153846153847
17.898193,0.45489773,0.73989034,0.32313856,1.0,0,0.0,0.0,0.0,0.0,0.7060489,0,0,0.0,0.0,1,0,102.0,0.0,574.0,4395.8974358974365,3992.820512820513,4478.461538461539,4452.820512820514,4236.410256410257,4532.820512820514,4403.589743589744,4393.333333333334,4378.974358974359,4711.794871794872,4284.615384615385,4167.6923076923085,4150.769230769231,4484.615384615385
18.210962,0.4511526,0.8120774,0.32236364,1.0,0,0.0,0.0,0.0,0.0,0.6836768,0,0,0.0,0.0,0,0,13.0,0.0,512.0,4425.641025641026,3982.0512820512827,4487.6923076923085,4474.871794871796,4268.717948717949,4573.333333333334,4440.000000000001,4433.333333333334,4421.025641025642,4747.6923076923085,4284.102564102564,4166.153846153847,4151.794871794872,4472.820512820514
18.398624,0.4511526,0.8120774,0.32236364,1.0,0,0.0,0.0,0.0,0.0,0.19841228,0,0,0.0,0.0,0,0,37.0,0.0,0.0,4438.461538461539,3937.435897435898,4472.307692307693,4452.307692307693,4241.538461538462,4536.410256410257,4417.435897435898,4407.179487179487,4405.128205128206,4733.846153846154,4298.461538461539,4132.307692307693,4144.102564102564,4468.717948717949
18.648838,0.43217048,0.86575544,0.3216684,1.0,0,0.0,0.0,0.0,0.0,0.8652209,0,0,0.0,0.0,0,0,69.0,0.0,566.0,4526.153846153847,3943.589743589744,4488.205128205129,4452.820512820514,4248.205128205129,4543.589743589744,4431.794871794872,4417.948717948719,4423.589743589744,4763.076923076924,4311.282051282052,4159.48717948718,4161.538461538462,4496.923076923077
18.899054,0.43217048,0.86575544,0.3216684,1.0,0,0.0,0.0,0.0,0.0,0.870984,0,0,0.0,0.0,0,0,101.0,0.0,512.0,4554.358974358975,3935.3846153846157,4473.846153846154,4443.589743589744,4238.461538461539,4540.000000000001,4421.538461538462,4395.384615384616,4402.564102564103,4736.923076923077,4296.923076923077,4152.820512820514,4155.8974358974365,4490.256410256411
19.14927,0.41415897,0.90544236,0.32185334,1.0,0,0.0,0.0,0.0,0.0,0.49896428,0,0,0.0,0.0,0,0,4.0,0.0,568.0,4714.358974358975,3953.8461538461543,4506.666666666667,4445.128205128206,4237.948717948719,4538.974358974359,4423.589743589744,4397.948717948719,4396.410256410257,4755.384615384616,4329.2307692307695,4204.102564102564,4184.615384615385,4626.666666666667
19.399485,0.41415897,0.90544236,0.32185334,1.0,0,0.0,0.0,0.0,0.0,0.57988393,0,0,0.0,0.0,0,0,36.0,0.0,0.0,4586.666666666667,3922.0512820512827,4476.923076923077,4438.974358974359,4242.564102564103,4538.461538461539,4428.205128205129,4424.615384615385,4421.025641025642,4750.769230769231,4309.743589743591,4172.307692307693,4151.282051282052,4488.717948717949
19.649698,0.51347005,1.0,0.32310498,1.0,0,0.0,0.0,0.0,0.0,0.40760815,0,0,0.0,0.0,0,0,68.0,0.0,568.0,4591.794871794872,3928.205128205129,4486.666666666667,4441.025641025642,4242.051282051282,4540.000000000001,4427.179487179487,4430.769230769231,4429.2307692307695,4761.538461538462,4308.717948717949,4186.153846153847,4169.74358974359,4506.153846153847
19.899914,0.51347005,1.0,0.32310498,1.0,0,0.0,0.0,0.0,0.0,0.083187826,0,0,0.0,0.0,0,0,100.0,0.0,453.0,4583.076923076924,3932.820512820513,4489.743589743591,4437.948717948719,4241.025641025642,4539.48717948718,4425.128205128206,4425.128205128206,4421.538461538462,4751.794871794872,4292.307692307693,4189.74358974359,4165.128205128206,4491.794871794872
20.15013,0.5005789,1.0,0.32450026,1.0,0,0.0,0.0,0.0,0.0,0.21085727,0,0,0.0,0.0,0,0,3.0,0.0,547.0,4629.743589743591,3936.9230769230776,4506.666666666667,4440.512820512821,4238.461538461539,4537.948717948719,4414.871794871796,4415.384615384616,4415.8974358974365,4756.410256410257,4329.743589743591,4209.74358974359,4176.923076923077,4513.846153846154
20.400345,0.5005789,1.0,0.32450026,1.0,0,0.0,0.0,0.0,0.0,0.44951996,0,0,0.0,0.0,0,0,35.0,0.0,0.0,4586.153846153847,3926.666666666667,4464.102564102564,4433.846153846154,4247.179487179487,4542.051282051282,4427.179487179487,4417.948717948719,4408.205128205129,4735.8974358974365,4276.923076923077,4148.205128205129,4132.307692307693,4420.512820512821
20.650558,0.49677122,0.9813303,0.3257578,1.0,0,0.0,0.0,0.0,0.0,0.2420491,0,0,0.0,0.0,0,0,67.0,0.0,547.0,4605.641025641026,3930.7692307692314,4489.743589743591,4397.948717948719,4237.948717948719,4537.948717948719,4426.153846153847,4418.974358974359,4407.179487179487,4746.666666666667,4291.282051282052,4179.48717948718,4143.076923076924,4450.256410256411
20.900774,0.49677122,0.9813303,0.3257578,1.0,0,0.0,0.0,0.0,0.0,0.0,0,0,0.0,0.0,0,0,99.0,0.0,520.0,4816.923076923077,3957.9487179487182,4545.128205128206,4430.256410256411,4232.307692307693,4533.333333333334,4421.025641025642,4424.102564102564,4407.179487179487,4785.641025641026,4350.769230769231,4262.564102564103,4214.358974358975,4674.358974358975
21.182266,0.513108,0.9558044,0.32689106,1.0,0,0.0,0.0,0.0,0.0,0.95380735,0,0,0.0,0.0,0,0,6.0,0.0,584.0,4662.051282051282,3920.5128205128212,4524.615384615385,4444.615384615385,4245.641025641026,4540.000000000001,4461.025641025642,4454.871794871796,4427.6923076923085,4782.564102564103,4344.102564102564,4245.128205128206,4217.435897435898,4564.102564102564
21.401205,0.513108,0.9558044,0.32689106,1.0,0,0.0,0.0,0.0,0.0,0.49443743,0,0,0.0,0.0,0,0,34.0,0.0,0.0,4581.538461538462,3920.5128205128212,4534.358974358975,4445.641025641026,4245.641025641026,4537.948717948719,4488.205128205129,4489.2307692307695,4434.871794871796,4788.205128205129,4351.282051282052,4269.2307692307695,4225.128205128206,4566.153846153847
21.651419,0.5441717,0.9292253,0.32734507,1.0,0,0.0,0.0,0.0,0.0,0.9202327,0,0,0.0,0.0,0,0,66.0,0.0,519.0,4570.769230769231,3920.0000000000005,4539.48717948718,4446.666666666667,4235.8974358974365,4530.769230769231,4463.076923076924,4467.6923076923085,4407.179487179487,4769.2307692307695,4351.282051282052,4268.205128205129,4239.48717948718,4529.743589743591
21.901634,0.5441717,0.9292253,0.32734507,1.0,0,0.0,0.0,0.0,0.0,1.0,0,0,0.0,0.0,0,1,98.0,0.0,574.0,4549.2307692307695,3913.8461538461543,4524.615384615385,4442.564102564103,4232.820512820514,4525.128205128206,4460.512820512821,4472.820512820514,4403.076923076924,4752.820512820514,4332.820512820514,4254.871794871796,4222.051282051282,4540.512820512821
22.089296,0.520723,0.90146315,0.32767242,1.0,0,0.0,0.0,0.0,0.0,1.0,0,0,0.0,0.0,0,0,122.0,0.0,574.0,4581.538461538462,3918.9743589743593,4520.000000000001,4443.076923076924,4230.256410256411,4525.128205128206,4444.102564102564,4448.717948717949,4383.076923076924,4735.384615384616,4340.512820512821,4255.8974358974365,4218.974358974359,4590.769230769231
22.402065,0.520723,0.90146315,0.32767242,1.0,0,0.0,0.0,0.0,0.0,0.69155985,0,0,0.0,0.0,0,0,33.0,0.0,0.0,4536.410256410257,3918.461538461539,4488.717948717949,4434.871794871796,4232.820512820514,4527.179487179488,4445.641025641026,4453.333333333334,4384.615384615385,4723.589743589744,4292.307692307693,4209.74358974359,4173.333333333334,4534.871794871796
22.652279,0.51236725,0.9921731,0.32797807,1.0,0,0.0,0.0,0.0,0.0,0.3489862,0,0,0.0,0.0,0,0,65.0,0.0,479.0,4572.820512820514,3926.1538461538466,4491.282051282052,4441.538461538462,4234.358974358975,4532.820512820514,4432.820512820514,4438.974358974359,4368.717948717949,4708.205128205129,4317.435897435898,4217.435897435898,4171.282051282052,4520.000000000001
22.902494,0.51236725,0.9921731,0.32797807,1.0,0,0.0,0.0,0.0,0.0,0.23753862,0,0,0.0,0.0,0,0,97.0,0.0,512.0,4593.846153846154,3929.7435897435903,4492.820512820514,4436.410256410257,4240.000000000001,4538.461538461539,4440.512820512821,4442.051282051282,4384.615384615385,4724.102564102564,4320.512820512821,4230.769230769231,4169.2307692307695,4526.153846153847
23.027601,0.4848636,0.9378215,0.32825312,1.0,0,0.0,0.0,0.0,0.0,0.0,0,0,0.0,0.0,0,0,113.0,0.0,512.0,4610.256410256411,3940.5128205128212,4493.846153846154,4440.512820512821,4237.948717948719,4538.974358974359,4426.153846153847,4443.589743589744,4384.102564102564,4713.333333333334,4300.512820512821,4217.435897435898,4162.051282051282,4527.179487179488
23.465479,0.4848636,0.9378215,0.32825312,1.0,1,0.0,0.0,0.0,0.0,0.0,0,0,0.0,0.0,0,0,40.0,0.0,0.0,4642.051282051282,3938.9743589743593,4486.666666666667,4443.589743589744,4244.615384615385,4543.589743589744,4411.794871794872,4409.743589743591,4371.282051282052,4699.48717948718,4285.128205128206,4199.48717948718,4149.74358974359,4554.871794871796
23.621862,0.46783543,0.92092085,0.32877153,1.0,0,0.0,0.0,0.0,0.0,0.0,0,0,0.0,0.0,0,0,60.0,0.0,0.0,4566.666666666667,3927.1794871794878,4469.743589743591,4438.461538461539,4247.6923076923085,4542.051282051282,4425.641025641026,4431.794871794872,4391.794871794872,4722.051282051282,4305.128205128206,4207.179487179487,4154.358974358975,4508.717948717949
23.903355,0.46783543,0.92092085,0.32877153,1.0,0,0.0,0.0,0.0,0.0,0.64210075,0,0,0.0,0.0,0,0,96.0,0.0,452.0,4553.846153846154,3927.692307692308,4475.8974358974365,4443.589743589744,4254.871794871796,4552.820512820514,4446.666666666667,4458.461538461539,4429.743589743591,4765.128205128206,4332.307692307693,4213.846153846154,4187.6923076923085,4524.615384615385
24.15357,0.43994576,0.90763146,0.32923898,0.9551419,0,0.0,0.0,0.0,0.0,0.16447173,0,0,0.0,0.0,0,0,128.0,0.0,452.0,4614.358974358975,3934.8717948717954,4478.974358974359,4438.974358974359,4250.769230769231,4549.743589743591,4445.128205128206,4457.435897435898,4422.564102564103,4741.538461538462,4326.666666666667,4231.794871794872,4186.153846153847,4526.666666666667
24.403784,0.43994576,0.90763146,0.32923898,0.9551419,0,0.0,0.0,0.0,0.0,0.0,0,0,0.0,0.0,0,0,31.0,0.0,0.0,4675.8974358974365,3927.692307692308,4488.717948717949,4404.102564102564,4235.384615384616,4540.512820512821,4432.307692307693,4448.717948717949,4407.179487179487,4772.307692307693,4328.205128205129,4229.74358974359,4175.384615384616,4538.974358974359
24.528893,0.41290516,0.92021906,0.3296605,0.9123241,0,0.0,0.0,0.0,0.0,0.0,0,0,0.0,0.0,0,0,47.0,0.0,0.0,4718.974358974359,3928.205128205129,4489.2307692307695,4430.256410256411,4243.589743589744,4540.512820512821,4431.282051282052,4456.923076923077,4405.641025641026,4786.153846153847,4343.076923076924,4236.410256410257,4174.358974358975,4539.48717948718
24.904215,0.41290516,0.92021906,0.3296605,0.9123241,0,0.0,0.0,0.0,0.0,0.95792717,0,0,0.0,0.0,0,0,95.0,0.0,520.0,4777.948717948719,3936.410256410257,4491.794871794872,4444.615384615385,4254.871794871796,4554.871794871796,4445.641025641026,4455.8974358974365,4427.179487179487,4766.666666666667,4346.666666666667,4214.871794871796,4179.48717948718,4518.461538461539
25.15443,0.42763254,0.99911773,0.33004057,0.8778617,0,0.0,0.0,0.0,0.0,0.92999226,0,0,0.0,0.0,0,0,127.0,0.0,520.0,4750.256410256411,3929.2307692307695,4490.769230769231,4444.615384615385,4248.205128205129,4554.358974358975,4434.871794871796,4431.794871794872,4438.974358974359,4773.846153846154,4352.820512820514,4221.025641025642,4188.717948717949,4424.102564102564
25.404644,0.42763254,0.99911773,0.33004057,0.8778617,0,0.0,0.0,0.0,0.0,0.7463003,0,0,0.0,0.0,0,0,30.0,0.0,0.0,4809.2307692307695,3927.1794871794878,4478.974358974359,4432.820512820514,4247.179487179487,4545.641025641026,4430.256410256411,4426.666666666667,4412.820512820514,4731.282051282052,4331.794871794872,4200.000000000001,4167.179487179487,4490.256410256411
25.56103,0.4060761,1.0,0.33037305,0.8486822,0,0.0,0.0,0.0,0.0,1.0,0,0,0.0,0.0,0,0,50.0,0.0,0.0,4900.512820512821,3926.1538461538466,4489.2307692307695,4429.2307692307695,4251.282051282052,4553.333333333334,4453.333333333334,4440.512820512821,4408.717948717949,4703.589743589744,4336.410256410257,4202.051282051282,4148.717948717949,4486.666666666667
25.56103,0.4060761,1.0,0.33037305,0.8486822,0,0.0,0.0,0.0,0.0,1.0,0,0,0.0,0.0,0,0,50.0,0.0,0.0,4900.512820512821,3926.1538461538466,4489.2307692307695,4429.2307692307695,4251.282051282052,4553.333333333334,4453.333333333334,4440.512820512821,4408.717948717949,4703.589743589744,4336.410256410257,4202.051282051282,4148.717948717949,4486.666666666667
26.217844,0.42307597,1.0,0.33067444,0.82134813,1,0.0,0.0,0.0,0.0,1.0,0,0,0.0,0.0,0,0,5.0,0.0,566.0,5008.205128205129,3929.2307692307695,4494.871794871796,4421.538461538462,4231.794871794872,4524.102564102564,4411.794871794872,4415.8974358974365,4412.820512820514,4755.8974358974365,4333.846153846154,4200.000000000001,4175.8974358974365,4587.6923076923085
26.405504,0.42307597,1.0,0.33067444,0.82134813,0,0.0,0.0,0.0,0.0,0.74322593,0,0,0.0,0.0,0,0,29.0,0.0,0.0,4897.948717948719,3914.358974358975,4473.333333333334,4415.8974358974365,4231.794871794872,4531.282051282052,4414.871794871796,4413.333333333334,4401.538461538462,4739.48717948718,4323.589743589744,4164.615384615385,4128.717948717949,4498.974358974359
26.65572,0.43245158,1.0,0.33094564,0.79694396,0,0.0,0.0,0.0,0.0,0.9621375,0,0,0.0,0.0,0,0,61.0,0.0,0.0,4857.948717948719,3925.6410256410263,4481.025641025642,4417.435897435898,4237.948717948719,4531.282051282052,4405.128205128206,4411.794871794872,4396.410256410257,4735.384615384616,4338.461538461539,4191.282051282052,4145.641025641026,4506.153846153847
26.780827,0.43245158,1.0,0.33094564,0.79694396,0,0.0,0.0,0.0,0.0,1.0,0,0,0.0,0.0,0,0,77.0,0.0,512.0,4769.743589743591,3917.9487179487182,4470.769230769231,4415.384615384616,4234.871794871796,4537.948717948719,4420.512820512821,4408.205128205129,4389.2307692307695,4712.307692307693,4320.512820512821,4176.923076923077,4104.102564102564,4486.666666666667
27.031042,0.40868068,1.0,0.3311902,0.7718029,0,0.0,0.0,0.0,0.0,1.0,0,0,0.0,0.0,0,0,109.0,0.0,512.0,4665.128205128206,3917.435897435898,4476.923076923077,4411.794871794872,4230.769230769231,4526.666666666667,4409.2307692307695,4414.871794871796,4401.025641025642,4747.6923076923085,4336.410256410257,4190.769230769231,4152.820512820514,4509.743589743591
27.406364,0.40868068,1.0,0.3311902,0.7718029,0,0.0,0.0,0.0,0.0,0.87909245,0,0,0.0,0.0,0,0,28.0,0.0,0.0,4552.307692307693,3910.7692307692314,4473.333333333334,4405.641025641026,4230.769230769231,4525.128205128206,4401.025641025642,4416.923076923077,4384.102564102564,4718.974358974359,4320.000000000001,4170.256410256411,4125.128205128206,4482.564102564103
27.65658,0.4048964,1.0,0.3314107,0.74928033,0,0.0,0.0,0.0,0.0,0.48333487,0,0,0.0,0.0,0,0,60.0,0.0,0.0,4523.589743589744,3911.2820512820517,4490.769230769231,4409.743589743591,4229.74358974359,4522.051282051282,4415.384615384616,4426.153846153847,4359.48717948718,4711.282051282052,4324.102564102564,4181.538461538462,4145.641025641026,4501.538461538462
27.906796,0.4048964,1.0,0.3314107,0.74928033,0,0.0,0.0,0.0,0.0,0.25711906,0,0,0.0,0.0,0,0,92.0,0.0,450.0,4550.256410256411,3927.692307692308,4521.538461538462,4426.153846153847,4231.794871794872,4527.6923076923085,4447.6923076923085,4474.358974358975,4403.589743589744,4757.435897435898,4380.512820512821,4232.820512820514,4216.923076923077,4539.48717948718
28.15701,0.46024695,0.99646705,0.33160952,0.72908175,0,0.0,0.0,0.0,0.0,0.14101712,0,0,0.0,0.0,0,0,124.0,0.0,450.0,4537.948717948719,3933.8461538461543,4542.564102564103,4416.410256410257,4247.179487179487,4540.512820512821,4471.282051282052,4490.256410256411,4395.384615384616,4760.000000000001,4382.564102564103,4266.666666666667,4233.846153846154,4529.743589743591
28.282118,0.46024695,0.99646705,0.33160952,0.72908175,0,0.0,0.0,0.0,0.0,0.0,0,0,0.0,0.0,0,0,11.0,0.0,520.0,4525.128205128206,3924.615384615385,4537.948717948719,4417.435897435898,4242.051282051282,4536.410256410257,4478.461538461539,4492.820512820514,4378.461538461539,4749.743589743591,4358.974358974359,4254.871794871796,4223.076923076924,4517.435897435898
28.65744,0.48485202,0.91932315,0.33178878,0.73303634,0,0.0,0.0,0.0,0.0,0.8836398,0,0,0.0,0.0,0,0,59.0,0.0,0.0,4489.743589743591,3927.1794871794878,4531.794871794872,4437.435897435898,4244.615384615385,4535.8974358974365,4475.384615384616,4488.717948717949,4374.871794871796,4731.282051282052,4346.153846153847,4239.48717948718,4209.2307692307695,4505.128205128206
28.907656,0.48485202,0.91932315,0.33178878,0.73303634,0,0.0,0.0,0.0,0.0,0.9768303,0,0,0.0,0.0,0,0,91.0,0.0,520.0,4474.358974358975,3927.1794871794878,4511.282051282052,4441.025641025642,4237.948717948719,4537.435897435898,4457.435897435898,4476.410256410257,4362.564102564103,4714.358974358975,4345.128205128206,4220.000000000001,4191.282051282052,4496.923076923077
29.15787,0.47905323,0.86188316,0.33194938,0.7608181,0,0.0,0.0,0.0,0.0,0.0,0,0,0.0,0.0,0,0,123.0,0.0,520.0,4491.282051282052,3925.6410256410263,4518.974358974359,4443.589743589744,4238.461538461539,4536.923076923077,4446.666666666667,4462.051282051282,4348.205128205129,4698.974358974359,4326.153846153847,4216.923076923077,4174.358974358975,4503.076923076924
29.408085,0.47905323,0.86188316,0.33194938,0.7608181,0,0.0,0.0,0.0,0.0,0.37122384,0,0,0.0,0.0,0,0,26.0,0.0,0.0,4546.153846153847,3941.0256410256416,4520.000000000001,4443.589743589744,4237.948717948719,4535.8974358974365,4442.564102564103,4465.128205128206,4350.256410256411,4707.6923076923085,4314.871794871796,4232.307692307693,4179.48717948718,4557.948717948719
29.6583,0.47743762,0.81338584,0.33154216,0.78902066,0,0.0,0.0,0.0,0.0,0.25592932,0,0,0.0,0.0,0,0,58.0,0.0,0.0,4503.076923076924,3940.0000000000005,4505.128205128206,4446.153846153847,4248.205128205129,4546.666666666667,4457.948717948719,4480.000000000001,4363.076923076924,4704.615384615386,4310.256410256411,4225.128205128206,4169.2307692307695,4512.307692307693
29.908516,0.47743762,0.81338584,0.33154216,0.78902066,0,0.0,0.0,0.0,0.0,0.0,0,0,0.0,0.0,0,0,90.0,0.0,574.0,4478.974358974359,3924.1025641025644,4488.717948717949,4432.820512820514,4240.000000000001,4536.410256410257,4444.102564102564,4474.358974358975,4364.615384615385,4702.051282051282,4324.102564102564,4218.461538461539,4164.102564102564,4507.6923076923085
30.033623,0.4713767,0.7691717,0.33115682,0.8140731,0,0.0,0.0,0.0,0.0,0.0,0,0,0.0,0.0,0,0,106.0,0.0,574.0,4492.307692307693,3928.717948717949,4504.615384615385,4443.076923076924,4246.153846153847,4541.025641025642,4447.179487179487,4482.564102564103,4379.48717948718,4715.384615384616,4330.256410256411,4229.74358974359,4180.000000000001,4524.102564102564
30.033623,0.4713767,0.7691717,0.33115682,0.8140731,0,0.0,0.0,0.0,0.0,0.0,0,0,0.0,0.0,0,0,106.0,0.0,574.0,4492.307692307693,3928.717948717949,4504.615384615385,4443.076923076924,4246.153846153847,4541.025641025642,4447.179487179487,4482.564102564103,4379.48717948718,4715.384615384616,4330.256410256411,4229.74358974359,4180.000000000001,4524.102564102564
30.65916,0.45037463,0.73285097,0.33205065,0.8340158,0,0.0,0.0,0.0,0.0,0.082708016,0,0,0.0,0.0,0,0,57.0,0.0,0.0,4503.076923076924,3924.1025641025644,4486.666666666667,4428.717948717949,4232.820512820514,4534.871794871796,4426.153846153847,4447.6923076923085,4373.333333333334,4705.641025641026,4315.8974358974365,4208.205128205129,4130.256410256411,4486.666666666667
30.909376,0.45037463,0.73285097,0.33205065,0.8340158,0,0.0,0.0,0.0,0.0,0.2514424,0,0,0.0,0.0,0,0,89.0,0.0,513.0,4552.820512820514,3927.1794871794878,4488.205128205129,4428.717948717949,4234.871794871796,4534.871794871796,4420.000000000001,4437.948717948719,4374.871794871796,4705.128205128206,4313.333333333334,4188.205128205129,4134.358974358975,4491.794871794872
31.15959,0.45017275,0.6999435,0.3315952,0.8594792,0,0.0,0.0,0.0,0.0,0.435123,0,0,0.0,0.0,0,0,121.0,0.0,513.0,4585.128205128206,3914.358974358975,4487.6923076923085,4424.102564102564,4237.435897435898,4539.48717948718,4435.8974358974365,4451.282051282052,4396.410256410257,4735.384615384616,4343.589743589744,4217.435897435898,4167.179487179487,4537.948717948719
31.409805,0.45017275,0.6999435,0.3315952,0.8594792,0,0.0,0.0,0.0,0.0,0.34510073,0,0,0.0,0.0,0,0,24.0,0.0,0.0,4571.794871794872,3910.2564102564106,4488.717948717949,4425.641025641026,4237.435897435898,4537.948717948719,4423.589743589744,4447.179487179487,4414.358974358975,4759.48717948718,4385.641025641026,4250.256410256411,4211.794871794872,4572.307692307693
31.66002,0.43816856,0.6641913,0.33118564,0.88681644,0,0.0,0.0,0.0,0.0,0.2593727,0,0,0.0,0.0,0,0,56.0,0.0,0.0,4534.358974358975,3894.8717948717954,4480.000000000001,4368.205128205129,4233.846153846154,4537.948717948719,4442.564102564103,4452.820512820514,4410.256410256411,4741.025641025642,4358.974358974359,4228.205128205129,4196.410256410257,4551.282051282052
31.910236,0.43816856,0.6641913,0.33118564,0.88681644,0,0.0,0.0,0.0,0.0,0.27334523,0,0,0.0,0.0,0,0,88.0,0.0,450.0,4507.6923076923085,3912.307692307693,4483.076923076924,4413.333333333334,4240.000000000001,4540.000000000001,4445.128205128206,4460.000000000001,4427.179487179487,4757.435897435898,4368.205128205129,4230.256410256411,4202.564102564103,4545.128205128206
32.16045,0.42309293,0.63169026,0.33235893,0.9003941,0,0.0,0.0,0.0,0.0,1.0,0,0,0.0,0.0,0,0,120.0,0.0,450.0,4488.205128205129,3911.2820512820517,4485.128205128206,4431.794871794872,4238.461538461539,4541.025641025642,4445.641025641026,4457.435897435898,4428.205128205129,4771.794871794872,4365.128205128206,4234.358974358975,4203.076923076924,4458.461538461539
32.16045,0.42309293,0.63169026,0.33235893,0.9003941,0,0.0,0.0,0.0,0.0,1.0,0,0,0.0,0.0,0,0,120.0,0.0,450.0,4488.205128205129,3911.2820512820517,4485.128205128206,4431.794871794872,4238.461538461539,4541.025641025642,4445.641025641026,4457.435897435898,4428.205128205129,4771.794871794872,4365.128205128206,4234.358974358975,4203.076923076924,4458.461538461539
32.56705,0.40816838,0.5996278,0.3334309,0.90220857,0,0.0,0.0,0.0,0.0,1.0,0,0,0.0,0.0,0,0,43.0,0.0,0.0,4488.205128205129,3929.7435897435903,4491.282051282052,4443.076923076924,4233.846153846154,4539.48717948718,4427.6923076923085,4422.051282051282,4397.948717948719,4746.666666666667,4345.641025641026,4200.000000000001,4170.256410256411,4692.820512820514
32.56705,0.40816838,0.5996278,0.3334309,0.90220857,0,0.0,0.0,0.0,0.0,1.0,0,0,0.0,0.0,0,0,43.0,0.0,0.0,4488.205128205129,3929.7435897435903,4491.282051282052,4443.076923076924,4233.846153846154,4539.48717948718,4427.6923076923085,4422.051282051282,4397.948717948719,4746.666666666667,4345.641025641026,4200.000000000001,4170.256410256411,4692.820512820514
33.161312,0.40988958,0.5632914,0.33439562,0.9038416,0,0.0,0.0,0.0,0.0,0.36796227,0,0,0.0,0.0,0,0,119.0,0.0,514.0,4440.000000000001,3911.2820512820517,4475.384615384616,4429.2307692307695,4230.256410256411,4536.410256410257,4435.8974358974365,4438.974358974359,4415.8974358974365,4759.48717948718,4362.051282051282,4197.948717948719,4196.923076923077,4666.666666666667
33.411526,0.40988958,0.5632914,0.33439562,0.9038416,0,0.0,0.0,0.0,0.0,0.40217164,0,0,0.0,0.0,0,0,22.0,0.0,0.0,4462.051282051282,3920.5128205128212,4485.641025641026,4431.282051282052,4234.358974358975,4537.948717948719,4427.6923076923085,4430.769230769231,4424.102564102564,4765.641025641026,4377.948717948719,4218.974358974359,4195.8974358974365,4647.6923076923085
33.66174,0.4090885,0.53149927,0.33428755,0.8840774,0,0.0,0.0,0.0,0.0,0.16597587,0,0,0.0,0.0,0,0,54.0,0.0,0.0,4457.435897435898,3910.7692307692314,4481.025641025642,4429.2307692307695,4233.846153846154,4536.410256410257,4424.615384615385,4421.538461538462,4422.051282051282,4763.076923076924,4359.48717948718,4212.820512820514,4200.000000000001,4632.820512820514
33.911957,0.4090885,0.53149927,0.33428755,0.8840774,0,0.0,0.0,0.0,0.0,0.61762434,0,0,0.0,0.0,0,0,86.0,0.0,573.0,4499.48717948718,3925.6410256410263,4494.358974358975,4428.205128205129,4232.307692307693,4536.410256410257,4427.6923076923085,4424.102564102564,4415.384615384616,4749.743589743591,4337.948717948719,4205.641025641026,4157.435897435898,4597.435897435898
34.16217,0.39281604,0.50904566,0.3341903,0.8495128,0,0.0,0.0,0.0,0.0,0.75340074,0,0,0.0,0.0,0,0,118.0,0.0,573.0,4549.743589743591,3943.589743589744,4492.307692307693,4442.564102564103,4243.589743589744,4538.974358974359,4425.641025641026,4412.307692307693,4406.666666666667,4755.384615384616,4324.102564102564,4190.769230769231,4163.076923076924,4591.794871794872
34.412384,0.39281604,0.50904566,0.3341903,0.8495128,0,0.0,0.0,0.0,0.0,1.0,0,0,0.0,0.0,0,0,21.0,0.0,0.0,4535.8974358974365,3931.2820512820517,4485.128205128206,4437.435897435898,4234.358974358975,4537.435897435898,4430.256410256411,4415.8974358974365,4414.358974358975,4753.333333333334,4326.666666666667,4185.128205128206,4155.8974358974365,4561.538461538462
34.6626,0.38735315,0.49408752,0.33410266,0.818684,0,0.0,0.0,0.0,0.0,0.09082412,0,0,0.0,0.0,0,0,53.0,0.0,0.0,4537.435897435898,3927.692307692308,4493.846153846154,4430.256410256411,4231.282051282052,4535.8974358974365,4441.025641025642,4416.923076923077,4409.743589743591,4751.794871794872,4331.794871794872,4185.128205128206,4149.74358974359,4555.8974358974365
34.912815,0.38735315,0.49408752,0.33410266,0.818684,0,0.0,0.0,0.0,0.0,0.0,0,0,0.0,0.0,0,0,85.0,0.0,515.0,4563.076923076924,3931.2820512820517,4509.2307692307695,4438.974358974359,4235.384615384616,4538.461538461539,4445.128205128206,4431.282051282052,4427.6923076923085,4781.538461538462,4376.410256410257,4218.974358974359,4194.871794871796,4593.333333333334
35.03792,0.38576287,0.48539966,0.3340236,0.7911334,0,0.0,0.0,0.0,0.0,0.0,0,0,0.0,0.0,0,0,101.0,0.0,515.0,4559.48717948718,3926.1538461538466,4492.820512820514,4434.358974358975,4237.948717948719,4537.948717948719,4441.025641025642,4421.025641025642,4421.538461538462,4761.538461538462,4337.435897435898,4183.076923076924,4174.871794871796,4551.794871794872
35.413246,0.38576287,0.48539966,0.3340236,0.7911334,0,0.0,0.0,0.0,0.0,0.36576095,0,0,0.0,0.0,0,0,20.0,0.0,0.0,4570.256410256411,3926.666666666667,4486.666666666667,4411.794871794872,4234.871794871796,4536.923076923077,4425.128205128206,4412.307692307693,4407.6923076923085,4748.205128205129,4320.000000000001,4185.128205128206,4158.461538461539,4535.8974358974365
35.66346,0.36578825,0.48418197,0.33395234,0.7665305,0,0.0,0.0,0.0,0.0,0.20572051,0,0,0.0,0.0,0,0,52.0,0.0,0.0,4591.794871794872,3934.8717948717954,4505.641025641026,4433.846153846154,4244.615384615385,4538.461538461539,4436.410256410257,4423.589743589744,4415.8974358974365,4756.923076923077,4350.256410256411,4196.923076923077,4162.564102564103,4534.358974358975
35.944954,0.36578825,0.48418197,0.33395234,0.7665305,1,0.0,0.0,0.0,0.0,0.0,0,0,0.0,0.0,0,0,88.0,0.0,447.0,4655.384615384616,3943.076923076924,4505.128205128206,4443.076923076924,4243.589743589744,4540.000000000001,4422.051282051282,4411.794871794872,4418.974358974359,4769.2307692307695,4369.2307692307695,4217.948717948719,4196.410256410257,4606.153846153847
36.16389,0.36161447,0.48753104,0.33388844,0.76074433,0,0.0,0.0,0.0,0.0,0.5836402,0,0,0.0,0.0,0,0,116.0,0.0,447.0,4556.410256410257,3920.5128205128212,4483.076923076924,4431.282051282052,4232.307692307693,4534.871794871796,4430.769230769231,4424.615384615385,4423.589743589744,4758.461538461539,4360.000000000001,4202.564102564103,4166.153846153847,4528.717948717949
36.414104,0.36161447,0.48753104,0.33388844,0.76074433,0,0.0,0.0,0.0,0.0,0.360518,0,0,0.0,0.0,0,0,19.0,0.0,0.0,4586.153846153847,3929.7435897435903,4487.179487179488,4441.025641025642,4241.025641025642,4541.538461538462,4435.8974358974365,4449.743589743591,4431.794871794872,4782.051282051282,4358.974358974359,4209.74358974359,4188.717948717949,4539.48717948718
36.66432,0.35696217,0.4834816,0.33383083,0.78203136,0,0.0,0.0,0.0,0.0,0.17486455,0,0,0.0,0.0,0,0,51.0,0.0,0.0,4584.615384615385,3942.564102564103,4492.307692307693,4445.128205128206,4246.153846153847,4553.333333333334,4449.2307692307695,4456.923076923077,4439.48717948718,4787.179487179488,4381.538461538462,4223.589743589744,4198.461538461539,4541.538461538462
36.914536,0.35696217,0.4834816,0.33383083,0.78203136,0,0.0,0.0,0.0,0.0,0.0,0,0,0.0,0.0,0,0,83.0,0.0,514.0,4578.974358974359,3928.205128205129,4484.615384615385,4439.48717948718,4232.820512820514,4540.000000000001,4428.205128205129,4445.128205128206,4420.512820512821,4764.615384615386,4377.948717948719,4221.025641025642,4177.435897435898,4529.2307692307695
37.19603,0.339456,0.47501853,0.33375624,0.80094707,0,0.0,0.0,0.0,0.0,0.0,0,0,0.0,0.0,1,0,119.0,0.0,514.0,4736.410256410257,3955.8974358974365,4520.000000000001,4443.076923076924,4233.333333333334,4538.461538461539,4433.846153846154,4419.48717948718,4403.589743589744,4758.461538461539,4360.512820512821,4217.948717948719,4180.512820512821,4621.025641025642
37.414967,0.339456,0.47501853,0.33375624,0.80094707,0,0.0,0.0,0.0,0.0,0.6776066,0,0,0.0,0.0,1,0,18.0,0.0,0.0,4689.743589743591,3955.3846153846157,4522.051282051282,4445.641025641026,4242.564102564103,4542.564102564103,4431.794871794872,4422.564102564103,4412.307692307693,4761.538461538462,4346.666666666667,4212.307692307693,4157.948717948719,4577.948717948719
37.66518,0.34021768,0.500971,0.33283508,0.81770915,0,0.0,0.0,0.0,0.0,0.3541985,0,0,0.0,0.0,0,0,50.0,0.0,0.0,4626.153846153847,3938.461538461539,4492.820512820514,4434.871794871796,4232.307692307693,4538.974358974359,4430.256410256411,4417.948717948719,4405.128205128206,4750.769230769231,4352.820512820514,4214.871794871796,4164.102564102564,4557.435897435898
37.915398,0.34021768,0.500971,0.33283508,0.81770915,0,0.0,0.0,0.0,0.0,0.34888688,0,0,0.0,0.0,0,0,82.0,0.0,573.0,4607.6923076923085,3943.076923076924,4510.769230769231,4444.615384615385,4245.128205128206,4544.102564102564,4442.051282051282,4442.051282051282,4427.6923076923085,4771.794871794872,4369.743589743591,4225.641025641026,4191.794871794872,4548.205128205129
38.16561,0.31686497,0.4980834,0.3320061,0.8294296,0,0.0,0.0,0.0,0.0,0.28013557,0,0,0.0,0.0,0,0,114.0,0.0,573.0,4595.8974358974365,3938.9743589743593,4492.307692307693,4443.076923076924,4245.641025641026,4545.641025641026,4445.641025641026,4451.282051282052,4431.282051282052,4764.615384615386,4363.076923076924,4214.358974358975,4186.666666666667,4523.076923076924
38.290718,0.31686497,0.4980834,0.3320061,0.8294296,0,0.0,0.0,0.0,0.0,0.0,0,0,0.0,0.0,0,0,1.0,0.0,479.0,4594.358974358975,3931.7948717948725,4492.820512820514,4433.846153846154,4242.051282051282,4540.512820512821,4428.205128205129,4436.410256410257,4428.205128205129,4768.717948717949,4365.641025641026,4224.615384615385,4196.923076923077,4531.794871794872
38.540936,0.31528577,0.503325,0.33155498,0.8229908,0,0.0,0.0,0.0,0.0,0.0,0,0,0.0,0.0,0,0,33.0,0.0,0.0,4584.615384615385,3929.7435897435903,4486.153846153847,4434.358974358975,4243.076923076924,4546.666666666667,4441.025641025642,4452.307692307693,4440.512820512821,4770.256410256411,4367.6923076923085,4228.205128205129,4197.435897435898,4541.538461538462
38.540936,0.31528577,0.503325,0.33155498,0.8229908,0,0.0,0.0,0.0,0.0,0.0,0,0,0.0,0.0,0,0,33.0,0.0,0.0,4584.615384615385,3929.7435897435903,4486.153846153847,4434.358974358975,4243.076923076924,4546.666666666667,4441.025641025642,4452.307692307693,4440.512820512821,4770.256410256411,4367.6923076923085,4228.205128205129,4197.435897435898,4541.538461538462
39.041363,0.3131057,0.52143013,0.33221036,0.81185,0,0.0,0.0,0.0,0.0,0.0,0,0,0.0,0.0,0,0,97.0,0.0,515.0,4600.512820512821,3926.1538461538466,4485.128205128206,4430.769230769231,4243.589743589744,4539.48717948718,4424.102564102564,4442.564102564103,4424.102564102564,4757.948717948719,4360.000000000001,4205.641025641026,4178.461538461539,4502.564102564103
39.041363,0.3131057,0.52143013,0.33221036,0.81185,0,0.0,0.0,0.0,0.0,0.0,0,0,0.0,0.0,0,0,97.0,0.0,515.0,4600.512820512821,3926.1538461538466,4485.128205128206,4430.769230769231,4243.589743589744,4539.48717948718,4424.102564102564,4442.564102564103,4424.102564102564,4757.948717948719,4360.000000000001,4205.641025641026,4178.461538461539,4502.564102564103
39.541794,0.36442974,0.52318865,0.3374929,0.79916567,0,0.0,0.0,0.0,0.0,0.0,0,0,0.0,0.0,0,0,32.0,0.0,0.0,4615.8974358974365,3938.9743589743593,4521.538461538462,4451.282051282052,4245.128205128206,4549.2307692307695,4438.461538461539,4443.589743589744,4381.538461538462,4746.666666666667,4370.769230769231,4233.846153846154,4210.769230769231,4523.076923076924
39.541794,0.36442974,0.52318865,0.3374929,0.79916567,0,0.0,0.0,0.0,0.0,0.0,0,0,0.0,0.0,0,0,32.0,0.0,0.0,4615.8974358974365,3938.9743589743593,4521.538461538462,4451.282051282052,4245.128205128206,4549.2307692307695,4438.461538461539,4443.589743589744,4381.538461538462,4746.666666666667,4370.769230769231,4233.846153846154,4210.769230769231,4523.076923076924
40.042225,0.39883804,0.5299105,0.34493777,0.78220004,0,0.0,0.0,0.0,0.0,0.0,0,0,0.0,0.0,0,0,96.0,0.0,447.0,4712.820512820514,3952.820512820513,4585.128205128206,4457.948717948719,4229.2307692307695,4526.153846153847,4488.717948717949,4500.512820512821,4343.589743589744,4737.435897435898,4368.205128205129,4274.358974358975,4260.512820512821,4476.923076923077
40.042225,0.39883804,0.5299105,0.34493777,0.78220004,0,0.0,0.0,0.0,0.0,0.0,0,0,0.0,0.0,0,0,96.0,0.0,447.0,4712.820512820514,3952.820512820513,4585.128205128206,4457.948717948719,4229.2307692307695,4526.153846153847,4488.717948717949,4500.512820512821,4343.589743589744,4737.435897435898,4368.205128205129,4274.358974358975,4260.512820512821,4476.923076923077
40.542652,0.4492256,0.54009056,0.35260674,0.7602011,0,0.0,0.0,0.0,0.0,0.0,0,0,0.0,0.0,0,0,31.0,0.0,0.0,4774.358974358975,3951.2820512820517,4570.769230769231,4442.051282051282,4201.025641025642,4506.153846153847,4475.8974358974365,4508.717948717949,4279.48717948718,4687.179487179488,4351.794871794872,4292.820512820514,4241.538461538462,4440.512820512821
40.542652,0.4492256,0.54009056,0.35260674,0.7602011,0,0.0,0.0,0.0,0.0,0.0,0,0,0.0,0.0,0,0,31.0,0.0,0.0,4774.358974358975,3951.2820512820517,4570.769230769231,4442.051282051282,4201.025641025642,4506.153846153847,4475.8974358974365,4508.717948717949,4279.48717948718,4687.179487179488,4351.794871794872,4292.820512820514,4241.538461538462,4440.512820512821
41.043083,0.47322875,0.5445037,0.3595054,0.7370503,0,0.0,0.0,0.0,0.0,0.0,0,0,0.0,0.0,0,0,95.0,0.0,518.0,4836.923076923077,3981.538461538462,4540.000000000001,4447.6923076923085,4223.589743589744,4524.102564102564,4445.128205128206,4464.615384615385,4225.128205128206,4605.641025641026,4297.948717948719,4283.076923076924,4129.74358974359,4412.820512820514
41.418407,0.47322875,0.5445037,0.3595054,0.7370503,0,0.0,0.0,0.0,0.0,0.15850303,0,0,0.0,0.0,0,0,14.0,0.0,573.0,4857.948717948719,3969.7435897435903,4511.282051282052,4454.358974358975,4217.948717948719,4533.846153846154,4477.435897435898,4501.025641025642,4301.025641025642,4660.000000000001,4330.769230769231,4294.358974358975,4164.615384615385,4441.538461538462
41.66862,0.51012623,0.554734,0.36665475,0.71043795,0,0.0,0.0,0.0,0.0,0.0,0,0,0.0,0.0,0,0,46.0,0.0,0.0,4861.538461538462,3957.9487179487182,4505.128205128206,4440.512820512821,4219.48717948718,4533.846153846154,4466.666666666667,4481.538461538462,4306.666666666667,4655.384615384616,4324.615384615385,4293.333333333334,4150.769230769231,4442.051282051282
41.66862,0.51012623,0.554734,0.36665475,0.71043795,0,0.0,0.0,0.0,0.0,0.0,0,0,0.0,0.0,0,0,46.0,0.0,0.0,4861.538461538462,3957.9487179487182,4505.128205128206,4440.512820512821,4219.48717948718,4533.846153846154,4466.666666666667,4481.538461538462,4306.666666666667,4655.384615384616,4324.615384615385,4293.333333333334,4150.769230769231,4442.051282051282
42.043945,0.55361515,0.5642811,0.373083,0.6794701,0,0.0,0.0,0.0,0.0,0.0,0,0,0.0,0.0,0,0,94.0,0.0,573.0,4827.6923076923085,3941.0256410256416,4481.025641025642,4400.000000000001,4227.179487179487,4535.8974358974365,4413.846153846154,4439.48717948718,4318.974358974359,4648.717948717949,4303.076923076924,4247.6923076923085,4123.589743589744,4440.512820512821
42.043945,0.55361515,0.5642811,0.373083,0.6794701,0,0.0,0.0,0.0,0.0,0.0,0,0,0.0,0.0,0,0,94.0,0.0,573.0,4827.6923076923085,3941.0256410256416,4481.025641025642,4400.000000000001,4227.179487179487,4535.8974358974365,4413.846153846154,4439.48717948718,4318.974358974359,4648.717948717949,4303.076923076924,4247.6923076923085,4123.589743589744,4440.512820512821
42.544373,0.5284971,0.5665817,0.37932658,0.64671373,0,0.0,0.0,0.0,0.0,0.0,0,0,0.0,0.0,0,0,29.0,0.0,0.0,4733.333333333334,3925.6410256410263,4460.512820512821,4439.48717948718,4233.846153846154,4540.512820512821,4412.820512820514,4450.256410256411,4367.179487179487,4697.948717948719,4348.717948717949,4216.923076923077,4179.48717948718,4442.051282051282
42.544373,0.5284971,0.5665817,0.37932658,0.64671373,0,0.0,0.0,0.0,0.0,0.0,0,0,0.0,0.0,0,0,29.0,0.0,0.0,4733.333333333334,3925.6410256410263,4460.512820512821,4439.48717948718,4233.846153846154,4540.512820512821,4412.820512820514,4450.256410256411,4367.179487179487,4697.948717948719,4348.717948717949,4216.923076923077,4179.48717948718,4442.051282051282
43.16991,0.4840957,0.5629241,0.38726854,0.6150766,0,0.0,0.0,0.0,0.0,1.0,0,0,0.0,0.0,0,0,109.0,0.0,515.0,4736.410256410257,3936.410256410257,4534.871794871796,4447.179487179487,4234.358974358975,4525.641025641026,4444.615384615385,4480.000000000001,4301.025641025642,4675.384615384616,4376.410256410257,4300.512820512821,4210.256410256411,4345.641025641026
43.29502,0.4840957,0.5629241,0.38726854,0.6150766,0,0.0,0.0,0.0,1.0,0.0,0,0,0.0,0.0,0,0,125.0,0.0,515.0,4728.717948717949,3945.1282051282055,4541.025641025642,4454.871794871796,4229.2307692307695,4524.615384615385,4445.128205128206,4485.128205128206,4283.076923076924,4665.128205128206,4360.000000000001,4311.794871794872,4209.2307692307695,4370.769230769231
43.57651,0.47552451,0.5387974,0.39451784,0.58895344,0,0.0,0.0,0.0,0.0,1.0,0,0,0.0,0.0,0,0,32.0,0.0,0.0,4649.743589743591,3942.564102564103,4536.923076923077,4445.128205128206,4219.48717948718,4523.076923076924,4435.8974358974365,4468.717948717949,4228.717948717949,4601.538461538462,4332.307692307693,4296.410256410257,4157.435897435898,4375.8974358974365
43.920555,0.47552451,0.5387974,0.39451784,0.58895344,0,0.0,0.0,0.0,0.0,0.4454765,0,0,0.0,0.0,0,0,76.0,0.0,447.0,4630.256410256411,3941.0256410256416,4506.666666666667,4440.512820512821,4222.051282051282,4516.410256410257,4400.000000000001,4472.820512820514,4236.410256410257,4585.641025641026,4326.153846153847,4291.282051282052,4126.666666666667,4422.051282051282
44.170773,0.4831895,0.5078048,0.40091708,0.56805915,0,0.0,0.0,0.0,0.0,0.09198386,0,0,0.0,0.0,0,0,108.0,0.0,447.0,4623.076923076924,3940.5128205128212,4502.051282051282,4441.538461538462,4224.102564102564,4520.000000000001,4390.256410256411,4450.769230769231,4247.179487179487,4584.102564102564,4332.307692307693,4295.8974358974365,4127.6923076923085,4426.153846153847
44.420986,0.4831895,0.5078048,0.40091708,0.56805915,0,0.0,0.0,0.0,0.0,0.0,0,0,0.0,0.0,0,0,11.0,0.0,525.0,4598.974358974359,3926.666666666667,4488.717948717949,4431.794871794872,4223.589743589744,4523.076923076924,4380.512820512821,4455.384615384616,4280.512820512821,4602.051282051282,4333.846153846154,4276.410256410257,4117.435897435898,4442.051282051282
44.546093,0.47742215,0.47667834,0.4013731,0.55545104,0,0.0,0.0,0.0,0.0,0.0,0,0,0.0,0.0,0,0,27.0,0.0,0.0,4567.179487179488,3924.615384615385,4473.333333333334,4430.256410256411,4230.769230769231,4528.205128205129,4393.333333333334,4458.974358974359,4301.025641025642,4613.846153846154,4324.615384615385,4260.512820512821,4116.410256410257,4441.538461538462
44.546093,0.47742215,0.47667834,0.4013731,0.55545104,0,0.0,0.0,0.0,0.0,0.0,0,0,0.0,0.0,0,0,27.0,0.0,0.0,4567.179487179488,3924.615384615385,4473.333333333334,4430.256410256411,4230.769230769231,4528.205128205129,4393.333333333334,4458.974358974359,4301.025641025642,4613.846153846154,4324.615384615385,4260.512820512821,4116.410256410257,4441.538461538462
45.046524,0.5250407,0.44492188,0.39444548,0.555124,0,0.0,0.0,0.0,0.0,0.0,0,0,0.0,0.0,0,0,91.0,0.0,525.0,4558.461538461539,3944.615384615385,4490.769230769231,4458.461538461539,4263.589743589744,4570.256410256411,4434.358974358975,4487.6923076923085,4381.538461538462,4687.179487179488,4355.8974358974365,4269.2307692307695,4145.641025641026,4498.974358974359
45.046524,0.5250407,0.44492188,0.39444548,0.555124,0,0.0,0.0,0.0,0.0,0.0,0,0,0.0,0.0,0,0,91.0,0.0,525.0,4558.461538461539,3944.615384615385,4490.769230769231,4458.461538461539,4263.589743589744,4570.256410256411,4434.358974358975,4487.6923076923085,4381.538461538462,4687.179487179488,4355.8974358974365,4269.2307692307695,4145.641025641026,4498.974358974359
45.546955,0.55318534,0.41726795,0.3881771,0.55483073,0,0.0,0.0,0.0,0.0,0.0,0,0,0.0,0.0,0,0,26.0,0.0,0.0,4496.923076923077,3961.538461538462,4490.256410256411,4442.564102564103,4295.8974358974365,4601.538461538462,4462.051282051282,4493.333333333334,4442.564102564103,4731.282051282052,4362.564102564103,4242.051282051282,4163.076923076924,4514.358974358975
45.546955,0.55318534,0.41726795,0.3881771,0.55483073,0,0.0,0.0,0.0,0.0,0.0,0,0,0.0,0.0,0,0,26.0,0.0,0.0,4496.923076923077,3961.538461538462,4490.256410256411,4442.564102564103,4295.8974358974365,4601.538461538462,4462.051282051282,4493.333333333334,4442.564102564103,4731.282051282052,4362.564102564103,4242.051282051282,4163.076923076924,4514.358974358975
46.047386,0.6247742,0.39745247,0.38251498,0.5545683,0,0.0,0.0,0.0,0.0,0.0,0,0,0.0,0.0,0,0,90.0,0.0,573.0,4486.666666666667,3945.6410256410263,4471.282051282052,4474.871794871796,4294.358974358975,4598.974358974359,4441.538461538462,4455.8974358974365,4455.384615384616,4737.948717948719,4363.076923076924,4185.128205128206,4163.076923076924,4491.794871794872
46.48526,0.6247742,0.39745247,0.38251498,0.5545683,0,0.0,0.0,0.0,0.0,0.0,0,0,0.0,0.0,0,0,17.0,0.0,0.0,4417.948717948719,3874.8717948717954,4405.641025641026,4403.076923076924,4207.6923076923085,4507.179487179488,4346.666666666667,4354.358974358975,4361.025641025642,4631.282051282052,4282.051282051282,4105.128205128206,4057.435897435898,4394.871794871796
46.547813,0.6943799,0.39323053,0.3772755,0.57032746,0,0.0,0.0,0.0,0.0,0.0,0,0,0.0,0.0,0,0,25.0,0.0,0.0,4422.564102564103,3869.2307692307695,4396.923076923077,4399.48717948718,4204.615384615385,4511.282051282052,4358.461538461539,4353.846153846154,4356.410256410257,4628.717948717949,4277.435897435898,4094.8717948717954,4061.538461538462,4403.076923076924
46.547813,0.6943799,0.39323053,0.3772755,0.57032746,0,0.0,0.0,0.0,0.0,0.0,0,0,0.0,0.0,0,0,25.0,0.0,0.0,4422.564102564103,3869.2307692307695,4396.923076923077,4399.48717948718,4204.615384615385,4511.282051282052,4358.461538461539,4353.846153846154,4356.410256410257,4628.717948717949,4277.435897435898,4094.8717948717954,4061.538461538462,4403.076923076924
47.048244,0.7871752,0.39881423,0.37122756,0.60206884,0,0.0,0.0,0.0,0.0,0.0,0,0,0.0,0.0,0,0,89.0,0.0,515.0,4433.846153846154,3877.9487179487182,4427.179487179487,4413.333333333334,4221.025641025642,4523.589743589744,4383.076923076924,4380.512820512821,4395.8974358974365,4681.025641025642,4294.871794871796,4134.871794871796,4101.538461538462,4442.051282051282
47.048244,0.7871752,0.39881423,0.37122756,0.60206884,0,0.0,0.0,0.0,0.0,0.0,0,0,0.0,0.0,0,0,89.0,0.0,515.0,4433.846153846154,3877.9487179487182,4427.179487179487,4413.333333333334,4221.025641025642,4523.589743589744,4383.076923076924,4380.512820512821,4395.8974358974365,4681.025641025642,4294.871794871796,4134.871794871796,4101.538461538462,4442.051282051282
47.548676,0.79706806,0.40247297,0.36577842,0.6307415,0,0.0,0.0,0.0,0.0,0.0,0,0,0.0,0.0,0,0,24.0,0.0,0.0,4400.512820512821,3892.820512820513,4443.589743589744,4424.102564102564,4231.282051282052,4536.410256410257,4402.564102564103,4387.6923076923085,4395.384615384616,4697.948717948719,4294.871794871796,4150.769230769231,4113.846153846154,4444.102564102564
47.548676,0.79706806,0.40247297,0.36577842,0.6307415,0,0.0,0.0,0.0,0.0,0.0,0,0,0.0,0.0,0,0,24.0,0.0,0.0,4400.512820512821,3892.820512820513,4443.589743589744,4424.102564102564,4231.282051282052,4536.410256410257,4402.564102564103,4387.6923076923085,4395.384615384616,4697.948717948719,4294.871794871796,4150.769230769231,4113.846153846154,4444.102564102564
48.049107,0.76094335,0.43249062,0.36086902,0.6565485,0,0.0,0.0,0.0,0.0,1.0,0,0,0.0,0.0,0,0,88.0,0.0,447.0,4572.307692307693,3925.6410256410263,4483.589743589744,4428.205128205129,4229.74358974359,4530.769230769231,4395.8974358974365,4387.179487179487,4383.589743589744,4623.589743589744,4308.717948717949,4207.179487179487,4056.410256410257,2189.2307692307695
48.48698,0.76094335,0.43249062,0.36086902,0.6565485,0,0.0,0.0,0.0,1.0,0.0,0,0,0.0,0.0,0,1,15.0,0.0,513.0,4573.333333333334,3926.666666666667,4460.000000000001,4428.717948717949,4234.871794871796,4540.000000000001,4393.846153846154,4370.256410256411,4404.615384615385,4730.769230769231,4288.205128205129,4150.769230769231,4134.871794871796,4794.871794871796
48.58081,0.7442774,0.44653893,0.35789964,0.67990625,0,0.0,0.0,0.0,0.0,1.0,0,0,0.0,0.0,0,1,27.0,0.0,0.0,4584.615384615385,3923.076923076924,4460.000000000001,4427.6923076923085,4231.794871794872,4536.410256410257,4378.461538461539,4378.461538461539,4409.743589743591,4735.8974358974365,4302.564102564103,4156.923076923077,4137.948717948719,4782.051282051282
48.92486,0.7442774,0.44653893,0.35789964,0.67990625,0,0.0,0.0,0.0,0.0,0.26922154,0,0,0.0,0.0,0,0,71.0,0.0,491.0,4605.128205128206,3938.9743589743593,4482.051282051282,4433.846153846154,4232.307692307693,4539.48717948718,4389.743589743591,4376.410256410257,4388.717948717949,4724.102564102564,4308.717948717949,4168.717948717949,4136.410256410257,4704.615384615386
49.17507,0.6742027,0.49750674,0.35540482,0.69924533,0,0.0,0.0,0.0,0.0,0.1279184,0,0,0.0,0.0,0,0,103.0,0.0,513.0,4542.564102564103,3910.7692307692314,4450.256410256411,4427.179487179487,4236.923076923077,4541.025641025642,4421.538461538462,4415.384615384616,4413.846153846154,4737.435897435898,4294.358974358975,4147.179487179487,4131.794871794872,4647.179487179488
49.42529,0.6742027,0.49750674,0.35540482,0.69924533,0,0.0,0.0,0.0,0.0,0.15068007,0,0,0.0,0.0,0,0,6.0,0.0,585.0,4551.282051282052,3920.0000000000005,4466.153846153847,4427.6923076923085,4241.538461538462,4543.589743589744,4430.256410256411,4428.205128205129,4427.6923076923085,4746.153846153847,4311.282051282052,4167.6923076923085,4148.717948717949,4630.769230769231
49.675503,0.6616765,0.56518203,0.3531597,0.70043546,0,0.0,0.0,0.0,0.0,0.30163443,0,0,0.0,0.0,0,0,38.0,0.0,0.0,4522.051282051282,3910.2564102564106,4457.948717948719,4426.666666666667,4244.615384615385,4542.051282051282,4430.769230769231,4435.384615384616,4432.820512820514,4760.512820512821,4341.538461538462,4187.6923076923085,4186.666666666667,4631.282051282052
49.925716,0.6616765,0.56518203,0.3531597,0.70043546,0,0.0,0.0,0.0,0.0,0.1467912,0,0,0.0,0.0,0,0,70.0,0.0,585.0,4537.435897435898,3925.6410256410263,4492.820512820514,4430.769230769231,4244.102564102564,4545.641025641026,4440.000000000001,4437.948717948719,4424.102564102564,4754.871794871796,4351.282051282052,4199.48717948718,4186.666666666667,4615.8974358974365
50.050827,0.647582,0.6139578,0.3511431,0.6853968,0,0.0,0.0,0.0,0.0,0.0,0,0,0.0,0.0,0,0,86.0,0.0,573.0,4521.538461538462,3927.1794871794878,4492.307692307693,4438.974358974359,4250.256410256411,4555.8974358974365,4458.974358974359,4458.974358974359,4435.8974358974365,4769.2307692307695,4352.307692307693,4209.74358974359,4185.128205128206,4604.102564102564
50.050827,0.647582,0.6139578,0.3511431,0.6853968,0,0.0,0.0,0.0,0.0,0.0,0,0,0.0,0.0,0,0,86.0,0.0,573.0,4521.538461538462,3927.1794871794878,4492.307692307693,4438.974358974359,4250.256410256411,4555.8974358974365,4458.974358974359,4458.974358974359,4435.8974358974365,4769.2307692307695,4352.307692307693,4209.74358974359,4185.128205128206,4604.102564102564
50.551254,0.68839794,0.65310216,0.34932524,0.6718506,0,0.0,0.0,0.0,0.0,0.0,0,0,0.0,0.0,0,0,21.0,0.0,0.0,4505.128205128206,3927.692307692308,4492.820512820514,4435.8974358974365,4248.205128205129,4544.102564102564,4463.589743589744,4449.2307692307695,4426.153846153847,4756.410256410257,4342.051282051282,4212.820512820514,4171.794871794872,4574.358974358975
50.551254,0.68839794,0.65310216,0.34932524,0.6718506,0,0.0,0.0,0.0,0.0,0.0,0,0,0.0,0.0,0,0,21.0,0.0,0.0,4505.128205128206,3927.692307692308,4492.820512820514,4435.8974358974365,4248.205128205129,4544.102564102564,4463.589743589744,4449.2307692307695,4426.153846153847,4756.410256410257,4342.051282051282,4212.820512820514,4171.794871794872,4574.358974358975
51.051685,0.69764477,0.63350296,0.34768656,0.6596675,0,0.0,0.0,0.0,0.0,0.0,0,0,0.0,0.0,0,0,85.0,0.0,515.0,4523.589743589744,3925.6410256410263,4493.846153846154,4412.307692307693,4235.384615384616,4540.000000000001,4440.000000000001,4423.589743589744,4416.410256410257,4748.717948717949,4350.769230769231,4223.076923076924,4164.615384615385,4561.538461538462
51.051685,0.69764477,0.63350296,0.34768656,0.6596675,0,0.0,0.0,0.0,0.0,0.0,0,0,0.0,0.0,0,0,85.0,0.0,515.0,4523.589743589744,3925.6410256410263,4493.846153846154,4412.307692307693,4235.384615384616,4540.000000000001,4440.000000000001,4423.589743589744,4416.410256410257,4748.717948717949,4350.769230769231,4223.076923076924,4164.615384615385,4561.538461538462
51.552116,0.67838144,0.60280186,0.34807906,0.64870703,0,0.0,0.0,0.0,0.0,0.0,0,0,0.0,0.0,0,0,20.0,0.0,0.0,4546.153846153847,3943.076923076924,4539.48717948718,4444.615384615385,4230.769230769231,4524.615384615385,4444.615384615385,4446.666666666667,4374.871794871796,4740.000000000001,4376.410256410257,4252.307692307693,4194.871794871796,4579.48717948718
51.552116,0.67838144,0.60280186,0.34807906,0.64870703,0,0.0,0.0,0.0,0.0,0.0,0,0,0.0,0.0,0,0,20.0,0.0,0.0,4546.153846153847,3943.076923076924,4539.48717948718,4444.615384615385,4230.769230769231,4524.615384615385,4444.615384615385,4446.666666666667,4374.871794871796,4740.000000000001,4376.410256410257,4252.307692307693,4194.871794871796,4579.48717948718
52.052544,0.65631497,0.5811254,0.35161972,0.6388697,0,0.0,0.0,0.0,0.0,0.0,0,0,0.0,0.0,0,0,84.0,0.0,447.0,4597.435897435898,3958.9743589743593,4585.641025641026,4457.948717948719,4231.794871794872,4523.589743589744,4512.820512820514,4516.410256410257,4333.333333333334,4718.461538461539,4365.641025641026,4299.48717948718,4235.384615384616,4523.076923076924
52.052544,0.65631497,0.5811254,0.35161972,0.6388697,0,0.0,0.0,0.0,0.0,0.0,0,0,0.0,0.0,0,0,84.0,0.0,447.0,4597.435897435898,3958.9743589743593,4585.641025641026,4457.948717948719,4231.794871794872,4523.589743589744,4512.820512820514,4516.410256410257,4333.333333333334,4718.461538461539,4365.641025641026,4299.48717948718,4235.384615384616,4523.076923076924
52.552975,0.6781037,0.56506294,0.35803676,0.6347752,0,0.0,0.0,0.0,0.0,0.0,0,0,0.0,0.0,0,0,19.0,0.0,0.0,4620.000000000001,3980.0000000000005,4568.717948717949,4455.8974358974365,4215.384615384616,4506.666666666667,4483.076923076924,4446.153846153847,4226.666666666667,4590.256410256411,4268.205128205129,4241.538461538462,4102.564102564103,4407.6923076923085
52.552975,0.6781037,0.56506294,0.35803676,0.6347752,0,0.0,0.0,0.0,0.0,0.0,0,0,0.0,0.0,0,0,19.0,0.0,0.0,4620.000000000001,3980.0000000000005,4568.717948717949,4455.8974358974365,4215.384615384616,4506.666666666667,4483.076923076924,4446.153846153847,4226.666666666667,4590.256410256411,4268.205128205129,4241.538461538462,4102.564102564103,4407.6923076923085
53.053406,0.71472025,0.5495292,0.3666067,0.6312097,0,0.0,0.0,0.0,0.0,0.0,0,0,0.0,0.0,0,0,83.0,0.0,517.0,4602.564102564103,3957.9487179487182,4536.923076923077,4441.025641025642,4218.461538461539,4513.846153846154,4457.948717948719,4434.358974358975,4231.794871794872,4580.000000000001,4281.538461538462,4277.948717948719,4105.128205128206,4477.948717948719
53.428726,0.71472025,0.5495292,0.3666067,0.6312097,0,0.0,0.0,0.0,0.0,0.3889766,0,0,0.0,0.0,0,0,2.0,0.0,524.0,4571.794871794872,3934.8717948717954,4512.307692307693,4442.564102564103,4234.871794871796,4536.410256410257,4480.000000000001,4469.2307692307695,4305.641025641026,4645.128205128206,4328.717948717949,4299.48717948718,4138.461538461539,4505.641025641026
53.678944,0.6977471,0.5340705,0.37431383,0.63232476,0,0.0,0.0,0.0,0.0,0.0,0,0,0.0,0.0,0,0,34.0,0.0,0.0,4569.2307692307695,3926.666666666667,4488.717948717949,4431.794871794872,4233.333333333334,4537.948717948719,4459.48717948718,4448.205128205129,4313.846153846154,4640.000000000001,4307.6923076923085,4262.564102564103,4129.74358974359,4503.589743589744
53.678944,0.6977471,0.5340705,0.37431383,0.63232476,0,0.0,0.0,0.0,0.0,0.0,0,0,0.0,0.0,0,0,34.0,0.0,0.0,4569.2307692307695,3926.666666666667,4488.717948717949,4431.794871794872,4233.333333333334,4537.948717948719,4459.48717948718,4448.205128205129,4313.846153846154,4640.000000000001,4307.6923076923085,4262.564102564103,4129.74358974359,4503.589743589744
54.054264,0.6477252,0.5182436,0.38253355,0.6333724,0,0.0,0.0,0.0,0.0,0.0,0,0,0.0,0.0,0,0,82.0,0.0,573.0,4622.564102564103,3915.8974358974365,4497.435897435898,4429.2307692307695,4235.384615384616,4537.948717948719,4454.871794871796,4464.615384615385,4351.794871794872,4675.8974358974365,4334.871794871796,4273.846153846154,4143.589743589744,4532.820512820514
54.054264,0.6477252,0.5182436,0.38253355,0.6333724,0,0.0,0.0,0.0,0.0,0.0,0,0,0.0,0.0,0,0,82.0,0.0,573.0,4622.564102564103,3915.8974358974365,4497.435897435898,4429.2307692307695,4235.384615384616,4537.948717948719,4454.871794871796,4464.615384615385,4351.794871794872,4675.8974358974365,4334.871794871796,4273.846153846154,4143.589743589744,4532.820512820514
54.554695,0.5973733,0.4963427,0.38992223,0.63748044,0,0.0,0.0,0.0,0.0,0.0,0,0,0.0,0.0,0,0,17.0,0.0,0.0,4545.128205128206,3914.358974358975,4457.948717948719,4428.717948717949,4244.615384615385,4546.153846153847,4440.000000000001,4447.6923076923085,4370.769230769231,4660.512820512821,4284.102564102564,4197.435897435898,4105.641025641026,4483.076923076924
54.554695,0.5973733,0.4963427,0.38992223,0.63748044,0,0.0,0.0,0.0,0.0,0.0,0,0,0.0,0.0,0,0,17.0,0.0,0.0,4545.128205128206,3914.358974358975,4457.948717948719,4428.717948717949,4244.615384615385,4546.153846153847,4440.000000000001,4447.6923076923085,4370.769230769231,4660.512820512821,4284.102564102564,4197.435897435898,4105.641025641026,4483.076923076924
55.055126,0.5493242,0.48493743,0.39567104,0.642614,0,0.0,0.0,0.0,0.0,0.0,0,0,0.0,0.0,0,0,81.0,0.0,515.0,4594.871794871796,3944.1025641025644,4525.641025641026,4438.461538461539,4238.974358974359,4539.48717948718,4423.589743589744,4443.589743589744,4330.769230769231,4677.435897435898,4361.025641025642,4260.512820512821,4176.410256410257,4518.974358974359
55.055126,0.5493242,0.48493743,0.39567104,0.642614,0,0.0,0.0,0.0,0.0,0.0,0,0,0.0,0.0,0,0,81.0,0.0,515.0,4594.871794871796,3944.1025641025644,4525.641025641026,4438.461538461539,4238.974358974359,4539.48717948718,4423.589743589744,4443.589743589744,4330.769230769231,4677.435897435898,4361.025641025642,4260.512820512821,4176.410256410257,4518.974358974359
55.555557,0.4884621,0.485253,0.40004763,0.6479255,0,0.0,0.0,0.0,0.0,0.0,0,0,0.0,0.0,0,0,16.0,0.0,0.0,4586.666666666667,3938.461538461539,4532.307692307693,4445.641025641026,4249.2307692307695,4548.205128205129,4510.256410256411,4481.025641025642,4315.8974358974365,4656.923076923077,4306.666666666667,4263.589743589744,4139.48717948718,4458.974358974359
55.555557,0.4884621,0.485253,0.40004763,0.6479255,0,0.0,0.0,0.0,0.0,0.0,0,0,0.0,0.0,0,0,16.0,0.0,0.0,4586.666666666667,3938.461538461539,4532.307692307693,4445.641025641026,4249.2307692307695,4548.205128205129,4510.256410256411,4481.025641025642,4315.8974358974365,4656.923076923077,4306.666666666667,4263.589743589744,4139.48717948718,4458.974358974359
56.055984,0.49455303,0.49292997,0.40397465,0.65268785,0,0.0,0.0,0.0,0.0,0.0,0,0,0.0,0.0,0,0,80.0,0.0,447.0,4680.000000000001,3958.461538461539,4536.410256410257,4440.000000000001,4230.256410256411,4527.6923076923085,4456.410256410257,4430.256410256411,4262.564102564103,4603.589743589744,4303.076923076924,4268.717948717949,4081.0256410256416,4481.025641025642
56.43131,0.49455303,0.49292997,0.40397465,0.65268785,0,0.0,0.0,0.0,0.0,0.0,0,0,0.0,0.0,0,0,128.0,0.0,447.0,4727.6923076923085,3948.717948717949,4515.384615384616,4400.512820512821,4239.48717948718,4540.512820512821,4463.589743589744,4425.128205128206,4286.666666666667,4621.025641025642,4291.282051282052,4254.871794871796,4073.8461538461543,4469.2307692307695
56.556416,0.50556517,0.5177566,0.4074964,0.6569551,0,0.0,0.0,0.0,0.0,0.0,0,0,0.0,0.0,0,0,15.0,0.0,518.0,4720.000000000001,3946.666666666667,4494.358974358975,4379.48717948718,4240.512820512821,4545.128205128206,4452.307692307693,4442.564102564103,4324.102564102564,4645.641025641026,4282.051282051282,4229.2307692307695,4081.538461538462,4477.435897435898
56.556416,0.50556517,0.5177566,0.4074964,0.6569551,0,0.0,0.0,0.0,0.0,0.0,0,0,0.0,0.0,0,0,15.0,0.0,518.0,4720.000000000001,3946.666666666667,4494.358974358975,4379.48717948718,4240.512820512821,4545.128205128206,4452.307692307693,4442.564102564103,4324.102564102564,4645.641025641026,4282.051282051282,4229.2307692307695,4081.538461538462,4477.435897435898
57.056847,0.48013037,0.54129535,0.41224095,0.65016454,0,0.0,0.0,0.0,0.0,0.0,0,0,0.0,0.0,0,0,79.0,0.0,518.0,4675.8974358974365,3942.564102564103,4483.076923076924,4446.666666666667,4234.871794871796,4541.538461538462,4445.128205128206,4418.461538461539,4330.769230769231,4644.102564102564,4280.000000000001,4224.615384615385,4088.717948717949,4492.307692307693
57.056847,0.48013037,0.54129535,0.41224095,0.65016454,0,0.0,0.0,0.0,0.0,0.0,0,0,0.0,0.0,0,0,79.0,0.0,518.0,4675.8974358974365,3942.564102564103,4483.076923076924,4446.666666666667,4234.871794871796,4541.538461538462,4445.128205128206,4418.461538461539,4330.769230769231,4644.102564102564,4280.000000000001,4224.615384615385,4088.717948717949,4492.307692307693
57.557278,0.46423784,0.5776801,0.42174083,0.6216341,0,0.0,0.0,0.0,0.0,0.0,0,0,0.0,0.0,0,0,14.0,0.0,572.0,4648.717948717949,3926.666666666667,4457.948717948719,4459.48717948718,4248.717948717949,4553.333333333334,4450.256410256411,4446.666666666667,4371.794871794872,4675.384615384616,4298.461538461539,4191.282051282052,4099.48717948718,4492.820512820514
57.557278,0.46423784,0.5776801,0.42174083,0.6216341,0,0.0,0.0,0.0,0.0,0.0,0,0,0.0,0.0,0,0,14.0,0.0,572.0,4648.717948717949,3926.666666666667,4457.948717948719,4459.48717948718,4248.717948717949,4553.333333333334,4450.256410256411,4446.666666666667,4371.794871794872,4675.384615384616,4298.461538461539,4191.282051282052,4099.48717948718,4492.820512820514
58.057705,0.4786512,0.60479283,0.43267938,0.5883313,0,0.0,0.0,0.0,0.0,0.0,0,0,0.0,0.0,0,0,78.0,0.0,572.0,4704.615384615386,3962.0512820512827,4510.256410256411,4490.769230769231,4295.384615384616,4597.435897435898,4505.641025641026,4477.435897435898,4432.307692307693,4749.743589743591,4352.820512820514,4238.974358974359,4163.076923076924,4549.2307692307695
58.057705,0.4786512,0.60479283,0.43267938,0.5883313,0,0.0,0.0,0.0,0.0,0.0,0,0,0.0,0.0,0,0,78.0,0.0,572.0,4704.615384615386,3962.0512820512827,4510.256410256411,4490.769230769231,4295.384615384616,4597.435897435898,4505.641025641026,4477.435897435898,4432.307692307693,4749.743589743591,4352.820512820514,4238.974358974359,4163.076923076924,4549.2307692307695
58.558136,0.5280474,0.633792,0.44499695,0.55667573,0,0.0,0.0,0.0,0.0,0.0,0,0,0.0,0.0,0,0,13.0,0.0,515.0,4644.102564102564,3913.8461538461543,4455.384615384616,4444.102564102564,4248.205128205129,4554.871794871796,4442.564102564103,4422.051282051282,4395.384615384616,4696.410256410257,4308.717948717949,4175.384615384616,4121.538461538462,4489.743589743591
58.558136,0.5280474,0.633792,0.44499695,0.55667573,0,0.0,0.0,0.0,0.0,0.0,0,0,0.0,0.0,0,0,13.0,0.0,515.0,4644.102564102564,3913.8461538461543,4455.384615384616,4444.102564102564,4248.205128205129,4554.871794871796,4442.564102564103,4422.051282051282,4395.384615384616,4696.410256410257,4308.717948717949,4175.384615384616,4121.538461538462,4489.743589743591
59.058567,0.5127936,0.6692898,0.45901933,0.52818584,0,0.0,0.0,0.0,0.0,0.0,0,0,0.0,0.0,0,0,77.0,0.0,515.0,4675.384615384616,3914.8717948717954,4457.948717948719,4432.820512820514,4245.641025641026,4552.307692307693,4429.743589743591,4414.871794871796,4413.846153846154,4697.948717948719,4331.282051282052,4191.282051282052,4022.0512820512827,4508.205128205129
59.433887,0.5127936,0.6692898,0.45901933,0.52818584,0,0.0,0.0,0.0,0.0,0.0,0,0,0.0,0.028431136,0,0,125.0,0.0,515.0,4656.923076923077,3918.9743589743593,4458.974358974359,4433.846153846154,4241.538461538462,4543.589743589744,4442.051282051282,4421.538461538462,4405.641025641026,4707.179487179488,4316.923076923077,4185.128205128206,4050.7692307692314,4518.974358974359
59.559,0.48163238,0.70247805,0.4716051,0.5069668,0,0.0,0.0,0.0,0.0,0.0,0,0,0.0,0.0,0,0,12.0,0.0,447.0,4697.435897435898,3937.435897435898,4490.256410256411,4444.615384615385,4237.435897435898,4540.000000000001,4412.820512820514,4426.153846153847,4422.051282051282,4735.384615384616,4348.717948717949,4234.358974358975,4101.025641025642,4548.717948717949
59.559,0.48163238,0.70247805,0.4716051,0.5069668,0,0.0,0.0,0.0,0.0,0.0,0,0,0.0,0.0,0,0,12.0,0.0,447.0,4697.435897435898,3937.435897435898,4490.256410256411,4444.615384615385,4237.435897435898,4540.000000000001,4412.820512820514,4426.153846153847,4422.051282051282,4735.384615384616,4348.717948717949,4234.358974358975,4101.025641025642,4548.717948717949
60.059425,0.47298676,0.7419342,0.48475373,0.49124295,0,0.0,0.0,0.0,0.0,0.0,0,0,0.0,0.0,0,0,76.0,0.0,447.0,4674.871794871796,3923.589743589744,4478.974358974359,4431.794871794872,4235.384615384616,4537.435897435898,4446.666666666667,4424.615384615385,4398.461538461539,4721.538461538462,4351.282051282052,4207.6923076923085,4108.205128205129,4540.000000000001
60.059425,0.47298676,0.7419342,0.48475373,0.49124295,0,0.0,0.0,0.0,0.0,0.0,0,0,0.0,0.0,0,0,76.0,0.0,447.0,4674.871794871796,3923.589743589744,4478.974358974359,4431.794871794872,4235.384615384616,4537.435897435898,4446.666666666667,4424.615384615385,4398.461538461539,4721.538461538462,4351.282051282052,4207.6923076923085,4108.205128205129,4540.000000000001
60.559856,0.43280983,0.76038396,0.49793428,0.47725323,0,0.0,0.0,0.0,0.0,0.0,0,0,0.0,0.0,0,0,11.0,0.0,518.0,4673.846153846154,3926.1538461538466,4472.820512820514,4433.846153846154,4246.153846153847,4542.564102564103,4437.948717948719,4431.794871794872,4415.384615384616,4725.128205128206,4328.717948717949,4197.435897435898,4122.564102564103,4525.128205128206
60.559856,0.43280983,0.76038396,0.49793428,0.47725323,0,0.0,0.0,0.0,0.0,0.0,0,0,0.0,0.0,0,0,11.0,0.0,518.0,4673.846153846154,3926.1538461538466,4472.820512820514,4433.846153846154,4246.153846153847,4542.564102564103,4437.948717948719,4431.794871794872,4415.384615384616,4725.128205128206,4328.717948717949,4197.435897435898,4122.564102564103,4525.128205128206
61.060287,0.44950798,0.7537612,0.50974613,0.4629943,0,0.0,0.0,0.0,0.0,0.0,0,0,0.0,0.0,0,0,75.0,0.0,518.0,4644.102564102564,3926.666666666667,4488.205128205129,4436.410256410257,4248.205128205129,4543.076923076924,4458.974358974359,4444.615384615385,4422.051282051282,4738.974358974359,4317.948717948719,4216.410256410257,4139.48717948718,4522.564102564103
61.060287,0.44950798,0.7537612,0.50974613,0.4629943,0,0.0,0.0,0.0,0.0,0.0,0,0,0.0,0.0,0,0,75.0,0.0,518.0,4644.102564102564,3926.666666666667,4488.205128205129,4436.410256410257,4248.205128205129,4543.076923076924,4458.974358974359,4444.615384615385,4422.051282051282,4738.974358974359,4317.948717948719,4216.410256410257,4139.48717948718,4522.564102564103
61.560715,0.4511443,0.72556007,0.51910156,0.4532592,0,0.0,0.0,0.0,0.0,0.0,0,0,0.0,0.0,0,0,10.0,0.0,572.0,4633.846153846154,3927.1794871794878,4489.743589743591,4442.051282051282,4252.307692307693,4552.820512820514,4458.461538461539,4451.282051282052,4440.000000000001,4754.358974358975,4320.512820512821,4215.8974358974365,4149.2307692307695,4530.769230769231
61.560715,0.4511443,0.72556007,0.51910156,0.4532592,0,0.0,0.0,0.0,0.0,0.0,0,0,0.0,0.0,0,0,10.0,0.0,572.0,4633.846153846154,3927.1794871794878,4489.743589743591,4442.051282051282,4252.307692307693,4552.820512820514,4458.461538461539,4451.282051282052,4440.000000000001,4754.358974358975,4320.512820512821,4215.8974358974365,4149.2307692307695,4530.769230769231
62.061146,0.4656075,0.7021341,0.52746737,0.44598743,0,0.0,0.0,0.0,0.0,0.0,0,0,0.0,0.0,0,0,74.0,0.0,572.0,4622.051282051282,3920.5128205128212,4474.358974358975,4431.794871794872,4249.74358974359,4553.333333333334,4457.948717948719,4445.641025641026,4441.025641025642,4760.000000000001,4336.410256410257,4220.512820512821,4167.179487179487,4491.794871794872
62.43647,0.4656075,0.7021341,0.52746737,0.44598743,0,0.0,0.0,0.0,0.0,0.37751964,0,0,0.0,0.0,0,0,122.0,0.0,572.0,4671.794871794872,3932.307692307693,4507.179487179488,4440.512820512821,4252.307692307693,4549.743589743591,4460.000000000001,4445.128205128206,4379.48717948718,4737.435897435898,4355.8974358974365,4229.2307692307695,4203.589743589744,4492.307692307693
62.561577,0.44112357,0.6750706,0.531257,0.4453164,0,0.0,0.0,0.0,0.0,0.0,0,0,0.0,0.0,0,0,9.0,0.0,605.0,4683.076923076924,3944.1025641025644,4536.923076923077,4445.128205128206,4249.2307692307695,4540.512820512821,4460.000000000001,4446.666666666667,4351.794871794872,4725.128205128206,4343.076923076924,4249.74358974359,4216.923076923077,4491.282051282052
62.561577,0.44112357,0.6750706,0.531257,0.4453164,0,0.0,0.0,0.0,0.0,0.0,0,0,0.0,0.0,0,0,9.0,0.0,605.0,4683.076923076924,3944.1025641025644,4536.923076923077,4445.128205128206,4249.2307692307695,4540.512820512821,4460.000000000001,4446.666666666667,4351.794871794872,4725.128205128206,4343.076923076924,4249.74358974359,4216.923076923077,4491.282051282052
63.062008,0.44101226,0.6482333,0.5291756,0.44284907,0,0.0,0.0,0.0,0.0,0.0,0,0,0.0,0.0,0,0,73.0,0.0,605.0,4725.128205128206,3956.9230769230776,4572.307692307693,4428.205128205129,4231.794871794872,4524.615384615385,4502.564102564103,4471.282051282052,4268.205128205129,4661.538461538462,4335.384615384616,4304.102564102564,4212.307692307693,4438.974358974359
63.062008,0.44101226,0.6482333,0.5291756,0.44284907,0,0.0,0.0,0.0,0.0,0.0,0,0,0.0,0.0,0,0,73.0,0.0,605.0,4725.128205128206,3956.9230769230776,4572.307692307693,4428.205128205129,4231.794871794872,4524.615384615385,4502.564102564103,4471.282051282052,4268.205128205129,4661.538461538462,4335.384615384616,4304.102564102564,4212.307692307693,4438.974358974359
63.562435,0.49985492,0.6233651,0.52274835,0.45427185,0,0.0,0.0,0.0,0.0,0.0,0,0,0.0,0.0,0,0,8.0,0.0,518.0,4700.000000000001,3942.564102564103,4539.48717948718,4462.564102564103,4229.74358974359,4522.564102564103,4492.307692307693,4444.102564102564,4244.615384615385,4613.846153846154,4305.128205128206,4317.435897435898,4172.820512820514,4459.48717948718
63.562435,0.49985492,0.6233651,0.52274835,0.45427185,0,0.0,0.0,0.0,0.0,0.0,0,0,0.0,0.0,0,0,8.0,0.0,518.0,4700.000000000001,3942.564102564103,4539.48717948718,4462.564102564103,4229.74358974359,4522.564102564103,4492.307692307693,4444.102564102564,4244.615384615385,4613.846153846154,4305.128205128206,4317.435897435898,4172.820512820514,4459.48717948718
64.06287,0.48972204,0.5864317,0.5120413,0.48041403,0,0.0,0.0,0.0,0.0,0.0,0,0,0.0,0.0,0,0,72.0,0.0,518.0,4713.846153846154,3950.2564102564106,4521.025641025642,4460.512820512821,4233.333333333334,4536.923076923077,4487.6923076923085,4441.025641025642,4244.615384615385,4589.2307692307695,4297.948717948719,4294.358974358975,4113.846153846154,4445.128205128206
64.06287,0.48972204,0.5864317,0.5120413,0.48041403,0,0.0,0.0,0.0,0.0,0.0,0,0,0.0,0.0,0,0,72.0,0.0,518.0,4713.846153846154,3950.2564102564106,4521.025641025642,4460.512820512821,4233.333333333334,4536.923076923077,4487.6923076923085,4441.025641025642,4244.615384615385,4589.2307692307695,4297.948717948719,4294.358974358975,4113.846153846154,4445.128205128206
64.56329,0.44683754,0.5494461,0.49697694,0.5094925,0,0.0,0.0,0.0,0.0,0.0,0,0,0.0,0.0,0,0,7.0,0.0,491.0,4672.307692307693,3926.666666666667,4478.974358974359,4450.769230769231,4236.923076923077,4538.974358974359,4455.384615384616,4418.974358974359,4311.282051282052,4623.076923076924,4303.076923076924,4278.974358974359,4113.333333333334,4473.333333333334
64.56329,0.44683754,0.5494461,0.49697694,0.5094925,0,0.0,0.0,0.0,0.0,0.0,0,0,0.0,0.0,0,0,7.0,0.0,491.0,4672.307692307693,3926.666666666667,4478.974358974359,4450.769230769231,4236.923076923077,4538.974358974359,4455.384615384616,4418.974358974359,4311.282051282052,4623.076923076924,4303.076923076924,4278.974358974359,4113.333333333334,4473.333333333334
65.188835,0.43153968,0.5145032,0.48000377,0.5465236,0,0.0,0.0,0.0,0.0,0.67531407,0,0,0.0,0.0,0,0,87.0,0.0,521.0,4645.128205128206,3910.2564102564106,4458.974358974359,4443.589743589744,4237.435897435898,4552.307692307693,4445.641025641026,4417.435897435898,4361.025641025642,4654.358974358975,4283.589743589744,4228.717948717949,4094.358974358975,4468.205128205129
65.43905,0.43153968,0.5145032,0.48000377,0.5465236,0,0.0,0.0,0.0,0.0,0.9605314,0,0,0.0,0.0,0,0,119.0,0.0,521.0,4630.256410256411,3912.820512820513,4471.282051282052,4437.435897435898,4233.846153846154,4539.48717948718,4442.564102564103,4422.051282051282,4383.589743589744,4686.666666666667,4319.48717948718,4236.923076923077,4123.589743589744,4493.333333333334
65.68926,0.4411752,0.4862361,0.46334445,0.5836526,0,0.0,0.0,0.0,0.0,0.2965182,0,0,0.0,0.0,0,0,22.0,0.0,0.0,4616.410256410257,3919.48717948718,4474.358974358975,4440.512820512821,4242.051282051282,4543.589743589744,4438.461538461539,4411.282051282052,4389.2307692307695,4692.307692307693,4319.48717948718,4226.666666666667,4123.589743589744,4492.820512820514
65.939476,0.4411752,0.4862361,0.46334445,0.5836526,0,0.0,0.0,0.0,0.0,0.33440492,0,0,0.0,0.0,0,0,54.0,0.0,0.0,4584.615384615385,3911.2820512820517,4459.48717948718,4434.871794871796,4240.512820512821,4542.564102564103,4428.205128205129,4407.6923076923085,4394.871794871796,4694.358974358975,4302.051282051282,4200.512820512821,4111.794871794872,4491.794871794872
66.1897,0.42894822,0.4568475,0.44760972,0.61705625,0,0.0,0.0,0.0,0.0,0.36497408,0,0,0.0,0.0,0,0,86.0,0.0,572.0,4567.6923076923085,3922.0512820512827,4469.2307692307695,4438.461538461539,4242.051282051282,4550.256410256411,4428.717948717949,4408.717948717949,4409.2307692307695,4708.717948717949,4334.871794871796,4220.000000000001,4133.846153846154,4514.871794871796
66.43991,0.42894822,0.4568475,0.44760972,0.61705625,0,0.0,0.0,0.0,0.0,0.0,0,0,0.0,0.0,0,0,118.0,0.0,572.0,4540.512820512821,3909.7435897435903,4458.974358974359,4428.205128205129,4240.000000000001,4544.615384615385,4432.820512820514,4406.153846153847,4400.512820512821,4703.076923076924,4315.384615384616,4196.410256410257,4121.025641025642,4491.794871794872
66.56502,0.4400922,0.43574616,0.43288013,0.6470875,0,0.0,0.0,0.0,0.0,0.0,0,0,0.0,0.0,0,0,5.0,0.0,566.0,4552.820512820514,3914.8717948717954,4473.846153846154,4429.743589743591,4242.051282051282,4543.076923076924,4429.743589743591,4409.2307692307695,4408.717948717949,4710.256410256411,4320.512820512821,4198.461538461539,4127.179487179487,4513.333333333334
66.56502,0.4400922,0.43574616,0.43288013,0.6470875,0,0.0,0.0,0.0,0.0,0.0,0,0,0.0,0.0,0,0,5.0,0.0,566.0,4552.820512820514,3914.8717948717954,4473.846153846154,4429.743589743591,4242.051282051282,4543.076923076924,4429.743589743591,4409.2307692307695,4408.717948717949,4710.256410256411,4320.512820512821,4198.461538461539,4127.179487179487,4513.333333333334
67.22183,0.4992358,0.40539083,0.42006648,0.6705426,1,0.0,0.0,0.0,0.0,0.0,0,0,0.0,0.0,0,0,89.0,0.0,515.0,4591.794871794872,3926.1538461538466,4490.256410256411,4429.2307692307695,4244.102564102564,4540.512820512821,4439.48717948718,4426.153846153847,4433.333333333334,4748.205128205129,4325.641025641026,4221.025641025642,4154.358974358975,4556.410256410257
67.44077,0.4992358,0.40539083,0.42006648,0.6705426,0,0.0,0.0,0.0,0.0,0.7171085,0,0,0.0,0.0,0,0,117.0,0.0,515.0,4555.8974358974365,3927.1794871794878,4491.282051282052,4433.333333333334,4249.2307692307695,4551.794871794872,4447.179487179487,4438.461538461539,4453.333333333334,4769.2307692307695,4335.384615384616,4230.256410256411,4173.846153846154,4538.974358974359
67.69099,0.51600814,0.38243943,0.4085248,0.68711567,0,0.0,0.0,0.0,0.0,0.56577224,0,0,0.0,0.0,0,0,20.0,0.0,0.0,4529.743589743591,3918.461538461539,4457.948717948719,4428.717948717949,4246.666666666667,4543.589743589744,4443.076923076924,4428.205128205129,4436.410256410257,4748.205128205129,4327.179487179487,4213.846153846154,4151.794871794872,4517.948717948719
67.9412,0.51600814,0.38243943,0.4085248,0.68711567,0,0.0,0.0,0.0,0.0,0.14729783,0,0,0.0,0.0,0,0,52.0,0.0,0.0,4537.435897435898,3928.205128205129,4474.871794871796,4428.717948717949,4250.256410256411,4551.794871794872,4444.615384615385,4435.8974358974365,4446.666666666667,4762.051282051282,4345.641025641026,4217.435897435898,4173.333333333334,4523.076923076924
68.191414,0.5013051,0.36367056,0.39812854,0.70196897,0,0.0,0.0,0.0,0.0,0.0,0,0,0.0,0.0,0,0,84.0,0.0,447.0,4540.512820512821,3927.692307692308,4474.358974358975,4430.256410256411,4244.615384615385,4546.153846153847,4429.743589743591,4410.769230769231,4423.076923076924,4742.564102564103,4323.589743589744,4200.000000000001,4156.923076923077,4522.051282051282
68.191414,0.5013051,0.36367056,0.39812854,0.70196897,0,0.0,0.0,0.0,0.0,0.0,0,0,0.0,0.0,0,0,84.0,0.0,447.0,4540.512820512821,3927.692307692308,4474.358974358975,4430.256410256411,4244.615384615385,4546.153846153847,4429.743589743591,4410.769230769231,4423.076923076924,4742.564102564103,4323.589743589744,4200.000000000001,4156.923076923077,4522.051282051282
68.566734,0.51106316,0.35021,0.38890967,0.72172856,0,0.0,0.0,0.0,0.0,0.0,0,0,0.0,0.0,0,0,3.0,0.0,547.0,4557.948717948719,3926.1538461538466,4476.923076923077,4431.282051282052,4247.6923076923085,4543.076923076924,4436.923076923077,4438.974358974359,4441.025641025642,4759.48717948718,4362.564102564103,4236.410256410257,4165.641025641026,4531.794871794872
68.785675,0.51106316,0.35021,0.38890967,0.72172856,0,0.0,0.0,0.0,0.0,0.0,0,0,0.0,0.0,1,0,31.0,0.0,0.0,4616.410256410257,3942.564102564103,4490.769230769231,4442.051282051282,4247.6923076923085,4551.282051282052,4444.615384615385,4443.589743589744,4443.589743589744,4772.307692307693,4362.564102564103,4224.615384615385,4164.102564102564,4535.8974358974365
69.12972,0.54207164,0.3599009,0.38031474,0.7399335,0,0.0,0.0,0.0,0.0,0.0,0,0,0.0,0.0,0,0,75.0,0.0,521.0,4597.435897435898,3926.666666666667,4473.846153846154,4411.794871794872,4237.435897435898,4539.48717948718,4427.179487179487,4418.974358974359,4417.948717948719,4735.8974358974365,4351.282051282052,4209.74358974359,4133.333333333334,4519.48717948718
69.12972,0.54207164,0.3599009,0.38031474,0.7399335,0,0.0,0.0,0.0,0.0,0.0,0,0,0.0,0.0,0,0,75.0,0.0,521.0,4597.435897435898,3926.666666666667,4473.846153846154,4411.794871794872,4237.435897435898,4539.48717948718,4427.179487179487,4418.974358974359,4417.948717948719,4735.8974358974365,4351.282051282052,4209.74358974359,4133.333333333334,4519.48717948718
69.5676,0.51129717,0.34664035,0.37257308,0.75619006,0,0.0,0.0,0.0,0.0,0.0,0,0,0.0,0.0,0,0,2.0,0.0,521.0,4607.179487179488,3926.1538461538466,4484.615384615385,4441.025641025642,4244.615384615385,4543.589743589744,4442.051282051282,4440.512820512821,4440.000000000001,4770.769230769231,4375.384615384616,4211.794871794872,4160.512820512821,4538.974358974359
69.94292,0.51129717,0.34664035,0.37257308,0.75619006,0,0.0,0.0,0.0,0.0,0.32346886,0,0,0.0,0.0,0,0,50.0,0.0,0.0,4649.2307692307695,3924.615384615385,4493.333333333334,4443.589743589744,4248.205128205129,4540.000000000001,4447.179487179487,4441.025641025642,4443.589743589744,4775.8974358974365,4374.358974358975,4227.6923076923085,4173.846153846154,4561.025641025642
70.19314,0.5148093,0.34192708,0.36327422,0.7694093,0,0.0,0.0,0.0,0.0,0.649573,0,0,0.0,0.0,1,0,82.0,0.0,572.0,4707.6923076923085,3939.48717948718,4504.615384615385,4450.256410256411,4246.153846153847,4539.48717948718,4443.589743589744,4424.615384615385,4429.743589743591,4764.102564102564,4387.6923076923085,4223.589743589744,4175.384615384616,4590.769230769231
70.44335,0.5148093,0.34192708,0.36327422,0.7694093,0,0.0,0.0,0.0,0.0,0.45835903,0,0,0.0,0.0,1,0,114.0,0.0,572.0,4665.128205128206,3927.692307692308,4472.820512820514,4443.076923076924,4233.333333333334,4534.871794871796,4429.2307692307695,4414.358974358975,4414.871794871796,4734.358974358975,4358.461538461539,4183.076923076924,4137.435897435898,4520.512820512821
70.693565,0.52050674,0.37147895,0.35273495,0.7871556,0,0.0,0.0,0.0,0.0,0.11717672,0,0,0.0,0.0,0,0,17.0,0.0,0.0,4655.384615384616,3934.358974358975,4479.48717948718,4444.615384615385,4242.051282051282,4540.000000000001,4435.8974358974365,4426.666666666667,4424.615384615385,4750.256410256411,4367.179487179487,4198.974358974359,4141.025641025642,4523.589743589744
70.94378,0.52050674,0.37147895,0.35273495,0.7871556,0,0.0,0.0,0.0,0.0,0.12483238,0,0,0.0,0.0,0,0,49.0,0.0,0.0,4662.051282051282,3931.2820512820517,4489.2307692307695,4443.589743589744,4242.051282051282,4538.461538461539,4435.384615384616,4421.025641025642,4416.410256410257,4735.384615384616,4355.384615384616,4185.128205128206,4116.410256410257,4519.48717948718
71.19399,0.48389083,0.3812825,0.34324682,0.80292845,0,0.0,0.0,0.0,0.0,0.25711247,0,0,0.0,0.0,0,0,81.0,0.0,515.0,4645.128205128206,3932.307692307693,4475.384615384616,4433.333333333334,4230.256410256411,4527.179487179488,4428.205128205129,4410.769230769231,4410.769230769231,4722.051282051282,4350.256410256411,4180.512820512821,4107.179487179487,4504.102564102564
71.444214,0.48389083,0.3812825,0.34324682,0.80292845,0,0.0,0.0,0.0,0.0,0.0,0,0,0.0,0.0,0,0,113.0,0.0,515.0,4644.615384615385,3940.0000000000005,4476.923076923077,4379.48717948718,4229.2307692307695,4523.076923076924,4411.794871794872,4396.923076923077,4397.435897435898,4717.435897435898,4347.179487179487,4191.282051282052,4102.564102564103,4505.128205128206
71.56932,0.50845325,0.39644322,0.33470598,0.8169136,0,0.0,0.0,0.0,0.0,0.0,0,0,0.0,0.0,0,0,0.0,0.0,500.0,4637.435897435898,3949.2307692307695,4459.48717948718,4397.948717948719,4242.564102564103,4539.48717948718,4427.179487179487,4409.743589743591,4400.512820512821,4727.6923076923085,4355.8974358974365,4181.538461538462,4114.358974358975,4506.666666666667
71.56932,0.50845325,0.39644322,0.33470598,0.8169136,0,0.0,0.0,0.0,0.0,0.0,0,0,0.0,0.0,0,0,0.0,0.0,500.0,4637.435897435898,3949.2307692307695,4459.48717948718,4397.948717948719,4242.564102564103,4539.48717948718,4427.179487179487,4409.743589743591,4400.512820512821,4727.6923076923085,4355.8974358974365,4181.538461538462,4114.358974358975,4506.666666666667
72.194855,0.5069145,0.41010597,0.32769918,0.8337056,0,0.0,0.0,0.0,0.0,0.32483065,0,0,0.0,0.0,0,0,80.0,0.0,444.0,4641.025641025642,3925.6410256410263,4443.076923076924,4441.538461538462,4231.794871794872,4527.179487179488,4427.6923076923085,4430.256410256411,4416.410256410257,4751.282051282052,4362.051282051282,4213.846153846154,4153.333333333334,4553.846153846154
72.44507,0.5069145,0.41010597,0.32769918,0.8337056,0,0.0,0.0,0.0,0.0,0.43048778,0,0,0.0,0.0,0,0,112.0,0.0,444.0,4624.102564102564,3924.615384615385,4448.205128205129,4443.589743589744,4229.2307692307695,4526.153846153847,4428.205128205129,4428.205128205129,4422.564102564103,4768.717948717949,4382.564102564103,4213.846153846154,4174.358974358975,4552.820512820514
72.69528,0.46225291,0.3916604,0.32232246,0.84853727,0,0.0,0.0,0.0,0.0,0.21222824,0,0,0.0,0.0,0,0,15.0,0.0,521.0,4610.256410256411,3932.820512820513,4442.564102564103,4444.615384615385,4231.282051282052,4530.769230769231,4430.769230769231,4413.846153846154,4412.820512820514,4756.923076923077,4367.6923076923085,4200.000000000001,4148.717948717949,4524.102564102564
72.9455,0.46225291,0.3916604,0.32232246,0.84853727,0,0.0,0.0,0.0,0.0,0.056732412,0,0,0.0,0.0,0,0,47.0,0.0,0.0,4605.128205128206,3943.076923076924,4442.051282051282,4444.615384615385,4235.384615384616,4540.512820512821,4428.205128205129,4402.564102564103,4410.256410256411,4745.128205128206,4363.589743589744,4197.948717948719,4131.794871794872,4535.384615384616
73.19572,0.42622015,0.37038553,0.3189589,0.8621719,0,0.0,0.0,0.0,0.0,0.13056777,0,0,0.0,0.0,0,0,79.0,0.0,521.0,4598.461538461539,3958.461538461539,4422.051282051282,4441.538461538462,4243.589743589744,4531.282051282052,4417.435897435898,4397.948717948719,4414.358974358975,4751.282051282052,4380.512820512821,4205.128205128206,4146.666666666667,4528.205128205129
73.44593,0.42622015,0.37038553,0.3189589,0.8621719,0,0.0,0.0,0.0,0.0,0.17090641,0,0,0.0,0.0,0,0,111.0,0.0,521.0,4593.333333333334,3935.3846153846157,4413.333333333334,4431.282051282052,4249.2307692307695,4515.8974358974365,4415.8974358974365,4403.076923076924,4409.2307692307695,4756.923076923077,4378.461538461539,4211.794871794872,4175.8974358974365,4556.410256410257
73.696144,0.40308487,0.34913766,0.31693637,0.8741378,0,0.0,0.0,0.0,0.0,0.25948128,0,0,0.0,0.0,0,0,14.0,0.0,572.0,4620.512820512821,3935.3846153846157,4447.6923076923085,4432.307692307693,4231.282051282052,4541.025641025642,4444.615384615385,4435.8974358974365,4429.2307692307695,4772.307692307693,4392.307692307693,4246.153846153847,4185.641025641026,4513.333333333334
73.94636,0.40308487,0.34913766,0.31693637,0.8741378,0,0.0,0.0,0.0,0.0,1.0,0,0,0.0,0.0,0,0,46.0,0.0,0.0,4618.974358974359,3937.9487179487182,4426.153846153847,4438.461538461539,4234.871794871796,4550.769230769231,4448.717948717949,4442.051282051282,4415.8974358974365,4684.615384615386,4403.076923076924,4235.8974358974365,4097.435897435898,1885.6410256410259
74.102745,0.38252193,0.32712802,0.31562233,0.8829201,0,0.0,0.0,0.0,0.0,1.0,0,0,0.0,0.0,0,0,66.0,0.0,521.0,4630.256410256411,3941.538461538462,4431.794871794872,4444.615384615385,4247.6923076923085,4556.923076923077,4456.923076923077,4447.6923076923085,4427.179487179487,4722.051282051282,4392.307692307693,4238.461538461539,4133.333333333334,2343.0769230769233
74.102745,0.38252193,0.32712802,0.31562233,0.8829201,0,0.0,0.0,0.0,0.0,1.0,0,0,0.0,0.0,0,0,66.0,0.0,521.0,4630.256410256411,3941.538461538462,4431.794871794872,4444.615384615385,4247.6923076923085,4556.923076923077,4456.923076923077,4447.6923076923085,4427.179487179487,4722.051282051282,4392.307692307693,4238.461538461539,4133.333333333334,2343.0769230769233
74.60317,0.36054993,0.29465905,0.31486437,0.88421935,0,0.0,0.0,0.0,0.0,1.0,0,0,0.0,0.0,0,1,1.0,0.0,479.0,4658.974358974359,3945.6410256410263,4456.923076923077,4441.025641025642,4232.820512820514,4540.512820512821,4430.769230769231,4436.923076923077,4435.8974358974365,4812.307692307693,4380.512820512821,4236.410256410257,4204.102564102564,5205.641025641026
74.91595,0.36054993,0.29465905,0.31486437,0.88421935,0,0.0,0.0,0.0,0.0,1.0,0,0,0.0,0.0,0,0,41.0,0.0,0.0,4662.051282051282,3929.7435897435903,4472.307692307693,4435.8974358974365,4231.794871794872,4538.461538461539,4435.8974358974365,4437.948717948719,4425.641025641026,4793.846153846154,4372.307692307693,4233.846153846154,4184.615384615385,5072.820512820514
75.10361,0.37079328,0.2717607,0.31551716,0.8662731,0,0.0,0.0,0.0,0.0,1.0,0,0,0.0,0.0,0,0,65.0,0.0,479.0,4657.435897435898,3938.9743589743593,4458.974358974359,4435.384615384616,4235.384615384616,4541.025641025642,4426.153846153847,4426.666666666667,4420.000000000001,4772.820512820514,4357.948717948719,4202.564102564103,4166.666666666667,4983.589743589744
75.10361,0.37079328,0.2717607,0.31551716,0.8662731,0,0.0,0.0,0.0,0.0,1.0,0,0,0.0,0.0,0,0,65.0,0.0,479.0,4657.435897435898,3938.9743589743593,4458.974358974359,4435.384615384616,4235.384615384616,4541.025641025642,4426.153846153847,4426.666666666667,4420.000000000001,4772.820512820514,4357.948717948719,4202.564102564103,4166.666666666667,4983.589743589744
75.69787,0.3591398,0.24514021,0.31732234,0.83384246,0,0.0,0.0,0.0,0.0,0.5558028,0,0,0.0,0.0,0,0,12.0,0.0,444.0,4764.102564102564,3954.8717948717954,4505.128205128206,4438.974358974359,4233.846153846154,4537.435897435898,4412.820512820514,4423.076923076924,4403.589743589744,4777.435897435898,4388.717948717949,4243.589743589744,4193.846153846154,4910.769230769231
75.94808,0.3591398,0.24514021,0.31732234,0.83384246,0,0.0,0.0,0.0,0.0,0.46822494,0,0,0.0,0.0,0,0,44.0,0.0,0.0,4768.205128205129,3957.435897435898,4514.871794871796,4435.8974358974365,4231.794871794872,4532.820512820514,4428.205128205129,4441.025641025642,4410.256410256411,4774.358974358975,4400.000000000001,4267.179487179487,4199.48717948718,4877.435897435898
76.198296,0.3509842,0.2455299,0.31894928,0.8048582,0,0.0,0.0,0.0,0.0,0.32950518,0,0,0.0,0.0,0,0,76.0,0.0,444.0,4718.974358974359,3942.0512820512827,4505.128205128206,4429.743589743591,4233.333333333334,4535.384615384616,4433.333333333334,4443.589743589744,4405.641025641026,4760.000000000001,4388.205128205129,4245.641025641026,4188.205128205129,4800.000000000001
76.44851,0.3509842,0.2455299,0.31894928,0.8048582,0,0.0,0.0,0.0,0.0,0.3100723,0,0,0.0,0.0,0,0,108.0,0.0,444.0,4698.974358974359,3945.1282051282055,4507.6923076923085,4433.846153846154,4243.589743589744,4540.512820512821,4407.179487179487,4426.666666666667,4421.538461538462,4770.769230769231,4388.717948717949,4231.794871794872,4198.974358974359,4764.615384615386
76.69872,0.35759425,0.25404102,0.32041556,0.7789147,0,0.0,0.0,0.0,0.0,0.3371138,0,0,0.0,0.0,0,0,11.0,0.0,506.0,4622.051282051282,3928.717948717949,4472.820512820514,4429.2307692307695,4245.128205128206,4543.076923076924,4431.282051282052,4437.435897435898,4416.923076923077,4753.333333333334,4372.820512820514,4196.923076923077,4166.153846153847,4670.256410256411
76.948944,0.35759425,0.25404102,0.32041556,0.7789147,0,0.0,0.0,0.0,0.0,0.3993359,0,0,0.0,0.0,0,0,43.0,0.0,0.0,4588.205128205129,3924.615384615385,4469.743589743591,4426.666666666667,4242.564102564103,4540.000000000001,4431.282051282052,4424.102564102564,4410.256410256411,4737.435897435898,4366.153846153847,4163.076923076924,4144.615384615385,4609.743589743591
77.19916,0.35319242,0.26682043,0.32173702,0.7556868,0,0.0,0.0,0.0,0.0,0.18913032,0,0,0.0,0.0,0,0,75.0,0.0,508.0,4610.769230769231,3928.717948717949,4490.256410256411,4429.743589743591,4244.615384615385,4542.051282051282,4444.102564102564,4428.205128205129,4412.820512820514,4746.153846153847,4363.589743589744,4185.641025641026,4155.8974358974365,4616.923076923077
77.324265,0.35319242,0.26682043,0.32173702,0.7556868,0,0.0,0.0,0.0,0.0,0.0,0,0,0.0,0.0,0,0,91.0,0.0,508.0,4613.846153846154,3921.0256410256416,4474.358974358975,4427.6923076923085,4241.025641025642,4543.589743589744,4440.512820512821,4424.102564102564,4405.641025641026,4748.205128205129,4381.025641025642,4201.538461538462,4171.282051282052,4620.000000000001
77.57448,0.3572664,0.29453912,0.32292795,0.73489225,0,0.0,0.0,0.0,0.0,0.0,0,0,0.0,0.0,0,0,123.0,0.0,508.0,4613.333333333334,3922.564102564103,4467.6923076923085,4430.769230769231,4246.666666666667,4539.48717948718,4452.307692307693,4449.743589743591,4429.743589743591,4766.153846153847,4386.153846153847,4201.025641025642,4176.410256410257,4591.794871794872
77.57448,0.3572664,0.29453912,0.32292795,0.73489225,0,0.0,0.0,0.0,0.0,0.0,0,0,0.0,0.0,0,0,123.0,0.0,508.0,4613.333333333334,3922.564102564103,4467.6923076923085,4430.769230769231,4246.666666666667,4539.48717948718,4452.307692307693,4449.743589743591,4429.743589743591,4766.153846153847,4386.153846153847,4201.025641025642,4176.410256410257,4591.794871794872
78.074905,0.32878497,0.31990638,0.3304192,0.71757907,0,0.0,0.0,0.0,0.0,0.0,0,0,0.0,0.0,0,0,58.0,0.0,0.0,4634.358974358975,3928.717948717949,4488.717948717949,4433.333333333334,4242.051282051282,4537.948717948719,4426.153846153847,4429.743589743591,4425.641025641026,4765.128205128206,4373.333333333334,4214.358974358975,4172.307692307693,4571.282051282052
78.074905,0.32878497,0.31990638,0.3304192,0.71757907,0,0.0,0.0,0.0,0.0,0.0,0,0,0.0,0.0,0,0,58.0,0.0,0.0,4634.358974358975,3928.717948717949,4488.717948717949,4433.333333333334,4242.051282051282,4537.948717948719,4426.153846153847,4429.743589743591,4425.641025641026,4765.128205128206,4373.333333333334,4214.358974358975,4172.307692307693,4571.282051282052
78.57534,0.38177067,0.3457503,0.338353,0.7105859,0,0.0,0.0,0.0,0.0,0.0,0,0,0.0,0.0,0,0,122.0,0.0,571.0,4605.128205128206,3928.717948717949,4483.076923076924,4391.794871794872,4240.512820512821,4546.153846153847,4442.051282051282,4399.48717948718,4408.205128205129,4743.076923076924,4365.641025641026,4194.358974358975,4159.48717948718,4547.179487179488
78.57534,0.38177067,0.3457503,0.338353,0.7105859,0,0.0,0.0,0.0,0.0,0.0,0,0,0.0,0.0,0,0,122.0,0.0,571.0,4605.128205128206,3928.717948717949,4483.076923076924,4391.794871794872,4240.512820512821,4546.153846153847,4442.051282051282,4399.48717948718,4408.205128205129,4743.076923076924,4365.641025641026,4194.358974358975,4159.48717948718,4547.179487179488
79.07577,0.37161556,0.38478783,0.35140622,0.7042876,0,0.0,0.0,0.0,0.0,0.0,0,0,0.0,0.0,0,0,57.0,0.0,0.0,4603.076923076924,3923.076923076924,4453.333333333334,4430.256410256411,4236.410256410257,4539.48717948718,4424.615384615385,4385.128205128206,4406.153846153847,4741.538461538462,4361.538461538462,4182.564102564103,4150.256410256411,4538.461538461539
79.07577,0.37161556,0.38478783,0.35140622,0.7042876,0,0.0,0.0,0.0,0.0,0.0,0,0,0.0,0.0,0,0,57.0,0.0,0.0,4603.076923076924,3923.076923076924,4453.333333333334,4430.256410256411,4236.410256410257,4539.48717948718,4424.615384615385,4385.128205128206,4406.153846153847,4741.538461538462,4361.538461538462,4182.564102564103,4150.256410256411,4538.461538461539
79.5762,0.4047736,0.42592043,0.36598197,0.69861317,0,0.0,0.0,0.0,0.0,0.0,0,0,0.0,0.0,0,0,121.0,0.0,515.0,4647.6923076923085,3926.666666666667,4465.128205128206,4441.538461538462,4247.179487179487,4539.48717948718,4421.538461538462,4403.076923076924,4408.717948717949,4747.179487179488,4349.743589743591,4190.256410256411,4153.333333333334,4546.666666666667
79.5762,0.4047736,0.42592043,0.36598197,0.69861317,0,0.0,0.0,0.0,0.0,0.0,0,0,0.0,0.0,0,0,121.0,0.0,515.0,4647.6923076923085,3926.666666666667,4465.128205128206,4441.538461538462,4247.179487179487,4539.48717948718,4421.538461538462,4403.076923076924,4408.717948717949,4747.179487179488,4349.743589743591,4190.256410256411,4153.333333333334,4546.666666666667
80.07663,0.45810637,0.44516784,0.3842593,0.677691,0,0.0,0.0,0.0,0.0,0.0,0,0,0.0,0.0,0,0,56.0,0.0,0.0,4739.48717948718,3920.5128205128212,4471.794871794872,4443.589743589744,4233.333333333334,4531.282051282052,4432.820512820514,4391.794871794872,4396.923076923077,4753.333333333334,4355.8974358974365,4192.820512820514,4154.358974358975,4547.6923076923085
80.45195,0.45810637,0.44516784,0.3842593,0.677691,0,0.0,0.0,0.0,0.0,0.31686825,0,0,0.0,0.0,0,0,104.0,0.0,444.0,4749.743589743591,3923.076923076924,4458.461538461539,4439.48717948718,4234.358974358975,4533.333333333334,4428.205128205129,4416.923076923077,4428.717948717949,4768.717948717949,4330.256410256411,4177.948717948719,4153.333333333334,4517.435897435898
80.70216,0.47384664,0.48684794,0.39552778,0.6588818,0,0.0,0.0,0.0,0.0,0.079923876,0,0,0.0,0.0,0,0,7.0,0.0,491.0,4765.641025641026,3913.333333333334,4441.025641025642,4424.615384615385,4235.8974358974365,4495.384615384616,4372.307692307693,4362.051282051282,4378.974358974359,4726.153846153847,4327.6923076923085,4171.794871794872,4144.102564102564,4520.512820512821
80.82727,0.47384664,0.48684794,0.39552778,0.6588818,0,0.0,0.0,0.0,0.0,0.0,0,0,0.0,0.0,0,0,23.0,0.0,0.0,4796.923076923077,3925.6410256410263,4458.974358974359,4432.307692307693,4232.820512820514,4524.102564102564,4420.512820512821,4391.282051282052,4388.205128205129,4739.48717948718,4325.641025641026,4183.076923076924,4154.358974358975,4534.871794871796
81.07749,0.56731606,0.523383,0.40541962,0.6439677,0,0.0,0.0,0.0,0.0,0.0,0,0,0.0,0.0,0,0,55.0,0.0,0.0,4780.000000000001,3941.0256410256416,4459.48717948718,4442.564102564103,4240.512820512821,4537.435897435898,4416.923076923077,4391.794871794872,4407.179487179487,4753.333333333334,4356.923076923077,4195.384615384616,4176.923076923077,4521.538461538462
81.45281,0.56731606,0.523383,0.40541962,0.6439677,0,0.0,0.0,0.0,0.0,0.34549373,0,0,0.0,0.0,0,0,103.0,0.0,514.0,4686.666666666667,3937.9487179487182,4458.461538461539,4445.128205128206,4242.051282051282,4539.48717948718,4406.666666666667,4395.384615384616,4398.974358974359,4745.128205128206,4366.666666666667,4194.358974358975,4184.615384615385,4515.384615384616
81.703026,0.56884694,0.5462886,0.41653484,0.61564684,0,0.0,0.0,0.0,0.0,0.38504827,0,0,0.0,0.0,0,0,6.0,0.0,585.0,4568.717948717949,3910.7692307692314,4426.666666666667,4441.025641025642,4234.358974358975,4554.871794871796,4448.717948717949,4440.000000000001,4430.769230769231,4757.435897435898,4369.743589743591,4173.333333333334,4177.435897435898,4454.871794871796
81.95324,0.56884694,0.5462886,0.41653484,0.61564684,0,0.0,0.0,0.0,0.0,0.52786094,0,0,0.0,0.0,0,0,38.0,0.0,0.0,4555.384615384616,3913.333333333334,4443.589743589744,4443.589743589744,4233.333333333334,4551.794871794872,4434.871794871796,4425.641025641026,4425.641025641026,4757.948717948719,4384.102564102564,4179.48717948718,4188.717948717949,4374.358974358975
82.20345,0.56883323,0.5581242,0.42410883,0.5934179,0,0.0,0.0,0.0,0.0,0.7503593,0,0,0.0,0.0,0,0,70.0,0.0,585.0,4520.000000000001,3901.538461538462,4434.871794871796,4430.769230769231,4232.307692307693,4538.461538461539,4428.205128205129,4431.282051282052,4421.538461538462,4749.2307692307695,4364.615384615385,4163.076923076924,4166.153846153847,4343.589743589744
82.453674,0.56883323,0.5581242,0.42410883,0.5934179,0,0.0,0.0,0.0,0.0,0.26610348,0,0,0.0,0.0,0,0,102.0,0.0,571.0,4489.743589743591,3909.2307692307695,4457.435897435898,4433.333333333334,4233.333333333334,4538.461538461539,4436.410256410257,4427.6923076923085,4426.666666666667,4756.410256410257,4376.410256410257,4198.461538461539,4171.794871794872,4362.051282051282
82.70389,0.53665733,0.5326653,0.42871457,0.58834124,0,0.0,0.0,0.0,0.0,0.362559,0,0,0.0,0.0,0,0,5.0,0.0,566.0,4473.846153846154,3911.7948717948725,4447.6923076923085,4430.769230769231,4231.794871794872,4534.871794871796,4418.974358974359,4423.589743589744,4417.948717948719,4750.769230769231,4363.076923076924,4178.461538461539,4174.358974358975,4356.410256410257
82.828995,0.53665733,0.5326653,0.42871457,0.58834124,0,0.0,0.0,0.0,0.0,0.0,0,0,0.0,0.0,0,0,21.0,0.0,0.0,4470.769230769231,3908.717948717949,4458.461538461539,4429.743589743591,4230.769230769231,4528.717948717949,4409.743589743591,4424.615384615385,4423.076923076924,4765.641025641026,4363.076923076924,4194.358974358975,4179.48717948718,4377.435897435898
83.07921,0.57050186,0.49316716,0.43214196,0.5933388,0,0.0,0.0,0.0,0.0,0.0,0,0,0.0,0.0,0,0,53.0,0.0,0.0,4475.8974358974365,3924.615384615385,4460.512820512821,4431.794871794872,4228.205128205129,4528.717948717949,4403.589743589744,4411.282051282052,4409.743589743591,4750.256410256411,4355.384615384616,4185.128205128206,4173.846153846154,4398.974358974359
83.07921,0.57050186,0.49316716,0.43214196,0.5933388,0,0.0,0.0,0.0,0.0,0.0,0,0,0.0,0.0,0,0,53.0,0.0,0.0,4475.8974358974365,3924.615384615385,4460.512820512821,4431.794871794872,4228.205128205129,4528.717948717949,4403.589743589744,4411.282051282052,4409.743589743591,4750.256410256411,4355.384615384616,4185.128205128206,4173.846153846154,4398.974358974359
83.70475,0.5495054,0.45260653,0.434726,0.59783214,0,0.0,0.0,0.0,0.0,0.4145333,0,0,0.0,0.0,0,0,4.0,0.0,569.0,4464.102564102564,3925.1282051282055,4477.435897435898,4431.282051282052,4233.333333333334,4526.153846153847,4434.358974358975,4431.794871794872,4416.923076923077,4763.589743589744,4349.2307692307695,4201.025641025642,4204.102564102564,4418.461538461539
83.98624,0.5495054,0.45260653,0.434726,0.59783214,0,0.0,0.0,0.0,0.0,0.7258762,0,0,0.0,0.0,0,0,40.0,0.0,0.0,4461.025641025642,3912.307692307693,4475.384615384616,4431.282051282052,4233.333333333334,4535.8974358974365,4433.846153846154,4433.846153846154,4428.717948717949,4768.717948717949,4363.076923076924,4201.538461538462,4218.974358974359,4407.6923076923085
84.20518,0.5178024,0.42577565,0.4317984,0.6142503,0,0.0,0.0,0.0,0.0,0.7198669,0,0,0.0,0.0,0,0,68.0,0.0,569.0,4422.564102564103,3885.6410256410263,4446.153846153847,4415.384615384616,4277.948717948719,4556.410256410257,4412.820512820514,4415.384615384616,4418.974358974359,4756.410256410257,4360.000000000001,4188.205128205129,4219.48717948718,4414.358974358975
