timestamp,excitement,frustration,meditation,engagementBoredom,blink,clench,laugh,smile,eyebrow,furrowBrow,lookLeft,lookRight,smirkLeft,smirkRight,winkLeft,winkRight,eeg0,eeg1,eeg2,eeg3,eeg4,eeg5,eeg6,eeg7,eeg8,eeg9,eeg10,eeg11,eeg12,eeg13,eeg14,eeg15,eeg16
727.67224,0.9561614,1.0,0.3338802,0.5605003,0,0.0,0.0,0.0,0.0,1.0,0,0,0.0,0.0,0,0,58.0,0.0,0.0,4689.743589743591,3900.0000000000005,4517.948717948719,4441.025641025642,4288.205128205129,4600.000000000001,4466.153846153847,4477.435897435898,4413.846153846154,4721.538461538462,4436.923076923077,4305.641025641026,4148.205128205129,4538.461538461539
727.67224,0.9561614,1.0,0.3338802,0.5605003,0,0.0,0.0,0.0,0.0,1.0,0,0,0.0,0.0,0,0,58.0,0.0,0.0,4689.743589743591,3900.0000000000005,4517.948717948719,4441.025641025642,4288.205128205129,4600.000000000001,4466.153846153847,4477.435897435898,4413.846153846154,4721.538461538462,4436.923076923077,4305.641025641026,4148.205128205129,4538.461538461539
728.2665,0.9586584,1.0,0.33382544,0.5596733,1,0.0,0.0,0.0,0.0,1.0,0,0,0.0,0.0,0,0,5.0,0.0,573.0,4488.717948717949,3910.2564102564106,4537.435897435898,4441.538461538462,4266.666666666667,4586.153846153847,4470.769230769231,4451.794871794872,4411.282051282052,4737.435897435898,4439.48717948718,4276.923076923077,4181.538461538462,4550.769230769231
728.5167,0.9586584,1.0,0.33382544,0.5596733,0,0.0,0.0,0.0,0.0,0.7360905,0,0,0.0,0.0,0,0,37.0,0.0,0.0,4378.461538461539,3890.2564102564106,4526.666666666667,4442.564102564103,4274.871794871796,4587.6923076923085,4474.871794871796,4443.076923076924,4415.384615384616,4720.000000000001,4411.282051282052,4251.794871794872,4151.282051282052,4433.846153846154
728.7669,1.0,1.0,0.33377603,0.55892754,0,0.0,0.0,0.0,0.0,0.3862497,0,0,0.0,0.0,0,0,69.0,0.0,573.0,4349.743589743591,3888.205128205129,4511.282051282052,4450.256410256411,4283.076923076924,4604.102564102564,4486.153846153847,4468.717948717949,4445.128205128206,4748.205128205129,4416.923076923077,4246.153846153847,4163.076923076924,4447.179487179487
729.01715,1.0,1.0,0.33377603,0.55892754,1,0.0,0.0,0.0,0.0,0.90070075,0,0,0.0,0.0,0,0,101.0,0.0,513.0,4338.461538461539,3873.333333333334,4510.769230769231,4428.717948717949,4267.179487179487,4577.435897435898,4480.512820512821,4446.153846153847,4422.051282051282,4728.205128205129,4402.564102564103,4226.666666666667,4156.923076923077,4425.128205128206
729.36115,1.0,1.0,0.3337316,0.55825645,1,0.0,0.0,0.0,0.0,0.60476685,0,0,0.0,0.0,0,0,14.0,0.0,554.0,4436.410256410257,3889.7435897435903,4529.743589743591,4429.2307692307695,4264.615384615385,4574.358974358975,4466.153846153847,4436.923076923077,4433.333333333334,4745.128205128206,4394.358974358975,4246.666666666667,4189.2307692307695,4554.358974358975
729.5176,1.0,1.0,0.3337316,0.55825645,0,0.0,0.0,0.0,0.0,0.53368074,0,0,0.0,0.0,0,0,36.0,0.0,0.0,4357.948717948719,3883.589743589744,4505.641025641026,4428.205128205129,4269.74358974359,4579.48717948718,4487.6923076923085,4443.589743589744,4439.48717948718,4735.384615384616,4371.794871794872,4197.948717948719,4153.333333333334,4453.846153846154
729.64264,1.0,1.0,0.33369157,0.5576523,0,0.0,0.0,0.0,0.0,1.0,0,0,0.0,0.0,0,0,52.0,0.0,0.0,4413.333333333334,3893.333333333334,4524.102564102564,4442.051282051282,4287.179487179487,4586.666666666667,4493.333333333334,4454.871794871796,4452.820512820514,4745.641025641026,4351.794871794872,4198.974358974359,4146.153846153847,4422.051282051282
730.018,1.0,1.0,0.33369157,0.5576523,0,0.0,0.0,0.0,0.0,1.0,0,0,0.0,0.0,0,1,100.0,0.0,331.0,4414.871794871796,3913.8461538461543,4518.974358974359,4456.923076923077,4300.000000000001,4597.948717948719,4498.461538461539,4445.641025641026,4448.205128205129,4747.6923076923085,4324.102564102564,4161.538461538462,4128.205128205129,4407.6923076923085
730.2682,0.9801121,1.0,0.3336557,0.55711,0,0.0,0.0,0.0,0.0,0.7006416,0,0,0.0,0.0,0,0,3.0,0.0,548.0,4452.820512820514,3912.820512820513,4521.538461538462,4449.2307692307695,4289.74358974359,4590.256410256411,4496.410256410257,4457.948717948719,4451.794871794872,4765.128205128206,4296.410256410257,4181.538461538462,4161.538461538462,4398.974358974359
730.5497,0.9801121,1.0,0.3336557,0.55711,0,0.0,0.0,0.0,0.0,0.7173716,0,0,0.0,0.0,0,0,39.0,0.0,0.0,4426.153846153847,3897.435897435898,4529.2307692307695,4451.794871794872,4288.717948717949,4594.871794871796,4497.435897435898,4458.461538461539,4465.128205128206,4782.564102564103,4304.615384615385,4195.8974358974365,4199.48717948718,4389.2307692307695
730.7686,0.9391831,1.0,0.3336233,0.5566211,0,0.0,0.0,0.0,0.0,0.9643889,0,0,0.0,0.0,0,0,67.0,0.0,548.0,4476.923076923077,3926.1538461538466,4554.358974358975,4472.820512820514,4304.102564102564,4607.6923076923085,4522.564102564103,4484.102564102564,4481.025641025642,4809.743589743591,4323.076923076924,4219.48717948718,4214.358974358975,4444.102564102564
731.01886,0.9391831,1.0,0.3336233,0.5566211,0,0.0,0.0,0.0,0.0,0.6404298,0,0,0.0,0.0,0,0,99.0,0.0,522.0,4504.102564102564,3929.7435897435903,4566.153846153847,4476.923076923077,4308.205128205129,4606.666666666667,4516.410256410257,4475.8974358974365,4473.846153846154,4814.358974358975,4333.333333333334,4247.179487179487,4223.076923076924,4440.000000000001
731.26904,1.0,1.0,0.33359417,0.55618125,0,0.0,0.0,0.0,0.0,0.3278375,0,0,0.0,0.0,0,0,2.0,0.0,523.0,4477.948717948719,3911.7948717948725,4530.769230769231,4448.205128205129,4277.435897435898,4576.923076923077,4476.923076923077,4450.769230769231,4440.512820512821,4787.179487179488,4307.179487179487,4217.948717948719,4162.564102564103,4391.794871794872
731.5193,1.0,1.0,0.33359417,0.55618125,0,0.0,0.0,0.0,0.0,0.0,0,0,0.0,0.0,0,0,34.0,0.0,0.0,4455.384615384616,3913.333333333334,4520.512820512821,4444.615384615385,4267.6923076923085,4571.282051282052,4466.666666666667,4436.923076923077,4415.8974358974365,4760.512820512821,4293.333333333334,4228.717948717949,4143.589743589744,4372.307692307693
731.6444,1.0,1.0,0.33356795,0.5557854,0,0.0,0.0,0.0,0.0,0.0,0,0,0.0,0.0,0,0,50.0,0.0,0.0,4429.2307692307695,3908.717948717949,4506.666666666667,4445.128205128206,4271.282051282052,4573.846153846154,4464.102564102564,4441.025641025642,4418.461538461539,4754.358974358975,4292.820512820514,4241.538461538462,4146.153846153847,4362.051282051282
732.0197,1.0,1.0,0.33356795,0.5557854,0,0.0,0.0,0.0,0.0,0.6522491,0,0,0.0,0.0,0,0,98.0,0.0,554.0,4626.666666666667,3942.564102564103,4567.6923076923085,4448.717948717949,4258.974358974359,4565.641025641026,4458.974358974359,4454.871794871796,4414.871794871796,4776.923076923077,4333.333333333334,4292.820512820514,4236.923076923077,4584.102564102564
732.2699,1.0,1.0,0.33354437,0.5554292,0,0.0,0.0,0.0,0.0,0.5913552,0,0,0.0,0.0,0,0,1.0,0.0,474.0,4443.076923076924,3905.6410256410263,4504.102564102564,4443.589743589744,4273.333333333334,4580.000000000001,4478.974358974359,4473.333333333334,4432.820512820514,4757.435897435898,4322.564102564103,4207.179487179487,4189.74358974359,4403.589743589744
732.52014,1.0,1.0,0.33354437,0.5554292,0,0.0,0.0,0.0,0.0,0.5157758,0,0,0.0,0.0,0,0,33.0,0.0,0.0,4468.717948717949,3914.358974358975,4525.641025641026,4447.179487179487,4278.461538461539,4583.589743589744,4495.8974358974365,4481.025641025642,4445.128205128206,4783.076923076924,4344.102564102564,4232.307692307693,4199.48717948718,4432.820512820514
732.7703,1.0,1.0,0.33352312,0.5551088,0,0.0,0.0,0.0,0.0,0.33981705,0,0,0.0,0.0,0,0,65.0,0.0,474.0,4496.410256410257,3926.1538461538466,4530.769230769231,4445.128205128206,4273.846153846154,4581.538461538462,4487.6923076923085,4475.8974358974365,4444.615384615385,4774.871794871796,4349.2307692307695,4218.974358974359,4199.48717948718,4460.000000000001
733.02057,1.0,1.0,0.33352312,0.5551088,0,0.0,0.0,0.0,0.0,0.2230528,0,0,0.0,0.0,0,0,97.0,0.0,515.0,4464.102564102564,3915.3846153846157,4517.948717948719,4442.051282051282,4273.846153846154,4582.564102564103,4481.025641025642,4468.717948717949,4448.717948717949,4776.923076923077,4361.538461538462,4205.128205128206,4228.205128205129,4447.6923076923085
733.2708,0.8967102,1.0,0.333504,0.56672513,0,0.0,0.0,0.0,0.0,0.36990052,0,0,0.0,0.0,0,0,0.0,0.0,505.0,4464.615384615385,3925.6410256410263,4524.615384615385,4446.153846153847,4277.435897435898,4586.153846153847,4489.743589743591,4461.025641025642,4439.48717948718,4771.282051282052,4363.589743589744,4211.794871794872,4166.666666666667,4461.538461538462
733.521,0.8967102,1.0,0.333504,0.56672513,0,0.0,0.0,0.0,0.0,0.90109885,0,0,0.0,0.0,0,1,32.0,0.0,0.0,4525.641025641026,3930.2564102564106,4536.923076923077,4445.128205128206,4274.871794871796,4582.051282051282,4475.8974358974365,4450.256410256411,4430.769230769231,4761.025641025642,4358.974358974359,4213.846153846154,4152.820512820514,4477.948717948719
733.77124,0.7815396,1.0,0.3334868,0.5921216,0,0.0,0.0,0.0,0.0,0.7325906,0,0,0.0,0.0,0,1,64.0,0.0,505.0,4506.153846153847,3927.1794871794878,4534.871794871796,4445.641025641026,4281.025641025642,4585.641025641026,4487.179487179488,4455.8974358974365,4443.076923076924,4761.538461538462,4353.846153846154,4221.538461538462,4159.48717948718,4449.743589743591
734.0214,0.7815396,1.0,0.3334868,0.5921216,0,0.0,0.0,0.0,0.0,0.20415527,0,0,0.0,0.0,0,0,96.0,0.0,331.0,4502.564102564103,3912.307692307693,4526.153846153847,4431.794871794872,4268.205128205129,4570.256410256411,4477.948717948719,4438.461538461539,4422.564102564103,4741.538461538462,4334.871794871796,4197.435897435898,4124.102564102564,4430.256410256411
734.14655,0.724761,1.0,0.33252415,0.6195794,0,0.0,0.0,0.0,0.0,1.0,0,0,0.0,0.0,0,0,112.0,0.0,331.0,4495.384615384616,3912.820512820513,4519.48717948718,4443.076923076924,4279.48717948718,4581.025641025642,4481.538461538462,4456.923076923077,4453.333333333334,4769.743589743591,4362.051282051282,4215.8974358974365,4185.128205128206,4435.384615384616
734.14655,0.724761,1.0,0.33252415,0.6195794,0,0.0,0.0,0.0,0.0,1.0,0,0,0.0,0.0,0,0,112.0,0.0,331.0,4495.384615384616,3912.820512820513,4519.48717948718,4443.076923076924,4279.48717948718,4581.025641025642,4481.538461538462,4456.923076923077,4453.333333333334,4769.743589743591,4362.051282051282,4215.8974358974365,4185.128205128206,4435.384615384616
734.7721,0.6643125,1.0,0.3316572,0.64431924,0,0.0,0.0,0.0,0.0,0.16745628,0,0,0.0,0.0,0,0,63.0,0.0,0.0,4512.307692307693,3926.1538461538466,4510.256410256411,4443.589743589744,4268.717948717949,4565.128205128206,4460.512820512821,4432.820512820514,4433.333333333334,4760.512820512821,4362.051282051282,4230.256410256411,4167.179487179487,4466.153846153847
735.0223,0.6643125,1.0,0.3316572,0.64431924,0,0.0,0.0,0.0,0.0,0.10463376,0,0,0.0,0.0,0,0,95.0,0.0,522.0,4504.102564102564,3927.692307692308,4488.717948717949,4438.461538461539,4258.974358974359,4552.307692307693,4437.435897435898,4405.641025641026,4403.589743589744,4725.641025641026,4335.384615384616,4185.641025641026,4140.512820512821,4429.743589743591
735.2725,0.62248296,1.0,0.33182535,0.66653055,0,0.0,0.0,0.0,0.0,0.1277668,0,0,0.0,0.0,0,0,127.0,0.0,522.0,4544.615384615385,3930.2564102564106,4523.589743589744,4445.641025641026,4261.538461538462,4561.538461538462,4483.076923076924,4451.794871794872,4430.256410256411,4756.923076923077,4346.666666666667,4221.538461538462,4181.538461538462,4446.153846153847
735.3976,0.62248296,1.0,0.33182535,0.66653055,0,0.0,0.0,0.0,0.0,0.0,0,0,0.0,0.0,0,0,14.0,0.0,554.0,4564.102564102564,3934.8717948717954,4526.153846153847,4445.641025641026,4257.948717948719,4561.025641025642,4476.923076923077,4452.307692307693,4427.6923076923085,4757.435897435898,4347.179487179487,4207.6923076923085,4198.974358974359,4436.923076923077
735.77295,0.61558044,0.93527603,0.33197677,0.6699937,0,0.0,0.0,0.0,0.0,0.49624813,0,0,0.0,0.0,0,0,62.0,0.0,0.0,4597.948717948719,3937.435897435898,4553.333333333334,4448.205128205129,4262.564102564103,4564.102564102564,4495.8974358974365,4470.769230769231,4418.461538461539,4772.307692307693,4362.051282051282,4252.820512820514,4237.435897435898,4485.128205128206
736.02313,0.61558044,0.93527603,0.33197677,0.6699937,0,0.0,0.0,0.0,0.0,0.37914053,0,0,0.0,0.0,0,0,94.0,0.0,554.0,4603.589743589744,3936.9230769230776,4537.948717948719,4445.128205128206,4253.333333333334,4553.333333333334,4487.6923076923085,4458.461538461539,4398.974358974359,4757.948717948719,4358.461538461539,4246.153846153847,4226.153846153847,4484.615384615385
736.2734,0.5545801,0.87106645,0.33211303,0.65816677,0,0.0,0.0,0.0,0.0,0.3465003,0,0,0.0,0.0,0,0,126.0,0.0,554.0,4593.333333333334,3947.1794871794878,4550.256410256411,4447.6923076923085,4247.6923076923085,4548.717948717949,4487.179487179488,4452.820512820514,4384.102564102564,4743.589743589744,4348.717948717949,4243.076923076924,4200.512820512821,4473.333333333334
736.52356,0.5545801,0.87106645,0.33211303,0.65816677,0,0.0,0.0,0.0,0.0,1.0,0,0,0.0,0.0,0,0,29.0,0.0,0.0,4566.153846153847,3940.5128205128212,4535.8974358974365,4446.153846153847,4245.641025641026,4549.743589743591,4480.512820512821,4446.666666666667,4377.948717948719,4738.461538461539,4343.076923076924,4232.820512820514,4186.153846153847,4461.025641025642
736.6487,0.5531842,0.81725985,0.33223557,0.64752376,0,0.0,0.0,0.0,0.0,1.0,0,0,0.0,0.0,0,0,45.0,0.0,0.0,4571.794871794872,3940.5128205128212,4540.512820512821,4446.666666666667,4246.666666666667,4548.205128205129,4487.179487179488,4451.794871794872,4373.846153846154,4735.8974358974365,4349.743589743591,4232.820512820514,4191.794871794872,4469.743589743591
737.024,0.5531842,0.81725985,0.33223557,0.64752376,0,0.0,0.0,0.0,0.0,0.3104321,0,0,0.0,0.0,0,0,93.0,0.0,515.0,4560.512820512821,3938.461538461539,4522.051282051282,4447.179487179487,4255.8974358974365,4560.000000000001,4482.051282051282,4440.512820512821,4382.051282051282,4733.846153846154,4341.025641025642,4234.871794871796,4175.384615384616,4479.48717948718
737.27423,0.504164,0.770659,0.33234558,0.6379796,0,0.0,0.0,0.0,0.0,0.20696591,0,0,0.0,0.0,0,0,125.0,0.0,515.0,4560.512820512821,3943.589743589744,4524.102564102564,4446.666666666667,4256.410256410257,4556.923076923077,4464.102564102564,4422.051282051282,4369.2307692307695,4725.128205128206,4341.025641025642,4230.256410256411,4178.461538461539,4493.846153846154
737.587,0.504164,0.770659,0.33234558,0.6379796,1,0.0,0.0,0.0,0.0,0.5296466,0,0,0.0,0.0,0,0,36.0,0.0,0.0,4564.615384615385,3936.410256410257,4522.564102564103,4444.102564102564,4247.6923076923085,4550.256410256411,4449.743589743591,4418.461538461539,4370.256410256411,4715.8974358974365,4337.435897435898,4224.102564102564,4167.6923076923085,4497.948717948719
737.77466,0.43513718,0.73295265,0.33244476,0.62937015,0,0.0,0.0,0.0,0.0,0.5281526,0,0,0.0,0.0,0,0,60.0,0.0,0.0,4532.307692307693,3925.1282051282055,4508.205128205129,4439.48717948718,4246.153846153847,4547.179487179488,4464.102564102564,4430.256410256411,4380.000000000001,4722.564102564103,4332.307692307693,4212.307692307693,4173.846153846154,4465.128205128206
738.02484,0.43513718,0.73295265,0.33244476,0.62937015,0,0.0,0.0,0.0,0.0,0.3051474,0,0,0.0,0.0,0,0,92.0,0.0,331.0,4564.615384615385,3935.3846153846157,4516.410256410257,4442.051282051282,4242.564102564103,4545.128205128206,4480.000000000001,4448.205128205129,4380.000000000001,4730.256410256411,4347.179487179487,4223.589743589744,4208.205128205129,4466.153846153847
738.2751,0.3848241,0.6967913,0.332534,0.6216271,0,0.0,0.0,0.0,0.0,0.09475026,0,0,0.0,0.0,0,0,124.0,0.0,331.0,4588.205128205129,3929.7435897435903,4537.435897435898,4430.769230769231,4237.435897435898,4537.435897435898,4504.615384615385,4482.051282051282,4377.948717948719,4743.589743589744,4352.820512820514,4252.307692307693,4240.000000000001,4482.564102564103
738.4002,0.3848241,0.6967913,0.332534,0.6216271,0,0.0,0.0,0.0,0.0,0.0,0,0,0.0,0.0,0,0,11.0,0.0,523.0,4597.435897435898,3940.0000000000005,4548.205128205129,4437.435897435898,4235.384615384616,4537.948717948719,4504.102564102564,4482.051282051282,4375.8974358974365,4742.564102564103,4356.410256410257,4258.974358974359,4255.8974358974365,4497.435897435898
738.6504,0.42276347,0.6703496,0.33261427,0.6146598,0,0.0,0.0,0.0,0.0,0.0,0,0,0.0,0.0,0,0,43.0,0.0,0.0,4605.128205128206,3948.717948717949,4538.974358974359,4435.8974358974365,4228.717948717949,4530.769230769231,4496.923076923077,4485.641025641026,4367.179487179487,4731.794871794872,4344.102564102564,4251.794871794872,4230.256410256411,4488.717948717949
739.02576,0.42276347,0.6703496,0.33261427,0.6146598,0,0.0,0.0,0.0,0.0,0.43998402,0,0,0.0,0.0,0,0,91.0,0.0,523.0,4626.153846153847,3972.820512820513,4538.974358974359,4444.102564102564,4236.923076923077,4536.410256410257,4507.6923076923085,4486.666666666667,4340.512820512821,4710.769230769231,4322.564102564103,4252.820512820514,4180.000000000001,4482.051282051282
739.27594,0.38794145,0.6457375,0.33268648,0.60839266,0,0.0,0.0,0.0,0.0,0.36200148,0,0,0.0,0.0,0,0,123.0,0.0,523.0,4636.410256410257,3970.2564102564106,4544.102564102564,4442.564102564103,4227.6923076923085,4530.769230769231,4482.564102564103,4457.948717948719,4308.717948717949,4684.102564102564,4315.8974358974365,4254.358974358975,4161.538461538462,4486.153846153847
739.5262,0.38794145,0.6457375,0.33268648,0.60839266,0,0.0,0.0,0.0,0.0,0.27452433,0,0,0.0,0.0,0,0,26.0,0.0,0.0,4703.076923076924,3992.307692307693,4552.307692307693,4455.8974358974365,4241.025641025642,4539.48717948718,4470.769230769231,4454.871794871796,4326.153846153847,4693.333333333334,4330.256410256411,4264.615384615385,4172.820512820514,4546.666666666667
739.8077,0.37347886,0.61960053,0.3327515,0.6027512,0,0.0,0.0,0.0,0.0,1.0,0,0,0.0,0.0,0,0,62.0,0.0,0.0,4594.358974358975,3954.8717948717954,4519.48717948718,4443.589743589744,4248.717948717949,4549.743589743591,4463.589743589744,4437.948717948719,4318.461538461539,4669.2307692307695,4324.615384615385,4242.564102564103,4144.102564102564,4456.923076923077
739.8077,0.37347886,0.61960053,0.3327515,0.6027512,0,0.0,0.0,0.0,0.0,1.0,0,0,0.0,0.0,0,0,62.0,0.0,0.0,4594.358974358975,3954.8717948717954,4519.48717948718,4443.589743589744,4248.717948717949,4549.743589743591,4463.589743589744,4437.948717948719,4318.461538461539,4669.2307692307695,4324.615384615385,4242.564102564103,4144.102564102564,4456.923076923077
740.2768,0.3972295,0.6098724,0.33280975,0.59769493,0,0.0,0.0,0.0,0.0,0.8716709,0,0,0.0,0.0,0,0,122.0,0.0,554.0,4586.153846153847,3938.9743589743593,4527.179487179488,4443.589743589744,4255.384615384616,4557.435897435898,4476.410256410257,4455.8974358974365,4366.666666666667,4710.256410256411,4375.384615384616,4275.384615384616,4222.564102564103,4529.743589743591
740.52704,0.3972295,0.6098724,0.33280975,0.59769493,0,0.0,0.0,0.0,0.0,0.91445184,0,0,0.0,0.0,0,0,25.0,0.0,0.0,4591.282051282052,3938.9743589743593,4521.025641025642,4442.564102564103,4255.8974358974365,4556.923076923077,4466.153846153847,4454.358974358975,4376.410256410257,4707.6923076923085,4373.846153846154,4266.666666666667,4191.282051282052,4513.846153846154
740.7772,0.41534093,0.6002163,0.3328621,0.5931493,0,0.0,0.0,0.0,0.0,0.35369888,0,0,0.0,0.0,0,0,57.0,0.0,0.0,4573.333333333334,3936.9230769230776,4518.974358974359,4440.000000000001,4255.8974358974365,4555.384615384616,4449.743589743591,4438.461538461539,4369.2307692307695,4698.461538461539,4373.333333333334,4259.48717948718,4183.076923076924,4511.282051282052
740.90234,0.41534093,0.6002163,0.3328621,0.5931493,0,0.0,0.0,0.0,0.0,0.0,0,0,0.0,0.0,0,0,73.0,0.0,405.0,4575.384615384616,3931.7948717948725,4523.076923076924,4431.794871794872,4249.2307692307695,4552.820512820514,4471.794871794872,4456.923076923077,4388.205128205129,4714.358974358975,4376.410256410257,4266.666666666667,4190.769230769231,4521.538461538462
741.27765,0.3541356,0.60841835,0.3329094,0.58904654,0,0.0,0.0,0.0,0.0,0.77264124,0,0,0.0,0.0,0,0,121.0,0.0,516.0,4716.410256410257,3944.1025641025644,4533.333333333334,4443.589743589744,4249.74358974359,4550.256410256411,4454.871794871796,4432.307692307693,4367.6923076923085,4710.769230769231,4362.051282051282,4292.307692307693,4205.128205128206,4615.384615384616
741.55914,0.3541356,0.60841835,0.3329094,0.58904654,0,0.0,0.0,0.0,0.0,0.9889794,0,0,0.0,0.0,0,0,28.0,0.0,0.0,4576.410256410257,3929.2307692307695,4490.769230769231,4442.051282051282,4252.307692307693,4553.846153846154,4464.102564102564,4444.615384615385,4390.769230769231,4700.000000000001,4336.923076923077,4233.333333333334,4141.538461538462,4449.2307692307695
741.7781,0.28935498,0.62484884,0.33295193,0.58535427,0,0.0,0.0,0.0,0.0,0.7652907,0,0,0.0,0.0,0,0,56.0,0.0,0.0,4569.743589743591,3936.410256410257,4494.871794871796,4443.076923076924,4254.358974358975,4554.358974358975,4448.205128205129,4432.307692307693,4386.153846153847,4703.076923076924,4341.025641025642,4225.128205128206,4149.2307692307695,4470.256410256411
742.0283,0.28935498,0.62484884,0.33295193,0.58535427,0,0.0,0.0,0.0,0.0,0.12622806,0,0,0.0,0.0,0,0,88.0,0.0,331.0,4559.48717948718,3933.8461538461543,4502.564102564103,4444.102564102564,4254.871794871796,4553.333333333334,4436.923076923077,4413.846153846154,4372.820512820514,4691.282051282052,4337.435897435898,4228.205128205129,4134.358974358975,4441.538461538462
742.2785,0.27028126,0.6145945,0.33299026,0.5820304,0,0.0,0.0,0.0,0.0,1.0,0,0,0.0,0.0,0,0,120.0,0.0,331.0,4568.205128205129,3943.589743589744,4504.102564102564,4441.538461538462,4250.256410256411,4554.871794871796,4447.6923076923085,4433.846153846154,4401.538461538462,4708.717948717949,4343.589743589744,4231.282051282052,4160.512820512821,4454.871794871796
742.2785,0.27028126,0.6145945,0.33299026,0.5820304,0,0.0,0.0,0.0,0.0,1.0,0,0,0.0,0.0,0,0,120.0,0.0,331.0,4568.205128205129,3943.589743589744,4504.102564102564,4441.538461538462,4250.256410256411,4554.871794871796,4447.6923076923085,4433.846153846154,4401.538461538462,4708.717948717949,4343.589743589744,4231.282051282052,4160.512820512821,4454.871794871796
742.77893,0.34427488,0.61139435,0.33302462,0.57904637,0,0.0,0.0,0.0,0.0,0.8482913,0,0,0.0,0.0,1,0,55.0,0.0,0.0,4573.333333333334,3934.8717948717954,4510.256410256411,4441.025641025642,4252.307692307693,4554.358974358975,4456.410256410257,4426.666666666667,4395.384615384616,4712.820512820514,4334.871794871796,4239.48717948718,4157.948717948719,4483.589743589744
743.0292,0.34427488,0.61139435,0.33302462,0.57904637,0,0.0,0.0,0.0,0.0,0.7616914,0,0,0.0,0.0,0,0,87.0,0.0,524.0,4557.948717948719,3924.1025641025644,4506.153846153847,4434.871794871796,4251.282051282052,4550.769230769231,4447.6923076923085,4407.179487179487,4378.461538461539,4694.871794871796,4319.48717948718,4226.666666666667,4131.794871794872,4468.205128205129
743.27936,0.41196164,0.65462023,0.33305565,0.57635546,0,0.0,0.0,0.0,0.0,0.2588141,0,0,0.0,0.0,0,0,119.0,0.0,524.0,4553.846153846154,3925.1282051282055,4493.333333333334,4428.717948717949,4246.666666666667,4549.2307692307695,4449.743589743591,4411.794871794872,4388.717948717949,4703.589743589744,4329.743589743591,4229.74358974359,4142.564102564103,4467.179487179487
743.4045,0.41196164,0.65462023,0.33305565,0.57635546,0,0.0,0.0,0.0,0.0,0.0,0,0,0.0,0.0,0,0,6.0,0.0,585.0,4558.974358974359,3943.076923076924,4493.333333333334,4442.564102564103,4249.74358974359,4547.6923076923085,4449.743589743591,4409.743589743591,4398.974358974359,4711.794871794872,4327.6923076923085,4228.717948717949,4157.435897435898,4482.051282051282
743.84235,0.39042276,0.62943393,0.3330835,0.57393485,1,0.0,0.0,0.0,0.0,0.0,0,0,0.0,0.0,0,0,62.0,0.0,0.0,4634.871794871796,3951.2820512820517,4521.538461538462,4438.461538461539,4246.153846153847,4544.102564102564,4437.435897435898,4408.205128205129,4377.435897435898,4712.307692307693,4347.179487179487,4272.820512820514,4174.358974358975,4540.512820512821
744.03,0.39042276,0.62943393,0.3330835,0.57393485,0,0.0,0.0,0.0,0.0,0.60686433,0,0,0.0,0.0,0,0,86.0,0.0,555.0,4537.435897435898,3922.0512820512827,4473.846153846154,4428.205128205129,4249.74358974359,4550.769230769231,4443.076923076924,4406.153846153847,4378.974358974359,4693.333333333334,4319.48717948718,4203.076923076924,4116.923076923077,4425.641025641026
744.2803,0.35219878,0.6222028,0.33310863,0.5717566,0,0.0,0.0,0.0,0.0,0.45117295,0,0,0.0,0.0,0,0,118.0,0.0,555.0,4554.358974358975,3920.0000000000005,4472.307692307693,4421.538461538462,4246.666666666667,4547.6923076923085,4442.051282051282,4408.717948717949,4383.589743589744,4699.48717948718,4320.512820512821,4219.48717948718,4126.666666666667,4444.615384615385
744.53046,0.35219878,0.6222028,0.33310863,0.5717566,0,0.0,0.0,0.0,0.0,1.0,0,0,0.0,0.0,0,0,21.0,0.0,0.0,4564.615384615385,3926.1538461538466,4506.153846153847,4429.743589743591,4254.358974358975,4551.794871794872,4445.128205128206,4408.205128205129,4388.717948717949,4697.948717948719,4328.717948717949,4227.179487179487,4136.410256410257,4414.871794871796
744.7807,0.38421068,0.5874756,0.33313122,0.5697956,0,0.0,0.0,0.0,0.0,1.0,0,0,0.0,0.0,0,1,53.0,0.0,0.0,4634.358974358975,3944.615384615385,4529.743589743591,4433.333333333334,4249.2307692307695,4547.179487179488,4453.846153846154,4423.076923076924,4406.153846153847,4725.641025641026,4354.871794871796,4256.923076923077,4188.717948717949,4547.179487179488
745.0309,0.38421068,0.5874756,0.33313122,0.5697956,0,0.0,0.0,0.0,0.0,0.76713336,0,0,0.0,0.0,0,1,85.0,0.0,516.0,4565.128205128206,3925.6410256410263,4491.282051282052,4426.666666666667,4250.256410256411,4551.282051282052,4462.564102564103,4430.769230769231,4414.358974358975,4723.076923076924,4341.538461538462,4222.564102564103,4166.153846153847,4449.2307692307695
745.2811,0.33400494,0.5670939,0.33315152,0.5680302,0,0.0,0.0,0.0,0.0,0.13036582,0,0,0.0,0.0,0,0,117.0,0.0,516.0,4598.974358974359,3931.2820512820517,4521.538461538462,4428.717948717949,4251.794871794872,4553.846153846154,4479.48717948718,4455.8974358974365,4422.564102564103,4737.948717948719,4349.2307692307695,4243.589743589744,4210.256410256411,4484.615384615385
745.5313,0.33400494,0.5670939,0.33315152,0.5680302,0,0.0,0.0,0.0,0.0,0.051207844,0,0,0.0,0.0,0,0,20.0,0.0,0.0,4629.743589743591,3942.564102564103,4565.128205128206,4438.974358974359,4261.025641025642,4562.051282051282,4529.2307692307695,4504.102564102564,4426.666666666667,4765.128205128206,4366.153846153847,4277.435897435898,4287.179487179487,4514.358974358975
745.65643,0.43739834,0.58283854,0.33316982,0.5664416,0,0.0,0.0,0.0,0.0,1.0,0,0,0.0,0.0,0,0,36.0,0.0,0.0,4646.153846153847,3947.1794871794878,4575.8974358974365,4440.000000000001,4249.74358974359,4554.871794871796,4539.48717948718,4527.6923076923085,4427.6923076923085,4772.307692307693,4374.871794871796,4301.025641025642,4303.589743589744,4487.6923076923085
746.03174,0.43739834,0.58283854,0.33316982,0.5664416,0,0.0,0.0,0.0,0.0,1.0,0,0,0.0,0.0,0,0,84.0,0.0,331.0,4661.025641025642,3952.820512820513,4586.153846153847,4444.102564102564,4240.000000000001,4542.051282051282,4558.974358974359,4560.512820512821,4391.282051282052,4771.282051282052,4391.794871794872,4333.846153846154,4329.743589743591,4511.794871794872
746.282,0.5735582,0.557298,0.3331862,0.5650167,0,0.0,0.0,0.0,0.0,0.27026722,0,0,0.0,0.0,0,0,116.0,0.0,331.0,4699.48717948718,3957.9487179487182,4573.846153846154,4445.128205128206,4235.8974358974365,4534.871794871796,4546.153846153847,4553.333333333334,4362.564102564103,4753.333333333334,4391.282051282052,4354.871794871796,4317.948717948719,4521.025641025642
746.53217,0.5735582,0.557298,0.3331862,0.5650167,0,0.0,0.0,0.0,0.0,0.20281935,0,0,0.0,0.0,0,0,19.0,0.0,0.0,4713.846153846154,3973.333333333334,4571.794871794872,4457.435897435898,4242.564102564103,4538.461538461539,4547.6923076923085,4554.358974358975,4363.076923076924,4761.538461538462,4418.461538461539,4367.6923076923085,4317.435897435898,4551.282051282052
746.7824,0.5272809,0.5435649,0.33320096,0.56373346,0,0.0,0.0,0.0,0.0,0.11200858,0,0,0.0,0.0,0,0,51.0,0.0,0.0,4704.615384615386,3964.615384615385,4553.846153846154,4446.153846153847,4237.435897435898,4538.461538461539,4522.564102564103,4518.974358974359,4324.102564102564,4736.410256410257,4405.641025641026,4361.025641025642,4287.6923076923085,4535.8974358974365
747.0326,0.5272809,0.5435649,0.33320096,0.56373346,0,0.0,0.0,0.0,0.0,0.09646236,0,0,0.0,0.0,0,0,83.0,0.0,521.0,4690.256410256411,3972.307692307693,4539.48717948718,4447.6923076923085,4239.48717948718,4541.538461538462,4501.025641025642,4495.384615384616,4317.948717948719,4717.435897435898,4399.48717948718,4338.461538461539,4241.025641025642,4527.6923076923085
747.28284,0.59873587,0.5197829,0.33321425,0.5625802,0,0.0,0.0,0.0,0.0,0.2851317,0,0,0.0,0.0,0,0,115.0,0.0,521.0,4811.794871794872,3986.1538461538466,4546.666666666667,4455.384615384616,4237.435897435898,4538.461538461539,4473.333333333334,4449.743589743591,4302.564102564103,4706.666666666667,4403.589743589744,4337.435897435898,4232.307692307693,4641.538461538462
747.533,0.59873587,0.5197829,0.33321425,0.5625802,0,0.0,0.0,0.0,0.0,0.56264967,0,0,0.0,0.0,0,0,18.0,0.0,0.0,4647.179487179488,3948.205128205129,4518.461538461539,4442.051282051282,4249.2307692307695,4550.769230769231,4484.102564102564,4461.538461538462,4332.307692307693,4712.820512820514,4406.153846153847,4317.948717948719,4209.74358974359,4499.48717948718
747.78326,0.5238185,0.49730867,0.3332262,0.56154233,0,0.0,0.0,0.0,0.0,1.0,0,0,0.0,0.0,0,0,50.0,0.0,0.0,4629.743589743591,3948.205128205129,4500.512820512821,4441.538461538462,4251.282051282052,4557.948717948719,4476.923076923077,4431.282051282052,4331.282051282052,4697.435897435898,4402.564102564103,4282.051282051282,4186.153846153847,4458.974358974359
748.03345,0.5238185,0.49730867,0.3332262,0.56154233,0,0.0,0.0,0.0,0.0,0.27932453,0,0,0.0,0.0,0,0,82.0,0.0,555.0,4613.846153846154,3941.538461538462,4495.384615384616,4434.871794871796,4247.179487179487,4546.666666666667,4455.8974358974365,4406.666666666667,4337.948717948719,4689.2307692307695,4395.8974358974365,4268.717948717949,4182.564102564103,4444.102564102564
748.2837,0.5736785,0.47193146,0.33323696,0.5606086,0,0.0,0.0,0.0,0.0,0.0,0,0,0.0,0.0,0,0,114.0,0.0,555.0,4591.282051282052,3932.820512820513,4506.153846153847,4430.769230769231,4245.641025641026,4549.743589743591,4453.333333333334,4407.6923076923085,4355.384615384616,4692.307692307693,4389.743589743591,4259.48717948718,4165.128205128206,4434.358974358975
748.2837,0.5736785,0.47193146,0.33323696,0.5606086,0,0.0,0.0,0.0,0.0,0.0,0,0,0.0,0.0,0,0,114.0,0.0,555.0,4591.282051282052,3932.820512820513,4506.153846153847,4430.769230769231,4245.641025641026,4549.743589743591,4453.333333333334,4407.6923076923085,4355.384615384616,4692.307692307693,4389.743589743591,4259.48717948718,4165.128205128206,4434.358974358975
748.7841,0.61236393,0.44911134,0.33324668,0.5597681,0,0.0,0.0,0.0,0.0,0.2378243,0,0,0.0,0.0,0,0,49.0,0.0,0.0,4576.923076923077,3941.0256410256416,4492.307692307693,4435.8974358974365,4251.282051282052,4554.871794871796,4452.307692307693,4402.564102564103,4378.974358974359,4700.512820512821,4378.461538461539,4231.794871794872,4153.846153846154,4436.923076923077
748.90924,0.61236393,0.44911134,0.33324668,0.5597681,0,0.0,0.0,0.0,0.0,0.0,0,0,0.0,0.0,0,0,65.0,0.0,474.0,4573.333333333334,3931.2820512820517,4491.282051282052,4428.205128205129,4248.205128205129,4551.282051282052,4457.435897435898,4405.641025641026,4389.2307692307695,4706.666666666667,4372.820512820514,4228.205128205129,4149.74358974359,4422.051282051282
749.1594,0.67484486,0.44181252,0.33325538,0.5858571,0,0.0,0.0,0.0,0.0,0.0,0,0,0.0,0.0,0,0,97.0,0.0,516.0,4558.461538461539,3941.0256410256416,4488.205128205129,4430.769230769231,4247.6923076923085,4545.641025641026,4424.102564102564,4370.769230769231,4364.102564102564,4681.025641025642,4348.205128205129,4215.384615384616,4125.128205128206,4416.923076923077
749.5348,0.67484486,0.44181252,0.33325538,0.5858571,0,0.0,0.0,0.0,0.0,0.3310336,0,0,0.0,0.0,0,0,16.0,0.0,0.0,4577.948717948719,3943.076923076924,4489.743589743591,4432.307692307693,4250.769230769231,4550.769230769231,4428.205128205129,4378.974358974359,4379.48717948718,4688.205128205129,4348.205128205129,4217.435897435898,4126.666666666667,4460.512820512821
749.785,0.6570088,0.42686805,0.32993552,0.637304,0,0.0,0.0,0.0,0.0,0.25667977,0,0,0.0,0.0,0,0,48.0,0.0,0.0,4601.025641025642,3953.333333333334,4502.564102564103,4442.564102564103,4260.000000000001,4561.025641025642,4436.410256410257,4401.538461538462,4396.410256410257,4701.025641025642,4348.717948717949,4234.358974358975,4137.948717948719,4454.871794871796
750.0352,0.6570088,0.42686805,0.32993552,0.637304,0,0.0,0.0,0.0,0.0,1.0,0,0,0.0,0.0,0,0,80.0,0.0,326.0,4598.974358974359,3940.0000000000005,4484.615384615385,4432.307692307693,4261.025641025642,4559.48717948718,4450.256410256411,4408.205128205129,4405.128205128206,4700.000000000001,4343.589743589744,4220.512820512821,4131.282051282052,4371.794871794872
750.1603,0.69631255,0.4150144,0.3263608,0.68357646,0,0.0,0.0,0.0,0.0,1.0,0,0,0.0,0.0,0,0,96.0,0.0,326.0,4730.769230769231,3968.205128205129,4541.025641025642,4440.000000000001,4249.74358974359,4547.179487179488,4433.333333333334,4395.384615384616,4393.333333333334,4710.769230769231,4355.384615384616,4274.871794871796,4174.358974358975,4530.256410256411
750.4105,0.69631255,0.4150144,0.3263608,0.68357646,0,0.0,0.0,0.0,1.0,0.0,0,0,0.0,0.0,0,0,128.0,0.0,326.0,4580.512820512821,3936.9230769230776,4490.769230769231,4428.205128205129,4249.74358974359,4549.743589743591,4433.333333333334,4401.538461538462,4413.846153846154,4707.6923076923085,4341.025641025642,4212.820512820514,4141.538461538462,4467.179487179487
750.7858,0.60708684,0.41735345,0.32314014,0.7252867,0,0.0,0.0,0.0,0.0,0.19441974,0,0,0.0,0.0,0,0,47.0,0.0,0.0,4582.564102564103,3943.076923076924,4512.820512820514,4440.000000000001,4261.538461538462,4567.6923076923085,4445.641025641026,4409.743589743591,4412.820512820514,4714.871794871796,4354.358974358975,4228.205128205129,4150.256410256411,4493.333333333334
751.0361,0.60708684,0.41735345,0.32314014,0.7252867,0,0.0,0.0,0.0,0.0,0.0,0,0,0.0,0.0,0,0,79.0,0.0,522.0,4591.794871794872,3935.8974358974365,4526.666666666667,4442.051282051282,4264.615384615385,4563.076923076924,4454.871794871796,4430.256410256411,4431.282051282052,4732.307692307693,4375.384615384616,4258.461538461539,4182.564102564103,4529.743589743591
751.16113,0.60108036,0.41882518,0.32357594,0.75618184,0,0.0,0.0,0.0,0.0,0.0,0,0,0.0,0.0,0,0,95.0,0.0,522.0,4573.333333333334,3928.205128205129,4506.666666666667,4429.743589743591,4255.8974358974365,4557.435897435898,4444.615384615385,4405.128205128206,4411.794871794872,4715.8974358974365,4357.948717948719,4227.179487179487,4162.051282051282,4511.794871794872
751.16113,0.60108036,0.41882518,0.32357594,0.75618184,0,0.0,0.0,0.0,0.0,0.0,0,0,0.0,0.0,0,0,95.0,0.0,522.0,4573.333333333334,3928.205128205129,4506.666666666667,4429.743589743591,4255.8974358974365,4557.435897435898,4444.615384615385,4405.128205128206,4411.794871794872,4715.8974358974365,4357.948717948719,4227.179487179487,4162.051282051282,4511.794871794872
751.66156,0.52091837,0.41862082,0.32396817,0.7559932,0,0.0,0.0,0.0,0.0,0.0,0,0,0.0,0.0,0,0,30.0,0.0,0.0,4585.641025641026,3943.076923076924,4520.000000000001,4439.48717948718,4266.666666666667,4566.153846153847,4450.769230769231,4413.846153846154,4411.794871794872,4717.435897435898,4347.6923076923085,4230.769230769231,4145.641025641026,4497.948717948719
752.0369,0.52091837,0.41862082,0.32396817,0.7559932,0,0.0,0.0,0.0,0.0,0.13639654,0,0,0.0,0.0,0,0,78.0,0.0,555.0,4596.410256410257,3947.1794871794878,4507.6923076923085,4441.025641025642,4266.153846153847,4565.641025641026,4445.128205128206,4409.2307692307695,4410.769230769231,4721.538461538462,4353.846153846154,4233.846153846154,4158.461538461539,4494.871794871796
752.2871,0.46806833,0.42084858,0.32490802,0.73547566,0,0.0,0.0,0.0,0.0,0.0,0,0,0.0,0.0,0,0,110.0,0.0,555.0,4600.512820512821,3949.7435897435903,4523.589743589744,4418.461538461539,4265.128205128206,4566.666666666667,4450.769230769231,4408.205128205129,4421.538461538462,4728.205128205129,4362.051282051282,4245.128205128206,4167.6923076923085,4507.179487179488
752.2871,0.46806833,0.42084858,0.32490802,0.73547566,0,0.0,0.0,0.0,0.0,0.0,0,0,0.0,0.0,0,0,110.0,0.0,555.0,4600.512820512821,3949.7435897435903,4523.589743589744,4418.461538461539,4265.128205128206,4566.666666666667,4450.769230769231,4408.205128205129,4421.538461538462,4728.205128205129,4362.051282051282,4245.128205128206,4167.6923076923085,4507.179487179488
752.6625,0.42997926,0.41100392,0.3257542,0.7170268,0,0.0,0.0,0.0,0.0,0.0,0,0,0.0,0.0,0,0,29.0,0.0,0.0,4578.974358974359,3932.307692307693,4504.102564102564,4401.538461538462,4265.128205128206,4564.102564102564,4459.48717948718,4420.000000000001,4419.48717948718,4727.6923076923085,4354.871794871796,4232.820512820514,4163.076923076924,4546.666666666667
753.0378,0.42997926,0.41100392,0.3257542,0.7170268,0,0.0,0.0,0.0,0.0,0.2573244,0,0,0.0,0.0,0,0,77.0,0.0,516.0,4594.871794871796,3931.7948717948725,4508.717948717949,4400.512820512821,4261.025641025642,4566.153846153847,4468.205128205129,4428.717948717949,4434.358974358975,4743.076923076924,4377.948717948719,4264.615384615385,4193.333333333334,4563.589743589744
753.28796,0.48233902,0.40352735,0.32651603,0.7004343,1,0.0,0.0,0.0,0.0,0.7325337,0,0,0.0,0.0,0,0,109.0,0.0,516.0,4576.923076923077,3927.692307692308,4505.128205128206,4403.589743589744,4258.974358974359,4562.564102564103,4463.589743589744,4433.846153846154,4421.538461538462,4738.461538461539,4357.435897435898,4242.051282051282,4158.974358974359,4546.153846153847
753.5382,0.48233902,0.40352735,0.32651603,0.7004343,0,0.0,0.0,0.0,0.0,0.6789708,0,0,0.0,0.0,0,0,12.0,0.0,326.0,4607.6923076923085,3946.1538461538466,4510.256410256411,4412.820512820514,4266.153846153847,4570.769230769231,4470.256410256411,4436.923076923077,4429.743589743591,4744.102564102564,4367.179487179487,4242.564102564103,4176.923076923077,4534.358974358975
753.6633,0.4765772,0.41211963,0.32516947,0.6927913,0,0.0,0.0,0.0,0.0,1.0,0,0,0.0,0.0,0,0,28.0,0.0,0.0,4600.512820512821,3931.7948717948725,4520.512820512821,4412.820512820514,4266.666666666667,4570.769230769231,4491.794871794872,4455.384615384616,4439.48717948718,4740.512820512821,4374.358974358975,4261.538461538462,4178.974358974359,3972.307692307693
753.6633,0.4765772,0.41211963,0.32516947,0.6927913,0,0.0,0.0,0.0,0.0,1.0,0,0,0.0,0.0,0,0,28.0,0.0,0.0,4600.512820512821,3931.7948717948725,4520.512820512821,4412.820512820514,4266.666666666667,4570.769230769231,4491.794871794872,4455.384615384616,4439.48717948718,4740.512820512821,4374.358974358975,4261.538461538462,4178.974358974359,3972.307692307693
754.2888,0.42102337,0.41505456,0.32395342,0.68600166,0,0.0,0.0,0.0,0.0,0.8365279,0,0,0.0,0.0,0,0,108.0,0.0,326.0,4625.641025641026,3963.589743589744,4526.666666666667,4440.000000000001,4282.051282051282,4581.538461538462,4478.974358974359,4446.666666666667,4443.589743589744,4760.512820512821,4376.923076923077,4262.051282051282,4198.461538461539,4598.461538461539
754.53906,0.42102337,0.41505456,0.32395342,0.68600166,1,0.0,0.0,0.0,0.0,0.66350377,0,0,0.0,0.0,0,0,11.0,0.0,519.0,4621.025641025642,3960.0000000000005,4534.871794871796,4439.48717948718,4278.461538461539,4577.948717948719,4482.051282051282,4457.948717948719,4453.333333333334,4774.871794871796,4393.846153846154,4295.384615384616,4223.589743589744,4589.743589743591
754.78925,0.5777559,0.4342009,0.32286268,0.6798257,0,0.0,0.0,0.0,0.0,0.5857692,0,0,0.0,0.0,0,0,43.0,0.0,0.0,4596.923076923077,3943.076923076924,4522.564102564103,4430.769230769231,4274.871794871796,4575.8974358974365,4482.051282051282,4454.358974358975,4434.871794871796,4753.333333333334,4366.666666666667,4254.358974358975,4178.461538461539,4535.384615384616
755.0395,0.5777559,0.4342009,0.32286268,0.6798257,0,0.0,0.0,0.0,0.0,0.30267343,0,0,0.0,0.0,0,0,75.0,0.0,519.0,4593.333333333334,3957.9487179487182,4525.128205128206,4440.000000000001,4275.384615384616,4574.871794871796,4480.512820512821,4461.025641025642,4440.000000000001,4755.8974358974365,4365.641025641026,4257.435897435898,4163.076923076924,4516.923076923077
755.28973,0.6046109,0.45144755,0.32188103,0.6742694,0,0.0,0.0,0.0,0.0,0.1555925,0,0,0.0,0.0,0,0,107.0,0.0,519.0,4601.025641025642,3952.307692307693,4509.743589743591,4434.871794871796,4274.871794871796,4571.794871794872,4473.333333333334,4456.923076923077,4425.641025641026,4748.205128205129,4357.948717948719,4244.102564102564,4165.128205128206,4512.307692307693
755.5399,0.6046109,0.45144755,0.32188103,0.6742694,0,0.0,0.0,0.0,0.0,0.30055866,0,0,0.0,0.0,0,0,10.0,0.0,555.0,4602.051282051282,3964.615384615385,4523.076923076924,4442.564102564103,4270.769230769231,4572.307692307693,4449.743589743591,4432.307692307693,4403.076923076924,4731.794871794872,4344.102564102564,4226.666666666667,4154.871794871796,4483.589743589744
755.79016,0.5331784,0.43551344,0.32303032,0.6620128,0,0.0,0.0,0.0,0.0,0.44700167,0,0,0.0,0.0,0,0,42.0,0.0,0.0,4596.410256410257,3945.1282051282055,4517.948717948719,4430.769230769231,4262.051282051282,4561.538461538462,4469.2307692307695,4457.948717948719,4433.846153846154,4755.8974358974365,4364.615384615385,4260.512820512821,4192.820512820514,4540.512820512821
756.04034,0.5331784,0.43551344,0.32303032,0.6620128,0,0.0,0.0,0.0,0.0,0.38328543,0,0,0.0,0.0,0,0,74.0,0.0,555.0,4607.6923076923085,3957.9487179487182,4520.000000000001,4436.410256410257,4261.538461538462,4558.461538461539,4477.948717948719,4464.102564102564,4424.102564102564,4745.128205128206,4364.102564102564,4254.358974358975,4184.102564102564,4526.666666666667
756.2906,0.47556293,0.4189721,0.32406506,0.6509835,1,0.0,0.0,0.0,0.0,0.8586111,0,0,0.0,0.0,0,0,106.0,0.0,555.0,4612.820512820514,3951.7948717948725,4522.564102564103,4435.8974358974365,4256.410256410257,4550.769230769231,4462.564102564103,4445.128205128206,4413.333333333334,4745.128205128206,4366.153846153847,4254.358974358975,4190.769230769231,4532.820512820514
756.5408,0.47556293,0.4189721,0.32406506,0.6509835,0,0.0,0.0,0.0,0.0,0.97482,0,0,0.0,0.0,0,0,9.0,0.0,404.0,4581.538461538462,3933.333333333334,4517.948717948719,4435.384615384616,4257.948717948719,4556.410256410257,4478.974358974359,4457.948717948719,4431.794871794872,4765.641025641026,4392.307692307693,4280.000000000001,4250.769230769231,4561.538461538462
756.791,0.45295572,0.41070032,0.32499665,0.64105767,0,0.0,0.0,0.0,0.0,0.39772534,0,0,0.0,0.0,0,0,41.0,0.0,0.0,4594.358974358975,3939.48717948718,4520.512820512821,4431.794871794872,4256.410256410257,4552.307692307693,4487.6923076923085,4478.461538461539,4426.153846153847,4757.435897435898,4371.794871794872,4282.564102564103,4215.384615384616,4537.435897435898
757.0412,0.45295572,0.41070032,0.32499665,0.64105767,0,0.0,0.0,0.0,0.0,0.31303725,0,0,0.0,0.0,0,0,73.0,0.0,404.0,4596.923076923077,3947.692307692308,4522.051282051282,4441.538461538462,4254.358974358975,4557.435897435898,4484.102564102564,4481.538461538462,4445.641025641026,4773.333333333334,4374.871794871796,4276.410256410257,4224.102564102564,4544.615384615385
757.29144,0.4848739,0.40993914,0.32583538,0.6501414,0,0.0,0.0,0.0,0.0,0.22706345,0,0,0.0,0.0,0,0,105.0,0.0,517.0,4617.435897435898,3953.8461538461543,4540.000000000001,4443.589743589744,4255.8974358974365,4551.794871794872,4485.128205128206,4471.794871794872,4448.717948717949,4774.358974358975,4381.025641025642,4280.512820512821,4218.974358974359,4557.948717948719
757.5416,0.4848739,0.40993914,0.32583538,0.6501414,0,0.0,0.0,0.0,0.0,0.25547197,0,0,0.0,0.0,0,0,8.0,0.0,506.0,4630.256410256411,3960.5128205128212,4528.717948717949,4440.000000000001,4251.794871794872,4546.153846153847,4467.6923076923085,4458.461538461539,4427.6923076923085,4765.128205128206,4375.8974358974365,4269.2307692307695,4205.128205128206,4559.48717948718
757.7919,0.45992756,0.42253125,0.32659048,0.6778601,0,0.0,0.0,0.0,0.0,0.22683951,0,0,0.0,0.0,0,0,40.0,0.0,0.0,4620.000000000001,3953.8461538461543,4512.307692307693,4433.846153846154,4245.128205128206,4550.256410256411,4465.128205128206,4451.794871794872,4419.48717948718,4747.179487179488,4348.717948717949,4245.641025641026,4165.128205128206,4502.051282051282
757.917,0.45992756,0.42253125,0.32659048,0.6778601,0,0.0,0.0,0.0,0.0,1.0,0,0,0.0,0.0,0,0,56.0,0.0,0.0,4645.641025641026,3958.461538461539,4523.076923076924,4435.384615384616,4253.846153846154,4550.256410256411,4464.615384615385,4445.128205128206,4402.564102564103,4732.820512820514,4363.589743589744,4254.871794871796,4173.846153846154,3994.358974358975
758.1984,0.41404617,0.42903888,0.32726628,0.70286596,0,0.0,0.0,0.0,0.0,1.0,0,0,0.0,0.0,0,0,92.0,0.0,325.0,4648.717948717949,3946.1538461538466,4523.076923076924,4429.2307692307695,4250.256410256411,4549.2307692307695,4465.641025641026,4442.051282051282,4405.641025641026,4746.666666666667,4360.512820512821,4257.948717948719,4170.769230769231,4526.153846153847
758.5738,0.41404617,0.42903888,0.32726628,0.70286596,0,0.0,0.0,0.0,0.0,0.7363562,0,0,0.0,0.0,0,0,11.0,0.0,523.0,4647.6923076923085,3941.0256410256416,4523.589743589744,4428.717948717949,4253.846153846154,4552.307692307693,4484.615384615385,4461.538461538462,4422.051282051282,4754.871794871796,4351.794871794872,4256.923076923077,4168.717948717949,4531.794871794872
758.7927,0.40630192,0.42983052,0.32787296,0.7253712,0,0.0,0.0,0.0,0.0,0.58928734,0,0,0.0,0.0,0,0,39.0,0.0,0.0,4635.384615384616,3937.9487179487182,4506.153846153847,4426.153846153847,4246.666666666667,4550.256410256411,4463.589743589744,4434.871794871796,4405.641025641026,4735.384615384616,4349.2307692307695,4233.846153846154,4165.128205128206,4534.358974358975
759.0429,0.40630192,0.42983052,0.32787296,0.7253712,0,0.0,0.0,0.0,0.0,0.20597936,0,0,0.0,0.0,0,0,71.0,0.0,492.0,4610.769230769231,3933.333333333334,4511.282051282052,4427.179487179487,4250.256410256411,4554.871794871796,4463.589743589744,4437.948717948719,4414.871794871796,4742.051282051282,4358.974358974359,4257.948717948719,4180.000000000001,4527.179487179488
759.29315,0.3729303,0.42572904,0.32842076,0.72748965,0,0.0,0.0,0.0,0.0,0.36095968,0,0,0.0,0.0,0,0,103.0,0.0,523.0,4594.358974358975,3937.9487179487182,4510.769230769231,4427.179487179487,4245.641025641026,4550.769230769231,4453.333333333334,4427.179487179487,4402.564102564103,4734.358974358975,4345.128205128206,4241.025641025642,4168.717948717949,4528.205128205129
759.54333,0.3729303,0.42572904,0.32842076,0.72748965,0,0.0,0.0,0.0,0.0,0.2617493,0,0,0.0,0.0,0,0,6.0,0.0,585.0,4602.564102564103,3960.0000000000005,4534.358974358975,4442.564102564103,4260.512820512821,4563.589743589744,4475.384615384616,4447.179487179487,4438.974358974359,4760.512820512821,4362.564102564103,4272.307692307693,4195.8974358974365,4558.461538461539
759.8248,0.34277344,0.41839746,0.32891393,0.70986134,1,0.0,0.0,0.0,0.0,0.0,0,0,0.0,0.0,0,0,42.0,0.0,0.0,4605.128205128206,3937.435897435898,4518.974358974359,4425.641025641026,4247.6923076923085,4546.666666666667,4443.076923076924,4410.769230769231,4391.794871794872,4725.128205128206,4346.153846153847,4250.769230769231,4162.564102564103,4541.025641025642
760.04376,0.34277344,0.41839746,0.32891393,0.70986134,0,0.0,0.0,0.0,0.0,0.8217177,0,0,0.0,0.0,0,0,70.0,0.0,585.0,4556.923076923077,3941.0256410256416,4501.025641025642,4429.2307692307695,4247.179487179487,4546.666666666667,4457.948717948719,4418.461538461539,4398.974358974359,4725.641025641026,4338.974358974359,4236.923076923077,4151.794871794872,4493.333333333334
760.294,0.35850975,0.42476633,0.32935792,0.6940054,0,0.0,0.0,0.0,0.0,0.51803946,0,0,0.0,0.0,0,0,102.0,0.0,555.0,4551.794871794872,3951.2820512820517,4470.256410256411,4427.179487179487,4241.025641025642,4544.102564102564,4438.461538461539,4397.435897435898,4383.076923076924,4706.153846153847,4323.076923076924,4192.820512820514,4112.820512820514,4469.743589743591
760.54425,0.35850975,0.42476633,0.32935792,0.6940054,0,0.0,0.0,0.0,0.0,1.0,0,0,0.0,0.0,0,0,5.0,0.0,571.0,4570.256410256411,3941.538461538462,4485.641025641026,4430.256410256411,4248.205128205129,4550.256410256411,4441.538461538462,4390.769230769231,4379.48717948718,4694.871794871796,4322.051282051282,4208.205128205129,4110.256410256411,4096.923076923077
760.7319,0.37028724,0.4259812,0.3297575,0.67973614,0,0.0,0.0,0.0,0.0,1.0,0,0,0.0,0.0,0,1,29.0,0.0,0.0,4565.641025641026,3951.7948717948725,4475.8974358974365,4428.205128205129,4242.051282051282,4547.179487179488,4446.666666666667,4391.282051282052,4383.076923076924,4700.512820512821,4312.307692307693,4196.923076923077,4103.076923076924,4454.871794871796
760.9508,0.37028724,0.4259812,0.3297575,0.67973614,0,0.0,0.0,0.0,0.0,1.0,0,0,0.0,0.0,0,0,57.0,0.0,0.0,4636.410256410257,3950.7692307692314,4505.128205128206,4430.256410256411,4243.589743589744,4546.153846153847,4450.256410256411,4408.717948717949,4407.6923076923085,4728.717948717949,4354.358974358975,4241.025641025642,4167.6923076923085,4544.102564102564
761.29486,0.43700472,0.4661825,0.33011577,0.6669561,0,0.0,0.0,0.0,0.0,0.8462826,0,0,0.0,0.0,0,0,101.0,0.0,517.0,4566.666666666667,3935.3846153846157,4489.743589743591,4432.820512820514,4255.384615384616,4554.358974358975,4455.384615384616,4402.564102564103,4409.743589743591,4725.128205128206,4342.051282051282,4224.102564102564,4154.358974358975,4473.333333333334
761.5451,0.43700472,0.4661825,0.33011577,0.6669561,0,0.0,0.0,0.0,0.0,0.37215525,0,0,0.0,0.0,0,0,4.0,0.0,573.0,4564.615384615385,3923.589743589744,4490.256410256411,4425.128205128206,4249.74358974359,4554.358974358975,4465.641025641026,4421.538461538462,4416.923076923077,4733.846153846154,4349.743589743591,4225.128205128206,4167.6923076923085,4502.564102564103
761.7953,0.39309454,0.48679224,0.33043882,0.65541923,0,0.0,0.0,0.0,0.0,0.0,0,0,0.0,0.0,0,0,36.0,0.0,0.0,4580.000000000001,3942.0512820512827,4509.2307692307695,4434.871794871796,4248.717948717949,4552.820512820514,4462.564102564103,4425.641025641026,4425.641025641026,4741.538461538462,4351.282051282052,4241.025641025642,4174.358974358975,4514.871794871796
761.7953,0.39309454,0.48679224,0.33043882,0.65541923,0,0.0,0.0,0.0,0.0,0.0,0,0,0.0,0.0,0,0,36.0,0.0,0.0,4580.000000000001,3942.0512820512827,4509.2307692307695,4434.871794871796,4248.717948717949,4552.820512820514,4462.564102564103,4425.641025641026,4425.641025641026,4741.538461538462,4351.282051282052,4241.025641025642,4174.358974358975,4514.871794871796
762.2957,0.31652144,0.5201917,0.3307294,0.6450495,0,0.0,0.0,0.0,0.0,0.80242926,0,0,0.0,0.0,0,0,100.0,0.0,324.0,4569.2307692307695,3947.1794871794878,4496.923076923077,4435.8974358974365,4253.846153846154,4556.923076923077,4455.8974358974365,4413.846153846154,4404.615384615385,4723.076923076924,4340.512820512821,4208.717948717949,4143.076923076924,4465.128205128206
762.54596,0.31652144,0.5201917,0.3307294,0.6450495,0,0.0,0.0,0.0,0.0,0.18518192,0,0,0.0,0.0,0,0,3.0,0.0,548.0,4580.000000000001,3947.1794871794878,4485.641025641026,4436.410256410257,4250.256410256411,4546.666666666667,4449.2307692307695,4416.410256410257,4404.615384615385,4723.076923076924,4335.384615384616,4204.615384615385,4140.512820512821,4475.384615384616
762.79614,0.29776394,0.54902875,0.3309909,0.6357248,0,0.0,0.0,0.0,0.0,0.2022547,0,0,0.0,0.0,0,0,35.0,0.0,0.0,4596.410256410257,3947.1794871794878,4503.589743589744,4441.538461538462,4253.333333333334,4553.333333333334,4448.717948717949,4412.820512820514,4404.102564102564,4724.615384615386,4334.358974358975,4225.128205128206,4150.769230769231,4491.282051282052
763.0464,0.29776394,0.54902875,0.3309909,0.6357248,0,0.0,0.0,0.0,0.0,0.6222712,0,0,0.0,0.0,0,0,67.0,0.0,548.0,4744.102564102564,3975.3846153846157,4546.666666666667,4442.051282051282,4238.974358974359,4537.948717948719,4444.615384615385,4397.948717948719,4380.000000000001,4725.128205128206,4338.461538461539,4271.282051282052,4174.358974358975,4627.179487179488
763.2966,0.2521579,0.56163013,0.33122614,0.6273353,0,0.0,0.0,0.0,0.0,0.72768575,0,0,0.0,0.0,0,0,99.0,0.0,522.0,4598.461538461539,3946.666666666667,4506.153846153847,4444.615384615385,4253.846153846154,4553.333333333334,4462.564102564103,4426.666666666667,4417.435897435898,4739.48717948718,4343.589743589744,4252.307692307693,4161.538461538462,4505.128205128206
763.5468,0.2521579,0.56163013,0.33122614,0.6273353,0,0.0,0.0,0.0,0.0,0.7841409,0,0,0.0,0.0,0,0,2.0,0.0,519.0,4596.923076923077,3955.8974358974365,4506.153846153847,4443.076923076924,4245.128205128206,4542.051282051282,4437.948717948719,4405.128205128206,4400.000000000001,4726.666666666667,4339.48717948718,4230.769230769231,4161.025641025642,4492.307692307693
763.797,0.17001249,0.5867785,0.33143812,0.6197898,0,0.0,0.0,0.0,0.0,0.20342414,0,0,0.0,0.0,0,0,34.0,0.0,0.0,4584.102564102564,3941.538461538462,4492.820512820514,4440.512820512821,4250.769230769231,4548.205128205129,4448.717948717949,4408.205128205129,4410.769230769231,4729.743589743591,4336.410256410257,4225.128205128206,4162.051282051282,4478.974358974359
763.9221,0.17001249,0.5867785,0.33143812,0.6197898,0,0.0,0.0,0.0,0.0,1.0,0,0,0.0,0.0,0,0,50.0,0.0,0.0,4575.384615384616,3934.358974358975,4489.2307692307695,4429.2307692307695,4237.948717948719,4541.025641025642,4438.461538461539,4394.871794871796,4395.384615384616,4716.923076923077,4327.179487179487,4202.051282051282,4146.153846153847,4464.102564102564
764.2036,0.16076286,0.5954388,0.3316282,0.6130281,0,0.0,0.0,0.0,0.0,1.0,0,0,0.0,0.0,0,0,86.0,0.0,555.0,4595.384615384616,3930.2564102564106,4506.153846153847,4436.923076923077,4244.615384615385,4544.102564102564,4448.717948717949,4409.2307692307695,4411.282051282052,4737.948717948719,4343.589743589744,4239.48717948718,4175.8974358974365,4503.076923076924
764.54767,0.16076286,0.5954388,0.3316282,0.6130281,0,0.0,0.0,0.0,0.0,0.65070266,0,0,0.0,0.0,0,0,1.0,0.0,474.0,4573.846153846154,3943.589743589744,4525.128205128206,4440.512820512821,4246.666666666667,4552.307692307693,4477.948717948719,4440.000000000001,4423.076923076924,4747.179487179488,4351.282051282052,4245.641025641026,4177.948717948719,4525.641025641026
764.79785,0.0741789,0.61075044,0.33179894,0.60694915,0,0.0,0.0,0.0,0.0,0.40315634,0,0,0.0,0.0,0,0,33.0,0.0,0.0,4585.128205128206,3933.333333333334,4503.076923076924,4430.769230769231,4240.512820512821,4543.589743589744,4445.128205128206,4404.615384615385,4397.948717948719,4725.128205128206,4333.846153846154,4230.769230769231,4153.333333333334,4523.589743589744
765.0481,0.0741789,0.61075044,0.33179894,0.60694915,0,0.0,0.0,0.0,0.0,0.21610138,0,0,0.0,0.0,0,0,65.0,0.0,474.0,4585.128205128206,3942.564102564103,4513.333333333334,4429.743589743591,4240.000000000001,4541.025641025642,4451.282051282052,4416.410256410257,4404.615384615385,4731.794871794872,4344.102564102564,4246.153846153847,4153.846153846154,4525.128205128206
765.2983,0.019211669,0.5975032,0.33195287,0.6014622,0,0.0,0.0,0.0,0.0,0.0,0,0,0.0,0.0,0,0,97.0,0.0,517.0,4564.102564102564,3915.8974358974365,4495.8974358974365,4429.2307692307695,4252.820512820514,4555.384615384616,4466.666666666667,4431.794871794872,4432.307692307693,4756.923076923077,4367.6923076923085,4261.025641025642,4230.769230769231,4544.102564102564
765.2983,0.019211669,0.5975032,0.33195287,0.6014622,0,0.0,0.0,0.0,0.0,0.0,0,0,0.0,0.0,0,0,97.0,0.0,517.0,4564.102564102564,3915.8974358974365,4495.8974358974365,4429.2307692307695,4252.820512820514,4555.384615384616,4466.666666666667,4431.794871794872,4432.307692307693,4756.923076923077,4367.6923076923085,4261.025641025642,4230.769230769231,4544.102564102564
765.79877,0.057161734,0.5840593,0.33209145,0.5965243,0,0.0,0.0,0.0,0.0,0.75276977,0,0,0.0,0.0,0,0,32.0,0.0,0.0,4596.410256410257,3951.7948717948725,4509.743589743591,4430.256410256411,4246.666666666667,4551.794871794872,4463.076923076924,4430.256410256411,4415.8974358974365,4730.256410256411,4328.205128205129,4229.2307692307695,4144.615384615385,4501.025641025642
766.04895,0.057161734,0.5840593,0.33209145,0.5965243,0,0.0,0.0,0.0,0.0,0.48017278,0,0,0.0,0.0,0,0,64.0,0.0,505.0,4603.589743589744,3950.7692307692314,4504.615384615385,4439.48717948718,4254.358974358975,4554.871794871796,4466.666666666667,4418.974358974359,4410.769230769231,4727.179487179488,4326.666666666667,4225.641025641026,4141.025641025642,4493.846153846154
766.2992,0.018927246,0.5531684,0.3322162,0.5920793,0,0.0,0.0,0.0,0.0,0.29258892,0,0,0.0,0.0,0,0,96.0,0.0,322.0,4611.794871794872,3950.7692307692314,4501.025641025642,4436.410256410257,4249.2307692307695,4549.2307692307695,4449.2307692307695,4416.923076923077,4412.820512820514,4729.2307692307695,4332.307692307693,4227.179487179487,4156.923076923077,4514.871794871796
766.42426,0.018927246,0.5531684,0.3322162,0.5920793,0,0.0,0.0,0.0,0.0,1.0,0,0,0.0,0.0,0,0,112.0,0.0,322.0,4607.179487179488,3952.820512820513,4495.8974358974365,4436.923076923077,4248.205128205129,4550.256410256411,4448.717948717949,4408.205128205129,4401.025641025642,4715.8974358974365,4338.461538461539,4227.179487179487,4170.256410256411,4140.000000000001
766.70575,0.0,0.53073055,0.33232814,0.58808887,0,0.0,0.0,0.0,0.0,1.0,0,0,0.0,0.0,0,0,19.0,0.0,0.0,4595.384615384616,3941.0256410256416,4502.051282051282,4431.282051282052,4253.333333333334,4556.923076923077,4449.743589743591,4412.820512820514,4408.205128205129,4724.102564102564,4324.102564102564,4231.794871794872,4154.358974358975,4475.8974358974365
767.0498,0.0,0.53073055,0.33232814,0.58808887,0,0.0,0.0,0.0,0.0,0.9423694,0,0,0.0,0.0,0,0,63.0,0.0,0.0,4623.589743589744,3954.8717948717954,4524.615384615385,4443.589743589744,4258.461538461539,4562.564102564103,4461.025641025642,4432.820512820514,4429.2307692307695,4745.641025641026,4337.948717948719,4262.564102564103,4175.384615384616,4535.8974358974365
767.30005,0.014055364,0.51624185,0.33242878,0.58450025,0,0.0,0.0,0.0,0.0,0.35526845,0,0,0.0,0.0,0,0,95.0,0.0,522.0,4607.6923076923085,3957.435897435898,4508.205128205129,4445.128205128206,4266.153846153847,4573.333333333334,4458.461538461539,4431.282051282052,4412.820512820514,4734.871794871796,4329.743589743591,4252.307692307693,4169.74358974359,4523.589743589744
767.55023,0.014055364,0.51624185,0.33242878,0.58450025,0,0.0,0.0,0.0,0.0,0.16849719,0,0,0.0,0.0,0,0,127.0,0.0,522.0,4624.102564102564,3963.076923076924,4524.615384615385,4443.589743589744,4260.512820512821,4564.615384615385,4457.435897435898,4437.435897435898,4420.512820512821,4747.179487179488,4346.153846153847,4263.076923076924,4180.512820512821,4543.589743589744
767.67535,0.0,0.5070477,0.33251956,0.58126414,0,0.0,0.0,0.0,0.0,0.0,0,0,0.0,0.0,0,0,14.0,0.0,555.0,4623.589743589744,3960.5128205128212,4519.48717948718,4444.615384615385,4267.6923076923085,4570.256410256411,4462.564102564103,4443.589743589744,4422.051282051282,4746.153846153847,4343.076923076924,4254.871794871796,4179.48717948718,4544.615384615385
767.67535,0.0,0.5070477,0.33251956,0.58126414,0,0.0,0.0,0.0,0.0,0.0,0,0,0.0,0.0,0,0,14.0,0.0,555.0,4623.589743589744,3960.5128205128212,4519.48717948718,4444.615384615385,4267.6923076923085,4570.256410256411,4462.564102564103,4443.589743589744,4422.051282051282,4746.153846153847,4343.076923076924,4254.871794871796,4179.48717948718,4544.615384615385
768.1758,0.022724047,0.49751237,0.33260125,0.57835203,0,0.0,0.0,0.0,0.0,0.0,0,0,0.0,0.0,0,0,78.0,0.0,555.0,4618.461538461539,3945.6410256410263,4501.538461538462,4432.307692307693,4256.410256410257,4553.333333333334,4436.923076923077,4409.743589743591,4390.256410256411,4720.000000000001,4328.205128205129,4235.8974358974365,4163.589743589744,4515.8974358974365
768.51984,0.022724047,0.49751237,0.33260125,0.57835203,1,0.0,0.0,0.0,0.0,1.0,0,0,0.0,0.0,0,0,122.0,0.0,555.0,4672.820512820514,3951.7948717948725,4518.974358974359,4430.769230769231,4256.410256410257,4560.512820512821,4450.256410256411,4427.179487179487,4398.974358974359,4729.743589743591,4325.641025641026,4249.2307692307695,4168.205128205129,4560.512820512821
768.80133,0.037313405,0.5162385,0.33267456,0.5757375,0,0.0,0.0,0.0,0.0,0.669627,0,0,0.0,0.0,0,0,29.0,0.0,0.0,4614.871794871796,3947.1794871794878,4505.641025641026,4428.717948717949,4256.410256410257,4556.923076923077,4453.333333333334,4430.256410256411,4413.846153846154,4732.307692307693,4323.589743589744,4242.564102564103,4166.153846153847,4518.461538461539
769.0515,0.037313405,0.5162385,0.33267456,0.5757375,0,0.0,0.0,0.0,0.0,0.17771617,0,0,0.0,0.0,0,0,61.0,0.0,0.0,4610.256410256411,3945.6410256410263,4520.000000000001,4429.2307692307695,4257.948717948719,4562.051282051282,4451.794871794872,4422.051282051282,4398.461538461539,4727.6923076923085,4340.000000000001,4243.589743589744,4160.000000000001,4514.358974358975
769.30176,0.007145269,0.50700635,0.33274072,0.573379,0,0.0,0.0,0.0,0.0,0.0,0,0,0.0,0.0,0,0,93.0,0.0,517.0,4595.8974358974365,3937.435897435898,4503.589743589744,4428.717948717949,4257.435897435898,4562.051282051282,4461.025641025642,4436.410256410257,4396.923076923077,4726.153846153847,4338.461538461539,4241.025641025642,4157.948717948719,4513.333333333334
769.4894,0.007145269,0.50700635,0.33274072,0.573379,1,0.0,0.0,0.0,0.0,0.0,0,0,0.0,0.0,0,0,117.0,0.0,517.0,4646.153846153847,3947.692307692308,4504.102564102564,4428.205128205129,4248.717948717949,4551.282051282052,4434.358974358975,4415.8974358974365,4386.153846153847,4717.948717948719,4340.512820512821,4238.974358974359,4157.435897435898,4549.2307692307695
769.8022,0.0,0.5069315,0.33280024,0.57125735,0,0.0,0.0,0.0,0.0,0.63665766,0,0,0.0,0.0,0,0,28.0,0.0,0.0,4566.666666666667,3934.358974358975,4493.333333333334,4420.512820512821,4248.717948717949,4550.256410256411,4437.948717948719,4429.2307692307695,4384.615384615385,4714.358974358975,4340.512820512821,4233.846153846154,4163.076923076924,4498.461538461539
770.05237,0.0,0.5069315,0.33280024,0.57125735,0,0.0,0.0,0.0,0.0,0.13726631,0,0,0.0,0.0,0,0,60.0,0.0,0.0,4570.256410256411,3942.564102564103,4492.820512820514,4428.205128205129,4248.717948717949,4553.846153846154,4444.102564102564,4437.948717948719,4402.051282051282,4724.615384615386,4343.589743589744,4229.2307692307695,4163.589743589744,4504.102564102564
770.3026,0.011944326,0.5076933,0.3328538,0.5693481,0,0.0,0.0,0.0,0.0,0.22708309,0,0,0.0,0.0,0,0,92.0,0.0,321.0,4598.461538461539,3938.461538461539,4494.358974358975,4426.666666666667,4247.179487179487,4549.2307692307695,4450.256410256411,4440.000000000001,4405.128205128206,4724.102564102564,4350.256410256411,4240.000000000001,4171.282051282052,4516.410256410257
770.5528,0.011944326,0.5076933,0.3328538,0.5693481,0,0.0,0.0,0.0,0.0,0.71433854,0,0,0.0,0.0,0,0,124.0,0.0,321.0,4724.615384615386,3972.307692307693,4550.256410256411,4434.358974358975,4246.666666666667,4549.2307692307695,4451.794871794872,4426.153846153847,4374.358974358975,4728.717948717949,4346.666666666667,4274.871794871796,4188.717948717949,4618.461538461539
770.8343,0.034251966,0.50135493,0.33290198,0.56762993,0,0.0,0.0,0.0,0.0,0.82116973,0,0,0.0,0.0,0,0,31.0,0.0,0.0,4542.564102564103,3920.5128205128212,4485.128205128206,4415.8974358974365,4243.589743589744,4548.205128205129,4455.384615384616,4436.410256410257,4401.025641025642,4716.923076923077,4327.6923076923085,4212.307692307693,4131.282051282052,4466.153846153847
771.0532,0.034251966,0.50135493,0.33290198,0.56762993,0,0.0,0.0,0.0,0.0,0.7032782,0,0,0.0,0.0,0,0,59.0,0.0,0.0,4569.2307692307695,3927.1794871794878,4492.820512820514,4427.6923076923085,4249.74358974359,4550.256410256411,4457.435897435898,4442.051282051282,4410.769230769231,4729.743589743591,4338.974358974359,4231.794871794872,4150.769230769231,4480.512820512821
771.30347,0.06065982,0.5053863,0.33294535,0.56608427,0,0.0,0.0,0.0,0.0,0.11631101,0,0,0.0,0.0,0,0,91.0,0.0,523.0,4577.435897435898,3933.333333333334,4490.256410256411,4424.615384615385,4252.307692307693,4553.333333333334,4440.512820512821,4416.923076923077,4395.384615384616,4718.461538461539,4327.6923076923085,4233.846153846154,4152.820512820514,4491.794871794872
771.5537,0.06065982,0.5053863,0.33294535,0.56608427,0,0.0,0.0,0.0,0.0,0.10411073,0,0,0.0,0.0,0,0,123.0,0.0,523.0,4567.179487179488,3919.48717948718,4489.2307692307695,4419.48717948718,4271.794871794872,4568.205128205129,4452.307692307693,4426.153846153847,4401.538461538462,4725.128205128206,4331.794871794872,4218.974358974359,4159.48717948718,4484.615384615385
771.8039,0.061624616,0.50008595,0.33132768,0.5719388,0,0.0,0.0,0.0,0.0,0.2409039,0,0,0.0,0.0,0,0,26.0,0.0,0.0,4563.076923076924,3922.564102564103,4483.589743589744,4423.076923076924,4267.6923076923085,4568.717948717949,4441.538461538462,4420.512820512821,4408.205128205129,4725.641025641026,4333.846153846154,4214.871794871796,4177.435897435898,4498.974358974359
772.0854,0.061624616,0.50008595,0.33132768,0.5719388,1,0.0,0.0,0.0,0.0,0.7613592,0,0,0.0,0.0,0,0,62.0,0.0,0.0,4614.358974358975,3942.564102564103,4506.666666666667,4428.205128205129,4267.179487179487,4563.589743589744,4446.666666666667,4414.871794871796,4397.948717948719,4724.102564102564,4333.333333333334,4227.179487179487,4148.205128205129,4500.000000000001
772.3043,0.06773497,0.50542575,0.32746258,0.59983474,0,0.0,0.0,0.0,0.0,1.0,0,0,0.0,0.0,0,0,90.0,0.0,555.0,4572.820512820514,3932.307692307693,4487.6923076923085,4424.615384615385,4251.794871794872,4558.461538461539,4437.435897435898,4396.410256410257,4391.282051282052,4713.333333333334,4324.615384615385,4212.307692307693,4148.205128205129,4480.000000000001
772.3043,0.06773497,0.50542575,0.32746258,0.59983474,0,0.0,0.0,0.0,0.0,1.0,0,0,0.0,0.0,0,0,90.0,0.0,555.0,4572.820512820514,3932.307692307693,4487.6923076923085,4424.615384615385,4251.794871794872,4558.461538461539,4437.435897435898,4396.410256410257,4391.282051282052,4713.333333333334,4324.615384615385,4212.307692307693,4148.205128205129,4480.000000000001
772.80475,0.048936896,0.49177125,0.32398093,0.6249614,0,0.0,0.0,0.0,0.0,0.20110276,0,0,0.0,0.0,0,0,25.0,0.0,0.0,4583.589743589744,3933.8461538461543,4507.179487179488,4430.769230769231,4265.128205128206,4563.076923076924,4449.743589743591,4411.794871794872,4399.48717948718,4718.974358974359,4326.153846153847,4223.076923076924,4149.2307692307695,4494.358974358975
773.055,0.048936896,0.49177125,0.32398093,0.6249614,0,0.0,0.0,0.0,0.0,0.18465893,0,0,0.0,0.0,0,0,57.0,0.0,0.0,4571.794871794872,3937.9487179487182,4493.846153846154,4428.717948717949,4260.000000000001,4562.564102564103,4447.179487179487,4410.769230769231,4407.6923076923085,4720.000000000001,4332.307692307693,4203.076923076924,4168.717948717949,4496.410256410257
773.3052,0.047761127,0.47985137,0.32085177,0.6475364,0,0.0,0.0,0.0,0.0,0.0,0,0,0.0,0.0,0,0,89.0,0.0,517.0,4577.948717948719,3926.666666666667,4490.769230769231,4418.974358974359,4251.794871794872,4554.871794871796,4434.358974358975,4397.948717948719,4391.282051282052,4709.2307692307695,4323.589743589744,4210.769230769231,4153.333333333334,4488.717948717949
773.5554,0.047761127,0.47985137,0.32085177,0.6475364,0,0.0,0.0,0.0,0.0,1.0,0,0,0.0,0.0,0,0,121.0,0.0,517.0,4582.051282051282,3929.2307692307695,4489.743589743591,4423.076923076924,4256.410256410257,4552.820512820514,4440.000000000001,4398.461538461539,4389.743589743591,4710.769230769231,4316.923076923077,4208.205128205129,4152.307692307693,4484.615384615385
773.7118,0.06327428,0.48293182,0.3196889,0.6606458,0,0.0,0.0,0.0,0.0,1.0,0,0,0.0,0.0,0,0,12.0,0.0,321.0,4563.589743589744,3941.538461538462,4491.282051282052,4428.205128205129,4251.794871794872,4552.820512820514,4442.051282051282,4401.538461538462,4406.153846153847,4719.48717948718,4320.000000000001,4210.769230769231,4176.923076923077,4496.410256410257
774.05585,0.06327428,0.48293182,0.3196889,0.6606458,0,0.0,0.0,0.0,0.0,0.18287319,0,0,0.0,0.0,0,0,56.0,0.0,0.0,4578.974358974359,3935.3846153846157,4494.871794871796,4428.717948717949,4258.974358974359,4562.051282051282,4447.6923076923085,4407.6923076923085,4417.948717948719,4728.205128205129,4333.846153846154,4227.6923076923085,4194.358974358975,4508.717948717949
774.306,0.05406127,0.46623802,0.32105333,0.64980507,0,0.0,0.0,0.0,0.0,0.0,0,0,0.0,0.0,0,0,88.0,0.0,321.0,4560.000000000001,3933.8461538461543,4491.282051282052,4426.153846153847,4249.2307692307695,4555.8974358974365,4440.000000000001,4400.512820512821,4407.179487179487,4725.641025641026,4332.820512820514,4221.538461538462,4181.538461538462,4498.974358974359
774.306,0.05406127,0.46623802,0.32105333,0.64980507,0,0.0,0.0,0.0,0.0,0.0,0,0,0.0,0.0,0,0,88.0,0.0,321.0,4560.000000000001,3933.8461538461543,4491.282051282052,4426.153846153847,4249.2307692307695,4555.8974358974365,4440.000000000001,4400.512820512821,4407.179487179487,4725.641025641026,4332.820512820514,4221.538461538462,4181.538461538462,4498.974358974359
774.6814,0.094786376,0.45367548,0.32228518,0.6400142,0,0.0,0.0,0.0,0.0,0.0,0,0,0.0,0.0,0,0,7.0,0.0,493.0,4580.512820512821,3945.6410256410263,4510.769230769231,4430.769230769231,4257.948717948719,4564.102564102564,4456.923076923077,4423.076923076924,4434.871794871796,4744.615384615386,4348.205128205129,4233.333333333334,4191.282051282052,4513.846153846154
774.6814,0.094786376,0.45367548,0.32228518,0.6400142,0,0.0,0.0,0.0,0.0,0.0,0,0,0.0,0.0,0,0,7.0,0.0,493.0,4580.512820512821,3945.6410256410263,4510.769230769231,4430.769230769231,4257.948717948719,4564.102564102564,4456.923076923077,4423.076923076924,4434.871794871796,4744.615384615386,4348.205128205129,4233.333333333334,4191.282051282052,4513.846153846154
775.3069,0.050750993,0.468171,0.32339424,0.6312022,0,0.0,0.0,0.0,0.0,0.740047,0,0,0.0,0.0,0,0,87.0,0.0,522.0,4561.538461538462,3923.589743589744,4479.48717948718,4424.102564102564,4247.6923076923085,4553.846153846154,4450.769230769231,4416.410256410257,4416.410256410257,4723.589743589744,4338.974358974359,4207.6923076923085,4146.666666666667,4472.307692307693
775.5571,0.050750993,0.468171,0.32339424,0.6312022,0,0.0,0.0,0.0,0.0,0.44345838,0,0,0.0,0.0,0,0,119.0,0.0,522.0,4577.435897435898,3938.9743589743593,4488.717948717949,4427.6923076923085,4247.179487179487,4551.282051282052,4453.333333333334,4423.589743589744,4419.48717948718,4733.846153846154,4351.282051282052,4232.820512820514,4173.846153846154,4506.153846153847
775.8073,5.296115E-4,0.45636305,0.32439274,0.6232709,0,0.0,0.0,0.0,0.0,0.21382332,0,0,0.0,0.0,0,0,22.0,0.0,0.0,4572.820512820514,3941.0256410256416,4504.102564102564,4426.153846153847,4242.564102564103,4549.743589743591,4453.846153846154,4413.333333333334,4405.128205128206,4729.743589743591,4341.538461538462,4224.615384615385,4158.461538461539,4494.358974358975
776.05756,5.296115E-4,0.45636305,0.32439274,0.6232709,0,0.0,0.0,0.0,0.0,0.27243936,0,0,0.0,0.0,0,0,54.0,0.0,0.0,4553.333333333334,3938.461538461539,4482.564102564103,4426.666666666667,4245.641025641026,4550.769230769231,4451.282051282052,4414.358974358975,4403.589743589744,4723.589743589744,4342.051282051282,4216.923076923077,4151.282051282052,4493.333333333334
776.30774,0.0,0.4566864,0.32529128,0.6161345,0,0.0,0.0,0.0,0.0,0.25987074,0,0,0.0,0.0,0,0,86.0,0.0,555.0,4575.8974358974365,3937.9487179487182,4488.717948717949,4426.153846153847,4239.48717948718,4545.641025641026,4453.333333333334,4408.717948717949,4406.153846153847,4727.6923076923085,4345.128205128206,4214.358974358975,4155.384615384616,4513.333333333334
776.558,0.0,0.4566864,0.32529128,0.6161345,0,0.0,0.0,0.0,0.0,0.19915484,0,0,0.0,0.0,0,0,118.0,0.0,555.0,4590.769230769231,3947.1794871794878,4501.025641025642,4430.769230769231,4244.102564102564,4550.256410256411,4463.076923076924,4434.358974358975,4423.076923076924,4736.923076923077,4357.435897435898,4226.153846153847,4169.74358974359,4515.384615384616
776.6831,0.016299013,0.4615517,0.32609954,0.60971093,0,0.0,0.0,0.0,0.0,0.0,0,0,0.0,0.0,0,0,5.0,0.0,571.0,4577.948717948719,3946.1538461538466,4512.307692307693,4431.282051282052,4249.74358974359,4555.384615384616,4453.846153846154,4415.8974358974365,4419.48717948718,4737.435897435898,4364.102564102564,4240.000000000001,4166.153846153847,4512.307692307693
776.6831,0.016299013,0.4615517,0.32609954,0.60971093,0,0.0,0.0,0.0,0.0,0.0,0,0,0.0,0.0,0,0,5.0,0.0,571.0,4577.948717948719,3946.1538461538466,4512.307692307693,4431.282051282052,4249.74358974359,4555.384615384616,4453.846153846154,4415.8974358974365,4419.48717948718,4737.435897435898,4364.102564102564,4240.000000000001,4166.153846153847,4512.307692307693
777.3399,0.044082645,0.45125902,0.32604322,0.6039335,1,0.0,0.0,0.0,0.0,1.0,0,0,0.0,0.0,0,0,89.0,0.0,517.0,4613.846153846154,3947.692307692308,4502.051282051282,4431.794871794872,4241.538461538462,4543.589743589744,4442.564102564103,4400.000000000001,4394.871794871796,4722.564102564103,4336.410256410257,4231.794871794872,4155.384615384616,4520.512820512821
777.55884,0.044082645,0.45125902,0.32604322,0.6039335,0,0.0,0.0,0.0,0.0,0.93899417,0,0,0.0,0.0,0,0,117.0,0.0,517.0,4552.307692307693,3939.48717948718,4492.307692307693,4430.256410256411,4245.128205128206,4544.615384615385,4445.641025641026,4404.102564102564,4408.205128205129,4728.205128205129,4341.025641025642,4220.512820512821,4160.000000000001,4489.743589743591
777.8091,0.029641863,0.4605267,0.3249469,0.6002262,0,0.0,0.0,0.0,0.0,0.0,0,0,0.0,0.0,0,0,20.0,0.0,0.0,4557.948717948719,3942.564102564103,4506.153846153847,4431.282051282052,4248.717948717949,4546.666666666667,4452.820512820514,4402.564102564103,4396.923076923077,4719.48717948718,4328.205128205129,4226.153846153847,4158.974358974359,4284.615384615385
777.93414,0.029641863,0.4605267,0.3249469,0.6002262,0,0.0,0.0,0.0,0.0,1.0,0,0,0.0,0.0,0,0,36.0,0.0,0.0,4583.076923076924,3946.1538461538466,4504.615384615385,4436.923076923077,4248.205128205129,4549.743589743591,4447.179487179487,4408.717948717949,4407.179487179487,4728.717948717949,4325.641025641026,4242.564102564103,4169.74358974359,4495.384615384616
778.21564,0.027912384,0.45995447,0.32395726,0.5969111,0,0.0,0.0,0.0,0.0,1.0,0,0,0.0,0.0,0,0,72.0,0.0,506.0,4576.410256410257,3951.2820512820517,4508.717948717949,4440.512820512821,4254.871794871796,4551.282051282052,4456.410256410257,4410.256410256411,4405.641025641026,4727.6923076923085,4326.153846153847,4251.794871794872,4169.2307692307695,4501.025641025642
778.5597,0.027912384,0.45995447,0.32395726,0.5969111,0,0.0,0.0,0.0,0.0,0.27536207,0,0,0.0,0.0,0,0,116.0,0.0,317.0,4553.333333333334,3937.9487179487182,4491.282051282052,4438.461538461539,4248.205128205129,4550.769230769231,4447.6923076923085,4409.743589743591,4402.051282051282,4722.564102564103,4321.538461538462,4224.615384615385,4157.435897435898,4499.48717948718
778.80994,0.0063911253,0.45929977,0.32307014,0.59391445,0,0.0,0.0,0.0,0.0,0.5031733,0,0,0.0,0.0,0,0,19.0,0.0,0.0,4695.8974358974365,3968.717948717949,4527.6923076923085,4466.666666666667,4248.205128205129,4546.666666666667,4447.179487179487,4398.974358974359,4377.948717948719,4717.948717948719,4320.000000000001,4276.410256410257,4167.179487179487,4593.846153846154
779.09143,0.0063911253,0.45929977,0.32307014,0.59391445,0,0.0,0.0,0.0,0.0,0.8982694,0,0,0.0,0.0,0,0,55.0,0.0,0.0,4560.512820512821,3941.538461538462,4500.000000000001,4456.923076923077,4250.769230769231,4551.794871794872,4460.000000000001,4425.128205128206,4419.48717948718,4728.205128205129,4337.948717948719,4243.076923076924,4178.974358974359,4498.974358974359
779.31036,0.0,0.4811198,0.3230548,0.5897342,0,0.0,0.0,0.0,0.0,0.73092586,0,0,0.0,0.0,0,0,83.0,0.0,521.0,4571.794871794872,3940.5128205128212,4501.025641025642,4443.589743589744,4253.846153846154,4551.282051282052,4448.717948717949,4418.461538461539,4401.025641025642,4718.974358974359,4321.538461538462,4234.358974358975,4166.153846153847,4497.435897435898
779.56055,0.0,0.4811198,0.3230548,0.5897342,0,0.0,0.0,0.0,0.0,0.30801266,0,0,0.0,0.0,0,0,115.0,0.0,521.0,4577.435897435898,3942.564102564103,4505.128205128206,4443.076923076924,4250.769230769231,4554.871794871796,4447.6923076923085,4415.384615384616,4407.6923076923085,4723.076923076924,4320.512820512821,4238.461538461539,4167.6923076923085,4497.948717948719
779.8108,0.0,0.4774898,0.32408622,0.5859733,0,0.0,0.0,0.0,0.0,0.22757922,0,0,0.0,0.0,0,0,18.0,0.0,0.0,4567.6923076923085,3941.538461538462,4509.2307692307695,4443.589743589744,4257.435897435898,4564.102564102564,4453.333333333334,4417.948717948719,4402.051282051282,4718.461538461539,4322.564102564103,4241.025641025642,4173.846153846154,4497.948717948719
780.061,0.0,0.4774898,0.32408622,0.5859733,0,0.0,0.0,0.0,0.0,0.195892,0,0,0.0,0.0,0,0,50.0,0.0,0.0,4573.333333333334,3944.615384615385,4508.717948717949,4431.794871794872,4251.794871794872,4555.8974358974365,4449.743589743591,4421.025641025642,4410.256410256411,4724.102564102564,4318.974358974359,4224.102564102564,4169.74358974359,4504.102564102564
780.3112,0.033923693,0.47547147,0.3250148,0.5825877,0,0.0,0.0,0.0,0.0,0.0,0,0,0.0,0.0,0,0,82.0,0.0,555.0,4760.000000000001,3977.435897435898,4553.846153846154,4435.384615384616,4238.461538461539,4543.589743589744,4443.589743589744,4414.358974358975,4390.769230769231,4726.666666666667,4329.2307692307695,4281.025641025642,4190.256410256411,4643.076923076924
780.5614,0.033923693,0.47547147,0.3250148,0.5825877,0,0.0,0.0,0.0,0.0,0.84093416,0,0,0.0,0.0,0,0,114.0,0.0,555.0,4579.48717948718,3938.461538461539,4508.717948717949,4429.743589743591,4251.794871794872,4553.333333333334,4451.282051282052,4438.461538461539,4413.333333333334,4727.179487179488,4321.025641025642,4229.2307692307695,4157.435897435898,4487.179487179488
780.6865,0.010292513,0.49264866,0.3258508,0.5795399,0,0.0,0.0,0.0,0.0,1.0,0,0,0.0,0.0,0,0,1.0,0.0,474.0,4586.666666666667,3947.1794871794878,4514.358974358975,4438.974358974359,4254.871794871796,4562.051282051282,4456.410256410257,4449.743589743591,4425.128205128206,4729.2307692307695,4344.615384615385,4251.282051282052,4177.435897435898,4184.102564102564
780.6865,0.010292513,0.49264866,0.3258508,0.5795399,0,0.0,0.0,0.0,0.0,1.0,0,0,0.0,0.0,0,0,1.0,0.0,474.0,4586.666666666667,3947.1794871794878,4514.358974358975,4438.974358974359,4254.871794871796,4562.051282051282,4456.410256410257,4449.743589743591,4425.128205128206,4729.2307692307695,4344.615384615385,4251.282051282052,4177.435897435898,4184.102564102564
781.3121,0.03549795,0.4834356,0.32659996,0.57680714,0,0.0,0.0,0.0,0.0,0.12723705,0,0,0.0,0.0,0,0,81.0,0.0,517.0,4595.8974358974365,3951.2820512820517,4524.615384615385,4438.461538461539,4257.435897435898,4566.666666666667,4454.358974358975,4434.871794871796,4400.000000000001,4728.205128205129,4320.000000000001,4235.384615384616,4176.410256410257,4519.48717948718
781.56226,0.03549795,0.4834356,0.32659996,0.57680714,1,0.0,0.0,0.0,0.0,0.0,0,0,0.0,0.0,0,0,113.0,0.0,517.0,4666.666666666667,3956.410256410257,4523.076923076924,4433.333333333334,4248.717948717949,4554.871794871796,4435.384615384616,4412.820512820514,4386.153846153847,4716.923076923077,4323.076923076924,4228.717948717949,4170.769230769231,4543.076923076924
781.7187,0.0,0.4891771,0.32727537,0.5743438,0,0.0,0.0,0.0,0.0,0.0,0,0,0.0,0.0,0,0,4.0,0.0,573.0,4595.384615384616,3941.0256410256416,4496.410256410257,4427.179487179487,4245.641025641026,4551.282051282052,4440.512820512821,4418.461538461539,4400.000000000001,4722.051282051282,4320.512820512821,4211.794871794872,4166.153846153847,4510.256410256411
781.7187,0.0,0.4891771,0.32727537,0.5743438,0,0.0,0.0,0.0,0.0,0.0,0,0,0.0,0.0,0,0,4.0,0.0,573.0,4595.384615384616,3941.0256410256416,4496.410256410257,4427.179487179487,4245.641025641026,4551.282051282052,4440.512820512821,4418.461538461539,4400.000000000001,4722.051282051282,4320.512820512821,4211.794871794872,4166.153846153847,4510.256410256411
782.1878,0.032855574,0.49314356,0.32788327,0.57212687,0,0.0,0.0,0.0,0.0,0.0,0,0,0.0,0.0,0,0,64.0,0.0,505.0,4690.256410256411,4009.7435897435903,4581.538461538462,4489.2307692307695,4317.435897435898,4623.589743589744,4525.128205128206,4489.743589743591,4465.128205128206,4785.641025641026,4372.820512820514,4289.2307692307695,4240.000000000001,4558.461538461539
782.1878,0.032855574,0.49314356,0.32788327,0.57212687,0,0.0,0.0,0.0,0.0,0.0,0,0,0.0,0.0,0,0,64.0,0.0,505.0,4690.256410256411,4009.7435897435903,4581.538461538462,4489.2307692307695,4317.435897435898,4623.589743589744,4525.128205128206,4489.743589743591,4465.128205128206,4785.641025641026,4372.820512820514,4289.2307692307695,4240.000000000001,4558.461538461539
782.81335,0.23891291,0.49671245,0.32843015,0.57013226,0,0.0,0.0,0.0,0.0,0.17657554,0,0,0.0,0.0,0,0,15.0,0.0,519.0,4600.000000000001,3908.717948717949,4471.282051282052,4401.025641025642,4218.461538461539,4523.076923076924,4424.615384615385,4392.307692307693,4374.358974358975,4698.461538461539,4327.6923076923085,4195.8974358974365,4129.2307692307695,4471.794871794872
783.0636,0.23891291,0.49671245,0.32843015,0.57013226,0,0.0,0.0,0.0,0.0,0.16410418,0,0,0.0,0.0,0,0,47.0,0.0,0.0,4601.538461538462,3915.8974358974365,4487.179487179488,4410.256410256411,4221.025641025642,4529.743589743591,4428.717948717949,4384.615384615385,4362.564102564103,4694.871794871796,4326.666666666667,4199.48717948718,4137.435897435898,4482.564102564103
783.18866,0.36346367,0.49992445,0.3289225,0.5683366,0,0.0,0.0,0.0,0.0,0.0,0,0,0.0,0.0,0,0,63.0,0.0,0.0,4588.205128205129,3916.9230769230776,4475.8974358974365,4408.717948717949,4227.179487179487,4530.769230769231,4412.307692307693,4376.923076923077,4369.743589743591,4690.256410256411,4318.461538461539,4190.256410256411,4129.74358974359,4477.948717948719
783.18866,0.36346367,0.49992445,0.3289225,0.5683366,0,0.0,0.0,0.0,0.0,0.0,0,0,0.0,0.0,0,0,63.0,0.0,0.0,4588.205128205129,3916.9230769230776,4475.8974358974365,4408.717948717949,4227.179487179487,4530.769230769231,4412.307692307693,4376.923076923077,4369.743589743591,4690.256410256411,4318.461538461539,4190.256410256411,4129.74358974359,4477.948717948719
783.6891,0.471355,0.50281525,0.3293658,0.5667201,0,0.0,0.0,0.0,0.0,0.0,0,0,0.0,0.0,0,0,127.0,0.0,519.0,4599.48717948718,3925.6410256410263,4489.743589743591,4413.846153846154,4239.48717948718,4545.128205128206,4428.205128205129,4392.820512820514,4386.666666666667,4709.743589743591,4321.538461538462,4223.076923076924,4158.974358974359,4493.846153846154
783.6891,0.471355,0.50281525,0.3293658,0.5667201,0,0.0,0.0,0.0,0.0,0.0,0,0,0.0,0.0,0,0,127.0,0.0,519.0,4599.48717948718,3925.6410256410263,4489.743589743591,4413.846153846154,4239.48717948718,4545.128205128206,4428.205128205129,4392.820512820514,4386.666666666667,4709.743589743591,4321.538461538462,4223.076923076924,4158.974358974359,4493.846153846154
784.1895,0.46244937,0.505417,0.3266124,0.57624316,0,0.0,0.0,0.0,0.0,0.0,0,0,0.0,0.0,0,0,62.0,0.0,0.0,4615.384615384616,3927.1794871794878,4488.205128205129,4415.8974358974365,4238.461538461539,4545.128205128206,4440.512820512821,4401.025641025642,4395.8974358974365,4711.282051282052,4318.461538461539,4208.717948717949,4147.6923076923085,4498.974358974359
784.5961,0.46244937,0.505417,0.3266124,0.57624316,0,0.0,0.0,0.0,0.0,1.0,0,0,0.0,0.0,0,0,114.0,0.0,555.0,4592.307692307693,3926.666666666667,4494.871794871796,4423.589743589744,4244.615384615385,4551.794871794872,4444.102564102564,4417.435897435898,4403.076923076924,4721.538461538462,4318.461538461539,4233.333333333334,4165.641025641026,4486.666666666667
784.68994,0.38533962,0.49378973,0.32134372,0.5958808,0,0.0,0.0,0.0,0.0,1.0,0,0,0.0,0.0,0,0,126.0,0.0,555.0,4598.974358974359,3937.435897435898,4506.153846153847,4426.666666666667,4250.769230769231,4555.384615384616,4457.948717948719,4429.743589743591,4413.333333333334,4735.384615384616,4318.974358974359,4238.461538461539,4178.461538461539,4499.48717948718
785.0653,0.38533962,0.49378973,0.32134372,0.5958808,0,0.0,0.0,0.0,0.0,0.17127179,0,0,0.0,0.0,0,0,45.0,0.0,0.0,4605.128205128206,3942.0512820512827,4499.48717948718,4427.6923076923085,4248.205128205129,4561.538461538462,4451.794871794872,4425.641025641026,4413.333333333334,4731.282051282052,4316.410256410257,4236.410256410257,4164.102564102564,4513.333333333334
785.2217,0.32933497,0.4788132,0.31659654,0.6135716,0,0.0,0.0,0.0,0.0,1.0,0,0,0.0,0.0,0,0,65.0,0.0,472.0,4614.358974358975,3941.0256410256416,4520.512820512821,4427.179487179487,4243.589743589744,4558.974358974359,4451.794871794872,4412.307692307693,4382.051282051282,4719.48717948718,4315.384615384616,4236.923076923077,4160.000000000001,4492.307692307693
785.2217,0.32933497,0.4788132,0.31659654,0.6135716,0,0.0,0.0,0.0,0.0,1.0,0,0,0.0,0.0,0,0,65.0,0.0,472.0,4614.358974358975,3941.0256410256416,4520.512820512821,4427.179487179487,4243.589743589744,4558.974358974359,4451.794871794872,4412.307692307693,4382.051282051282,4719.48717948718,4315.384615384616,4236.923076923077,4160.000000000001,4492.307692307693
785.8159,0.29306304,0.47184002,0.3123241,0.6294933,1,0.0,0.0,0.0,0.0,0.8355989,0,0,0.0,0.0,0,0,12.0,0.0,312.0,4601.025641025642,3936.410256410257,4504.615384615385,4431.794871794872,4272.307692307693,4568.205128205129,4477.948717948719,4451.794871794872,4412.820512820514,4725.128205128206,4316.410256410257,4212.307692307693,4144.102564102564,4484.102564102564
786.06616,0.29306304,0.47184002,0.3123241,0.6294933,0,0.0,0.0,0.0,0.0,0.6254655,0,0,0.0,0.0,0,0,44.0,0.0,0.0,4626.666666666667,3940.5128205128212,4519.48717948718,4427.179487179487,4271.282051282052,4570.256410256411,4486.666666666667,4467.179487179487,4426.153846153847,4736.923076923077,4325.641025641026,4234.358974358975,4163.076923076924,4509.2307692307695
786.31635,0.2690064,0.47388113,0.31164083,0.6328092,0,0.0,0.0,0.0,0.0,0.097482376,0,0,0.0,0.0,0,0,76.0,0.0,312.0,4615.384615384616,3941.0256410256416,4518.461538461539,4427.179487179487,4261.538461538462,4563.589743589744,4454.358974358975,4430.256410256411,4393.846153846154,4720.000000000001,4312.307692307693,4217.948717948719,4147.179487179487,4504.102564102564
786.5666,0.2690064,0.47388113,0.31164083,0.6328092,0,0.0,0.0,0.0,0.0,0.560069,0,0,0.0,0.0,0,1,108.0,0.0,312.0,4664.615384615386,3950.7692307692314,4521.025641025642,4431.282051282052,4268.205128205129,4567.6923076923085,4445.641025641026,4432.820512820514,4405.641025641026,4734.358974358975,4324.615384615385,4239.48717948718,4178.974358974359,4534.358974358975
786.8168,0.2519324,0.48297012,0.31381756,0.6247242,0,0.0,0.0,0.0,0.0,0.7107551,0,0,0.0,0.0,0,1,11.0,0.0,521.0,4614.871794871796,3949.7435897435903,4518.974358974359,4433.333333333334,4273.333333333334,4569.743589743591,4463.076923076924,4454.871794871796,4433.846153846154,4754.358974358975,4337.435897435898,4244.102564102564,4180.512820512821,4493.333333333334
787.067,0.2519324,0.48297012,0.31381756,0.6247242,1,0.0,0.0,0.0,0.0,1.0,0,0,0.0,0.0,0,0,43.0,0.0,0.0,4622.564102564103,3942.0512820512827,4508.717948717949,4428.205128205129,4257.435897435898,4557.435897435898,4449.2307692307695,4430.769230769231,4401.538461538462,4738.974358974359,4326.666666666667,4235.8974358974365,4168.717948717949,4486.153846153847
787.2234,0.22227995,0.6056732,0.31577125,0.6174692,0,0.0,0.0,0.0,0.0,1.0,0,0,0.0,0.0,0,0,63.0,0.0,0.0,4606.153846153847,3945.6410256410263,4509.2307692307695,4431.282051282052,4256.410256410257,4563.589743589744,4465.128205128206,4457.435897435898,4431.282051282052,4760.512820512821,4336.410256410257,4241.025641025642,4182.564102564103,4495.8974358974365
787.56744,0.22227995,0.6056732,0.31577125,0.6174692,0,0.0,0.0,0.0,0.0,0.646472,0,0,0.0,0.0,0,0,107.0,0.0,521.0,4559.48717948718,3928.717948717949,4486.666666666667,4425.641025641026,4243.076923076924,4554.871794871796,4454.358974358975,4444.615384615385,4405.641025641026,4723.076923076924,4318.461538461539,4222.051282051282,4145.641025641026,4473.333333333334
787.8177,0.18788369,0.7509338,0.31752953,0.6109397,0,0.0,0.0,0.0,0.0,0.6069405,0,0,0.0,0.0,0,0,10.0,0.0,555.0,4584.615384615385,3940.0000000000005,4491.794871794872,4431.282051282052,4246.666666666667,4557.435897435898,4450.256410256411,4441.538461538462,4410.769230769231,4741.025641025642,4327.6923076923085,4242.564102564103,4185.641025641026,4510.769230769231
787.94275,0.18788369,0.7509338,0.31752953,0.6109397,0,0.0,0.0,0.0,0.0,0.0,0,0,0.0,0.0,0,0,26.0,0.0,0.0,4614.871794871796,3946.666666666667,4505.641025641026,4430.769230769231,4242.564102564103,4560.000000000001,4458.974358974359,4443.076923076924,4403.589743589744,4737.435897435898,4332.820512820514,4246.666666666667,4181.025641025642,4518.461538461539
788.193,0.19029868,0.85066396,0.3191155,0.60505044,0,0.0,0.0,0.0,0.0,0.0,0,0,0.0,0.0,0,0,58.0,0.0,0.0,4612.307692307693,3942.0512820512827,4505.641025641026,4428.717948717949,4247.179487179487,4562.564102564103,4456.410256410257,4443.076923076924,4409.2307692307695,4728.205128205129,4344.102564102564,4247.6923076923085,4163.076923076924,4498.974358974359
788.193,0.19029868,0.85066396,0.3191155,0.60505044,0,0.0,0.0,0.0,0.0,0.0,0,0,0.0,0.0,0,0,58.0,0.0,0.0,4612.307692307693,3942.0512820512827,4505.641025641026,4428.717948717949,4247.179487179487,4562.564102564103,4456.410256410257,4443.076923076924,4409.2307692307695,4728.205128205129,4344.102564102564,4247.6923076923085,4163.076923076924,4498.974358974359
788.6934,0.13386622,0.8266855,0.32054263,0.5997513,0,0.0,0.0,0.0,0.0,0.0,0,0,0.0,0.0,0,0,122.0,0.0,555.0,4602.564102564103,3944.615384615385,4497.948717948719,4427.6923076923085,4253.333333333334,4564.102564102564,4447.179487179487,4436.923076923077,4404.102564102564,4748.717948717949,4347.179487179487,4261.538461538462,4180.000000000001,4514.871794871796
788.6934,0.13386622,0.8266855,0.32054263,0.5997513,0,0.0,0.0,0.0,0.0,0.0,0,0,0.0,0.0,0,0,122.0,0.0,555.0,4602.564102564103,3944.615384615385,4497.948717948719,4427.6923076923085,4253.333333333334,4564.102564102564,4447.179487179487,4436.923076923077,4404.102564102564,4748.717948717949,4347.179487179487,4261.538461538462,4180.000000000001,4514.871794871796
789.319,0.07685855,0.8039363,0.32182357,0.59499425,0,0.0,0.0,0.0,0.0,0.5786951,0,0,0.0,0.0,0,0,73.0,0.0,395.0,4611.794871794872,3942.564102564103,4508.717948717949,4428.205128205129,4254.871794871796,4558.461538461539,4456.410256410257,4443.076923076924,4407.179487179487,4736.410256410257,4335.384615384616,4256.923076923077,4156.923076923077,4502.051282051282
789.56915,0.07685855,0.8039363,0.32182357,0.59499425,0,0.0,0.0,0.0,0.0,0.0,0,0,0.0,0.0,0,0,105.0,0.0,517.0,4618.974358974359,3935.3846153846157,4507.6923076923085,4426.666666666667,4247.179487179487,4553.846153846154,4450.769230769231,4436.923076923077,4407.179487179487,4736.410256410257,4330.769230769231,4265.641025641026,4157.435897435898,4511.794871794872
789.8194,0.06490996,0.76667184,0.32297948,0.5907027,1,0.0,0.0,0.0,0.0,0.0,0,0,0.0,0.0,0,0,8.0,0.0,506.0,4715.8974358974365,3956.410256410257,4540.512820512821,4440.000000000001,4253.333333333334,4560.000000000001,4457.948717948719,4432.307692307693,4400.000000000001,4748.717948717949,4345.641025641026,4280.000000000001,4183.076923076924,4571.794871794872
789.97577,0.06490996,0.76667184,0.32297948,0.5907027,0,0.0,0.0,0.0,0.0,0.0,0,0,0.0,0.0,0,0,28.0,0.0,0.0,4639.48717948718,3939.48717948718,4528.717948717949,4433.333333333334,4257.435897435898,4563.076923076924,4466.153846153847,4443.076923076924,4421.538461538462,4752.307692307693,4341.025641025642,4293.846153846154,4177.435897435898,4517.435897435898
790.3198,0.07124722,0.7358218,0.3240192,0.58684236,0,0.0,0.0,0.0,0.0,0.3359472,0,0,0.0,0.0,0,0,72.0,0.0,506.0,4639.48717948718,3940.5128205128212,4522.051282051282,4436.410256410257,4256.410256410257,4563.076923076924,4464.615384615385,4435.8974358974365,4409.743589743591,4732.307692307693,4323.076923076924,4260.000000000001,4158.461538461539,4508.717948717949
790.57,0.07124722,0.7358218,0.3240192,0.58684236,0,0.0,0.0,0.0,0.0,0.6969582,0,0,0.0,0.0,0,0,104.0,0.0,312.0,4804.102564102564,3966.1538461538466,4570.769230769231,4437.948717948719,4251.282051282052,4555.384615384616,4452.820512820514,4424.615384615385,4401.025641025642,4737.948717948719,4334.358974358975,4305.128205128206,4178.974358974359,4635.384615384616
790.82025,0.060777612,0.8072949,0.32495484,0.5833685,0,0.0,0.0,0.0,0.0,0.58061147,0,0,0.0,0.0,0,0,7.0,0.0,493.0,4639.48717948718,3935.8974358974365,4506.666666666667,4430.769230769231,4263.076923076924,4568.717948717949,4465.641025641026,4443.589743589744,4426.153846153847,4741.025641025642,4332.307692307693,4242.564102564103,4163.076923076924,4493.333333333334
791.07043,0.060777612,0.8072949,0.32495484,0.5833685,0,0.0,0.0,0.0,0.0,0.5340127,0,0,0.0,0.0,0,0,39.0,0.0,0.0,4634.871794871796,3940.5128205128212,4518.461538461539,4428.205128205129,4254.871794871796,4562.051282051282,4453.333333333334,4430.256410256411,4419.48717948718,4739.48717948718,4343.589743589744,4249.74358974359,4171.794871794872,4508.205128205129
791.3207,0.060652774,0.79469585,0.32579684,0.5802424,0,0.0,0.0,0.0,0.0,0.7871804,0,0,0.0,0.0,0,0,71.0,0.0,493.0,4802.051282051282,3962.0512820512827,4559.48717948718,4441.025641025642,4250.769230769231,4557.435897435898,4458.461538461539,4431.282051282052,4415.384615384616,4747.6923076923085,4356.923076923077,4301.538461538462,4203.589743589744,4651.794871794872
791.57086,0.060652774,0.79469585,0.32579684,0.5802424,0,0.0,0.0,0.0,0.0,0.8729607,0,0,0.0,0.0,0,0,103.0,0.0,521.0,4633.333333333334,3926.666666666667,4505.128205128206,4431.794871794872,4267.6923076923085,4569.743589743591,4478.974358974359,4439.48717948718,4423.589743589744,4744.102564102564,4362.564102564103,4247.6923076923085,4184.102564102564,4507.179487179488
791.696,0.029497629,0.86287475,0.3265542,0.57743025,0,0.0,0.0,0.0,0.0,1.0,0,0,0.0,0.0,0,0,119.0,0.0,521.0,4602.564102564103,3925.6410256410263,4504.615384615385,4434.358974358975,4264.615384615385,4569.743589743591,4467.6923076923085,4446.153846153847,4431.282051282052,4738.461538461539,4373.846153846154,4249.74358974359,4191.282051282052,4042.564102564103
791.696,0.029497629,0.86287475,0.3265542,0.57743025,0,0.0,0.0,0.0,0.0,1.0,0,0,0.0,0.0,0,0,119.0,0.0,521.0,4602.564102564103,3925.6410256410263,4504.615384615385,4434.358974358975,4264.615384615385,4569.743589743591,4467.6923076923085,4446.153846153847,4431.282051282052,4738.461538461539,4373.846153846154,4249.74358974359,4191.282051282052,4042.564102564103
792.32153,0.045747448,0.8430915,0.3272329,0.5749087,0,0.0,0.0,0.0,0.0,0.54466647,0,0,0.0,0.0,0,0,70.0,0.0,585.0,4630.256410256411,3956.9230769230776,4505.128205128206,4442.564102564103,4238.461538461539,4565.641025641026,4466.153846153847,4451.794871794872,4420.512820512821,4737.435897435898,4365.641025641026,4237.948717948719,4151.794871794872,4509.743589743591
792.5717,0.045747448,0.8430915,0.3272329,0.5749087,0,0.0,0.0,0.0,0.0,0.50806165,0,0,0.0,0.0,0,0,102.0,0.0,555.0,4657.948717948719,3957.435897435898,4518.974358974359,4445.641025641026,4245.641025641026,4570.256410256411,4461.025641025642,4448.205128205129,4415.384615384616,4745.641025641026,4376.923076923077,4252.820512820514,4174.871794871796,4517.948717948719
792.82196,0.028063817,0.7934719,0.32784483,0.57263577,0,0.0,0.0,0.0,0.0,0.42735687,0,0,0.0,0.0,0,0,5.0,0.0,571.0,4675.384615384616,3965.1282051282055,4536.410256410257,4443.589743589744,4235.8974358974365,4557.948717948719,4450.769230769231,4448.205128205129,4426.666666666667,4741.025641025642,4377.435897435898,4250.769230769231,4165.128205128206,4515.8974358974365
793.0722,0.028063817,0.7934719,0.32784483,0.57263577,0,0.0,0.0,0.0,0.0,0.69512725,0,0,0.0,0.0,0,0,37.0,0.0,0.0,4766.153846153847,3967.692307692308,4536.923076923077,4438.461538461539,4235.8974358974365,4549.743589743591,4441.025641025642,4430.256410256411,4397.435897435898,4732.820512820514,4366.153846153847,4260.512820512821,4182.051282051282,4606.666666666667
793.3224,0.0,0.78187656,0.32839555,0.5705902,0,0.0,0.0,0.0,0.0,0.69855154,0,0,0.0,0.0,0,0,69.0,0.0,571.0,4628.717948717949,3943.076923076924,4503.589743589744,4435.8974358974365,4242.564102564103,4563.076923076924,4448.717948717949,4428.205128205129,4405.128205128206,4726.666666666667,4355.8974358974365,4237.435897435898,4165.128205128206,4511.282051282052
793.57263,0.0,0.78187656,0.32839555,0.5705902,0,0.0,0.0,0.0,0.0,0.49770057,0,0,0.0,0.0,0,0,101.0,0.0,517.0,4633.846153846154,3941.538461538462,4504.615384615385,4431.282051282052,4247.179487179487,4565.641025641026,4459.48717948718,4450.256410256411,4418.974358974359,4735.384615384616,4347.6923076923085,4247.6923076923085,4160.000000000001,4509.743589743591
793.8228,0.0,0.73609835,0.328891,0.5687497,1,0.0,0.0,0.0,0.0,0.92979777,0,0,0.0,0.0,0,0,4.0,0.0,573.0,4615.384615384616,3942.564102564103,4511.794871794872,4432.307692307693,4253.846153846154,4566.666666666667,4466.666666666667,4446.666666666667,4413.846153846154,4730.256410256411,4352.820512820514,4246.153846153847,4166.153846153847,4509.743589743591
794.07306,0.0,0.73609835,0.328891,0.5687497,0,0.0,0.0,0.0,0.0,0.9749106,0,0,0.0,0.0,0,0,36.0,0.0,0.0,4618.461538461539,3953.333333333334,4507.179487179488,4444.102564102564,4258.974358974359,4569.2307692307695,4451.794871794872,4435.384615384616,4410.769230769231,4731.794871794872,4360.512820512821,4244.102564102564,4189.74358974359,4477.435897435898
794.1981,0.04487819,0.72830534,0.3293371,0.5670929,0,0.0,0.0,0.0,0.0,1.0,0,0,0.0,0.0,0,0,52.0,0.0,0.0,4633.846153846154,3943.589743589744,4510.256410256411,4433.846153846154,4253.333333333334,4566.666666666667,4449.743589743591,4421.025641025642,4404.102564102564,4718.461538461539,4350.256410256411,4240.512820512821,4173.846153846154,4467.179487179487
794.1981,0.04487819,0.72830534,0.3293371,0.5670929,0,0.0,0.0,0.0,0.0,1.0,0,0,0.0,0.0,0,0,52.0,0.0,0.0,4633.846153846154,3943.589743589744,4510.256410256411,4433.846153846154,4253.333333333334,4566.666666666667,4449.743589743591,4421.025641025642,4404.102564102564,4718.461538461539,4350.256410256411,4240.512820512821,4173.846153846154,4467.179487179487
794.82367,0.03329785,0.7107177,0.32973745,0.56560516,1,0.0,0.0,0.0,0.0,1.0,0,0,0.0,0.0,0,0,3.0,0.0,548.0,4663.076923076924,3941.0256410256416,4526.153846153847,4429.2307692307695,4248.205128205129,4553.846153846154,4457.435897435898,4434.358974358975,4417.948717948719,4735.384615384616,4346.666666666667,4252.820512820514,4178.461538461539,4562.051282051282
795.0739,0.03329785,0.7107177,0.32973745,0.56560516,0,0.0,0.0,0.0,0.0,0.7483226,0,0,0.0,0.0,0,0,35.0,0.0,0.0,4600.512820512821,3923.076923076924,4506.666666666667,4419.48717948718,4242.564102564103,4549.2307692307695,4451.282051282052,4417.948717948719,4398.461538461539,4710.256410256411,4322.564102564103,4223.076923076924,4152.820512820514,4495.8974358974365
795.3241,0.0019120212,0.69461244,0.33009845,0.5642642,0,0.0,0.0,0.0,0.0,0.2862425,0,0,0.0,0.0,0,0,67.0,0.0,548.0,4583.589743589744,3932.820512820513,4509.2307692307695,4428.205128205129,4250.256410256411,4556.923076923077,4455.384615384616,4433.333333333334,4407.6923076923085,4720.000000000001,4328.717948717949,4230.256410256411,4158.461538461539,4510.256410256411
795.57434,0.0019120212,0.69461244,0.33009845,0.5642642,0,0.0,0.0,0.0,0.0,0.24247731,0,0,0.0,0.0,0,0,99.0,0.0,521.0,4607.179487179488,3937.9487179487182,4509.2307692307695,4429.2307692307695,4243.076923076924,4553.846153846154,4457.435897435898,4436.410256410257,4407.179487179487,4723.589743589744,4328.205128205129,4237.948717948719,4156.923076923077,4514.358974358975
795.8245,0.0,0.6560416,0.33042315,0.5630579,0,0.0,0.0,0.0,0.0,0.2100354,0,0,0.0,0.0,0,0,2.0,0.0,518.0,4614.358974358975,3930.2564102564106,4512.820512820514,4425.641025641026,4246.666666666667,4553.333333333334,4467.6923076923085,4435.8974358974365,4406.153846153847,4718.974358974359,4320.000000000001,4248.205128205129,4160.000000000001,4515.8974358974365
796.07477,0.0,0.6560416,0.33042315,0.5630579,0,0.0,0.0,0.0,0.0,0.0,0,0,0.0,0.0,0,0,34.0,0.0,0.0,4613.846153846154,3923.589743589744,4507.179487179488,4423.589743589744,4237.948717948719,4544.615384615385,4448.717948717949,4416.410256410257,4377.435897435898,4703.589743589744,4317.948717948719,4232.820512820514,4143.076923076924,4503.589743589744
796.1999,0.04577804,0.6230863,0.33071536,0.56197226,0,0.0,0.0,0.0,0.0,0.0,0,0,0.0,0.0,0,0,50.0,0.0,0.0,4601.538461538462,3935.8974358974365,4507.179487179488,4431.794871794872,4247.6923076923085,4555.384615384616,4448.717948717949,4427.179487179487,4397.435897435898,4715.384615384616,4323.076923076924,4236.410256410257,4146.153846153847,4502.564102564103
796.4501,0.04577804,0.6230863,0.33071536,0.56197226,0,0.0,0.0,0.0,0.0,1.0,0,0,0.0,0.0,0,0,82.0,0.0,555.0,4606.153846153847,3943.589743589744,4495.8974358974365,4433.333333333334,4254.871794871796,4561.025641025642,4451.282051282052,4414.358974358975,4373.333333333334,4704.615384615386,4318.974358974359,4231.794871794872,4154.871794871796,4356.410256410257
796.8254,0.054235738,0.6213493,0.33097744,0.560998,0,0.0,0.0,0.0,0.0,1.0,0,0,0.0,0.0,0,0,1.0,0.0,472.0,4608.717948717949,3940.5128205128212,4524.102564102564,4432.307692307693,4251.794871794872,4560.000000000001,4467.6923076923085,4443.076923076924,4404.102564102564,4729.743589743591,4338.461538461539,4281.538461538462,4159.48717948718,4536.923076923077
797.0756,0.054235738,0.6213493,0.33097744,0.560998,0,0.0,0.0,0.0,0.0,0.3503281,0,0,0.0,0.0,0,0,33.0,0.0,0.0,4629.2307692307695,3945.1282051282055,4518.974358974359,4429.2307692307695,4251.794871794872,4560.000000000001,4452.307692307693,4425.641025641026,4391.282051282052,4717.435897435898,4326.666666666667,4256.923076923077,4152.307692307693,4534.358974358975
797.3258,0.0,0.5899632,0.331214,0.560119,0,0.0,0.0,0.0,0.0,0.32718325,0,0,0.0,0.0,0,0,65.0,0.0,472.0,4639.48717948718,3951.2820512820517,4513.333333333334,4435.384615384616,4256.923076923077,4566.153846153847,4470.769230769231,4433.333333333334,4403.589743589744,4725.128205128206,4323.589743589744,4265.641025641026,4165.641025641026,4520.512820512821
797.6073,0.0,0.5899632,0.331214,0.560119,1,0.0,0.0,0.0,0.0,0.0,0,0,0.0,0.0,0,0,101.0,0.0,517.0,4678.461538461539,3946.1538461538466,4523.076923076924,4434.358974358975,4255.384615384616,4562.051282051282,4452.820512820514,4420.000000000001,4393.846153846154,4724.615384615386,4330.769230769231,4268.205128205129,4164.102564102564,4572.307692307693
797.82623,0.0,0.6110052,0.33142683,0.55932826,0,0.0,0.0,0.0,0.0,0.53044707,0,0,0.0,0.0,0,0,0.0,0.0,505.0,4612.307692307693,3929.7435897435903,4508.205128205129,4427.179487179487,4252.820512820514,4561.025641025642,4461.538461538462,4436.923076923077,4408.205128205129,4723.589743589744,4318.461538461539,4248.717948717949,4156.923076923077,4522.051282051282
798.0765,0.0,0.6110052,0.33142683,0.55932826,0,0.0,0.0,0.0,0.0,0.23593676,0,0,0.0,0.0,0,0,32.0,0.0,0.0,4644.615384615385,3936.410256410257,4518.461538461539,4428.717948717949,4256.923076923077,4565.128205128206,4462.051282051282,4431.794871794872,4405.128205128206,4727.179487179488,4321.538461538462,4277.435897435898,4174.358974358975,4525.641025641026
798.3267,0.0,0.62180465,0.33161834,0.55861664,0,0.0,0.0,0.0,0.0,0.68081033,0,0,0.0,0.0,0,0,64.0,0.0,505.0,4756.410256410257,3961.0256410256416,4543.076923076924,4436.923076923077,4254.871794871796,4562.564102564103,4457.435897435898,4420.000000000001,4383.076923076924,4725.128205128206,4329.2307692307695,4304.615384615385,4184.102564102564,4620.000000000001
798.5769,0.0,0.62180465,0.33161834,0.55861664,0,0.0,0.0,0.0,0.0,0.6755052,0,0,0.0,0.0,0,0,96.0,0.0,312.0,4608.717948717949,3938.461538461539,4502.564102564103,4440.512820512821,4263.076923076924,4571.794871794872,4466.666666666667,4440.000000000001,4428.717948717949,4734.871794871796,4331.794871794872,4255.8974358974365,4176.923076923077,4499.48717948718
798.82715,0.0,0.6409305,0.3317907,0.55797625,0,0.0,0.0,0.0,0.0,1.0,0,0,0.0,0.0,0,0,128.0,0.0,312.0,4673.333333333334,3948.205128205129,4518.461538461539,4433.333333333334,4253.333333333334,4561.538461538462,4450.769230769231,4426.666666666667,4411.282051282052,4731.282051282052,4347.179487179487,4285.641025641026,4191.794871794872,4451.794871794872
798.9835,0.0,0.6409305,0.3317907,0.55797625,1,0.0,0.0,0.0,0.0,1.0,0,0,0.0,0.0,0,0,19.0,0.0,0.0,4642.564102564103,3934.358974358975,4505.641025641026,4427.6923076923085,4233.333333333334,4534.871794871796,4426.153846153847,4397.435897435898,4381.538461538462,4713.333333333334,4334.358974358975,4279.48717948718,4169.74358974359,4515.8974358974365
799.3276,0.028213913,0.7030049,0.33194524,0.5574016,0,0.0,0.0,0.0,0.0,0.82300305,0,0,0.0,0.0,0,0,63.0,0.0,0.0,4597.948717948719,3932.820512820513,4500.000000000001,4438.974358974359,4249.74358974359,4548.205128205129,4441.538461538462,4402.564102564103,4383.076923076924,4710.769230769231,4330.769230769231,4266.666666666667,4171.794871794872,4492.307692307693
799.57776,0.028213913,0.7030049,0.33194524,0.5574016,0,0.0,0.0,0.0,0.0,0.3250764,0,0,0.0,0.0,0,0,95.0,0.0,521.0,4617.435897435898,3943.589743589744,4511.282051282052,4441.538461538462,4250.769230769231,4551.282051282052,4450.769230769231,4421.025641025642,4406.153846153847,4726.153846153847,4344.615384615385,4303.589743589744,4182.564102564103,4496.410256410257
799.7029,0.06230567,0.690951,0.33208457,0.55688363,0,0.0,0.0,0.0,0.0,1.0,0,0,0.0,0.0,0,0,111.0,0.0,521.0,4711.794871794872,3948.205128205129,4522.051282051282,4437.435897435898,4240.512820512821,4539.48717948718,4439.48717948718,4405.128205128206,4377.948717948719,4714.871794871796,4337.948717948719,4325.641025641026,4181.025641025642,4548.205128205129
799.7029,0.06230567,0.690951,0.33208457,0.55688363,0,0.0,0.0,0.0,0.0,1.0,0,0,0.0,0.0,0,0,111.0,0.0,521.0,4711.794871794872,3948.205128205129,4522.051282051282,4437.435897435898,4240.512820512821,4539.48717948718,4439.48717948718,4405.128205128206,4377.948717948719,4714.871794871796,4337.948717948719,4325.641025641026,4181.025641025642,4548.205128205129
800.3597,0.03583918,0.76356536,0.33220953,0.5564189,0,0.0,0.0,0.0,0.0,0.6996439,0,0,0.0,0.0,0,0,66.0,0.0,518.0,4584.102564102564,3940.5128205128212,4508.717948717949,4443.076923076924,4262.051282051282,4550.769230769231,4449.743589743591,4427.6923076923085,4403.589743589744,4718.461538461539,4324.615384615385,4322.051282051282,4183.076923076924,4520.000000000001
800.5786,0.03583918,0.76356536,0.33220953,0.5564189,0,0.0,0.0,0.0,0.0,0.6597309,0,0,0.0,0.0,0,0,94.0,0.0,555.0,4571.794871794872,3938.461538461539,4491.794871794872,4433.333333333334,4247.179487179487,4550.256410256411,4443.076923076924,4424.615384615385,4406.153846153847,4716.410256410257,4320.000000000001,4289.2307692307695,4175.8974358974365,4506.153846153847
800.82886,0.03172244,0.84566224,0.3323223,0.5559997,1,0.0,0.0,0.0,0.0,0.98163664,0,0,0.0,0.0,0,0,126.0,0.0,555.0,4606.153846153847,3944.1025641025644,4509.2307692307695,4441.025641025642,4251.794871794872,4556.410256410257,4441.025641025642,4420.512820512821,4390.769230769231,4710.256410256411,4319.48717948718,4273.333333333334,4176.923076923077,4476.410256410257
800.9539,0.03172244,0.84566224,0.3323223,0.5559997,0,0.0,0.0,0.0,0.0,1.0,0,0,0.0,0.0,0,0,13.0,0.0,517.0,4577.435897435898,3930.7692307692314,4497.435897435898,4430.769230769231,4253.846153846154,4558.974358974359,4443.589743589744,4425.128205128206,4391.282051282052,4700.000000000001,4309.743589743591,4257.435897435898,4162.051282051282,4190.256410256411
801.3293,0.0013969794,0.9516248,0.33242348,0.5556234,0,0.0,0.0,0.0,0.0,1.0,0,0,0.0,0.0,0,0,61.0,0.0,0.0,4629.2307692307695,3940.5128205128212,4524.615384615385,4431.794871794872,4251.282051282052,4553.846153846154,4452.307692307693,4439.48717948718,4405.641025641026,4726.153846153847,4332.820512820514,4295.8974358974365,4196.410256410257,4420.000000000001
801.6108,0.0013969794,0.9516248,0.33242348,0.5556234,0,0.0,0.0,0.0,0.0,1.0,0,0,0.0,0.0,0,0,97.0,0.0,517.0,4596.923076923077,3934.8717948717954,4501.538461538462,4430.256410256411,4251.282051282052,4555.8974358974365,4434.871794871796,4416.923076923077,4384.102564102564,4714.871794871796,4316.410256410257,4241.538461538462,4173.333333333334,4601.538461538462
801.8297,0.007062744,0.9688926,0.33251452,0.55528474,0,0.0,0.0,0.0,0.0,1.0,0,0,0.0,0.0,0,0,125.0,0.0,517.0,4597.435897435898,3935.3846153846157,4501.025641025642,4427.6923076923085,4252.307692307693,4557.948717948719,4447.179487179487,4424.615384615385,4390.256410256411,4716.923076923077,4322.564102564103,4235.384615384616,4174.871794871796,4591.282051282052
802.0799,0.007062744,0.9688926,0.33251452,0.55528474,0,0.0,0.0,0.0,0.0,0.12862395,0,0,0.0,0.0,0,0,28.0,0.0,0.0,4605.641025641026,3936.9230769230776,4507.179487179488,4429.743589743591,4253.846153846154,4560.000000000001,4444.102564102564,4433.846153846154,4405.641025641026,4726.153846153847,4324.102564102564,4246.666666666667,4183.076923076924,4599.48717948718
802.33014,0.0,0.9040164,0.33259645,0.55498004,0,0.0,0.0,0.0,0.0,0.0,0,0,0.0,0.0,0,0,60.0,0.0,0.0,4606.666666666667,3936.9230769230776,4510.769230769231,4426.666666666667,4246.666666666667,4551.282051282052,4442.564102564103,4418.974358974359,4389.2307692307695,4720.512820512821,4318.974358974359,4241.538461538462,4183.076923076924,4598.461538461539
802.33014,0.0,0.9040164,0.33259645,0.55498004,0,0.0,0.0,0.0,0.0,0.0,0,0,0.0,0.0,0,0,60.0,0.0,0.0,4606.666666666667,3936.9230769230776,4510.769230769231,4426.666666666667,4246.666666666667,4551.282051282052,4442.564102564103,4418.974358974359,4389.2307692307695,4720.512820512821,4318.974358974359,4241.538461538462,4183.076923076924,4598.461538461539
802.8618,0.0,0.8449678,0.33267036,0.5547052,1,0.0,0.0,0.0,0.0,0.0,0,0,0.0,0.0,0,0,128.0,0.0,312.0,4677.435897435898,3952.307692307693,4523.076923076924,4425.128205128206,4238.974358974359,4538.974358974359,4430.769230769231,4402.564102564103,4370.256410256411,4712.820512820514,4325.128205128206,4248.717948717949,4186.666666666667,4603.589743589744
803.01825,0.0,0.8449678,0.33267036,0.5547052,0,0.0,0.0,0.0,0.0,0.0,0,0,0.0,0.0,0,0,19.0,0.0,0.0,4614.358974358975,3933.333333333334,4518.974358974359,4427.6923076923085,4253.333333333334,4554.871794871796,4470.769230769231,4450.769230769231,4402.564102564103,4729.743589743591,4334.358974358975,4239.48717948718,4188.205128205129,4555.8974358974365
803.2059,0.0,0.794715,0.3327369,0.5544578,0,0.0,0.0,0.0,0.0,0.0,0,0,0.0,0.0,0,0,43.0,0.0,0.0,4575.384615384616,3924.1025641025644,4489.743589743591,4425.128205128206,4248.717948717949,4550.256410256411,4450.256410256411,4426.153846153847,4382.564102564103,4709.2307692307695,4318.974358974359,4203.589743589744,4147.6923076923085,4523.589743589744
803.5812,0.0,0.794715,0.3327369,0.5544578,0,0.0,0.0,0.0,0.0,0.4914633,0,0,0.0,0.0,0,0,91.0,0.0,521.0,4652.820512820514,3946.666666666667,4529.2307692307695,4429.2307692307695,4247.179487179487,4555.8974358974365,4442.051282051282,4417.948717948719,4384.615384615385,4721.538461538462,4325.128205128206,4242.564102564103,4194.871794871796,4587.6923076923085
803.8314,0.0,0.7630815,0.3327968,0.55423504,0,0.0,0.0,0.0,0.0,0.5622879,0,0,0.0,0.0,0,0,123.0,0.0,521.0,4602.051282051282,3944.615384615385,4504.102564102564,4430.256410256411,4254.871794871796,4561.538461538462,4467.179487179487,4436.410256410257,4405.641025641026,4726.666666666667,4330.256410256411,4232.307692307693,4185.128205128206,4556.410256410257
804.08167,0.0,0.7630815,0.3327968,0.55423504,0,0.0,0.0,0.0,0.0,0.26587236,0,0,0.0,0.0,0,0,26.0,0.0,0.0,4616.410256410257,3938.9743589743593,4503.589743589744,4431.794871794872,4252.307692307693,4556.923076923077,4454.871794871796,4427.6923076923085,4399.48717948718,4721.025641025642,4333.846153846154,4239.48717948718,4174.871794871796,4535.384615384616
804.33185,0.0,0.7352461,0.33285072,0.5540346,0,0.0,0.0,0.0,0.0,0.44557446,0,0,0.0,0.0,0,0,58.0,0.0,0.0,4649.743589743591,3939.48717948718,4500.512820512821,4429.743589743591,4249.74358974359,4557.948717948719,4454.358974358975,4438.461538461539,4412.307692307693,4734.871794871796,4350.769230769231,4254.358974358975,4200.000000000001,4555.384615384616
804.5821,0.0,0.7352461,0.33285072,0.5540346,0,0.0,0.0,0.0,0.0,0.0,0,0,0.0,0.0,0,0,90.0,0.0,555.0,4675.384615384616,3949.2307692307695,4496.410256410257,4430.256410256411,4253.333333333334,4557.435897435898,4446.666666666667,4438.461538461539,4415.8974358974365,4741.025641025642,4351.282051282052,4253.846153846154,4207.6923076923085,4570.256410256411
804.70715,0.0,0.7095482,0.3328992,0.5538543,0,0.0,0.0,0.0,0.0,0.0,0,0,0.0,0.0,0,0,106.0,0.0,555.0,4662.564102564103,3945.1282051282055,4493.333333333334,4432.820512820514,4253.846153846154,4563.076923076924,4443.589743589744,4431.282051282052,4404.102564102564,4732.307692307693,4349.743589743591,4238.461538461539,4201.538461538462,4555.384615384616
804.70715,0.0,0.7095482,0.3328992,0.5538543,0,0.0,0.0,0.0,0.0,0.0,0,0,0.0,0.0,0,0,106.0,0.0,555.0,4662.564102564103,3945.1282051282055,4493.333333333334,4432.820512820514,4253.846153846154,4563.076923076924,4443.589743589744,4431.282051282052,4404.102564102564,4732.307692307693,4349.743589743591,4238.461538461539,4201.538461538462,4555.384615384616
805.27014,0.033681072,0.6812564,0.32970107,0.5539685,0,0.0,0.0,0.0,0.0,1.0,0,0,0.0,0.0,0,1,49.0,0.0,0.0,4875.8974358974365,3948.717948717949,4534.358974358975,4439.48717948718,4249.74358974359,4558.461538461539,4450.769230769231,4429.743589743591,4391.794871794872,4734.871794871796,4357.948717948719,4254.871794871796,4195.384615384616,4586.666666666667
805.58295,0.033681072,0.6812564,0.32970107,0.5539685,0,0.0,0.0,0.0,0.0,0.90645885,0,0,0.0,0.0,0,1,89.0,0.0,517.0,4783.076923076924,3942.0512820512827,4494.358974358975,4432.307692307693,4257.948717948719,4565.128205128206,4462.051282051282,4442.051282051282,4409.2307692307695,4740.512820512821,4343.076923076924,4240.000000000001,4197.948717948719,4532.820512820514
805.8331,0.123203814,0.65720594,0.32188413,0.5540712,1,0.0,0.0,0.0,0.0,0.65817404,0,0,0.0,0.0,0,0,121.0,0.0,517.0,4755.384615384616,3942.0512820512827,4521.538461538462,4433.846153846154,4260.512820512821,4572.820512820514,4456.410256410257,4439.48717948718,4418.461538461539,4751.794871794872,4353.846153846154,4261.538461538462,4218.461538461539,4546.153846153847
806.0834,0.123203814,0.65720594,0.32188413,0.5540712,0,0.0,0.0,0.0,0.0,0.82749873,0,0,0.0,0.0,0,0,24.0,0.0,0.0,4707.6923076923085,3933.333333333334,4504.615384615385,4429.2307692307695,4258.461538461539,4571.282051282052,4463.076923076924,4441.538461538462,4411.794871794872,4741.538461538462,4354.358974358975,4224.615384615385,4181.025641025642,4518.974358974359
806.33356,0.12364079,0.67552376,0.31433812,0.5570093,0,0.0,0.0,0.0,0.0,0.826499,0,0,0.0,0.0,0,0,56.0,0.0,0.0,4669.743589743591,3922.564102564103,4502.051282051282,4428.717948717949,4264.102564102564,4572.307692307693,4469.2307692307695,4436.923076923077,4396.410256410257,4735.384615384616,4352.307692307693,4215.384615384616,4197.435897435898,4516.410256410257
806.5838,0.12364079,0.67552376,0.31433812,0.5570093,0,0.0,0.0,0.0,0.0,0.3812723,0,0,0.0,0.0,0,0,88.0,0.0,308.0,4695.8974358974365,3933.8461538461543,4513.846153846154,4430.256410256411,4258.461538461539,4564.102564102564,4482.051282051282,4471.794871794872,4432.820512820514,4762.564102564103,4369.2307692307695,4244.615384615385,4228.717948717949,4538.461538461539
806.7089,0.1416726,0.7137688,0.30754736,0.56075644,0,0.0,0.0,0.0,0.0,0.0,0,0,0.0,0.0,0,0,104.0,0.0,308.0,4690.769230769231,3932.820512820513,4508.205128205129,4429.2307692307695,4255.384615384616,4564.615384615385,4458.461538461539,4447.6923076923085,4407.179487179487,4744.615384615386,4357.948717948719,4233.846153846154,4193.333333333334,4524.102564102564
807.0842,0.1416726,0.7137688,0.30754736,0.56075644,0,0.0,0.0,0.0,0.0,1.0,0,0,0.0,0.0,0,0,23.0,0.0,0.0,4758.974358974359,3968.717948717949,4524.102564102564,4441.025641025642,4246.666666666667,4552.307692307693,4436.410256410257,4427.6923076923085,4387.6923076923085,4729.2307692307695,4333.846153846154,4222.051282051282,4150.256410256411,4531.794871794872
807.2406,0.14624141,0.7762025,0.30142578,0.56156075,0,0.0,0.0,0.0,0.0,1.0,0,0,0.0,0.0,0,0,43.0,0.0,0.0,4669.743589743591,3951.2820512820517,4507.179487179488,4443.076923076924,4246.153846153847,4557.435897435898,4454.871794871796,4440.512820512821,4392.307692307693,4727.6923076923085,4320.000000000001,4224.102564102564,4147.6923076923085,4486.153846153847
807.58466,0.14624141,0.7762025,0.30142578,0.56156075,0,0.0,0.0,0.0,0.0,0.87869996,0,0,0.0,0.0,0,0,87.0,0.0,522.0,4628.205128205129,3945.6410256410263,4496.410256410257,4439.48717948718,4250.769230769231,4560.000000000001,4439.48717948718,4433.333333333334,4395.8974358974365,4725.128205128206,4336.923076923077,4224.615384615385,4166.666666666667,4497.948717948719
807.83484,0.14296487,0.75748074,0.29890087,0.5609023,0,0.0,0.0,0.0,0.0,0.3314104,0,0,0.0,0.0,0,0,119.0,0.0,522.0,4618.974358974359,3935.8974358974365,4505.641025641026,4443.589743589744,4254.358974358975,4565.128205128206,4456.923076923077,4440.000000000001,4397.948717948719,4730.256410256411,4335.8974358974365,4231.282051282052,4176.923076923077,4521.538461538462
808.0851,0.14296487,0.75748074,0.29890087,0.5609023,0,0.0,0.0,0.0,0.0,0.0,0,0,0.0,0.0,0,0,22.0,0.0,0.0,4584.615384615385,3933.333333333334,4504.102564102564,4440.000000000001,4248.717948717949,4559.48717948718,4452.820512820514,4441.025641025642,4404.615384615385,4732.307692307693,4333.333333333334,4234.871794871796,4177.948717948719,4517.435897435898
808.2102,0.13631943,0.7198657,0.3003853,0.5600335,0,0.0,0.0,0.0,0.0,0.0,0,0,0.0,0.0,0,0,38.0,0.0,0.0,4597.435897435898,3940.5128205128212,4512.307692307693,4441.025641025642,4253.333333333334,4561.025641025642,4454.871794871796,4433.846153846154,4404.102564102564,4733.333333333334,4340.000000000001,4251.794871794872,4174.871794871796,4518.974358974359
808.2102,0.13631943,0.7198657,0.3003853,0.5600335,0,0.0,0.0,0.0,0.0,0.0,0,0,0.0,0.0,0,0,38.0,0.0,0.0,4597.435897435898,3940.5128205128212,4512.307692307693,4441.025641025642,4253.333333333334,4561.025641025642,4454.871794871796,4433.846153846154,4404.102564102564,4733.333333333334,4340.000000000001,4251.794871794872,4174.871794871796,4518.974358974359
808.71063,0.13247678,0.67554456,0.30369127,0.55925184,0,0.0,0.0,0.0,0.0,0.0,0,0,0.0,0.0,0,0,102.0,0.0,555.0,4601.025641025642,3951.2820512820517,4508.205128205129,4449.743589743591,4250.256410256411,4555.8974358974365,4452.307692307693,4428.205128205129,4406.666666666667,4733.333333333334,4346.666666666667,4240.512820512821,4185.128205128206,4530.769230769231
809.08594,0.13247678,0.67554456,0.30369127,0.55925184,1,0.0,0.0,0.0,0.0,0.8292781,0,0,0.0,0.0,0,0,21.0,0.0,0.0,4563.076923076924,3934.8717948717954,4506.153846153847,4445.128205128206,4259.48717948718,4565.641025641026,4463.076923076924,4423.076923076924,4394.871794871796,4725.128205128206,4346.153846153847,4220.512820512821,4159.48717948718,4518.461538461539
809.3362,0.10691566,0.63032603,0.3066676,0.55854815,0,0.0,0.0,0.0,0.0,0.8450128,0,0,0.0,0.0,0,0,53.0,0.0,0.0,4603.076923076924,3953.8461538461543,4508.205128205129,4448.205128205129,4254.871794871796,4562.564102564103,4454.358974358975,4422.051282051282,4402.051282051282,4728.717948717949,4349.2307692307695,4225.641025641026,4177.435897435898,4514.358974358975
809.46124,0.10691566,0.63032603,0.3066676,0.55854815,0,0.0,0.0,0.0,0.0,0.0,0,0,0.0,0.0,0,0,69.0,0.0,571.0,4577.435897435898,3939.48717948718,4505.128205128206,4445.641025641026,4256.410256410257,4561.538461538462,4456.923076923077,4423.076923076924,4391.794871794872,4723.076923076924,4343.589743589744,4229.74358974359,4169.74358974359,4508.717948717949
809.7115,0.114859544,0.5935224,0.30934718,0.5579146,0,0.0,0.0,0.0,0.0,0.0,0,0,0.0,0.0,0,0,101.0,0.0,517.0,4553.333333333334,3930.7692307692314,4490.256410256411,4429.743589743591,4243.589743589744,4551.794871794872,4431.794871794872,4401.025641025642,4373.846153846154,4701.538461538462,4325.128205128206,4216.410256410257,4151.794871794872,4482.051282051282
810.0868,0.114859544,0.5935224,0.30934718,0.5579146,0,0.0,0.0,0.0,0.0,1.0,0,0,0.0,0.0,0,0,20.0,0.0,0.0,4582.051282051282,3930.7692307692314,4504.615384615385,4430.769230769231,4250.769230769231,4563.589743589744,4463.076923076924,4440.512820512821,4425.128205128206,4740.000000000001,4367.6923076923085,4244.102564102564,4214.358974358975,4535.384615384616
810.24316,0.099106684,0.59630287,0.3117485,0.5573465,0,0.0,0.0,0.0,0.0,1.0,0,0,0.0,0.0,0,0,40.0,0.0,0.0,4572.307692307693,3908.205128205129,4503.076923076924,4426.153846153847,4254.871794871796,4565.128205128206,4480.512820512821,4462.051282051282,4428.717948717949,4753.333333333334,4387.6923076923085,4265.128205128206,4237.435897435898,4559.48717948718
810.5872,0.099106684,0.59630287,0.3117485,0.5573465,0,0.0,0.0,0.0,0.0,0.38347697,0,0,0.0,0.0,0,0,84.0,0.0,305.0,4587.179487179488,3928.205128205129,4506.153846153847,4437.435897435898,4249.2307692307695,4556.923076923077,4463.589743589744,4445.128205128206,4413.333333333334,4740.512820512821,4358.461538461539,4236.923076923077,4188.717948717949,4530.256410256411
810.83746,0.13601564,0.5996686,0.31390697,0.5568358,0,0.0,0.0,0.0,0.0,1.0,0,0,0.0,0.0,0,0,116.0,0.0,305.0,4728.205128205129,3956.410256410257,4537.435897435898,4435.8974358974365,4228.205128205129,4543.076923076924,4440.000000000001,4432.820512820514,4386.666666666667,4731.794871794872,4365.641025641026,4268.205128205129,4197.435897435898,4571.794871794872
