timestamp,excitement,frustration,meditation,engagementBoredom,blink,clench,laugh,smile,eyebrow,furrowBrow,lookLeft,lookRight,smirkLeft,smirkRight,winkLeft,winkRight,eeg0,eeg1,eeg2,eeg3,eeg4,eeg5,eeg6,eeg7,eeg8,eeg9,eeg10,eeg11,eeg12,eeg13,eeg14,eeg15,eeg16
11.267495,0.6894528,1.0,0.3286355,0.57809633,0,0.0,0.0,0.0,0.0,0.17983459,0,0,0.0,0.0,0,0,1.0,0.0,470.0,5772.820512820514,3997.435897435898,4649.743589743591,4465.128205128206,4137.948717948719,4415.384615384616,4519.48717948718,4586.153846153847,4219.48717948718,4711.794871794872,4288.717948717949,4283.076923076924,4230.256410256411,4880.512820512821
11.517711,0.77127475,1.0,0.32912546,0.57547385,0,0.0,0.0,0.0,0.0,1.0,0,0,0.0,0.0,0,0,33.0,0.0,0.0,5642.051282051283,4020.0000000000005,4604.102564102564,4488.205128205129,4142.051282051282,4425.641025641026,4450.256410256411,4520.512820512821,4169.74358974359,4661.025641025642,4292.820512820514,4250.769230769231,4179.48717948718,4812.820512820514
11.517711,0.77127475,1.0,0.32912546,0.57547385,0,0.0,0.0,0.0,0.0,1.0,0,0,0.0,0.0,0,0,33.0,0.0,0.0,5642.051282051283,4020.0000000000005,4604.102564102564,4488.205128205129,4142.051282051282,4425.641025641026,4450.256410256411,4520.512820512821,4169.74358974359,4661.025641025642,4292.820512820514,4250.769230769231,4179.48717948718,4812.820512820514
12.018141,0.8086077,1.0,0.3381494,0.5920515,0,0.0,0.0,0.0,0.0,1.0,0,0,0.0,0.0,0,0,97.0,0.0,517.0,5380.000000000001,3995.8974358974365,4581.538461538462,4488.717948717949,4177.435897435898,4464.615384615385,4446.153846153847,4477.435897435898,4161.538461538462,4621.025641025642,4282.564102564103,4248.205128205129,4129.74358974359,4731.794871794872
12.018141,0.8086077,1.0,0.3381494,0.5920515,0,0.0,0.0,0.0,0.0,1.0,0,0,0.0,0.0,0,0,97.0,0.0,517.0,5380.000000000001,3995.8974358974365,4581.538461538462,4488.717948717949,4177.435897435898,4464.615384615385,4446.153846153847,4477.435897435898,4161.538461538462,4621.025641025642,4282.564102564103,4248.205128205129,4129.74358974359,4731.794871794872
12.518571,0.7885915,1.0,0.35296345,0.63005865,0,0.0,0.0,0.0,0.0,1.0,0,0,0.0,0.0,0,0,32.0,0.0,0.0,5142.564102564103,3951.7948717948725,4584.102564102564,4469.2307692307695,4205.641025641026,4498.974358974359,4486.666666666667,4494.358974358975,4264.102564102564,4667.179487179488,4328.205128205129,4356.410256410257,4227.6923076923085,4772.820512820514
12.518571,0.7885915,1.0,0.35296345,0.63005865,0,0.0,0.0,0.0,0.0,1.0,0,0,0.0,0.0,0,0,32.0,0.0,0.0,5142.564102564103,3951.7948717948725,4584.102564102564,4469.2307692307695,4205.641025641026,4498.974358974359,4486.666666666667,4494.358974358975,4264.102564102564,4667.179487179488,4328.205128205129,4356.410256410257,4227.6923076923085,4772.820512820514
13.050278,0.7759091,1.0,0.36636722,0.66437507,0,0.0,0.0,0.0,0.0,1.0,0,0,0.0,0.0,0,0,100.0,0.0,240.0,4803.589743589744,3858.461538461539,4590.256410256411,4492.307692307693,4163.076923076924,4485.641025641026,4435.8974358974365,4441.025641025642,4294.358974358975,4665.128205128206,4336.923076923077,4285.641025641026,4174.358974358975,4729.2307692307695
13.269216,0.7759091,1.0,0.36636722,0.66437507,0,0.0,0.0,0.0,0.0,0.8576372,0,0,0.0,0.0,1,0,128.0,0.0,240.0,4893.846153846154,3832.820512820513,4587.179487179488,4517.435897435898,4195.384615384616,4500.512820512821,4420.000000000001,4404.615384615385,4304.102564102564,4643.589743589744,4325.128205128206,4303.076923076924,4175.384615384616,4754.358974358975
13.5819845,0.71789074,1.0,0.37843058,0.69525987,0,0.0,0.0,0.0,0.0,1.0,0,0,0.0,0.0,0,0,39.0,0.0,0.0,4912.820512820514,3891.7948717948725,4545.128205128206,4513.333333333334,4225.641025641026,4514.871794871796,4389.743589743591,4387.179487179487,4304.102564102564,4655.8974358974365,4319.48717948718,4269.74358974359,4194.358974358975,4800.512820512821
13.769646,0.71789074,1.0,0.37843058,0.69525987,0,0.0,0.0,0.0,0.0,0.556506,0,0,0.0,0.0,0,0,63.0,0.0,0.0,4709.2307692307695,3897.9487179487182,4471.282051282052,4491.282051282052,4230.769230769231,4530.256410256411,4402.051282051282,4376.410256410257,4337.948717948719,4632.820512820514,4278.974358974359,4171.282051282052,4062.0512820512827,4567.179487179488
14.019861,0.7006681,0.914839,0.38053626,0.7037904,0,0.0,0.0,0.0,0.0,0.87827146,0,0,0.0,0.0,0,0,95.0,0.0,512.0,4691.282051282052,3892.307692307693,4461.025641025642,4481.538461538462,4258.974358974359,4563.589743589744,4411.794871794872,4412.820512820514,4374.871794871796,4670.256410256411,4297.435897435898,4217.948717948719,4129.2307692307695,4615.384615384616
14.270076,0.7006681,0.914839,0.38053626,0.7037904,0,0.0,0.0,0.0,0.0,0.9414838,0,0,0.0,0.0,0,0,127.0,0.0,512.0,4629.2307692307695,3898.461538461539,4445.641025641026,4472.820512820514,4278.974358974359,4575.384615384616,4418.974358974359,4413.846153846154,4414.871794871796,4688.205128205129,4314.358974358975,4216.410256410257,4133.333333333334,4610.769230769231
14.520291,0.7105037,0.8951426,0.37570786,0.6883807,0,0.0,0.0,0.0,0.0,1.0,0,0,0.0,0.0,0,0,30.0,0.0,0.0,4586.666666666667,3889.7435897435903,4453.333333333334,4463.076923076924,4296.410256410257,4591.794871794872,4432.820512820514,4428.205128205129,4446.153846153847,4708.205128205129,4328.717948717949,4240.000000000001,4162.051282051282,4626.153846153847
14.770506,0.7105037,0.8951426,0.37570786,0.6883807,0,0.0,0.0,0.0,0.0,0.84809726,0,0,0.0,0.0,0,0,62.0,0.0,0.0,4586.153846153847,3901.0256410256416,4490.256410256411,4461.025641025642,4306.153846153847,4602.564102564103,4474.871794871796,4471.282051282052,4481.538461538462,4736.923076923077,4337.435897435898,4269.74358974359,4170.256410256411,4624.615384615385
15.020721,0.66668063,0.88032866,0.3713537,0.67452955,0,0.0,0.0,0.0,0.0,1.0,0,0,0.0,0.0,0,1,94.0,0.0,557.0,4527.6923076923085,3891.2820512820517,4472.307692307693,4458.461538461539,4311.282051282052,4612.307692307693,4471.282051282052,4469.743589743591,4521.025641025642,4751.282051282052,4345.128205128206,4243.076923076924,4205.128205128206,4616.923076923077
15.020721,0.66668063,0.88032866,0.3713537,0.67452955,0,0.0,0.0,0.0,0.0,1.0,0,0,0.0,0.0,0,1,94.0,0.0,557.0,4527.6923076923085,3891.2820512820517,4472.307692307693,4458.461538461539,4311.282051282052,4612.307692307693,4471.282051282052,4469.743589743591,4521.025641025642,4751.282051282052,4345.128205128206,4243.076923076924,4205.128205128206,4616.923076923077
15.552428,0.6705845,0.8375415,0.36750433,0.6622362,0,0.0,0.0,0.0,0.0,0.26349396,0,0,0.0,0.0,0,0,33.0,0.0,0.0,4505.128205128206,3912.307692307693,4520.512820512821,4455.8974358974365,4330.769230769231,4634.358974358975,4485.641025641026,4470.256410256411,4526.666666666667,4770.256410256411,4357.435897435898,4274.358974358975,4220.512820512821,4623.076923076924
15.771366,0.6705845,0.8375415,0.36750433,0.6622362,0,0.0,0.0,0.0,0.0,0.59157014,0,0,0.0,0.0,0,0,61.0,0.0,0.0,4483.076923076924,3911.7948717948725,4482.051282051282,4447.179487179487,4319.48717948718,4625.128205128206,4472.307692307693,4469.743589743591,4518.461538461539,4782.564102564103,4375.8974358974365,4278.461538461539,4256.410256410257,4638.974358974359
16.021582,0.6547775,0.7955785,0.3639911,0.65106386,0,0.0,0.0,0.0,0.0,0.41250175,0,0,0.0,0.0,0,0,93.0,0.0,517.0,4426.666666666667,3902.564102564103,4468.717948717949,4442.051282051282,4319.48717948718,4624.102564102564,4477.435897435898,4469.2307692307695,4516.923076923077,4775.384615384616,4363.589743589744,4235.8974358974365,4210.769230769231,4591.794871794872
16.271795,0.6547775,0.7955785,0.3639911,0.65106386,0,0.0,0.0,0.0,0.0,0.4660532,0,0,0.0,0.0,0,0,125.0,0.0,517.0,4392.307692307693,3913.333333333334,4507.6923076923085,4444.102564102564,4306.666666666667,4608.205128205129,4470.769230769231,4453.846153846154,4516.923076923077,4781.025641025642,4364.615384615385,4266.153846153847,4222.564102564103,4609.2307692307695
16.52201,0.65334976,0.7694419,0.36084116,0.6410358,1,0.0,0.0,0.0,0.0,0.6596318,0,0,0.0,0.0,0,0,28.0,0.0,0.0,4402.564102564103,3918.9743589743593,4503.076923076924,4436.410256410257,4294.871794871796,4596.410256410257,4447.6923076923085,4432.820512820514,4500.512820512821,4776.923076923077,4366.153846153847,4245.641025641026,4190.769230769231,4596.410256410257
16.772226,0.65334976,0.7694419,0.36084116,0.6410358,0,0.0,0.0,0.0,0.0,0.7144436,0,0,0.0,0.0,0,0,60.0,0.0,0.0,4368.205128205129,3915.8974358974365,4500.512820512821,4438.461538461539,4295.8974358974365,4601.538461538462,4445.641025641026,4432.820512820514,4496.923076923077,4773.846153846154,4361.538461538462,4242.564102564103,4177.948717948719,4538.974358974359
17.053719,0.6657437,0.7525714,0.3580642,0.6321202,0,0.0,0.0,0.0,0.0,0.6531384,0,0,0.0,0.0,0,0,96.0,0.0,240.0,4467.179487179487,3930.2564102564106,4510.769230769231,4441.538461538462,4277.435897435898,4577.948717948719,4434.358974358975,4424.615384615385,4474.871794871796,4772.307692307693,4359.48717948718,4267.179487179487,4201.025641025642,4665.128205128206
17.272655,0.6657437,0.7525714,0.3580642,0.6321202,0,0.0,0.0,0.0,0.0,0.67307365,0,0,0.0,0.0,0,0,124.0,0.0,240.0,4373.333333333334,3917.435897435898,4497.435897435898,4443.076923076924,4270.769230769231,4573.846153846154,4449.2307692307695,4424.102564102564,4464.615384615385,4763.076923076924,4332.820512820514,4214.358974358975,4121.025641025642,4530.769230769231
17.554148,0.6698429,0.77252,0.35557187,0.62410563,0,0.0,0.0,0.0,0.0,0.7438917,0,0,0.0,0.0,0,0,31.0,0.0,0.0,4443.589743589744,3942.0512820512827,4493.846153846154,4449.743589743591,4272.820512820514,4555.8974358974365,4417.948717948719,4399.48717948718,4431.794871794872,4744.615384615386,4312.820512820514,4155.384615384616,4083.076923076924,4490.256410256411
17.64798,0.6698429,0.77252,0.35557187,0.62410563,0,0.0,0.0,0.0,0.0,1.0,0,0,0.0,0.0,0,0,43.0,0.0,0.0,4491.282051282052,3940.5128205128212,4489.2307692307695,4448.717948717949,4273.846153846154,4555.8974358974365,4398.461538461539,4382.564102564103,4421.538461538462,4737.435897435898,4278.974358974359,4124.615384615385,4090.7692307692314,4445.641025641026
18.085855,0.6200211,0.8103346,0.35329735,0.6168374,1,0.0,0.0,0.0,0.0,1.0,0,0,0.0,0.0,0,0,99.0,0.0,519.0,4737.435897435898,3957.9487179487182,4505.641025641026,4449.743589743591,4277.435897435898,4561.538461538462,4392.307692307693,4374.358974358975,4418.461538461539,4743.589743589744,4289.74358974359,4241.025641025642,4188.205128205129,4527.179487179488
18.273516,0.6200211,0.8103346,0.35329735,0.6168374,0,0.0,0.0,0.0,0.0,0.7542129,0,0,0.0,0.0,0,0,123.0,0.0,519.0,4673.846153846154,3922.564102564103,4502.564102564103,4445.641025641026,4289.2307692307695,4570.769230769231,4447.179487179487,4427.179487179487,4458.461538461539,4761.025641025642,4308.205128205129,4272.307692307693,4205.641025641026,4475.384615384616
18.555008,0.57523537,0.85212034,0.35129204,0.61036515,0,0.0,0.0,0.0,0.0,0.5162675,0,0,0.0,0.0,0,0,30.0,0.0,0.0,4677.435897435898,3928.205128205129,4504.102564102564,4446.666666666667,4285.128205128206,4573.333333333334,4426.666666666667,4402.051282051282,4438.461538461539,4762.564102564103,4302.564102564103,4252.307692307693,4194.871794871796,4471.282051282052
18.773947,0.57523537,0.85212034,0.35129204,0.61036515,0,0.0,0.0,0.0,0.0,0.76297635,0,0,0.0,0.0,0,0,58.0,0.0,0.0,4700.000000000001,3929.7435897435903,4483.589743589744,4442.051282051282,4283.589743589744,4574.871794871796,4443.076923076924,4413.846153846154,4425.128205128206,4761.025641025642,4311.794871794872,4255.8974358974365,4212.820512820514,4573.846153846154
19.055439,0.5557081,0.93188965,0.34948727,0.6045402,0,0.0,0.0,0.0,0.0,0.8351661,0,0,0.0,0.0,0,0,94.0,0.0,557.0,4603.589743589744,3910.2564102564106,4481.025641025642,4442.564102564103,4288.717948717949,4587.179487179488,4437.435897435898,4407.179487179487,4440.512820512821,4772.307692307693,4321.025641025642,4245.641025641026,4196.410256410257,4483.076923076924
19.274376,0.5557081,0.93188965,0.34948727,0.6045402,0,0.0,0.0,0.0,0.0,0.961653,0,0,0.0,0.0,0,0,122.0,0.0,557.0,4576.410256410257,3917.435897435898,4480.000000000001,4444.102564102564,4283.076923076924,4586.666666666667,4433.846153846154,4405.641025641026,4421.538461538462,4768.717948717949,4326.153846153847,4253.846153846154,4179.48717948718,4477.435897435898
19.524591,0.49677703,0.9293609,0.3478353,0.5992548,0,0.0,0.0,0.0,0.0,0.9998714,0,0,0.0,0.0,0,1,25.0,0.0,0.0,4588.717948717949,3920.0000000000005,4500.512820512821,4441.538461538462,4273.333333333334,4578.461538461539,4431.794871794872,4402.051282051282,4405.641025641026,4761.538461538462,4328.717948717949,4237.948717948719,4176.923076923077,4536.923076923077
19.774807,0.49677703,0.9293609,0.3478353,0.5992548,0,0.0,0.0,0.0,0.0,0.91864085,0,0,0.0,0.0,0,1,57.0,0.0,0.0,4497.948717948719,3911.7948717948725,4472.820512820514,4441.025641025642,4281.025641025642,4587.179487179488,4445.641025641026,4420.512820512821,4423.076923076924,4783.076923076924,4323.589743589744,4221.538461538462,4157.948717948719,4467.179487179487
20.0563,0.48281118,0.94416827,0.34637865,0.59454423,0,0.0,0.0,0.0,0.0,0.3582605,0,0,0.0,0.0,0,0,93.0,0.0,517.0,4661.538461538462,3946.666666666667,4529.2307692307695,4439.48717948718,4265.128205128206,4571.794871794872,4437.435897435898,4408.717948717949,4401.025641025642,4772.307692307693,4334.358974358975,4278.974358974359,4188.717948717949,4627.6923076923085
20.306513,0.48281118,0.94416827,0.34637865,0.59454423,0,0.0,0.0,0.0,0.0,0.7775059,0,0,0.0,0.0,0,0,125.0,0.0,517.0,4475.8974358974365,3927.1794871794878,4493.846153846154,4447.6923076923085,4283.076923076924,4598.974358974359,4453.846153846154,4408.717948717949,4423.076923076924,4761.538461538462,4327.179487179487,4212.820512820514,4168.717948717949,4473.333333333334
20.556728,0.45681202,0.9308662,0.34506768,0.59030473,0,0.0,0.0,0.0,0.0,0.70644426,0,0,0.0,0.0,0,0,28.0,0.0,0.0,4504.615384615385,3937.435897435898,4525.128205128206,4444.615384615385,4271.794871794872,4588.205128205129,4456.923076923077,4422.051282051282,4436.410256410257,4755.8974358974365,4331.794871794872,4226.666666666667,4154.358974358975,4481.025641025642
20.775667,0.45681202,0.9308662,0.34506768,0.59030473,0,0.0,0.0,0.0,0.0,0.23294827,0,0,0.0,0.0,0,0,56.0,0.0,0.0,4544.615384615385,3948.205128205129,4533.846153846154,4445.641025641026,4268.717948717949,4587.6923076923085,4475.8974358974365,4429.2307692307695,4432.820512820514,4755.8974358974365,4334.358974358975,4256.410256410257,4175.8974358974365,4542.051282051282
21.05716,0.46678042,0.9581845,0.34386784,0.5864595,0,0.0,0.0,0.0,0.0,0.871882,0,0,0.0,0.0,0,0,92.0,0.0,233.0,4502.564102564103,3929.2307692307695,4524.102564102564,4459.48717948718,4283.589743589744,4591.794871794872,4481.025641025642,4443.589743589744,4450.769230769231,4773.846153846154,4363.589743589744,4261.538461538462,4191.794871794872,4534.358974358975
21.276096,0.46678042,0.9581845,0.34386784,0.5864595,0,0.0,0.0,0.0,0.0,0.89423496,0,0,0.0,0.0,0,0,120.0,0.0,233.0,4498.974358974359,3920.0000000000005,4535.8974358974365,4472.307692307693,4281.025641025642,4588.717948717949,4483.589743589744,4441.025641025642,4449.2307692307695,4781.538461538462,4371.282051282052,4287.6923076923085,4195.384615384616,4546.153846153847
21.526312,0.44080022,0.91146815,0.342789,0.58300054,0,0.0,0.0,0.0,0.0,0.16128519,0,0,0.0,0.0,0,0,23.0,0.0,0.0,4507.179487179488,3920.0000000000005,4532.307692307693,4472.820512820514,4273.846153846154,4581.025641025642,4487.179487179488,4454.358974358975,4472.820512820514,4792.307692307693,4375.384615384616,4290.769230769231,4210.769230769231,4549.743589743591
21.651419,0.44080022,0.91146815,0.342789,0.58300054,0,0.0,0.0,0.0,0.0,0.0,0,0,0.0,0.0,0,0,39.0,0.0,0.0,4519.48717948718,3923.589743589744,4538.974358974359,4473.333333333334,4275.8974358974365,4580.512820512821,4486.666666666667,4441.025641025642,4458.974358974359,4791.794871794872,4383.076923076924,4286.666666666667,4202.051282051282,4554.358974358975
22.026741,0.44840062,0.8741173,0.34181607,0.579885,0,0.0,0.0,0.0,0.0,1.0,0,0,0.0,0.0,0,0,87.0,0.0,520.0,4478.461538461539,3909.7435897435903,4520.000000000001,4459.48717948718,4271.794871794872,4576.923076923077,4470.769230769231,4417.948717948719,4443.589743589744,4766.153846153847,4381.025641025642,4257.435897435898,4202.051282051282,4530.769230769231
22.026741,0.44840062,0.8741173,0.34181607,0.579885,0,0.0,0.0,0.0,0.0,1.0,0,0,0.0,0.0,0,0,87.0,0.0,520.0,4478.461538461539,3909.7435897435903,4520.000000000001,4459.48717948718,4271.794871794872,4576.923076923077,4470.769230769231,4417.948717948719,4443.589743589744,4766.153846153847,4381.025641025642,4257.435897435898,4202.051282051282,4530.769230769231
22.558449,0.41102898,0.84470475,0.34095755,0.57710606,0,0.0,0.0,0.0,0.0,0.7546008,0,0,0.0,0.0,0,0,26.0,0.0,0.0,4495.384615384616,3929.7435897435903,4522.564102564103,4460.512820512821,4262.564102564103,4567.6923076923085,4494.358974358975,4423.076923076924,4449.743589743591,4768.717948717949,4355.8974358974365,4244.102564102564,4155.384615384616,4510.256410256411
22.777388,0.41102898,0.84470475,0.34095755,0.57710606,0,0.0,0.0,0.0,0.0,0.80098164,0,0,0.0,0.0,0,0,54.0,0.0,0.0,4470.769230769231,3924.615384615385,4507.179487179488,4455.8974358974365,4253.846153846154,4560.000000000001,4467.6923076923085,4401.025641025642,4422.051282051282,4748.717948717949,4344.615384615385,4212.307692307693,4126.666666666667,4474.358974358975
23.058878,0.4096799,0.7970967,0.34018934,0.5746112,0,0.0,0.0,0.0,0.0,1.0,0,0,0.0,0.0,0,0,90.0,0.0,557.0,4475.384615384616,3926.1538461538466,4518.974358974359,4455.384615384616,4260.000000000001,4561.025641025642,4463.589743589744,4410.256410256411,4437.435897435898,4756.410256410257,4346.666666666667,4218.461538461539,4141.025641025642,4506.153846153847
23.277817,0.4096799,0.7970967,0.34018934,0.5746112,0,0.0,0.0,0.0,0.0,0.26037255,0,0,0.0,0.0,0,0,118.0,0.0,557.0,4551.282051282052,3950.7692307692314,4525.128205128206,4459.48717948718,4253.846153846154,4554.871794871796,4447.179487179487,4396.410256410257,4416.410256410257,4753.333333333334,4356.410256410257,4239.48717948718,4161.538461538462,4575.384615384616
23.528032,0.4026247,0.7769076,0.3394885,0.572352,0,0.0,0.0,0.0,0.0,0.7500897,0,0,0.0,0.0,0,1,21.0,0.0,0.0,4491.282051282052,3923.589743589744,4505.128205128206,4444.615384615385,4256.410256410257,4561.025641025642,4468.205128205129,4420.000000000001,4441.025641025642,4763.076923076924,4361.025641025642,4250.256410256411,4181.025641025642,4524.615384615385
23.778248,0.4026247,0.7769076,0.3394885,0.572352,0,0.0,0.0,0.0,0.0,0.6593613,0,0,0.0,0.0,0,0,53.0,0.0,0.0,4481.538461538462,3925.6410256410263,4515.384615384616,4453.846153846154,4268.717948717949,4570.256410256411,4472.307692307693,4428.717948717949,4452.820512820514,4769.743589743591,4361.025641025642,4253.333333333334,4188.717948717949,4535.8974358974365
24.028461,0.38227,0.7524626,0.33885834,0.5703196,0,0.0,0.0,0.0,0.0,0.9273798,0,0,0.0,0.0,0,0,85.0,0.0,517.0,4679.48717948718,3962.0512820512827,4548.717948717949,4458.974358974359,4262.564102564103,4562.051282051282,4466.666666666667,4426.153846153847,4439.48717948718,4784.615384615386,4368.717948717949,4295.384615384616,4233.333333333334,4694.871794871796
24.15357,0.38227,0.7524626,0.33885834,0.5703196,0,0.0,0.0,0.0,0.0,1.0,0,0,0.0,0.0,0,1,101.0,0.0,517.0,4507.6923076923085,3924.1025641025644,4496.923076923077,4454.358974358975,4266.666666666667,4566.153846153847,4468.205128205129,4432.820512820514,4453.846153846154,4774.358974358975,4359.48717948718,4249.74358974359,4197.948717948719,4525.128205128206
24.528893,0.3655041,0.72706133,0.33829007,0.5684889,0,0.0,0.0,0.0,0.0,1.0,0,0,0.0,0.0,0,0,20.0,0.0,0.0,4492.307692307693,3926.1538461538466,4506.153846153847,4441.025641025642,4266.666666666667,4566.153846153847,4469.2307692307695,4430.256410256411,4449.2307692307695,4772.820512820514,4364.102564102564,4256.923076923077,4186.666666666667,4513.333333333334
24.528893,0.3655041,0.72706133,0.33829007,0.5684889,0,0.0,0.0,0.0,0.0,1.0,0,0,0.0,0.0,0,0,20.0,0.0,0.0,4492.307692307693,3926.1538461538466,4506.153846153847,4441.025641025642,4266.666666666667,4566.153846153847,4469.2307692307695,4430.256410256411,4449.2307692307695,4772.820512820514,4364.102564102564,4256.923076923077,4186.666666666667,4513.333333333334
25.060598,0.3416225,0.69723314,0.3377885,0.5668555,0,0.0,0.0,0.0,0.0,0.2733096,0,0,0.0,0.0,0,0,88.0,0.0,228.0,4523.076923076924,3923.589743589744,4507.179487179488,4429.743589743591,4261.538461538462,4563.076923076924,4463.589743589744,4433.846153846154,4443.076923076924,4769.2307692307695,4364.615384615385,4248.717948717949,4178.461538461539,4520.512820512821
25.279537,0.3416225,0.69723314,0.3377885,0.5668555,0,0.0,0.0,0.0,0.0,0.3222569,0,0,0.0,0.0,0,0,116.0,0.0,228.0,4518.974358974359,3927.1794871794878,4516.923076923077,4436.410256410257,4264.615384615385,4567.179487179488,4466.153846153847,4427.179487179487,4430.769230769231,4767.6923076923085,4366.666666666667,4246.153846153847,4183.589743589744,4529.743589743591
25.529753,0.31549624,0.66236955,0.33733106,0.56537664,0,0.0,0.0,0.0,0.0,0.0,0,0,0.0,0.0,0,0,19.0,0.0,0.0,4602.564102564103,3966.1538461538466,4507.179487179488,4443.076923076924,4255.8974358974365,4556.923076923077,4434.871794871796,4397.948717948719,4383.076923076924,4739.48717948718,4347.179487179487,4228.205128205129,4135.8974358974365,4556.410256410257
25.529753,0.31549624,0.66236955,0.33733106,0.56537664,0,0.0,0.0,0.0,0.0,0.0,0,0,0.0,0.0,0,0,19.0,0.0,0.0,4602.564102564103,3966.1538461538466,4507.179487179488,4443.076923076924,4255.8974358974365,4556.923076923077,4434.871794871796,4397.948717948719,4383.076923076924,4739.48717948718,4347.179487179487,4228.205128205129,4135.8974358974365,4556.410256410257
26.030182,0.31212762,0.6481585,0.33692083,0.56404775,0,0.0,0.0,0.0,0.0,0.35035408,0,0,0.0,0.0,0,0,83.0,0.0,520.0,4490.256410256411,3929.2307692307695,4476.923076923077,4436.410256410257,4247.179487179487,4550.769230769231,4429.2307692307695,4392.307692307693,4384.102564102564,4723.589743589744,4341.025641025642,4190.256410256411,4107.179487179487,4464.615384615385
26.280397,0.31212762,0.6481585,0.33692083,0.56404775,0,0.0,0.0,0.0,0.0,0.113275625,0,0,0.0,0.0,0,0,115.0,0.0,520.0,4511.794871794872,3938.461538461539,4494.358974358975,4445.641025641026,4252.820512820514,4554.871794871796,4442.051282051282,4402.051282051282,4397.435897435898,4732.307692307693,4357.948717948719,4209.74358974359,4129.2307692307695,4485.128205128206
26.530613,0.30022153,0.6251111,0.33655196,0.5628522,0,0.0,0.0,0.0,0.0,0.82541203,0,0,0.0,0.0,0,0,18.0,0.0,0.0,4700.000000000001,3960.5128205128212,4541.025641025642,4447.179487179487,4243.076923076924,4545.128205128206,4424.102564102564,4376.923076923077,4370.256410256411,4730.256410256411,4371.794871794872,4251.794871794872,4153.846153846154,4630.769230769231
26.780827,0.30022153,0.6251111,0.33655196,0.5628522,0,0.0,0.0,0.0,0.0,0.90188074,0,0,0.0,0.0,0,1,50.0,0.0,0.0,4493.846153846154,3903.589743589744,4491.282051282052,4429.2307692307695,4232.307692307693,4538.461538461539,4437.948717948719,4394.871794871796,4386.153846153847,4717.948717948719,4364.102564102564,4240.512820512821,4109.74358974359,4467.179487179487
27.062319,0.30494654,0.6177463,0.3362263,0.5617854,0,0.0,0.0,0.0,0.0,0.840362,0,0,0.0,0.0,0,0,86.0,0.0,557.0,4533.846153846154,3908.717948717949,4496.923076923077,4430.769230769231,4242.051282051282,4549.743589743591,4450.769230769231,4423.076923076924,4404.102564102564,4737.948717948719,4364.102564102564,4328.205128205129,4181.025641025642,4545.641025641026
27.281258,0.30494654,0.6177463,0.3362263,0.5617854,0,0.0,0.0,0.0,0.0,1.0,0,0,0.0,0.0,0,0,114.0,0.0,557.0,4578.974358974359,3915.8974358974365,4503.076923076924,4432.307692307693,4246.666666666667,4556.410256410257,4458.461538461539,4427.179487179487,4410.256410256411,4744.615384615386,4379.48717948718,4351.794871794872,4175.8974358974365,4530.769230769231
27.56275,0.31527367,0.59454125,0.33593488,0.5608277,0,0.0,0.0,0.0,0.0,1.0,0,0,0.0,0.0,0,0,21.0,0.0,0.0,4601.025641025642,3938.461538461539,4488.205128205129,4445.128205128206,4258.974358974359,4565.128205128206,4470.769230769231,4445.128205128206,4423.589743589744,4744.102564102564,4389.743589743591,4334.871794871796,4187.179487179487,4558.974358974359
27.781687,0.31527367,0.59454125,0.33593488,0.5608277,0,0.0,0.0,0.0,0.0,0.833358,0,0,0.0,0.0,0,0,49.0,0.0,0.0,4786.666666666667,3957.9487179487182,4522.564102564103,4442.051282051282,4239.48717948718,4548.717948717949,4452.307692307693,4425.641025641026,4404.615384615385,4747.6923076923085,4400.000000000001,4359.48717948718,4234.871794871796,4747.6923076923085
28.063179,0.32226107,0.59374464,0.33567405,0.55996776,0,0.0,0.0,0.0,0.0,0.8750903,0,0,0.0,0.0,0,0,85.0,0.0,517.0,4613.333333333334,3931.2820512820517,4478.974358974359,4440.000000000001,4230.256410256411,4551.282051282052,4446.153846153847,4427.6923076923085,4424.615384615385,4745.641025641026,4391.794871794872,4310.256410256411,4187.179487179487,4549.2307692307695
28.15701,0.32226107,0.59374464,0.33567405,0.55996776,0,0.0,0.0,0.0,0.0,1.0,0,0,0.0,0.0,0,0,97.0,0.0,517.0,4604.102564102564,3926.1538461538466,4472.307692307693,4431.794871794872,4225.128205128206,4540.512820512821,4433.333333333334,4401.025641025642,4378.461538461539,4726.153846153847,4377.435897435898,4288.717948717949,4170.256410256411,4528.717948717949
28.56361,0.3371917,0.59324807,0.3354355,0.55918837,1,0.0,0.0,0.0,0.0,0.83773154,0,0,0.0,0.0,0,0,20.0,0.0,0.0,4635.8974358974365,3942.0512820512827,4472.307692307693,4440.000000000001,4243.589743589744,4552.307692307693,4432.820512820514,4410.769230769231,4407.179487179487,4729.743589743591,4381.538461538462,4274.358974358975,4170.256410256411,4569.2307692307695
28.782547,0.3371917,0.59324807,0.3354355,0.55918837,0,0.0,0.0,0.0,0.0,0.6866899,0,0,0.0,0.0,0,0,48.0,0.0,0.0,4602.564102564103,3928.205128205129,4457.948717948719,4438.974358974359,4250.256410256411,4551.794871794872,4442.051282051282,4423.076923076924,4405.641025641026,4725.641025641026,4364.102564102564,4243.076923076924,4132.820512820514,4513.846153846154
29.032763,0.34309044,0.6069983,0.33522043,0.5584863,0,0.0,0.0,0.0,0.0,0.42199436,0,0,0.0,0.0,0,0,80.0,0.0,226.0,4555.8974358974365,3929.2307692307695,4458.974358974359,4442.051282051282,4253.333333333334,4550.256410256411,4443.076923076924,4404.615384615385,4396.923076923077,4714.871794871796,4363.076923076924,4227.6923076923085,4127.6923076923085,4482.564102564103
29.15787,0.34309044,0.6069983,0.33522043,0.5584863,0,0.0,0.0,0.0,0.0,1.0,0,0,0.0,0.0,0,0,96.0,0.0,226.0,4591.794871794872,3944.615384615385,4457.435897435898,4443.076923076924,4256.410256410257,4550.769230769231,4430.256410256411,4382.051282051282,4383.589743589744,4714.871794871796,4373.333333333334,4234.871794871796,4137.435897435898,4511.794871794872
29.56447,0.33269882,0.6480564,0.33503002,0.55785906,1,0.0,0.0,0.0,0.0,1.0,0,0,0.0,0.0,0,0,19.0,0.0,0.0,4610.769230769231,3927.692307692308,4458.974358974359,4438.461538461539,4255.384615384616,4546.153846153847,4426.153846153847,4398.461538461539,4393.333333333334,4714.358974358975,4360.512820512821,4236.923076923077,4145.128205128206,4513.333333333334
29.783407,0.33269882,0.6480564,0.33503002,0.55785906,0,0.0,0.0,0.0,0.0,0.955205,0,0,0.0,0.0,0,0,47.0,0.0,0.0,4609.743589743591,3934.358974358975,4474.358974358975,4444.102564102564,4258.461538461539,4550.256410256411,4436.410256410257,4388.205128205129,4389.2307692307695,4709.743589743591,4353.333333333334,4242.564102564103,4126.153846153847,4501.025641025642
30.0649,0.32389992,0.6702468,0.3348591,0.55729526,1,0.0,0.0,0.0,0.0,0.6939993,0,0,0.0,0.0,0,0,83.0,0.0,520.0,4611.794871794872,3932.307692307693,4472.820512820514,4437.435897435898,4246.153846153847,4545.641025641026,4437.435897435898,4411.794871794872,4400.000000000001,4716.923076923077,4367.179487179487,4238.461538461539,4131.282051282052,4500.000000000001
30.283838,0.32389992,0.6702468,0.3348591,0.55729526,0,0.0,0.0,0.0,0.0,0.63712305,0,0,0.0,0.0,0,0,111.0,0.0,520.0,4583.076923076924,3937.9487179487182,4471.794871794872,4446.153846153847,4261.025641025642,4563.076923076924,4440.512820512821,4408.205128205129,4392.307692307693,4709.2307692307695,4353.333333333334,4205.641025641026,4131.282051282052,4484.615384615385
30.56533,0.30879942,0.6808784,0.33470613,0.55678904,0,0.0,0.0,0.0,0.0,0.1852245,0,0,0.0,0.0,0,0,18.0,0.0,0.0,4565.641025641026,3925.6410256410263,4488.205128205129,4443.076923076924,4247.179487179487,4547.179487179488,4438.461538461539,4420.512820512821,4408.205128205129,4711.282051282052,4360.512820512821,4229.74358974359,4148.717948717949,4512.307692307693
30.784267,0.30879942,0.6808784,0.33470613,0.55678904,0,0.0,0.0,0.0,0.0,0.4870841,0,0,0.0,0.0,0,0,46.0,0.0,0.0,4537.948717948719,3928.205128205129,4487.179487179488,4441.025641025642,4246.666666666667,4547.6923076923085,4437.435897435898,4411.794871794872,4394.358974358975,4711.794871794872,4361.025641025642,4220.000000000001,4142.564102564103,4505.128205128206
31.034483,0.3087363,0.79813725,0.33456627,0.5563302,1,0.0,0.0,0.0,0.0,1.0,0,0,0.0,0.0,0,0,78.0,0.0,557.0,4572.307692307693,3929.2307692307695,4490.769230769231,4442.051282051282,4249.74358974359,4548.717948717949,4448.717948717949,4420.000000000001,4404.615384615385,4717.948717948719,4359.48717948718,4237.435897435898,4157.435897435898,4513.333333333334
31.128313,0.3087363,0.79813725,0.33456627,0.5563302,0,0.0,0.0,0.0,0.0,1.0,0,0,0.0,0.0,0,0,90.0,0.0,557.0,4551.282051282052,3925.1282051282055,4488.205128205129,4442.051282051282,4253.333333333334,4551.282051282052,4448.717948717949,4421.538461538462,4407.6923076923085,4717.948717948719,4354.871794871796,4217.948717948719,4154.871794871796,4503.076923076924
31.56619,0.30045474,0.75818604,0.33444244,0.5559203,0,0.0,0.0,0.0,0.0,1.0,0,0,0.0,0.0,0,0,17.0,0.0,0.0,4519.48717948718,3936.9230769230776,4486.153846153847,4443.589743589744,4256.410256410257,4553.846153846154,4455.8974358974365,4430.769230769231,4418.461538461539,4722.051282051282,4344.615384615385,4209.2307692307695,4144.615384615385,4521.025641025642
31.785128,0.30045474,0.75818604,0.33444244,0.5559203,0,0.0,0.0,0.0,0.0,0.20712958,0,0,0.0,0.0,0,0,45.0,0.0,0.0,4522.564102564103,3935.3846153846157,4488.717948717949,4442.564102564103,4253.333333333334,4549.743589743591,4454.358974358975,4417.435897435898,4402.564102564103,4709.2307692307695,4328.205128205129,4189.2307692307695,4120.512820512821,4501.025641025642
32.035343,0.27811217,0.70641756,0.33432895,0.5555483,0,0.0,0.0,0.0,0.0,0.08014718,0,0,0.0,0.0,0,0,77.0,0.0,517.0,4557.435897435898,3949.7435897435903,4525.128205128206,4446.153846153847,4251.794871794872,4550.769230769231,4437.435897435898,4407.179487179487,4389.743589743591,4713.846153846154,4345.128205128206,4227.6923076923085,4163.589743589744,4540.000000000001
32.285557,0.27811217,0.70641756,0.33432895,0.5555483,0,0.0,0.0,0.0,0.0,0.18007492,0,0,0.0,0.0,0,0,109.0,0.0,517.0,4547.6923076923085,3938.9743589743593,4489.743589743591,4444.102564102564,4246.666666666667,4548.717948717949,4439.48717948718,4409.2307692307695,4402.051282051282,4713.333333333334,4351.282051282052,4207.179487179487,4156.923076923077,4525.128205128206
32.535774,0.27459866,0.66327894,0.33422685,0.55521363,1,0.0,0.0,0.0,0.0,1.0,0,0,0.0,0.0,0,0,12.0,0.0,226.0,4609.2307692307695,3953.333333333334,4512.820512820514,4444.615384615385,4254.871794871796,4550.769230769231,4447.179487179487,4416.923076923077,4402.564102564103,4722.051282051282,4356.923076923077,4222.564102564103,4156.923076923077,4556.410256410257
32.692158,0.27459866,0.66327894,0.33422685,0.55521363,0,0.0,0.0,0.0,0.0,0.0,0,0,0.0,0.0,0,0,32.0,0.0,0.0,4552.820512820514,3933.8461538461543,4508.205128205129,4443.076923076924,4252.307692307693,4547.6923076923085,4434.871794871796,4417.948717948719,4406.153846153847,4716.410256410257,4345.641025641026,4209.74358974359,4147.179487179487,4498.461538461539
33.0362,0.27628717,0.6249606,0.33413503,0.5549125,0,0.0,0.0,0.0,0.0,0.21612261,0,0,0.0,0.0,0,0,76.0,0.0,226.0,4554.358974358975,3941.538461538462,4492.820512820514,4441.538461538462,4246.153846153847,4543.589743589744,4427.179487179487,4393.846153846154,4380.512820512821,4701.025641025642,4320.000000000001,4180.512820512821,4107.179487179487,4482.051282051282
33.28642,0.27628717,0.6249606,0.33413503,0.5549125,0,0.0,0.0,0.0,0.0,0.18025334,0,0,0.0,0.0,0,0,108.0,0.0,226.0,4558.974358974359,3935.8974358974365,4504.102564102564,4446.666666666667,4262.051282051282,4562.564102564103,4465.128205128206,4438.461538461539,4415.8974358974365,4731.794871794872,4342.051282051282,4217.435897435898,4176.923076923077,4534.871794871796
33.536633,0.27509,0.58859444,0.33405247,0.55464125,0,0.0,0.0,0.0,0.0,0.22437622,0,0,0.0,0.0,0,0,11.0,0.0,520.0,4532.820512820514,3929.7435897435903,4500.512820512821,4444.102564102564,4257.948717948719,4556.923076923077,4447.179487179487,4419.48717948718,4410.256410256411,4726.666666666667,4345.641025641026,4222.564102564103,4173.846153846154,4534.358974358975
33.78685,0.27509,0.58859444,0.33405247,0.55464125,0,0.0,0.0,0.0,0.0,0.0,0,0,0.0,0.0,0,0,43.0,0.0,0.0,4558.974358974359,3936.9230769230776,4522.564102564103,4445.641025641026,4262.564102564103,4562.564102564103,4467.6923076923085,4438.974358974359,4420.512820512821,4734.358974358975,4340.000000000001,4233.333333333334,4176.410256410257,4549.743589743591
34.037064,0.28391856,0.56564766,0.3339784,0.5543972,0,0.0,0.0,0.0,0.0,0.0,0,0,0.0,0.0,0,0,75.0,0.0,520.0,4522.051282051282,3930.7692307692314,4505.641025641026,4448.205128205129,4264.102564102564,4562.051282051282,4438.461538461539,4422.564102564103,4401.025641025642,4720.512820512821,4322.051282051282,4202.051282051282,4143.076923076924,4511.794871794872
34.037064,0.28391856,0.56564766,0.3339784,0.5543972,0,0.0,0.0,0.0,0.0,0.0,0,0,0.0,0.0,0,0,75.0,0.0,520.0,4522.051282051282,3930.7692307692314,4505.641025641026,4448.205128205129,4264.102564102564,4562.051282051282,4438.461538461539,4422.564102564103,4401.025641025642,4720.512820512821,4322.051282051282,4202.051282051282,4143.076923076924,4511.794871794872
34.56877,0.28810555,0.5288419,0.33391345,0.5541797,1,0.0,0.0,0.0,0.0,1.0,0,0,0.0,0.0,0,0,14.0,0.0,557.0,4673.846153846154,3953.333333333334,4507.179487179488,4444.102564102564,4252.307692307693,4551.794871794872,4393.846153846154,4344.615384615385,4351.282051282052,4694.358974358975,4294.358974358975,4184.102564102564,4165.641025641026,4556.410256410257
34.85026,0.28810555,0.5288419,0.33391345,0.5541797,0,0.0,0.0,0.0,0.0,1.0,0,0,0.0,0.0,0,0,50.0,0.0,0.0,4546.666666666667,3919.48717948718,4487.6923076923085,4433.846153846154,4256.923076923077,4556.923076923077,4406.153846153847,4377.435897435898,4389.2307692307695,4704.102564102564,4290.769230769231,4158.461538461539,4158.461538461539,4449.743589743591
35.0692,0.27807033,0.51054287,0.33385542,0.553985,0,0.0,0.0,0.0,0.0,0.66201615,0,0,0.0,0.0,0,0,78.0,0.0,557.0,4529.743589743591,3920.5128205128212,4489.743589743591,4439.48717948718,4254.358974358975,4553.333333333334,4406.666666666667,4371.282051282052,4380.512820512821,4698.461538461539,4284.102564102564,4157.948717948719,4163.589743589744,4458.461538461539
35.28814,0.27807033,0.51054287,0.33385542,0.553985,0,0.0,0.0,0.0,0.0,0.0,0,0,0.0,0.0,0,0,106.0,0.0,557.0,4533.333333333334,3935.3846153846157,4492.307692307693,4444.102564102564,4254.358974358975,4551.282051282052,4417.435897435898,4388.717948717949,4392.307692307693,4708.717948717949,4293.846153846154,4164.615384615385,4161.538461538462,4476.410256410257
35.538353,0.27672237,0.4959784,0.33380225,0.5538089,0,0.0,0.0,0.0,0.0,0.0,0,0,0.0,0.0,0,0,9.0,0.0,316.0,4586.153846153847,3931.2820512820517,4503.589743589744,4446.153846153847,4253.333333333334,4554.358974358975,4425.128205128206,4402.564102564103,4388.717948717949,4709.743589743591,4284.615384615385,4179.48717948718,4144.102564102564,4481.538461538462
35.538353,0.27672237,0.4959784,0.33380225,0.5538089,0,0.0,0.0,0.0,0.0,0.0,0,0,0.0,0.0,0,0,9.0,0.0,316.0,4586.153846153847,3931.2820512820517,4503.589743589744,4446.153846153847,4253.333333333334,4554.358974358975,4425.128205128206,4402.564102564103,4388.717948717949,4709.743589743591,4284.615384615385,4179.48717948718,4144.102564102564,4481.538461538462
36.038784,0.2750501,0.493618,0.33375442,0.5536503,0,0.0,0.0,0.0,0.0,0.0,0,0,0.0,0.0,0,0,73.0,0.0,315.0,4621.538461538462,3953.8461538461543,4521.025641025642,4452.820512820514,4252.820512820514,4550.256410256411,4443.076923076924,4421.025641025642,4387.179487179487,4713.333333333334,4298.461538461539,4203.076923076924,4146.153846153847,4504.615384615385
36.288998,0.2750501,0.493618,0.33375442,0.5536503,0,0.0,0.0,0.0,0.0,0.2519554,0,0,0.0,0.0,0,0,105.0,0.0,517.0,4637.948717948719,3956.410256410257,4492.820512820514,4446.666666666667,4248.205128205129,4548.717948717949,4424.615384615385,4403.589743589744,4383.076923076924,4711.794871794872,4291.282051282052,4180.000000000001,4141.538461538462,4485.128205128206
36.539215,0.26235208,0.50885093,0.33371127,0.5535076,0,0.0,0.0,0.0,0.0,1.0,0,0,0.0,0.0,0,1,8.0,0.0,506.0,4622.564102564103,3946.666666666667,4506.153846153847,4442.051282051282,4242.051282051282,4544.615384615385,4446.153846153847,4425.641025641026,4388.205128205129,4707.6923076923085,4292.307692307693,4210.769230769231,4129.2307692307695,4234.358974358975
36.726875,0.26235208,0.50885093,0.33371127,0.5535076,0,0.0,0.0,0.0,0.0,1.0,0,0,0.0,0.0,0,0,32.0,0.0,0.0,4584.615384615385,3941.538461538462,4507.179487179488,4444.102564102564,4244.615384615385,4539.48717948718,4437.435897435898,4421.025641025642,4392.820512820514,4714.871794871796,4308.205128205129,4215.8974358974365,4139.48717948718,4503.076923076924
37.07092,0.26128513,0.49871644,0.33367306,0.5533801,0,0.0,0.0,0.0,0.0,1.0,0,0,0.0,0.0,0,0,76.0,0.0,226.0,4670.256410256411,3959.48717948718,4505.641025641026,4442.051282051282,4237.435897435898,4529.743589743591,4423.589743589744,4396.410256410257,4370.769230769231,4707.6923076923085,4301.025641025642,4217.948717948719,4144.102564102564,4561.538461538462
37.28986,0.26128513,0.49871644,0.33367306,0.5533801,0,0.0,0.0,0.0,0.0,0.6063588,0,0,0.0,0.0,0,0,104.0,0.0,226.0,4598.974358974359,3938.461538461539,4496.923076923077,4445.128205128206,4244.615384615385,4541.538461538462,4454.871794871796,4441.538461538462,4410.256410256411,4731.282051282052,4308.205128205129,4247.179487179487,4153.333333333334,4522.051282051282
37.57135,0.24583213,0.5137813,0.33363885,0.55326563,0,0.0,0.0,0.0,0.0,0.60347,0,0,0.0,0.0,0,0,11.0,0.0,525.0,4560.000000000001,3906.666666666667,4487.6923076923085,4431.794871794872,4249.74358974359,4547.6923076923085,4480.512820512821,4463.076923076924,4422.051282051282,4743.589743589744,4326.153846153847,4258.461538461539,4223.076923076924,4554.871794871796
37.790287,0.24583213,0.5137813,0.33363885,0.55326563,0,0.0,0.0,0.0,0.0,0.7404875,0,0,0.0,0.0,0,0,39.0,0.0,0.0,4581.025641025642,3920.0000000000005,4504.615384615385,4438.461538461539,4248.205128205129,4544.615384615385,4470.769230769231,4456.410256410257,4431.794871794872,4749.2307692307695,4339.48717948718,4272.307692307693,4222.051282051282,4560.000000000001
38.040504,0.26719776,0.5069652,0.33360764,0.553162,0,0.0,0.0,0.0,0.0,0.122862,0,0,0.0,0.0,0,0,71.0,0.0,496.0,4578.461538461539,3918.461538461539,4492.820512820514,4436.410256410257,4235.8974358974365,4538.461538461539,4446.666666666667,4426.666666666667,4403.076923076924,4735.384615384616,4318.461538461539,4245.641025641026,4185.128205128206,4537.435897435898
38.290718,0.26719776,0.5069652,0.33360764,0.553162,0,0.0,0.0,0.0,0.0,0.135135,0,0,0.0,0.0,0,0,103.0,0.0,525.0,4583.589743589744,3938.461538461539,4507.179487179488,4445.128205128206,4247.179487179487,4549.743589743591,4455.8974358974365,4438.974358974359,4411.282051282052,4739.48717948718,4331.794871794872,4228.205128205129,4181.025641025642,4532.307692307693
38.540936,0.26867682,0.47710985,0.33357963,0.5530687,0,0.0,0.0,0.0,0.0,0.0,0,0,0.0,0.0,0,0,6.0,0.0,588.0,4586.666666666667,3933.333333333334,4509.2307692307695,4443.076923076924,4242.051282051282,4547.179487179488,4452.820512820514,4434.358974358975,4396.410256410257,4730.256410256411,4320.000000000001,4218.461538461539,4160.000000000001,4518.974358974359
38.79115,0.26867682,0.47710985,0.33357963,0.5530687,0,0.0,0.0,0.0,0.0,1.0,0,0,0.0,0.0,0,0,38.0,0.0,0.0,4579.48717948718,3925.1282051282055,4505.641025641026,4443.589743589744,4247.6923076923085,4547.179487179488,4458.974358974359,4439.48717948718,4409.743589743591,4740.000000000001,4340.512820512821,4237.948717948719,4187.6923076923085,4445.641025641026
39.07264,0.2938056,0.47545323,0.33355477,0.5529854,0,0.0,0.0,0.0,0.0,1.0,0,0,0.0,0.0,0,1,74.0,0.0,557.0,4587.6923076923085,3925.6410256410263,4490.769230769231,4443.589743589744,4246.153846153847,4548.717948717949,4455.384615384616,4447.6923076923085,4416.410256410257,4742.051282051282,4346.153846153847,4232.820512820514,4173.333333333334,4527.179487179488
39.29158,0.2938056,0.47545323,0.33355477,0.5529854,0,0.0,0.0,0.0,0.0,0.78513956,0,0,0.0,0.0,0,0,102.0,0.0,557.0,4597.948717948719,3932.820512820513,4495.8974358974365,4445.128205128206,4248.717948717949,4547.179487179488,4460.000000000001,4444.102564102564,4418.974358974359,4750.769230769231,4362.564102564103,4245.128205128206,4192.820512820514,4548.205128205129
39.57307,0.33889982,0.4491058,0.33353248,0.5529105,0,0.0,0.0,0.0,0.0,0.090787865,0,0,0.0,0.0,0,0,9.0,0.0,315.0,4596.410256410257,3932.307692307693,4491.794871794872,4443.076923076924,4247.179487179487,4542.564102564103,4435.384615384616,4414.358974358975,4393.846153846154,4726.666666666667,4338.974358974359,4218.974358974359,4158.974358974359,4516.923076923077
39.792007,0.33889982,0.4491058,0.33353248,0.5529105,0,0.0,0.0,0.0,0.0,0.18226752,0,0,0.0,0.0,0,0,37.0,0.0,0.0,4604.102564102564,3945.1282051282055,4507.179487179488,4445.128205128206,4249.74358974359,4548.205128205129,4444.615384615385,4414.871794871796,4403.076923076924,4733.333333333334,4352.820512820514,4229.74358974359,4175.384615384616,4498.974358974359
40.042225,0.32150942,0.4235036,0.33351216,0.55284274,0,0.0,0.0,0.0,0.0,0.7303909,0,0,0.0,0.0,0,0,69.0,0.0,572.0,4597.435897435898,3943.076923076924,4496.410256410257,4443.076923076924,4238.974358974359,4544.615384615385,4440.512820512821,4412.820512820514,4389.2307692307695,4723.589743589744,4354.358974358975,4217.435897435898,4158.974358974359,4503.589743589744
40.29244,0.32150942,0.4235036,0.33351216,0.55284274,0,0.0,0.0,0.0,0.0,0.51971984,0,0,0.0,0.0,0,0,101.0,0.0,517.0,4589.743589743591,3945.6410256410263,4505.128205128206,4445.128205128206,4242.564102564103,4544.615384615385,4439.48717948718,4403.589743589744,4389.743589743591,4724.102564102564,4349.743589743591,4225.128205128206,4146.666666666667,4490.769230769231
40.542652,0.3260194,0.4017873,0.3334939,0.5527817,0,0.0,0.0,0.0,0.0,0.0,0,0,0.0,0.0,0,0,4.0,0.0,574.0,4607.6923076923085,3946.1538461538466,4500.000000000001,4443.589743589744,4245.128205128206,4547.6923076923085,4454.358974358975,4417.948717948719,4390.769230769231,4722.051282051282,4337.948717948719,4218.461538461539,4138.461538461539,4467.179487179487
40.542652,0.3260194,0.4017873,0.3334939,0.5527817,0,0.0,0.0,0.0,0.0,0.0,0,0,0.0,0.0,0,0,4.0,0.0,574.0,4607.6923076923085,3946.1538461538466,4500.000000000001,4443.589743589744,4245.128205128206,4547.6923076923085,4454.358974358975,4417.948717948719,4390.769230769231,4722.051282051282,4337.948717948719,4218.461538461539,4138.461538461539,4467.179487179487
41.043083,0.3307624,0.37311304,0.3334774,0.5527268,0,0.0,0.0,0.0,0.0,1.0,0,0,0.0,0.0,0,0,68.0,0.0,574.0,4608.717948717949,3938.9743589743593,4502.564102564103,4436.923076923077,4244.102564102564,4540.000000000001,4442.051282051282,4401.025641025642,4383.589743589744,4721.025641025642,4326.666666666667,4206.666666666667,4142.564102564103,4515.8974358974365
41.355854,0.3307624,0.37311304,0.3334774,0.5527268,0,0.0,0.0,0.0,0.0,1.0,0,0,0.0,0.0,0,0,108.0,0.0,226.0,4578.461538461539,3931.7948717948725,4476.923076923077,4440.512820512821,4250.256410256411,4547.6923076923085,4451.282051282052,4414.871794871796,4394.871794871796,4724.102564102564,4327.6923076923085,4183.589743589744,4135.8974358974365,4488.717948717949
41.57479,0.32224593,0.35622224,0.33346283,0.55267775,0,0.0,0.0,0.0,0.0,0.7088048,0,0,0.0,0.0,0,0,7.0,0.0,496.0,4586.153846153847,3941.538461538462,4492.307692307693,4442.564102564103,4254.871794871796,4554.871794871796,4444.615384615385,4425.128205128206,4407.179487179487,4731.282051282052,4331.282051282052,4192.820512820514,4150.256410256411,4497.435897435898
41.793728,0.32224593,0.35622224,0.33346283,0.55267775,0,0.0,0.0,0.0,0.0,0.0,0,0,0.0,0.0,0,0,35.0,0.0,0.0,4633.333333333334,3950.7692307692314,4516.410256410257,4445.128205128206,4251.282051282052,4554.358974358975,4446.666666666667,4431.794871794872,4403.076923076924,4737.948717948719,4331.282051282052,4226.153846153847,4159.48717948718,4514.358974358975
42.043945,0.32735515,0.34996474,0.33344957,0.55263335,0,0.0,0.0,0.0,0.0,0.0,0,0,0.0,0.0,0,0,67.0,0.0,551.0,4608.205128205129,3943.589743589744,4504.615384615385,4446.153846153847,4253.846153846154,4555.8974358974365,4451.282051282052,4432.307692307693,4401.025641025642,4732.307692307693,4322.051282051282,4209.2307692307695,4148.717948717949,4511.282051282052
42.043945,0.32735515,0.34996474,0.33344957,0.55263335,0,0.0,0.0,0.0,0.0,0.0,0,0,0.0,0.0,0,0,67.0,0.0,551.0,4608.205128205129,3943.589743589744,4504.615384615385,4446.153846153847,4253.846153846154,4555.8974358974365,4451.282051282052,4432.307692307693,4401.025641025642,4732.307692307693,4322.051282051282,4209.2307692307695,4148.717948717949,4511.282051282052
42.544373,0.32216713,0.3475232,0.33343765,0.55259347,0,0.0,0.0,0.0,0.0,0.0,0,0,0.0,0.0,0,0,2.0,0.0,519.0,4614.871794871796,3970.2564102564106,4510.256410256411,4455.384615384616,4247.179487179487,4548.717948717949,4440.512820512821,4420.000000000001,4381.025641025642,4721.025641025642,4306.666666666667,4202.051282051282,4100.000000000001,4485.641025641026
42.79459,0.32216713,0.3475232,0.33343765,0.55259347,0,0.0,0.0,0.0,0.0,1.0,0,0,0.0,0.0,0,0,34.0,0.0,0.0,4633.333333333334,3950.7692307692314,4512.307692307693,4449.743589743591,4253.846153846154,4548.205128205129,4442.564102564103,4429.2307692307695,4407.6923076923085,4745.641025641026,4336.410256410257,4229.2307692307695,4193.333333333334,4567.179487179488
43.07608,0.32287866,0.36247438,0.33342713,0.5525579,0,0.0,0.0,0.0,0.0,0.8463905,0,0,0.0,0.0,0,0,70.0,0.0,588.0,4572.307692307693,3931.7948717948725,4475.384615384616,4443.076923076924,4254.871794871796,4553.333333333334,4446.666666666667,4412.307692307693,4381.025641025642,4721.538461538462,4311.794871794872,4190.769230769231,4149.2307692307695,4504.102564102564
43.29502,0.32287866,0.36247438,0.33342713,0.5525579,0,0.0,0.0,0.0,0.0,0.17090924,0,0,0.0,0.0,0,0,98.0,0.0,557.0,4581.538461538462,3948.717948717949,4498.974358974359,4448.717948717949,4254.871794871796,4560.512820512821,4470.769230769231,4450.256410256411,4413.846153846154,4742.051282051282,4315.8974358974365,4211.794871794872,4157.948717948719,4504.102564102564
43.545235,0.29389012,0.3614256,0.33341753,0.5525256,0,0.0,0.0,0.0,0.0,0.1264395,0,0,0.0,0.0,0,0,1.0,0.0,467.0,4586.153846153847,3947.1794871794878,4485.128205128206,4444.615384615385,4247.6923076923085,4547.179487179488,4435.384615384616,4417.435897435898,4395.384615384616,4725.641025641026,4311.794871794872,4194.358974358975,4141.538461538462,4489.2307692307695
43.79545,0.29389012,0.3614256,0.33341753,0.5525256,0,0.0,0.0,0.0,0.0,0.14896023,0,0,0.0,0.0,0,0,33.0,0.0,0.0,4573.846153846154,3944.1025641025644,4479.48717948718,4442.564102564103,4250.769230769231,4549.2307692307695,4432.307692307693,4408.205128205129,4386.153846153847,4722.051282051282,4307.6923076923085,4204.615384615385,4153.333333333334,4512.307692307693
44.045666,0.27601323,0.35114017,0.33340892,0.5524966,0,0.0,0.0,0.0,0.0,0.0,0,0,0.0,0.0,0,0,65.0,0.0,467.0,4765.641025641026,3967.1794871794878,4542.051282051282,4443.076923076924,4230.769230769231,4531.282051282052,4413.333333333334,4391.282051282052,4367.179487179487,4727.6923076923085,4327.6923076923085,4265.641025641026,4199.48717948718,4683.076923076924
44.29588,0.27601323,0.35114017,0.33340892,0.5524966,0,0.0,0.0,0.0,0.0,0.6468031,0,0,0.0,0.0,0,0,97.0,0.0,517.0,4591.282051282052,3941.538461538462,4491.282051282052,4440.512820512821,4244.615384615385,4545.641025641026,4437.948717948719,4407.6923076923085,4386.153846153847,4715.8974358974365,4315.384615384616,4207.6923076923085,4146.666666666667,4493.333333333334
44.546093,0.2713873,0.34547645,0.33340114,0.5524705,0,0.0,0.0,0.0,0.0,0.880495,0,0,0.0,0.0,0,0,0.0,0.0,506.0,4706.666666666667,3954.358974358975,4522.564102564103,4445.128205128206,4246.153846153847,4545.641025641026,4446.666666666667,4418.974358974359,4394.358974358975,4732.820512820514,4325.641025641026,4254.871794871796,4170.256410256411,4618.974358974359
44.79631,0.2713873,0.34547645,0.33340114,0.5524705,0,0.0,0.0,0.0,0.0,0.8795377,0,0,0.0,0.0,0,1,32.0,0.0,0.0,4566.666666666667,3935.3846153846157,4490.256410256411,4443.589743589744,4250.256410256411,4550.256410256411,4450.769230769231,4413.846153846154,4400.512820512821,4718.461538461539,4314.871794871796,4213.333333333334,4158.461538461539,4480.512820512821
45.0778,0.26232135,0.34016076,0.3333943,0.5524472,0,0.0,0.0,0.0,0.0,0.76158535,0,0,0.0,0.0,0,0,68.0,0.0,574.0,4561.538461538462,3932.820512820513,4495.384615384616,4443.589743589744,4247.179487179487,4547.179487179488,4450.769230769231,4414.358974358975,4390.769230769231,4714.358974358975,4307.179487179487,4211.794871794872,4145.641025641026,4510.769230769231
45.29674,0.26232135,0.34016076,0.3333943,0.5524472,0,0.0,0.0,0.0,0.0,0.21843232,0,0,0.0,0.0,0,0,96.0,0.0,226.0,4564.615384615385,3946.1538461538466,4494.871794871796,4444.615384615385,4248.717948717949,4547.6923076923085,4446.666666666667,4413.333333333334,4394.871794871796,4721.538461538462,4313.333333333334,4207.6923076923085,4144.615384615385,4519.48717948718
45.546955,0.26941812,0.3401637,0.33338806,0.55242616,0,0.0,0.0,0.0,0.0,0.425958,0,0,0.0,0.0,0,0,128.0,0.0,226.0,4570.769230769231,3941.0256410256416,4506.153846153847,4444.102564102564,4249.2307692307695,4548.717948717949,4445.641025641026,4406.666666666667,4390.256410256411,4724.102564102564,4317.435897435898,4221.025641025642,4149.74358974359,4498.461538461539
45.79717,0.26941812,0.3401637,0.33338806,0.55242616,0,0.0,0.0,0.0,0.0,0.7564687,0,0,0.0,0.0,0,1,31.0,0.0,0.0,4647.6923076923085,3949.2307692307695,4525.641025641026,4453.333333333334,4253.333333333334,4551.794871794872,4447.6923076923085,4407.6923076923085,4400.000000000001,4733.846153846154,4331.282051282052,4243.076923076924,4180.512820512821,4558.974358974359
46.047386,0.25794616,0.41561544,0.33338246,0.5524072,0,0.0,0.0,0.0,0.0,0.6822505,0,0,0.0,0.0,0,1,63.0,0.0,0.0,4603.589743589744,3942.564102564103,4493.846153846154,4442.051282051282,4243.589743589744,4543.589743589744,4437.435897435898,4405.128205128206,4391.282051282052,4713.846153846154,4313.333333333334,4197.435897435898,4141.538461538462,4506.153846153847
46.2976,0.25794616,0.41561544,0.33338246,0.5524072,0,0.0,0.0,0.0,0.0,0.31394234,0,0,0.0,0.0,0,0,95.0,0.0,523.0,4593.333333333334,3944.615384615385,4505.128205128206,4442.564102564103,4249.74358974359,4548.205128205129,4452.820512820514,4411.794871794872,4392.820512820514,4716.410256410257,4314.871794871796,4211.282051282052,4133.333333333334,4484.102564102564
46.547813,0.25509614,0.42365268,0.33337742,0.55239016,0,0.0,0.0,0.0,0.0,0.0,0,0,0.0,0.0,0,0,127.0,0.0,523.0,4583.589743589744,3943.589743589744,4497.948717948719,4444.102564102564,4255.8974358974365,4557.435897435898,4442.051282051282,4404.615384615385,4401.538461538462,4719.48717948718,4320.000000000001,4198.461538461539,4151.794871794872,4510.769230769231
46.547813,0.25509614,0.42365268,0.33337742,0.55239016,0,0.0,0.0,0.0,0.0,0.0,0,0,0.0,0.0,0,0,127.0,0.0,523.0,4583.589743589744,3943.589743589744,4497.948717948719,4444.102564102564,4255.8974358974365,4557.435897435898,4442.051282051282,4404.615384615385,4401.538461538462,4719.48717948718,4320.000000000001,4198.461538461539,4151.794871794872,4510.769230769231
47.048244,0.24970612,0.4221702,0.3333729,0.55237484,0,0.0,0.0,0.0,0.0,0.0,0,0,0.0,0.0,0,0,62.0,0.0,0.0,4605.128205128206,3959.48717948718,4500.512820512821,4444.102564102564,4242.564102564103,4544.615384615385,4429.2307692307695,4408.717948717949,4380.512820512821,4711.794871794872,4309.2307692307695,4211.282051282052,4122.051282051282,4495.384615384616
47.29846,0.24970612,0.4221702,0.3333729,0.55237484,0,0.0,0.0,0.0,0.0,0.9555423,0,0,0.0,0.0,0,1,94.0,0.0,557.0,4574.871794871796,3944.615384615385,4499.48717948718,4445.128205128206,4251.282051282052,4546.666666666667,4446.153846153847,4415.8974358974365,4391.794871794872,4716.923076923077,4314.871794871796,4209.2307692307695,4140.000000000001,4503.589743589744
47.579952,0.24406426,0.42465585,0.3333689,0.5523612,0,0.0,0.0,0.0,0.0,0.72040784,0,0,0.0,0.0,0,0,1.0,0.0,467.0,4569.743589743591,3934.8717948717954,4494.358974358975,4444.102564102564,4254.871794871796,4555.384615384616,4462.564102564103,4437.435897435898,4406.666666666667,4727.179487179488,4325.641025641026,4225.128205128206,4171.794871794872,4511.282051282052
47.79889,0.24406426,0.42465585,0.3333689,0.5523612,0,0.0,0.0,0.0,0.0,0.16706614,0,0,0.0,0.0,0,0,29.0,0.0,0.0,4591.794871794872,3950.2564102564106,4506.666666666667,4445.641025641026,4243.589743589744,4546.666666666667,4436.923076923077,4408.205128205129,4389.743589743591,4723.076923076924,4331.794871794872,4222.564102564103,4153.846153846154,4501.025641025642
48.049107,0.23925656,0.42373094,0.33336526,0.5523488,0,0.0,0.0,0.0,0.0,0.1826158,0,0,0.0,0.0,0,0,61.0,0.0,0.0,4577.435897435898,3927.692307692308,4488.717948717949,4438.461538461539,4243.589743589744,4546.153846153847,4455.8974358974365,4441.025641025642,4408.205128205129,4743.076923076924,4343.589743589744,4222.564102564103,4178.461538461539,4529.743589743591
48.29932,0.23925656,0.42373094,0.33336526,0.5523488,0,0.0,0.0,0.0,0.0,0.7969726,0,0,0.0,0.0,0,0,93.0,0.0,518.0,4772.307692307693,3962.0512820512827,4549.2307692307695,4441.538461538462,4238.974358974359,4542.051282051282,4437.435897435898,4418.974358974359,4388.717948717949,4740.512820512821,4357.948717948719,4304.102564102564,4224.102564102564,4724.615384615386
48.58081,0.24602556,0.44652018,0.33336204,0.55233777,0,0.0,0.0,0.0,0.0,0.7419357,0,0,0.0,0.0,0,0,0.0,0.0,506.0,4588.717948717949,3941.0256410256416,4508.205128205129,4444.102564102564,4255.8974358974365,4556.923076923077,4458.461538461539,4457.435897435898,4418.974358974359,4725.641025641026,4340.512820512821,4235.8974358974365,4175.8974358974365,4549.2307692307695
48.79975,0.24602556,0.44652018,0.33336204,0.55233777,0,0.0,0.0,0.0,0.0,0.6320356,0,0,0.0,0.0,0,0,28.0,0.0,0.0,4566.153846153847,3968.717948717949,4508.717948717949,4458.974358974359,4258.461538461539,4563.076923076924,4448.205128205129,4434.871794871796,4404.615384615385,4723.076923076924,4326.666666666667,4218.461538461539,4144.615384615385,4534.358974358975
49.049965,0.25505173,0.46769464,0.33335912,0.5523278,0,0.0,0.0,0.0,0.0,0.18923542,0,0,0.0,0.0,0,0,60.0,0.0,0.0,4543.589743589744,3952.307692307693,4496.410256410257,4444.615384615385,4245.128205128206,4546.666666666667,4438.461538461539,4419.48717948718,4380.000000000001,4707.6923076923085,4307.179487179487,4194.358974358975,4105.641025641026,4503.076923076924
49.30018,0.25505173,0.46769464,0.33335912,0.5523278,0,0.0,0.0,0.0,0.0,0.145071,0,0,0.0,0.0,0,0,92.0,0.0,222.0,4577.435897435898,3946.1538461538466,4492.307692307693,4435.8974358974365,4231.282051282052,4533.333333333334,4422.564102564103,4406.666666666667,4379.48717948718,4711.794871794872,4316.410256410257,4193.846153846154,4126.666666666667,4523.589743589744
49.550396,0.25737375,0.46288952,0.3333565,0.5523188,0,0.0,0.0,0.0,0.0,0.0,0,0,0.0,0.0,0,0,124.0,0.0,222.0,4605.128205128206,3941.0256410256416,4507.6923076923085,4437.435897435898,4231.794871794872,4536.410256410257,4437.435897435898,4418.461538461539,4387.6923076923085,4730.256410256411,4339.48717948718,4232.307692307693,4181.025641025642,4579.48717948718
49.550396,0.25737375,0.46288952,0.3333565,0.5523188,0,0.0,0.0,0.0,0.0,0.0,0,0,0.0,0.0,0,0,124.0,0.0,222.0,4605.128205128206,3941.0256410256416,4507.6923076923085,4437.435897435898,4231.794871794872,4536.410256410257,4437.435897435898,4418.461538461539,4387.6923076923085,4730.256410256411,4339.48717948718,4232.307692307693,4181.025641025642,4579.48717948718
50.050827,0.26031592,0.45679095,0.33335412,0.5523107,0,0.0,0.0,0.0,0.0,0.0,0,0,0.0,0.0,0,0,59.0,0.0,0.0,4782.051282051282,3963.076923076924,4553.333333333334,4436.923076923077,4217.948717948719,4521.025641025642,4420.512820512821,4406.666666666667,4375.8974358974365,4741.538461538462,4352.307692307693,4262.564102564103,4192.820512820514,4690.769230769231
50.30104,0.26031592,0.45679095,0.33335412,0.5523107,0,0.0,0.0,0.0,0.0,0.65844876,0,0,0.0,0.0,0,0,91.0,0.0,521.0,4567.6923076923085,3933.333333333334,4493.846153846154,4430.256410256411,4221.025641025642,4524.102564102564,4421.538461538462,4411.794871794872,4390.256410256411,4713.333333333334,4342.564102564103,4212.307692307693,4161.025641025642,4531.282051282052
50.58253,0.29110837,0.44481033,0.33335203,0.5523035,0,0.0,0.0,0.0,0.0,1.0,0,0,0.0,0.0,0,0,127.0,0.0,521.0,4565.641025641026,3936.9230769230776,4495.384615384616,4442.564102564103,4232.307692307693,4539.48717948718,4425.641025641026,4411.794871794872,4398.461538461539,4722.564102564103,4337.948717948719,4203.589743589744,4160.512820512821,4508.717948717949
50.80147,0.29110837,0.44481033,0.33335203,0.5523035,0,0.0,0.0,0.0,0.0,0.38150504,0,0,0.0,0.0,0,0,26.0,0.0,0.0,4553.846153846154,3927.692307692308,4491.794871794872,4427.179487179487,4226.153846153847,4528.205128205129,4422.051282051282,4393.333333333334,4372.307692307693,4706.666666666667,4327.179487179487,4192.307692307693,4140.512820512821,4509.743589743591
51.051685,0.3090608,0.43169504,0.3333501,0.55229694,0,0.0,0.0,0.0,0.0,0.4274134,0,0,0.0,0.0,0,0,58.0,0.0,0.0,4525.641025641026,3929.7435897435903,4474.871794871796,4427.6923076923085,4239.48717948718,4542.051282051282,4413.846153846154,4385.128205128206,4382.564102564103,4705.128205128206,4320.512820512821,4178.461538461539,4169.2307692307695,4502.564102564103
51.3019,0.3090608,0.43169504,0.3333501,0.55229694,1,0.0,0.0,0.0,0.0,0.5966088,0,0,0.0,0.0,0,0,90.0,0.0,557.0,4560.000000000001,3920.0000000000005,4500.512820512821,4429.743589743591,4236.923076923077,4545.641025641026,4418.461538461539,4408.717948717949,4403.076923076924,4727.6923076923085,4342.564102564103,4220.512820512821,4238.974358974359,4542.564102564103
51.552116,0.34165224,0.4818144,0.3333484,0.5522911,1,0.0,0.0,0.0,0.0,0.87014306,0,0,0.0,0.0,0,0,122.0,0.0,557.0,4508.717948717949,3903.589743589744,4460.000000000001,4426.153846153847,4249.2307692307695,4558.461538461539,4442.564102564103,4426.153846153847,4409.2307692307695,4723.589743589744,4333.846153846154,4184.615384615385,4223.589743589744,4477.435897435898
51.80233,0.34165224,0.4818144,0.3333484,0.5522911,0,0.0,0.0,0.0,0.0,0.6476623,0,0,0.0,0.0,0,0,25.0,0.0,0.0,4508.205128205129,3903.589743589744,4451.794871794872,4424.615384615385,4237.948717948719,4543.076923076924,4418.974358974359,4402.564102564103,4394.358974358975,4712.820512820514,4313.846153846154,4162.051282051282,4201.538461538462,4472.307692307693
52.052544,0.34681678,0.54062766,0.33334684,0.5522858,0,0.0,0.0,0.0,0.0,0.7815676,0,0,0.0,0.0,0,0,57.0,0.0,0.0,4535.8974358974365,3935.3846153846157,4482.051282051282,4430.769230769231,4239.48717948718,4546.153846153847,4417.948717948719,4399.48717948718,4368.717948717949,4700.000000000001,4301.025641025642,4170.769230769231,4136.923076923077,4451.794871794872
52.30276,0.34681678,0.54062766,0.33334684,0.5522858,0,0.0,0.0,0.0,0.0,0.47187743,0,0,0.0,0.0,0,0,89.0,0.0,518.0,4538.461538461539,3931.2820512820517,4484.615384615385,4431.794871794872,4238.461538461539,4540.000000000001,4421.025641025642,4396.923076923077,4365.128205128206,4699.48717948718,4287.179487179487,4189.74358974359,4138.974358974359,4463.076923076924
52.552975,0.33866954,0.53998506,0.33334547,0.552281,0,0.0,0.0,0.0,0.0,0.5486206,0,0,0.0,0.0,0,0,121.0,0.0,518.0,4537.435897435898,3923.076923076924,4490.256410256411,4428.205128205129,4231.794871794872,4534.358974358975,4405.128205128206,4388.717948717949,4363.589743589744,4698.461538461539,4295.8974358974365,4191.794871794872,4165.641025641026,4477.948717948719
52.803192,0.33866954,0.53998506,0.33334547,0.552281,0,0.0,0.0,0.0,0.0,0.6651703,0,0,0.0,0.0,0,0,24.0,0.0,0.0,4535.384615384616,3930.7692307692314,4495.8974358974365,4429.743589743591,4231.794871794872,4532.307692307693,4418.974358974359,4395.384615384616,4361.025641025642,4698.974358974359,4289.74358974359,4208.205128205129,4146.666666666667,4485.641025641026
53.053406,0.33194283,0.6225116,0.33334422,0.55227673,0,0.0,0.0,0.0,0.0,1.0,0,0,0.0,0.0,0,1,56.0,0.0,0.0,4553.846153846154,3941.538461538462,4508.205128205129,4436.923076923077,4240.000000000001,4545.641025641026,4439.48717948718,4423.589743589744,4381.538461538462,4709.743589743591,4306.153846153847,4221.538461538462,4153.333333333334,4490.256410256411
53.334896,0.33194283,0.6225116,0.33334422,0.55227673,0,0.0,0.0,0.0,0.0,0.6408908,0,0,0.0,0.0,0,0,92.0,0.0,221.0,4522.564102564103,3924.1025641025644,4505.641025641026,4430.256410256411,4234.358974358975,4538.974358974359,4447.179487179487,4441.025641025642,4394.871794871796,4717.435897435898,4314.871794871796,4242.051282051282,4174.358974358975,4517.435897435898
53.553837,0.31165534,0.6130085,0.3333431,0.56163365,0,0.0,0.0,0.0,0.0,0.22272408,0,0,0.0,0.0,0,0,120.0,0.0,221.0,4544.615384615385,3917.435897435898,4496.923076923077,4426.666666666667,4230.769230769231,4540.512820512821,4430.256410256411,4421.538461538462,4378.974358974359,4709.2307692307695,4307.179487179487,4236.410256410257,4155.384615384616,4516.410256410257
53.80405,0.31165534,0.6130085,0.3333431,0.56163365,0,0.0,0.0,0.0,0.0,0.20871013,0,0,0.0,0.0,0,0,23.0,0.0,0.0,4562.051282051282,3945.1282051282055,4502.564102564103,4443.589743589744,4238.461538461539,4541.538461538462,4436.923076923077,4421.025641025642,4382.564102564103,4708.717948717949,4302.564102564103,4210.256410256411,4141.538461538462,4518.461538461539
54.054264,0.30258644,0.5998793,0.33334208,0.5817344,0,0.0,0.0,0.0,0.0,0.48729628,0,0,0.0,0.0,0,0,55.0,0.0,0.0,4557.435897435898,3930.7692307692314,4491.794871794872,4427.179487179487,4220.000000000001,4523.589743589744,4424.615384615385,4413.333333333334,4370.769230769231,4698.974358974359,4295.384615384616,4208.205128205129,4124.615384615385,4488.717948717949
54.30448,0.30258644,0.5998793,0.33334208,0.5817344,0,0.0,0.0,0.0,0.0,0.25982335,0,0,0.0,0.0,0,0,87.0,0.0,522.0,4555.8974358974365,3955.8974358974365,4506.153846153847,4449.743589743591,4220.000000000001,4530.769230769231,4428.717948717949,4416.410256410257,4377.435897435898,4701.025641025642,4302.051282051282,4210.256410256411,4128.717948717949,4493.333333333334
54.554695,0.30922943,0.59562474,0.33406535,0.59981865,0,0.0,0.0,0.0,0.0,0.0,0,0,0.0,0.0,0,0,119.0,0.0,522.0,4538.461538461539,3926.666666666667,4462.564102564103,4433.846153846154,4225.128205128206,4533.333333333334,4449.743589743591,4437.948717948719,4398.461538461539,4718.461538461539,4322.564102564103,4226.666666666667,4192.820512820514,4544.615384615385
54.804913,0.30922943,0.59562474,0.33406535,0.59981865,0,0.0,0.0,0.0,0.0,1.0,0,0,0.0,0.0,0,0,22.0,0.0,0.0,4589.2307692307695,3926.666666666667,4503.589743589744,4434.871794871796,4229.2307692307695,4535.384615384616,4459.48717948718,4457.435897435898,4411.282051282052,4733.333333333334,4330.769230769231,4264.102564102564,4196.923076923077,4551.282051282052
55.055126,0.32174003,0.56166035,0.33483943,0.61854166,0,0.0,0.0,0.0,0.0,0.1922553,0,0,0.0,0.0,0,0,54.0,0.0,0.0,4569.2307692307695,3930.2564102564106,4489.2307692307695,4438.461538461539,4228.205128205129,4532.820512820514,4448.717948717949,4446.153846153847,4415.8974358974365,4731.794871794872,4331.794871794872,4238.974358974359,4197.435897435898,4549.2307692307695
55.30534,0.32174003,0.56166035,0.33483943,0.61854166,0,0.0,0.0,0.0,0.0,0.09109612,0,0,0.0,0.0,0,0,86.0,0.0,557.0,4553.333333333334,3933.8461538461543,4488.717948717949,4432.820512820514,4227.179487179487,4533.846153846154,4446.666666666667,4418.974358974359,4396.923076923077,4716.923076923077,4338.461538461539,4229.2307692307695,4186.153846153847,4541.538461538462
55.555557,0.29754004,0.53999764,0.33553588,0.6353716,0,0.0,0.0,0.0,0.0,0.0,0,0,0.0,0.0,0,0,118.0,0.0,557.0,4584.102564102564,3946.666666666667,4500.512820512821,4444.102564102564,4234.358974358975,4534.358974358975,4447.179487179487,4424.102564102564,4388.205128205129,4709.743589743591,4327.179487179487,4210.769230769231,4141.538461538462,4506.666666666667
55.80577,0.29754004,0.53999764,0.33553588,0.6353716,0,0.0,0.0,0.0,0.0,0.80534023,0,0,0.0,0.0,0,0,21.0,0.0,0.0,4549.2307692307695,3928.717948717949,4488.717948717949,4433.333333333334,4220.000000000001,4519.48717948718,4431.794871794872,4412.307692307693,4382.051282051282,4701.538461538462,4331.282051282052,4205.128205128206,4144.615384615385,4484.102564102564
56.055984,0.2844988,0.5125916,0.3361623,0.65350384,0,0.0,0.0,0.0,0.0,0.43076983,0,0,0.0,0.0,0,0,53.0,0.0,0.0,4549.2307692307695,3928.205128205129,4490.769230769231,4437.435897435898,4232.820512820514,4534.871794871796,4441.025641025642,4412.820512820514,4378.974358974359,4704.102564102564,4329.743589743591,4212.820512820514,4160.512820512821,4505.128205128206
56.306202,0.2844988,0.5125916,0.3361623,0.65350384,1,0.0,0.0,0.0,0.0,0.84029615,0,0,0.0,0.0,0,0,85.0,0.0,518.0,4582.564102564103,3935.3846153846157,4479.48717948718,4433.846153846154,4228.717948717949,4531.282051282052,4432.307692307693,4406.153846153847,4376.923076923077,4695.8974358974365,4327.179487179487,4215.8974358974365,4145.641025641026,4510.769230769231
56.556416,0.26242894,0.5295049,0.33845633,0.66861206,0,0.0,0.0,0.0,0.0,0.854685,0,0,0.0,0.0,0,0,117.0,0.0,518.0,4561.538461538462,3934.8717948717954,4470.769230769231,4442.051282051282,4238.461538461539,4540.000000000001,4442.051282051282,4405.128205128206,4381.538461538462,4699.48717948718,4320.000000000001,4200.512820512821,4139.48717948718,4473.333333333334
56.80663,0.26242894,0.5295049,0.33845633,0.66861206,0,0.0,0.0,0.0,0.0,0.26756746,0,0,0.0,0.0,0,0,20.0,0.0,0.0,4543.076923076924,3932.307692307693,4467.6923076923085,4431.794871794872,4227.179487179487,4532.820512820514,4422.564102564103,4390.256410256411,4363.589743589744,4687.6923076923085,4304.102564102564,4190.769230769231,4125.128205128206,4455.8974358974365
57.056847,0.2590726,0.5560035,0.34122032,0.6821623,1,0.0,0.0,0.0,0.0,0.77686,0,0,0.0,0.0,0,0,52.0,0.0,0.0,4657.948717948719,3949.2307692307695,4505.641025641026,4443.589743589744,4223.076923076924,4543.076923076924,4427.6923076923085,4398.461538461539,4373.846153846154,4705.128205128206,4311.794871794872,4223.589743589744,4154.358974358975,4536.923076923077
57.30706,0.2590726,0.5560035,0.34122032,0.6821623,0,0.0,0.0,0.0,0.0,0.7304502,0,0,0.0,0.0,0,0,84.0,0.0,220.0,4548.717948717949,3939.48717948718,4485.128205128206,4443.589743589744,4236.410256410257,4549.743589743591,4449.743589743591,4426.666666666667,4402.564102564103,4712.820512820514,4315.384615384616,4219.48717948718,4157.948717948719,4491.794871794872
57.557278,0.24242322,0.5626875,0.3437066,0.7004232,0,0.0,0.0,0.0,0.0,0.0,0,0,0.0,0.0,0,0,116.0,0.0,220.0,4538.461538461539,3917.435897435898,4486.666666666667,4434.871794871796,4235.8974358974365,4546.153846153847,4461.538461538462,4444.615384615385,4409.743589743591,4720.512820512821,4324.102564102564,4224.102564102564,4173.846153846154,4512.820512820514
57.80749,0.24242322,0.5626875,0.3437066,0.7004232,0,0.0,0.0,0.0,0.0,0.95945686,0,0,0.0,0.0,0,0,19.0,0.0,0.0,4580.512820512821,3957.435897435898,4502.051282051282,4444.102564102564,4235.384615384616,4544.102564102564,4437.948717948719,4413.333333333334,4373.333333333334,4694.871794871796,4291.794871794872,4193.333333333334,4096.410256410257,4458.461538461539
58.08898,0.24798563,0.5764902,0.34596512,0.71708786,0,0.0,0.0,0.0,0.0,0.6544192,0,0,0.0,0.0,0,0,55.0,0.0,0.0,4566.153846153847,3954.8717948717954,4492.307692307693,4443.076923076924,4235.384615384616,4544.102564102564,4428.717948717949,4404.615384615385,4376.923076923077,4695.384615384616,4290.256410256411,4197.948717948719,4109.2307692307695,4471.282051282052
58.307922,0.24798563,0.5764902,0.34596512,0.71708786,0,0.0,0.0,0.0,0.0,0.8244528,0,0,0.0,0.0,0,0,83.0,0.0,522.0,4619.48717948718,3927.1794871794878,4458.974358974359,4444.615384615385,4232.307692307693,4535.8974358974365,4433.333333333334,4416.410256410257,4389.2307692307695,4712.307692307693,4328.717948717949,4251.794871794872,4197.435897435898,4567.6923076923085
58.558136,0.23520178,0.58857,0.3461123,0.72372794,0,0.0,0.0,0.0,0.0,0.78496855,0,0,0.0,0.0,0,0,115.0,0.0,522.0,4547.179487179488,3920.5128205128212,4442.564102564103,4444.102564102564,4232.307692307693,4531.794871794872,4444.615384615385,4429.743589743591,4379.48717948718,4704.615384615386,4321.538461538462,4220.000000000001,4155.384615384616,4486.666666666667
58.80835,0.23520178,0.58857,0.3461123,0.72372794,0,0.0,0.0,0.0,0.0,0.8978001,0,0,0.0,0.0,0,0,18.0,0.0,0.0,4613.846153846154,3976.9230769230776,4464.102564102564,4461.025641025642,4246.666666666667,4538.974358974359,4414.871794871796,4390.256410256411,4353.846153846154,4681.025641025642,4291.794871794872,4182.051282051282,4080.5128205128212,4444.615384615385
59.058567,0.23318794,0.59960854,0.34481162,0.7161939,0,0.0,0.0,0.0,0.0,0.90854204,0,0,0.0,0.0,0,0,50.0,0.0,0.0,4577.435897435898,3946.1538461538466,4462.564102564103,4446.666666666667,4247.179487179487,4544.102564102564,4426.153846153847,4415.384615384616,4369.743589743591,4690.769230769231,4287.6923076923085,4199.48717948718,4112.820512820514,4448.205128205129
59.30878,0.23318794,0.59960854,0.34481162,0.7161939,0,0.0,0.0,0.0,0.0,0.22737925,0,0,0.0,0.0,0,0,82.0,0.0,557.0,4566.153846153847,3949.7435897435903,4460.000000000001,4443.589743589744,4238.461538461539,4533.333333333334,4418.974358974359,4405.128205128206,4357.948717948719,4678.974358974359,4287.179487179487,4194.358974358975,4099.48717948718,4433.333333333334
59.559,0.27481183,0.6278516,0.34363905,0.6995334,0,0.0,0.0,0.0,0.0,0.24795716,0,0,0.0,0.0,0,0,114.0,0.0,557.0,4570.256410256411,3946.1538461538466,4461.025641025642,4443.076923076924,4250.256410256411,4544.615384615385,4433.333333333334,4413.846153846154,4366.666666666667,4685.128205128206,4287.6923076923085,4195.8974358974365,4118.461538461539,4437.948717948719
59.684105,0.27481183,0.6278516,0.34363905,0.6995334,0,0.0,0.0,0.0,0.0,1.0,0,0,0.0,0.0,0,0,1.0,0.0,467.0,4571.794871794872,3936.9230769230776,4474.358974358975,4440.000000000001,4240.000000000001,4538.974358974359,4430.769230769231,4424.102564102564,4368.205128205129,4689.743589743591,4288.717948717949,4206.666666666667,4117.435897435898,4462.051282051282
60.090702,0.26110396,0.6460332,0.34259835,0.6847644,0,0.0,0.0,0.0,0.0,1.0,0,0,0.0,0.0,0,0,53.0,0.0,0.0,4609.2307692307695,3934.8717948717954,4489.743589743591,4434.358974358975,4238.974358974359,4531.282051282052,4435.384615384616,4415.384615384616,4364.615384615385,4694.871794871796,4300.000000000001,4226.666666666667,4140.000000000001,4502.564102564103
60.34092,0.26110396,0.6460332,0.34259835,0.6847644,1,0.0,0.0,0.0,0.0,0.94993573,0,0,0.0,0.0,0,0,85.0,0.0,518.0,4658.974358974359,3937.435897435898,4490.769230769231,4429.743589743591,4232.307692307693,4531.794871794872,4430.256410256411,4413.333333333334,4360.512820512821,4693.333333333334,4292.307692307693,4225.128205128206,4126.153846153847,4520.512820512821
60.591133,0.29117024,0.6662973,0.3416661,0.6714723,0,0.0,0.0,0.0,0.0,0.8360954,0,0,0.0,0.0,0,0,117.0,0.0,518.0,4549.743589743591,3905.6410256410263,4457.435897435898,4428.205128205129,4208.205128205129,4490.769230769231,4415.384615384616,4389.743589743591,4344.615384615385,4679.48717948718,4290.769230769231,4206.666666666667,4108.205128205129,4472.307692307693
60.81007,0.29117024,0.6662973,0.3416661,0.6714723,0,0.0,0.0,0.0,0.0,0.70748585,0,0,0.0,0.0,0,0,16.0,0.0,0.0,4547.6923076923085,3920.5128205128212,4473.846153846154,4435.384615384616,4240.512820512821,4533.846153846154,4438.461538461539,4413.333333333334,4368.205128205129,4699.48717948718,4308.717948717949,4211.282051282052,4131.282051282052,4486.666666666667
61.060287,0.30676213,0.6316602,0.34081772,0.6593965,0,0.0,0.0,0.0,0.0,0.0,0,0,0.0,0.0,0,0,48.0,0.0,0.0,4565.641025641026,3915.3846153846157,4487.6923076923085,4434.358974358975,4244.615384615385,4544.102564102564,4452.820512820514,4430.256410256411,4400.512820512821,4716.923076923077,4311.282051282052,4232.307692307693,4172.307692307693,4507.179487179488
61.3105,0.30676213,0.6316602,0.34081772,0.6593965,0,0.0,0.0,0.0,0.0,0.13598871,0,0,0.0,0.0,0,0,80.0,0.0,218.0,4590.769230769231,3930.2564102564106,4507.6923076923085,4442.564102564103,4245.641025641026,4548.205128205129,4448.717948717949,4433.846153846154,4395.384615384616,4725.641025641026,4308.205128205129,4241.538461538462,4178.461538461539,4531.794871794872
61.560715,0.33318445,0.59835035,0.34005475,0.6485452,0,0.0,0.0,0.0,0.0,0.45908213,0,0,0.0,0.0,0,0,112.0,0.0,218.0,4583.076923076924,3944.1025641025644,4510.256410256411,4454.871794871796,4264.615384615385,4567.6923076923085,4466.666666666667,4434.358974358975,4402.051282051282,4730.256410256411,4304.102564102564,4235.384615384616,4167.6923076923085,4524.615384615385
61.810932,0.33318445,0.59835035,0.34005475,0.6485452,0,0.0,0.0,0.0,0.0,0.5275886,0,0,0.0,0.0,0,0,15.0,0.0,522.0,4709.2307692307695,3992.820512820513,4537.435897435898,4458.461538461539,4242.564102564103,4543.589743589744,4414.871794871796,4389.743589743591,4357.435897435898,4714.358974358975,4292.307692307693,4233.333333333334,4129.74358974359,4548.205128205129
62.092422,0.33286956,0.596414,0.33937755,0.63887954,0,0.0,0.0,0.0,0.0,0.47080132,0,0,0.0,0.0,0,0,51.0,0.0,0.0,4580.000000000001,3937.9487179487182,4503.076923076924,4444.102564102564,4246.666666666667,4549.2307692307695,4449.743589743591,4433.333333333334,4388.717948717949,4726.666666666667,4295.384615384616,4224.102564102564,4144.615384615385,4501.025641025642
62.311363,0.33286956,0.596414,0.33937755,0.63887954,0,0.0,0.0,0.0,0.0,0.31349137,0,0,0.0,0.0,0,0,79.0,0.0,522.0,4583.076923076924,3941.538461538462,4490.769230769231,4446.666666666667,4255.384615384616,4555.384615384616,4446.666666666667,4433.846153846154,4394.358974358975,4729.743589743591,4304.102564102564,4207.179487179487,4159.48717948718,4501.025641025642
62.561577,0.33049288,0.5716383,0.33875987,0.63010484,0,0.0,0.0,0.0,0.0,0.0,0,0,0.0,0.0,0,0,111.0,0.0,522.0,4618.461538461539,3946.666666666667,4523.076923076924,4449.743589743591,4258.974358974359,4556.923076923077,4464.102564102564,4442.564102564103,4400.000000000001,4736.410256410257,4321.025641025642,4241.538461538462,4171.282051282052,4514.358974358975
62.561577,0.33049288,0.5716383,0.33875987,0.63010484,0,0.0,0.0,0.0,0.0,0.0,0,0,0.0,0.0,0,0,111.0,0.0,522.0,4618.461538461539,3946.666666666667,4523.076923076924,4449.743589743591,4258.974358974359,4556.923076923077,4464.102564102564,4442.564102564103,4400.000000000001,4736.410256410257,4321.025641025642,4241.538461538462,4171.282051282052,4514.358974358975
63.062008,0.3492402,0.5509293,0.33820558,0.6222236,0,0.0,0.0,0.0,0.0,0.0,0,0,0.0,0.0,0,0,46.0,0.0,0.0,4603.589743589744,3946.666666666667,4506.666666666667,4441.025641025642,4247.179487179487,4547.6923076923085,4441.538461538462,4409.743589743591,4380.000000000001,4717.948717948719,4314.871794871796,4228.717948717949,4148.717948717949,4483.589743589744
63.31222,0.3492402,0.5509293,0.33820558,0.6222236,0,0.0,0.0,0.0,0.0,1.0,0,0,0.0,0.0,0,0,78.0,0.0,557.0,4601.025641025642,3943.076923076924,4509.743589743591,4443.589743589744,4252.307692307693,4552.820512820514,4468.717948717949,4440.512820512821,4404.102564102564,4729.743589743591,4312.820512820514,4245.641025641026,4164.615384615385,4502.564102564103
63.59371,0.3171202,0.5253464,0.3377147,0.6151998,0,0.0,0.0,0.0,0.0,1.0,0,0,0.0,0.0,0,0,114.0,0.0,557.0,4614.871794871796,3952.307692307693,4517.435897435898,4450.769230769231,4257.435897435898,4558.974358974359,4455.384615384616,4431.794871794872,4391.282051282052,4727.179487179488,4316.410256410257,4238.974358974359,4161.025641025642,4513.846153846154
63.84393,0.3171202,0.5253464,0.3377147,0.6151998,0,0.0,0.0,0.0,0.0,0.781158,0,0,0.0,0.0,0,1,17.0,0.0,0.0,4633.846153846154,3940.5128205128212,4513.846153846154,4442.564102564103,4250.769230769231,4551.794871794872,4454.871794871796,4424.102564102564,4384.102564102564,4720.512820512821,4324.102564102564,4253.846153846154,4157.435897435898,4515.8974358974365
64.09415,0.30722347,0.49933505,0.3372739,0.608885,0,0.0,0.0,0.0,0.0,0.0,0,0,0.0,0.0,0,1,49.0,0.0,0.0,4602.564102564103,3939.48717948718,4517.948717948719,4443.076923076924,4251.282051282052,4550.769230769231,4451.282051282052,4426.666666666667,4392.307692307693,4722.564102564103,4320.000000000001,4248.717948717949,4160.000000000001,4500.512820512821
64.18797,0.30722347,0.49933505,0.3372739,0.608885,0,0.0,0.0,0.0,0.0,0.0,0,0,0.0,0.0,0,0,61.0,0.0,0.0,4583.589743589744,3925.1282051282055,4513.333333333334,4443.589743589744,4251.794871794872,4554.358974358975,4456.410256410257,4444.102564102564,4417.435897435898,4740.000000000001,4346.666666666667,4276.923076923077,4233.846153846154,4561.538461538462
64.56329,0.2946416,0.47533944,0.3368728,0.60316586,0,0.0,0.0,0.0,0.0,0.0,0,0,0.0,0.0,0,0,109.0,0.0,518.0,4590.769230769231,3934.8717948717954,4503.589743589744,4442.051282051282,4247.179487179487,4547.6923076923085,4451.282051282052,4416.410256410257,4395.8974358974365,4716.923076923077,4334.871794871796,4236.410256410257,4178.461538461539,4508.205128205129
64.68841,0.2946416,0.47533944,0.3368728,0.60316586,0,0.0,0.0,0.0,0.0,1.0,0,0,0.0,0.0,0,0,125.0,0.0,518.0,4575.8974358974365,3925.6410256410263,4488.205128205129,4441.538461538462,4241.538461538462,4543.076923076924,4453.333333333334,4422.051282051282,4384.102564102564,4715.384615384616,4329.743589743591,4222.564102564103,4171.282051282052,4490.769230769231
65.095,0.2889953,0.4489675,0.3365176,0.5980645,0,0.0,0.0,0.0,0.0,1.0,0,0,0.0,0.0,0,0,48.0,0.0,0.0,4753.333333333334,3968.717948717949,4527.6923076923085,4447.179487179487,4229.74358974359,4533.846153846154,4427.6923076923085,4407.6923076923085,4377.435897435898,4721.025641025642,4330.256410256411,4267.6923076923085,4197.948717948719,4651.794871794872
65.34522,0.2889953,0.4489675,0.3365176,0.5980645,0,0.0,0.0,0.0,0.0,0.66669166,0,0,0.0,0.0,0,0,80.0,0.0,216.0,4592.820512820514,3942.564102564103,4490.256410256411,4444.102564102564,4237.948717948719,4538.461538461539,4434.871794871796,4408.717948717949,4378.974358974359,4710.769230769231,4326.153846153847,4228.717948717949,4162.564102564103,4498.461538461539
65.564156,0.2793982,0.4677322,0.33619297,0.59343547,0,0.0,0.0,0.0,0.0,0.59314746,0,0,0.0,0.0,0,0,108.0,0.0,216.0,4579.48717948718,3936.9230769230776,4495.384615384616,4447.179487179487,4248.717948717949,4547.179487179488,4467.179487179487,4446.666666666667,4408.205128205129,4726.666666666667,4328.205128205129,4242.051282051282,4183.589743589744,4505.641025641026
65.81437,0.2793982,0.4677322,0.33619297,0.59343547,0,0.0,0.0,0.0,0.0,0.7127001,0,0,0.0,0.0,0,0,11.0,0.0,522.0,4718.974358974359,3950.7692307692314,4520.512820512821,4447.179487179487,4238.461538461539,4535.384615384616,4434.871794871796,4417.435897435898,4380.000000000001,4723.589743589744,4332.820512820514,4258.974358974359,4201.538461538462,4623.589743589744
66.09586,0.25755098,0.49610054,0.33590537,0.5893044,0,0.0,0.0,0.0,0.0,0.96005934,0,0,0.0,0.0,0,0,47.0,0.0,0.0,4574.358974358975,3940.0000000000005,4503.076923076924,4450.769230769231,4244.102564102564,4543.589743589744,4439.48717948718,4410.256410256411,4386.153846153847,4708.205128205129,4318.461538461539,4224.615384615385,4146.153846153847,4483.076923076924
66.314804,0.25755098,0.49610054,0.33590537,0.5893044,0,0.0,0.0,0.0,0.0,1.0,0,0,0.0,0.0,0,0,75.0,0.0,522.0,4590.769230769231,3938.9743589743593,4504.615384615385,4448.205128205129,4246.153846153847,4547.179487179488,4438.974358974359,4415.8974358974365,4386.153846153847,4710.769230769231,4313.333333333334,4224.102564102564,4155.384615384616,4497.948717948719
66.56502,0.2372917,0.49152425,0.33564317,0.58556104,0,0.0,0.0,0.0,0.0,0.33872476,0,0,0.0,0.0,0,0,107.0,0.0,522.0,4589.743589743591,3953.8461538461543,4502.564102564103,4455.384615384616,4248.205128205129,4548.717948717949,4433.846153846154,4415.8974358974365,4368.717948717949,4697.948717948719,4295.384615384616,4203.076923076924,4117.948717948719,4477.435897435898
66.81523,0.2372917,0.49152425,0.33564317,0.58556104,0,0.0,0.0,0.0,0.0,0.2685389,0,0,0.0,0.0,0,0,10.0,0.0,557.0,4617.435897435898,3951.7948717948725,4507.6923076923085,4450.769230769231,4244.615384615385,4546.153846153847,4438.461538461539,4425.641025641026,4379.48717948718,4703.076923076924,4306.153846153847,4226.666666666667,4135.384615384616,4486.153846153847
67.065445,0.24550828,0.5142121,0.3354073,0.5821932,0,0.0,0.0,0.0,0.0,0.0,0,0,0.0,0.0,0,0,42.0,0.0,0.0,4621.538461538462,3958.9743589743593,4521.025641025642,4458.974358974359,4250.256410256411,4549.743589743591,4435.384615384616,4418.974358974359,4380.512820512821,4700.512820512821,4310.769230769231,4231.794871794872,4157.435897435898,4496.923076923077
67.065445,0.24550828,0.5142121,0.3354073,0.5821932,0,0.0,0.0,0.0,0.0,0.0,0,0,0.0,0.0,0,0,42.0,0.0,0.0,4621.538461538462,3958.9743589743593,4521.025641025642,4458.974358974359,4250.256410256411,4549.743589743591,4435.384615384616,4418.974358974359,4380.512820512821,4700.512820512821,4310.769230769231,4231.794871794872,4157.435897435898,4496.923076923077
67.56588,0.26457518,0.52506125,0.33519515,0.57916343,0,0.0,0.0,0.0,0.0,0.84492725,0,0,0.0,0.0,0,0,106.0,0.0,557.0,4607.6923076923085,3930.2564102564106,4506.666666666667,4448.205128205129,4250.769230769231,4554.358974358975,4446.153846153847,4440.000000000001,4405.128205128206,4718.461538461539,4329.743589743591,4255.8974358974365,4206.153846153847,4502.051282051282
67.81609,0.26457518,0.52506125,0.33519515,0.57916343,0,0.0,0.0,0.0,0.0,0.8926258,0,0,0.0,0.0,0,0,9.0,0.0,311.0,4607.6923076923085,3932.307692307693,4512.307692307693,4445.641025641026,4244.615384615385,4550.256410256411,4453.846153846154,4441.025641025642,4402.564102564103,4715.384615384616,4327.6923076923085,4256.923076923077,4189.2307692307695,4510.769230769231
68.09759,0.2663528,0.51064426,0.33500722,0.57645845,0,0.0,0.0,0.0,0.0,0.44047722,0,0,0.0,0.0,0,0,45.0,0.0,0.0,4622.564102564103,3943.076923076924,4509.743589743591,4443.589743589744,4245.641025641026,4549.743589743591,4444.615384615385,4435.384615384616,4391.794871794872,4712.820512820514,4324.615384615385,4247.179487179487,4160.000000000001,4474.871794871796
68.31652,0.2663528,0.51064426,0.33500722,0.57645845,0,0.0,0.0,0.0,0.0,0.31407538,0,0,0.0,0.0,0,0,73.0,0.0,311.0,4637.948717948719,3957.435897435898,4507.179487179488,4450.256410256411,4236.410256410257,4533.846153846154,4423.076923076924,4400.000000000001,4349.743589743591,4682.564102564103,4296.410256410257,4206.666666666667,4106.153846153847,4448.205128205129
68.566734,0.2740309,0.5071152,0.33483624,0.57401055,0,0.0,0.0,0.0,0.0,0.18726982,0,0,0.0,0.0,0,0,105.0,0.0,518.0,4620.512820512821,3954.358974358975,4493.846153846154,4444.615384615385,4237.435897435898,4534.871794871796,4423.589743589744,4404.102564102564,4360.512820512821,4688.717948717949,4303.076923076924,4208.205128205129,4128.717948717949,4477.948717948719
68.816956,0.2740309,0.5071152,0.33483624,0.57401055,0,0.0,0.0,0.0,0.0,0.9326163,0,0,0.0,0.0,0,1,8.0,0.0,506.0,4637.435897435898,3942.0512820512827,4505.128205128206,4445.641025641026,4245.641025641026,4541.025641025642,4435.8974358974365,4413.333333333334,4369.2307692307695,4697.948717948719,4314.358974358975,4226.666666666667,4144.615384615385,4479.48717948718
69.06717,0.27854586,0.55581826,0.3346828,0.5718106,0,0.0,0.0,0.0,0.0,0.73244077,0,0,0.0,0.0,0,1,40.0,0.0,0.0,4607.6923076923085,3932.820512820513,4492.820512820514,4440.512820512821,4241.538461538462,4542.564102564103,4434.358974358975,4420.512820512821,4376.410256410257,4701.025641025642,4317.435897435898,4221.538461538462,4147.179487179487,4477.435897435898
69.31738,0.27854586,0.55581826,0.3346828,0.5718106,0,0.0,0.0,0.0,0.0,0.66800016,0,0,0.0,0.0,0,0,72.0,0.0,506.0,4575.8974358974365,3935.8974358974365,4491.282051282052,4442.051282051282,4245.128205128206,4550.769230769231,4459.48717948718,4451.794871794872,4394.358974358975,4709.743589743591,4329.2307692307695,4213.846153846154,4163.076923076924,4472.307692307693
69.59888,0.26527554,0.54645234,0.33454686,0.5698464,0,0.0,0.0,0.0,0.0,0.5867238,0,0,0.0,0.0,0,0,108.0,0.0,214.0,4601.538461538462,3936.410256410257,4510.256410256411,4443.589743589744,4241.538461538462,4542.051282051282,4443.076923076924,4423.076923076924,4381.025641025642,4706.153846153847,4329.2307692307695,4244.102564102564,4173.333333333334,4513.846153846154
69.81781,0.26527554,0.54645234,0.33454686,0.5698464,0,0.0,0.0,0.0,0.0,0.18773785,0,0,0.0,0.0,0,0,7.0,0.0,496.0,4598.974358974359,3916.9230769230776,4491.794871794872,4428.205128205129,4240.000000000001,4538.974358974359,4437.948717948719,4419.48717948718,4384.102564102564,4707.6923076923085,4336.410256410257,4222.051282051282,4166.153846153847,4510.256410256411
70.06803,0.25969872,0.5271616,0.33442295,0.568067,0,0.0,0.0,0.0,0.0,0.24161866,0,0,0.0,0.0,0,0,39.0,0.0,0.0,4602.564102564103,3941.0256410256416,4500.512820512821,4441.025641025642,4242.051282051282,4542.564102564103,4444.615384615385,4420.512820512821,4370.769230769231,4702.051282051282,4322.564102564103,4212.820512820514,4132.307692307693,4500.000000000001
70.318245,0.25969872,0.5271616,0.33442295,0.568067,0,0.0,0.0,0.0,0.0,0.0,0,0,0.0,0.0,0,0,71.0,0.0,496.0,4588.205128205129,3934.358974358975,4490.769230769231,4434.358974358975,4237.435897435898,4540.512820512821,4422.051282051282,4403.589743589744,4371.794871794872,4697.948717948719,4320.512820512821,4204.102564102564,4134.871794871796,4486.666666666667
70.56846,0.25952283,0.50540686,0.3343117,0.56646776,0,0.0,0.0,0.0,0.0,0.0,0,0,0.0,0.0,0,0,103.0,0.0,522.0,4585.128205128206,3931.2820512820517,4490.256410256411,4430.256410256411,4238.461538461539,4544.102564102564,4440.000000000001,4421.538461538462,4380.512820512821,4700.000000000001,4327.6923076923085,4219.48717948718,4156.923076923077,4515.8974358974365
70.56846,0.25952283,0.50540686,0.3343117,0.56646776,0,0.0,0.0,0.0,0.0,0.0,0,0,0.0,0.0,0,0,103.0,0.0,522.0,4585.128205128206,3931.2820512820517,4490.256410256411,4430.256410256411,4238.461538461539,4544.102564102564,4440.000000000001,4421.538461538462,4380.512820512821,4700.000000000001,4327.6923076923085,4219.48717948718,4156.923076923077,4515.8974358974365
71.10017,0.27418712,0.48064587,0.33421317,0.5650398,0,0.0,0.0,0.0,0.0,0.7510154,0,0,0.0,0.0,0,0,42.0,0.0,0.0,4549.743589743591,3909.2307692307695,4506.153846153847,4431.282051282052,4242.564102564103,4546.153846153847,4451.282051282052,4441.025641025642,4386.666666666667,4718.974358974359,4345.641025641026,4240.512820512821,4191.282051282052,4524.102564102564
71.3191,0.27418712,0.48064587,0.33421317,0.5650398,0,0.0,0.0,0.0,0.0,0.2570148,0,0,0.0,0.0,0,0,70.0,0.0,588.0,4550.256410256411,3932.307692307693,4492.307692307693,4438.974358974359,4246.153846153847,4551.794871794872,4450.256410256411,4452.820512820514,4404.102564102564,4728.717948717949,4346.153846153847,4242.051282051282,4179.48717948718,4527.179487179488
71.56932,0.30233255,0.46797958,0.3341233,0.5637462,0,0.0,0.0,0.0,0.0,0.0,0,0,0.0,0.0,0,0,102.0,0.0,557.0,4571.794871794872,3927.1794871794878,4496.410256410257,4431.282051282052,4237.435897435898,4537.948717948719,4435.8974358974365,4425.128205128206,4380.000000000001,4715.384615384616,4351.794871794872,4229.74358974359,4175.8974358974365,4513.333333333334
71.56932,0.30233255,0.46797958,0.3341233,0.5637462,0,0.0,0.0,0.0,0.0,0.0,0,0,0.0,0.0,0,0,102.0,0.0,557.0,4571.794871794872,3927.1794871794878,4496.410256410257,4431.282051282052,4237.435897435898,4537.948717948719,4435.8974358974365,4425.128205128206,4380.000000000001,4715.384615384616,4351.794871794872,4229.74358974359,4175.8974358974365,4513.333333333334
72.06975,0.29621103,0.45025772,0.3340427,0.5625836,0,0.0,0.0,0.0,0.0,0.0,0,0,0.0,0.0,0,0,37.0,0.0,0.0,4553.846153846154,3940.0000000000005,4480.512820512821,4432.307692307693,4234.358974358975,4533.846153846154,4434.871794871796,4405.128205128206,4362.564102564103,4693.333333333334,4317.948717948719,4189.2307692307695,4116.410256410257,4467.6923076923085
72.06975,0.29621103,0.45025772,0.3340427,0.5625836,0,0.0,0.0,0.0,0.0,0.0,0,0,0.0,0.0,0,0,37.0,0.0,0.0,4553.846153846154,3940.0000000000005,4480.512820512821,4432.307692307693,4234.358974358975,4533.846153846154,4434.871794871796,4405.128205128206,4362.564102564103,4693.333333333334,4317.948717948719,4189.2307692307695,4116.410256410257,4467.6923076923085
72.601456,0.29135203,0.45059633,0.33397016,0.5615377,0,0.0,0.0,0.0,0.0,0.7783222,0,0,0.0,0.0,0,0,105.0,0.0,518.0,4553.846153846154,3924.1025641025644,4491.282051282052,4435.8974358974365,4239.48717948718,4541.025641025642,4433.333333333334,4408.717948717949,4381.538461538462,4699.48717948718,4326.666666666667,4203.589743589744,4155.8974358974365,4462.564102564103
72.8204,0.29135203,0.45059633,0.33397016,0.5615377,0,0.0,0.0,0.0,0.0,0.96139956,0,0,0.0,0.0,0,0,4.0,0.0,574.0,4554.871794871796,3942.564102564103,4492.820512820514,4444.102564102564,4248.205128205129,4546.666666666667,4450.769230769231,4429.2307692307695,4386.666666666667,4700.512820512821,4320.000000000001,4220.000000000001,4141.538461538462,4470.256410256411
73.07061,0.2753966,0.4415851,0.33390495,0.5605965,0,0.0,0.0,0.0,0.0,0.3532915,0,0,0.0,0.0,0,0,36.0,0.0,0.0,4565.128205128206,3933.333333333334,4491.794871794872,4438.461538461539,4237.435897435898,4537.948717948719,4433.846153846154,4409.2307692307695,4374.871794871796,4698.461538461539,4328.717948717949,4223.076923076924,4152.307692307693,4482.051282051282
73.32082,0.2753966,0.4415851,0.33390495,0.5605965,0,0.0,0.0,0.0,0.0,1.0,0,0,0.0,0.0,0,0,68.0,0.0,574.0,4764.615384615386,3966.1538461538466,4556.410256410257,4445.641025641026,4239.48717948718,4540.512820512821,4444.615384615385,4436.923076923077,4392.820512820514,4731.794871794872,4359.48717948718,4302.564102564103,4233.333333333334,4658.974358974359
73.57104,0.2990793,0.45147973,0.3338464,0.5597506,0,0.0,0.0,0.0,0.0,0.81814384,0,0,0.0,0.0,0,1,100.0,0.0,212.0,4577.948717948719,3924.1025641025644,4496.923076923077,4460.000000000001,4241.025641025642,4543.589743589744,4451.794871794872,4442.564102564103,4397.948717948719,4713.846153846154,4343.589743589744,4250.256410256411,4187.179487179487,4492.820512820514
73.82125,0.2990793,0.45147973,0.3338464,0.5597506,0,0.0,0.0,0.0,0.0,0.5049647,0,0,0.0,0.0,0,0,3.0,0.0,551.0,4561.538461538462,3926.1538461538466,4503.589743589744,4445.641025641026,4244.102564102564,4545.641025641026,4447.179487179487,4436.923076923077,4397.435897435898,4713.333333333334,4347.6923076923085,4249.74358974359,4187.6923076923085,4492.307692307693
74.071465,0.30023775,0.4685866,0.33552322,0.59051585,0,0.0,0.0,0.0,0.0,0.332967,0,0,0.0,0.0,0,0,35.0,0.0,0.0,4569.743589743591,3941.0256410256416,4487.6923076923085,4442.051282051282,4236.410256410257,4540.000000000001,4433.333333333334,4411.282051282052,4366.153846153847,4694.871794871796,4321.025641025642,4218.461538461539,4134.358974358975,4467.179487179487
74.321686,0.30023775,0.4685866,0.33552322,0.59051585,0,0.0,0.0,0.0,0.0,0.54376626,0,0,0.0,0.0,0,0,67.0,0.0,551.0,4700.512820512821,3958.461538461539,4525.128205128206,4445.128205128206,4240.000000000001,4545.128205128206,4440.000000000001,4415.8974358974365,4379.48717948718,4717.948717948719,4335.384615384616,4262.564102564103,4173.333333333334,4575.384615384616
74.60317,0.31308657,0.4852805,0.33848357,0.63342744,0,0.0,0.0,0.0,0.0,0.8111898,0,0,0.0,0.0,0,0,103.0,0.0,522.0,4590.769230769231,3936.410256410257,4505.128205128206,4441.025641025642,4240.512820512821,4543.076923076924,4429.743589743591,4404.615384615385,4379.48717948718,4700.000000000001,4324.102564102564,4220.000000000001,4135.8974358974365,4463.589743589744
74.82211,0.31308657,0.4852805,0.33848357,0.63342744,0,0.0,0.0,0.0,0.0,1.0,0,0,0.0,0.0,0,0,2.0,0.0,517.0,4603.076923076924,3932.820512820513,4496.923076923077,4435.8974358974365,4241.538461538462,4542.051282051282,4428.717948717949,4406.153846153847,4380.000000000001,4707.6923076923085,4329.2307692307695,4232.307692307693,4160.000000000001,4499.48717948718
75.07233,0.2948888,0.5047278,0.34149984,0.6719857,0,0.0,0.0,0.0,0.0,0.57999873,0,0,0.0,0.0,0,0,34.0,0.0,0.0,4610.769230769231,3927.692307692308,4498.461538461539,4431.794871794872,4235.8974358974365,4532.307692307693,4419.48717948718,4403.076923076924,4382.564102564103,4706.153846153847,4325.641025641026,4243.076923076924,4173.333333333334,4488.205128205129
75.32254,0.2948888,0.5047278,0.34149984,0.6719857,1,0.0,0.0,0.0,0.0,0.8157995,0,0,0.0,0.0,0,0,66.0,0.0,517.0,4597.435897435898,3943.589743589744,4491.794871794872,4438.974358974359,4242.564102564103,4539.48717948718,4419.48717948718,4397.948717948719,4369.2307692307695,4696.923076923077,4310.256410256411,4222.564102564103,4142.051282051282,4497.948717948719
75.604034,0.27891603,0.51600075,0.3442312,0.70684576,0,0.0,0.0,0.0,0.0,0.7200303,0,0,0.0,0.0,0,0,102.0,0.0,557.0,4569.743589743591,3924.1025641025644,4478.974358974359,4428.717948717949,4237.948717948719,4534.871794871796,4438.461538461539,4410.769230769231,4387.6923076923085,4710.256410256411,4320.512820512821,4220.512820512821,4149.74358974359,4492.820512820514
75.822975,0.27891603,0.51600075,0.3442312,0.70684576,0,0.0,0.0,0.0,0.0,0.25557846,0,0,0.0,0.0,0,0,1.0,0.0,467.0,4571.794871794872,3930.7692307692314,4474.871794871796,4436.410256410257,4240.000000000001,4535.8974358974365,4432.307692307693,4406.153846153847,4377.435897435898,4706.666666666667,4313.333333333334,4205.641025641026,4145.641025641026,4482.051282051282
76.07319,0.25668615,0.5456924,0.34638557,0.717952,0,0.0,0.0,0.0,0.0,0.13609752,0,0,0.0,0.0,0,0,33.0,0.0,0.0,4616.410256410257,3949.7435897435903,4487.179487179488,4443.076923076924,4247.179487179487,4543.076923076924,4440.512820512821,4417.948717948719,4388.717948717949,4714.358974358975,4313.846153846154,4237.435897435898,4164.102564102564,4524.102564102564
76.35468,0.25668615,0.5456924,0.34638557,0.717952,0,0.0,0.0,0.0,0.0,0.0,0,0,0.0,0.0,0,0,69.0,0.0,572.0,4551.282051282052,3924.1025641025644,4462.564102564103,4433.846153846154,4246.153846153847,4534.871794871796,4447.179487179487,4413.846153846154,4379.48717948718,4704.615384615386,4310.769230769231,4226.666666666667,4147.179487179487,4489.743589743591
76.573616,0.25232986,0.5485349,0.34651482,0.71270245,0,0.0,0.0,0.0,0.0,1.0,0,0,0.0,0.0,0,0,97.0,0.0,518.0,4573.846153846154,3924.615384615385,4498.974358974359,4441.538461538462,4245.128205128206,4540.512820512821,4440.512820512821,4414.871794871796,4375.384615384616,4700.512820512821,4310.256410256411,4231.282051282052,4147.179487179487,4327.6923076923085
76.573616,0.25232986,0.5485349,0.34651482,0.71270245,0,0.0,0.0,0.0,0.0,1.0,0,0,0.0,0.0,0,0,97.0,0.0,518.0,4573.846153846154,3924.615384615385,4498.974358974359,4441.538461538462,4245.128205128206,4540.512820512821,4440.512820512821,4414.871794871796,4375.384615384616,4700.512820512821,4310.256410256411,4231.282051282052,4147.179487179487,4327.6923076923085
77.10532,0.22716253,0.5501994,0.34519452,0.6966428,0,0.0,0.0,0.0,0.0,0.26441336,0,0,0.0,0.0,0,0,36.0,0.0,0.0,4583.076923076924,3950.2564102564106,4496.410256410257,4448.205128205129,4252.307692307693,4547.179487179488,4449.743589743591,4434.358974358975,4390.769230769231,4716.410256410257,4320.000000000001,4227.179487179487,4152.820512820514,4500.000000000001
77.324265,0.22716253,0.5501994,0.34519452,0.6966428,0,0.0,0.0,0.0,0.0,0.18918131,0,0,0.0,0.0,0,0,64.0,0.0,506.0,4575.8974358974365,3932.307692307693,4488.205128205129,4437.948717948719,4240.512820512821,4530.256410256411,4431.282051282052,4411.794871794872,4367.6923076923085,4705.128205128206,4320.512820512821,4220.000000000001,4146.153846153847,4491.282051282052
77.57448,0.21994337,0.5606711,0.34398875,0.68200046,1,0.0,0.0,0.0,0.0,0.79789555,0,0,0.0,0.0,0,0,96.0,0.0,211.0,4586.153846153847,3939.48717948718,4497.948717948719,4445.128205128206,4244.615384615385,4541.025641025642,4441.025641025642,4417.948717948719,4373.333333333334,4706.666666666667,4331.794871794872,4222.564102564103,4153.333333333334,4492.307692307693
77.82469,0.21994337,0.5606711,0.34398875,0.68200046,0,0.0,0.0,0.0,0.0,0.77950156,0,0,0.0,0.0,0,0,128.0,0.0,211.0,4586.666666666667,3945.6410256410263,4493.846153846154,4447.179487179487,4256.410256410257,4550.256410256411,4442.564102564103,4427.6923076923085,4388.717948717949,4712.820512820514,4329.2307692307695,4224.615384615385,4158.974358974359,4500.000000000001
78.074905,0.20254704,0.5551009,0.3429019,0.6688343,0,0.0,0.0,0.0,0.0,0.77233464,0,0,0.0,0.0,0,0,31.0,0.0,0.0,4633.333333333334,3948.717948717949,4498.974358974359,4445.128205128206,4247.179487179487,4541.538461538462,4448.205128205129,4431.282051282052,4390.769230769231,4721.025641025642,4343.076923076924,4238.974358974359,4177.435897435898,4539.48717948718
78.3564,0.20254704,0.5551009,0.3429019,0.6688343,0,0.0,0.0,0.0,0.0,0.66364026,0,0,0.0,0.0,0,0,67.0,0.0,551.0,4588.717948717949,3936.410256410257,4490.769230769231,4445.128205128206,4258.461538461539,4550.769230769231,4455.8974358974365,4432.307692307693,4389.2307692307695,4717.948717948719,4336.410256410257,4223.589743589744,4167.179487179487,4487.179487179488
78.60661,0.19310069,0.547053,0.34193838,0.657134,0,0.0,0.0,0.0,0.0,0.7376254,0,0,0.0,0.0,0,0,99.0,0.0,522.0,4680.000000000001,3949.7435897435903,4514.358974358975,4450.769230769231,4246.666666666667,4539.48717948718,4441.025641025642,4428.717948717949,4390.256410256411,4730.769230769231,4345.641025641026,4253.846153846154,4201.538461538462,4584.102564102564
78.825554,0.19310069,0.547053,0.34193838,0.657134,0,0.0,0.0,0.0,0.0,0.8604908,0,0,0.0,0.0,0,0,127.0,0.0,522.0,4581.538461538462,3928.205128205129,4502.564102564103,4446.666666666667,4252.307692307693,4545.641025641026,4461.538461538462,4445.128205128206,4394.871794871796,4727.6923076923085,4353.846153846154,4251.794871794872,4183.589743589744,4513.846153846154
79.07577,0.20010558,0.75420994,0.3410604,0.6465057,0,0.0,0.0,0.0,0.0,0.4923192,0,0,0.0,0.0,0,0,30.0,0.0,0.0,4583.076923076924,3934.8717948717954,4494.358974358975,4445.128205128206,4249.2307692307695,4538.461538461539,4446.153846153847,4437.948717948719,4388.205128205129,4726.666666666667,4349.2307692307695,4243.589743589744,4187.179487179487,4514.358974358975
79.32598,0.20010558,0.75420994,0.3410604,0.6465057,0,0.0,0.0,0.0,0.0,0.18202761,0,0,0.0,0.0,0,0,62.0,0.0,0.0,4584.102564102564,3930.7692307692314,4492.307692307693,4443.076923076924,4244.615384615385,4539.48717948718,4444.102564102564,4435.8974358974365,4386.666666666667,4721.025641025642,4337.948717948719,4219.48717948718,4175.384615384616,4501.538461538462
79.5762,0.23497236,0.7382869,0.34027234,0.63696164,0,0.0,0.0,0.0,0.0,0.0,0,0,0.0,0.0,0,0,94.0,0.0,557.0,4595.384615384616,3945.1282051282055,4507.179487179488,4457.435897435898,4259.48717948718,4553.846153846154,4457.435897435898,4450.769230769231,4397.948717948719,4732.307692307693,4344.615384615385,4249.74358974359,4197.435897435898,4533.333333333334
79.5762,0.23497236,0.7382869,0.34027234,0.63696164,0,0.0,0.0,0.0,0.0,0.0,0,0,0.0,0.0,0,0,94.0,0.0,557.0,4595.384615384616,3945.1282051282055,4507.179487179488,4457.435897435898,4259.48717948718,4553.846153846154,4457.435897435898,4450.769230769231,4397.948717948719,4732.307692307693,4344.615384615385,4249.74358974359,4197.435897435898,4533.333333333334
80.07663,0.25675362,0.7213159,0.33956358,0.628381,0,0.0,0.0,0.0,0.0,0.0,0,0,0.0,0.0,0,0,29.0,0.0,0.0,4571.282051282052,3942.0512820512827,4504.102564102564,4453.846153846154,4259.48717948718,4555.384615384616,4461.025641025642,4456.410256410257,4405.128205128206,4731.282051282052,4344.615384615385,4237.435897435898,4182.564102564103,4509.2307692307695
80.35812,0.25675362,0.7213159,0.33956358,0.628381,1,0.0,0.0,0.0,0.0,0.0,0,0,0.0,0.0,0,0,65.0,0.0,467.0,4682.564102564103,3956.9230769230776,4530.769230769231,4452.820512820514,4249.2307692307695,4545.641025641026,4444.102564102564,4438.461538461539,4390.769230769231,4734.358974358975,4365.641025641026,4287.6923076923085,4211.794871794872,4576.410256410257
80.57706,0.2573228,0.67892724,0.3389247,0.6206646,0,0.0,0.0,0.0,0.0,0.0,0,0,0.0,0.0,0,0,93.0,0.0,518.0,4593.333333333334,3950.2564102564106,4502.564102564103,4451.282051282052,4254.871794871796,4549.2307692307695,4447.6923076923085,4434.871794871796,4395.384615384616,4726.666666666667,4358.974358974359,4254.358974358975,4173.846153846154,4525.128205128206
80.82727,0.2573228,0.67892724,0.3389247,0.6206646,0,0.0,0.0,0.0,0.0,0.7366735,0,0,0.0,0.0,0,0,125.0,0.0,518.0,4580.000000000001,3937.435897435898,4491.794871794872,4452.307692307693,4255.8974358974365,4550.769230769231,4452.307692307693,4435.8974358974365,4395.8974358974365,4727.6923076923085,4347.179487179487,4235.8974358974365,4184.102564102564,4519.48717948718
81.108765,0.2510117,0.6412484,0.3383582,0.6137913,0,0.0,0.0,0.0,0.0,0.17913666,0,0,0.0,0.0,0,0,32.0,0.0,0.0,4594.358974358975,3942.0512820512827,4508.205128205129,4446.666666666667,4250.769230769231,4547.179487179488,4442.564102564103,4430.769230769231,4396.410256410257,4728.205128205129,4341.538461538462,4244.615384615385,4181.538461538462,4532.307692307693
81.35898,0.2510117,0.6412484,0.3383582,0.6137913,0,0.0,0.0,0.0,0.0,0.77212834,0,0,0.0,0.0,1,0,64.0,0.0,506.0,4647.6923076923085,3957.9487179487182,4511.794871794872,4449.2307692307695,4242.564102564103,4537.948717948719,4420.512820512821,4412.307692307693,4373.333333333334,4715.8974358974365,4328.205128205129,4240.512820512821,4164.615384615385,4547.179487179488
81.6092,0.25636998,0.61611253,0.33785075,0.6076242,0,0.0,0.0,0.0,0.0,0.7282482,0,0,0.0,0.0,1,0,96.0,0.0,209.0,4585.128205128206,3944.615384615385,4498.461538461539,4444.102564102564,4249.74358974359,4547.179487179488,4436.410256410257,4422.051282051282,4389.743589743591,4718.461538461539,4317.948717948719,4232.307692307693,4155.384615384616,4487.6923076923085
81.82813,0.25636998,0.61611253,0.33785075,0.6076242,0,0.0,0.0,0.0,0.0,0.23770581,0,0,0.0,0.0,0,0,124.0,0.0,209.0,4585.641025641026,3952.307692307693,4503.076923076924,4447.6923076923085,4246.666666666667,4547.6923076923085,4453.333333333334,4432.820512820514,4390.256410256411,4713.846153846154,4300.000000000001,4220.512820512821,4129.2307692307695,4477.948717948719
82.07835,0.25869936,0.6224286,0.33739057,0.6020403,0,0.0,0.0,0.0,0.0,0.7963085,0,0,0.0,0.0,0,0,27.0,0.0,0.0,4618.974358974359,3938.9743589743593,4509.2307692307695,4442.051282051282,4242.564102564103,4535.8974358974365,4435.384615384616,4426.666666666667,4390.769230769231,4727.6923076923085,4329.743589743591,4262.051282051282,4210.256410256411,4552.820512820514
82.32857,0.25869936,0.6224286,0.33739057,0.6020403,0,0.0,0.0,0.0,0.0,0.82723653,0,0,0.0,0.0,0,0,59.0,0.0,0.0,4578.461538461539,3931.7948717948725,4489.743589743591,4440.512820512821,4244.615384615385,4538.461538461539,4440.512820512821,4427.179487179487,4392.307692307693,4725.128205128206,4327.179487179487,4238.974358974359,4186.666666666667,4482.564102564103
82.57878,0.2373412,0.60826164,0.3369777,0.59701216,0,0.0,0.0,0.0,0.0,0.24510652,0,0,0.0,0.0,0,0,91.0,0.0,522.0,4565.128205128206,3928.717948717949,4488.205128205129,4443.589743589744,4243.589743589744,4537.435897435898,4435.8974358974365,4419.48717948718,4390.256410256411,4722.564102564103,4328.205128205129,4223.076923076924,4180.512820512821,4484.615384615385
82.828995,0.2373412,0.60826164,0.3369777,0.59701216,0,0.0,0.0,0.0,0.0,0.3989757,0,0,0.0,0.0,0,0,123.0,0.0,522.0,4597.948717948719,3933.333333333334,4482.564102564103,4439.48717948718,4236.923076923077,4531.794871794872,4423.076923076924,4405.641025641026,4381.538461538462,4716.410256410257,4326.666666666667,4217.435897435898,4180.000000000001,4501.538461538462
83.11049,0.23124619,0.5842467,0.3366108,0.5925234,0,0.0,0.0,0.0,0.0,0.36686465,0,0,0.0,0.0,0,0,30.0,0.0,0.0,4594.871794871796,3928.205128205129,4504.615384615385,4434.358974358975,4229.2307692307695,4524.102564102564,4423.589743589744,4401.025641025642,4366.666666666667,4710.256410256411,4322.564102564103,4238.461538461539,4164.615384615385,4485.128205128206
83.32942,0.23124619,0.5842467,0.3366108,0.5925234,0,0.0,0.0,0.0,0.0,0.20010556,0,0,0.0,0.0,0,0,58.0,0.0,0.0,4578.461538461539,3938.461538461539,4492.820512820514,4443.076923076924,4238.461538461539,4530.769230769231,4436.410256410257,4417.435897435898,4379.48717948718,4715.8974358974365,4322.051282051282,4228.205128205129,4164.102564102564,4478.974358974359
83.579636,0.22352585,0.53971845,0.3362765,0.5884522,0,0.0,0.0,0.0,0.0,0.0,0,0,0.0,0.0,0,0,90.0,0.0,557.0,4589.743589743591,3928.205128205129,4471.282051282052,4429.743589743591,4237.948717948719,4530.256410256411,4428.205128205129,4415.8974358974365,4375.384615384616,4712.307692307693,4318.974358974359,4211.282051282052,4158.974358974359,4463.589743589744
83.82986,0.22352585,0.53971845,0.3362765,0.5884522,0,0.0,0.0,0.0,0.0,0.9230348,0,0,0.0,0.0,0,0,122.0,0.0,557.0,4693.333333333334,3947.692307692308,4516.923076923077,4444.615384615385,4243.076923076924,4538.461538461539,4442.564102564103,4418.974358974359,4370.769230769231,4720.512820512821,4335.384615384616,4261.025641025642,4190.256410256411,4552.307692307693
84.08007,0.26276925,0.50242937,0.33598065,0.58482134,0,0.0,0.0,0.0,0.0,0.7965751,0,0,0.0,0.0,0,0,25.0,0.0,0.0,4620.512820512821,3944.615384615385,4496.410256410257,4446.153846153847,4244.102564102564,4537.948717948719,4440.000000000001,4418.974358974359,4367.6923076923085,4714.358974358975,4331.794871794872,4231.794871794872,4175.384615384616,4512.820512820514
84.330284,0.26276925,0.50242937,0.33598065,0.58482134,1,0.0,0.0,0.0,0.0,0.9668295,0,0,0.0,0.0,0,0,57.0,0.0,0.0,4527.179487179488,3930.7692307692314,4477.435897435898,4441.025641025642,4244.615384615385,4542.051282051282,4432.820512820514,4427.179487179487,4388.717948717949,4716.923076923077,4331.794871794872,4205.641025641026,4153.846153846154,4424.615384615385
84.5805,0.27214605,0.4813511,0.335715,0.58155715,0,0.0,0.0,0.0,0.0,0.85597575,0,0,0.0,0.0,0,0,89.0,0.0,518.0,4554.358974358975,3927.692307692308,4489.2307692307695,4438.974358974359,4241.538461538462,4535.8974358974365,4450.769230769231,4426.153846153847,4377.435897435898,4712.307692307693,4351.794871794872,4211.794871794872,4157.435897435898,4465.641025641026
84.705605,0.27214605,0.4813511,0.335715,0.58155715,1,0.0,0.0,0.0,0.0,1.0,0,0,0.0,0.0,0,0,105.0,0.0,518.0,4609.743589743591,3947.1794871794878,4526.153846153847,4446.153846153847,4243.589743589744,4540.512820512821,4450.256410256411,4443.589743589744,4392.820512820514,4730.256410256411,4364.102564102564,4270.769230769231,4193.333333333334,4534.358974358975
85.08093,0.2834449,0.59358037,0.33547294,0.5786002,0,0.0,0.0,0.0,0.0,0.5583748,0,0,0.0,0.0,0,0,24.0,0.0,0.0,4556.410256410257,3924.1025641025644,4506.666666666667,4443.589743589744,4247.6923076923085,4542.051282051282,4451.794871794872,4427.6923076923085,4374.871794871796,4712.307692307693,4343.589743589744,4237.435897435898,4153.846153846154,4486.153846153847
85.33115,0.2834449,0.59358037,0.33547294,0.5786002,0,0.0,0.0,0.0,0.0,0.13729233,0,0,0.0,0.0,0,0,56.0,0.0,0.0,4578.974358974359,3929.2307692307695,4505.641025641026,4437.435897435898,4236.923076923077,4531.282051282052,4439.48717948718,4412.820512820514,4365.641025641026,4706.153846153847,4344.102564102564,4245.128205128206,4156.923076923077,4503.076923076924
85.58136,0.2911873,0.6950814,0.33525527,0.57594,0,0.0,0.0,0.0,0.0,0.17680766,0,0,0.0,0.0,0,0,88.0,0.0,206.0,4595.384615384616,3916.410256410257,4474.871794871796,4418.974358974359,4221.025641025642,4519.48717948718,4421.025641025642,4412.820512820514,4370.256410256411,4708.717948717949,4345.128205128206,4229.2307692307695,4157.435897435898,4506.666666666667
85.83157,0.2911873,0.6950814,0.33525527,0.57594,1,0.0,0.0,0.0,0.0,0.6675842,0,0,0.0,0.0,0,0,120.0,0.0,206.0,4595.8974358974365,3928.205128205129,4481.538461538462,4434.871794871796,4233.846153846154,4531.282051282052,4425.641025641026,4416.410256410257,4368.205128205129,4710.769230769231,4352.820512820514,4257.948717948719,4179.48717948718,4521.538461538462
86.08179,0.29519504,0.8103332,0.33505905,0.5735441,0,0.0,0.0,0.0,0.0,0.73922515,0,0,0.0,0.0,0,0,23.0,0.0,0.0,4574.358974358975,3917.9487179487182,4470.769230769231,4426.153846153847,4222.564102564103,4518.461538461539,4423.076923076924,4407.6923076923085,4350.256410256411,4694.358974358975,4333.333333333334,4222.564102564103,4126.153846153847,4486.666666666667
86.332,0.29519504,0.8103332,0.33505905,0.5735441,0,0.0,0.0,0.0,0.0,0.16263738,0,0,0.0,0.0,0,0,55.0,0.0,0.0,4649.743589743591,3935.3846153846157,4485.641025641026,4431.794871794872,4219.48717948718,4516.410256410257,4430.769230769231,4404.102564102564,4358.974358974359,4704.615384615386,4341.538461538462,4241.538461538462,4157.948717948719,4555.8974358974365
86.58222,0.2908282,0.9109558,0.33488253,0.5713883,1,0.0,0.0,0.0,0.0,0.70089734,0,0,0.0,0.0,0,0,87.0,0.0,522.0,4609.2307692307695,3931.2820512820517,4458.974358974359,4443.076923076924,4225.641025641026,4517.435897435898,4433.333333333334,4422.051282051282,4375.8974358974365,4704.615384615386,4332.820512820514,4227.179487179487,4133.333333333334,4483.076923076924
86.832436,0.2908282,0.9109558,0.33488253,0.5713883,0,0.0,0.0,0.0,0.0,0.5703337,0,0,0.0,0.0,0,0,119.0,0.0,522.0,4580.512820512821,3918.461538461539,4436.410256410257,4435.8974358974365,4232.820512820514,4529.2307692307695,4446.153846153847,4437.948717948719,4384.615384615385,4706.666666666667,4330.256410256411,4245.128205128206,4152.820512820514,4508.717948717949
87.08265,0.27527,0.88028187,0.33472407,0.56945074,0,0.0,0.0,0.0,0.0,0.67233545,0,0,0.0,0.0,0,0,22.0,0.0,0.0,4585.128205128206,3923.076923076924,4442.564102564103,4430.256410256411,4230.256410256411,4523.589743589744,4436.410256410257,4416.923076923077,4351.794871794872,4689.743589743591,4319.48717948718,4226.153846153847,4137.435897435898,4514.358974358975
87.33286,0.27527,0.88028187,0.33472407,0.56945074,1,0.0,0.0,0.0,0.0,0.70157826,0,0,0.0,0.0,0,0,54.0,0.0,0.0,4641.538461538462,3936.9230769230776,4457.435897435898,4444.102564102564,4239.48717948718,4532.820512820514,4432.820512820514,4409.2307692307695,4365.128205128206,4700.000000000001,4333.846153846154,4231.794871794872,4162.564102564103,4510.256410256411
87.58308,0.2776348,0.97141683,0.33458427,0.5677249,0,0.0,0.0,0.0,0.0,0.8396702,0,0,0.0,0.0,0,0,86.0,0.0,557.0,4605.641025641026,3937.9487179487182,4469.743589743591,4449.743589743591,4253.333333333334,4548.205128205129,4441.025641025642,4417.435897435898,4383.076923076924,4707.179487179488,4341.025641025642,4227.6923076923085,4160.512820512821,4511.794871794872
87.8333,0.2776348,0.97141683,0.33458427,0.5677249,0,0.0,0.0,0.0,0.0,0.17827314,0,0,0.0,0.0,0,0,118.0,0.0,557.0,4607.6923076923085,3935.8974358974365,4476.410256410257,4452.820512820514,4253.846153846154,4553.333333333334,4453.846153846154,4437.435897435898,4385.641025641026,4709.743589743591,4338.461538461539,4240.000000000001,4172.307692307693,4517.948717948719
88.08351,0.26665658,0.9266867,0.3344574,0.5661649,0,0.0,0.0,0.0,0.0,0.27073532,0,0,0.0,0.0,0,0,21.0,0.0,0.0,4623.076923076924,3939.48717948718,4489.2307692307695,4448.205128205129,4249.74358974359,4546.666666666667,4453.333333333334,4432.820512820514,4380.512820512821,4712.307692307693,4340.000000000001,4238.461538461539,4168.717948717949,4529.2307692307695
88.333725,0.26665658,0.9266867,0.3344574,0.5661649,0,0.0,0.0,0.0,0.0,0.0,0,0,0.0,0.0,0,0,53.0,0.0,0.0,4632.307692307693,3954.8717948717954,4489.2307692307695,4455.384615384616,4253.846153846154,4546.153846153847,4451.794871794872,4437.948717948719,4381.025641025642,4712.820512820514,4344.615384615385,4242.051282051282,4158.461538461539,4512.820512820514
88.58394,0.256745,0.84785557,0.33434325,0.56476104,0,0.0,0.0,0.0,0.0,0.16671847,0,0,0.0,0.0,0,0,85.0,0.0,518.0,4643.076923076924,3942.564102564103,4510.256410256411,4446.666666666667,4251.794871794872,4550.256410256411,4457.948717948719,4446.153846153847,4391.282051282052,4724.102564102564,4347.179487179487,4274.871794871796,4167.179487179487,4520.512820512821
88.83415,0.256745,0.84785557,0.33434325,0.56476104,0,0.0,0.0,0.0,0.0,0.8127506,0,0,0.0,0.0,0,0,117.0,0.0,518.0,4667.179487179488,3974.8717948717954,4491.282051282052,4458.974358974359,4252.820512820514,4546.153846153847,4422.564102564103,4393.846153846154,4351.794871794872,4692.820512820514,4315.8974358974365,4210.256410256411,4099.48717948718,4476.410256410257
89.08437,0.2687248,0.81110704,0.33424067,0.5634987,0,0.0,0.0,0.0,0.0,0.93151087,0,0,0.0,0.0,0,0,20.0,0.0,0.0,4646.153846153847,3955.3846153846157,4491.794871794872,4453.333333333334,4252.307692307693,4550.769230769231,4454.871794871796,4432.307692307693,4377.435897435898,4706.666666666667,4327.6923076923085,4222.051282051282,4141.025641025642,4490.256410256411
89.33459,0.2687248,0.81110704,0.33424067,0.5634987,0,0.0,0.0,0.0,0.0,0.57663125,0,0,0.0,0.0,0,0,52.0,0.0,0.0,4650.769230769231,3945.1282051282055,4507.179487179488,4454.871794871796,4252.820512820514,4553.333333333334,4446.153846153847,4435.8974358974365,4390.769230769231,4722.051282051282,4354.358974358975,4259.48717948718,4196.923076923077,4530.256410256411
89.5848,0.27043167,0.7467277,0.3341495,0.5623699,0,0.0,0.0,0.0,0.0,0.1691771,0,0,0.0,0.0,0,0,84.0,0.0,206.0,4642.051282051282,3944.1025641025644,4506.666666666667,4453.846153846154,4254.871794871796,4557.948717948719,4453.333333333334,4437.948717948719,4391.794871794872,4724.102564102564,4351.794871794872,4253.333333333334,4198.461538461539,4534.358974358975
89.835014,0.27043167,0.7467277,0.3341495,0.5623699,0,0.0,0.0,0.0,0.0,0.7640694,0,0,0.0,0.0,0,0,116.0,0.0,206.0,4841.538461538462,3983.076923076924,4574.358974358975,4460.512820512821,4247.6923076923085,4544.102564102564,4447.179487179487,4428.205128205129,4373.846153846154,4731.282051282052,4357.948717948719,4315.384615384616,4227.179487179487,4712.820512820514
90.08523,0.28645465,0.7022591,0.33406743,0.5613539,0,0.0,0.0,0.0,0.0,0.6931039,0,0,0.0,0.0,0,0,19.0,0.0,0.0,4618.974358974359,3946.1538461538466,4512.307692307693,4458.461538461539,4261.538461538462,4559.48717948718,4468.205128205129,4453.846153846154,4403.076923076924,4726.666666666667,4337.435897435898,4248.205128205129,4164.102564102564,4512.820512820514
90.33544,0.28645465,0.7022591,0.33406743,0.5613539,0,0.0,0.0,0.0,0.0,0.6380208,0,0,0.0,0.0,0,0,51.0,0.0,0.0,4620.000000000001,3942.564102564103,4506.153846153847,4452.307692307693,4252.820512820514,4553.846153846154,4462.051282051282,4447.179487179487,4387.6923076923085,4723.589743589744,4341.025641025642,4258.461538461539,4171.794871794872,4531.794871794872
90.58566,0.307675,0.6602157,0.33399287,0.5604349,0,0.0,0.0,0.0,0.0,0.16041201,0,0,0.0,0.0,0,0,83.0,0.0,522.0,4613.846153846154,3941.538461538462,4505.641025641026,4458.461538461539,4257.948717948719,4555.384615384616,4456.410256410257,4440.512820512821,4389.2307692307695,4716.923076923077,4336.410256410257,4245.128205128206,4161.538461538462,4520.000000000001
90.83588,0.307675,0.6602157,0.33399287,0.5604349,0,0.0,0.0,0.0,0.0,1.0,0,0,0.0,0.0,0,0,115.0,0.0,522.0,4612.307692307693,3958.461538461539,4507.6923076923085,4451.282051282052,4238.461538461539,4536.923076923077,4442.564102564103,4443.589743589744,4379.48717948718,4705.128205128206,4315.384615384616,4237.435897435898,4121.025641025642,4478.461538461539
91.08609,0.3192164,0.6031443,0.3339267,0.55961394,0,0.0,0.0,0.0,0.0,1.0,0,0,0.0,0.0,0,0,18.0,0.0,0.0,4621.538461538462,3957.435897435898,4509.743589743591,4456.410256410257,4244.102564102564,4537.435897435898,4446.666666666667,4441.025641025642,4383.076923076924,4716.410256410257,4329.743589743591,4241.538461538462,4146.153846153847,4522.564102564103
91.3363,0.3192164,0.6031443,0.3339267,0.55961394,0,0.0,0.0,0.0,0.0,0.8049519,0,0,0.0,0.0,0,0,50.0,0.0,0.0,4724.615384615386,3952.820512820513,4521.025641025642,4452.820512820514,4244.102564102564,4540.000000000001,4450.769230769231,4449.743589743591,4389.743589743591,4734.358974358975,4349.2307692307695,4288.205128205129,4211.794871794872,4644.102564102564
91.58652,0.33336946,0.57348245,0.33386716,0.55887514,0,0.0,0.0,0.0,0.0,0.77420443,0,0,0.0,0.0,0,1,82.0,0.0,557.0,4608.205128205129,3948.205128205129,4502.564102564103,4451.282051282052,4252.820512820514,4545.641025641026,4458.461538461539,4458.461538461539,4404.615384615385,4729.743589743591,4347.179487179487,4242.564102564103,4182.564102564103,4523.589743589744
91.83674,0.33336946,0.57348245,0.33386716,0.55887514,0,0.0,0.0,0.0,0.0,0.7140359,0,0,0.0,0.0,0,0,114.0,0.0,557.0,4591.794871794872,3948.717948717949,4493.846153846154,4445.641025641026,4250.256410256411,4546.666666666667,4454.871794871796,4440.512820512821,4387.179487179487,4717.948717948719,4346.666666666667,4238.974358974359,4167.6923076923085,4504.102564102564
92.08695,0.34418923,0.5272754,0.33381295,0.558206,0,0.0,0.0,0.0,0.0,0.19871439,0,0,0.0,0.0,0,0,17.0,0.0,0.0,4611.282051282052,3951.2820512820517,4516.923076923077,4452.307692307693,4252.820512820514,4553.846153846154,4449.2307692307695,4444.102564102564,4390.256410256411,4722.564102564103,4349.743589743591,4259.48717948718,4193.846153846154,4555.384615384616
92.337166,0.34418923,0.5272754,0.33381295,0.558206,0,0.0,0.0,0.0,0.0,0.2679551,0,0,0.0,0.0,0,0,49.0,0.0,0.0,4585.641025641026,3944.615384615385,4487.179487179488,4445.128205128206,4246.666666666667,4543.589743589744,4449.743589743591,4436.410256410257,4378.461538461539,4715.384615384616,4328.717948717949,4227.179487179487,4164.102564102564,4502.564102564103
92.58738,0.3298743,0.50675744,0.33376417,0.5576041,0,0.0,0.0,0.0,0.0,0.6359395,0,0,0.0,0.0,0,0,81.0,0.0,518.0,4724.102564102564,3971.2820512820517,4520.000000000001,4452.820512820514,4241.025641025642,4540.000000000001,4468.717948717949,4440.512820512821,4366.153846153847,4722.051282051282,4342.564102564103,4273.846153846154,4175.8974358974365,4608.717948717949
92.83759,0.3298743,0.50675744,0.33376417,0.5576041,1,0.0,0.0,0.0,0.0,0.67744786,0,0,0.0,0.0,0,0,113.0,0.0,518.0,4608.205128205129,3944.1025641025644,4507.179487179488,4442.051282051282,4242.564102564103,4537.435897435898,4451.794871794872,4456.923076923077,4403.589743589744,4726.153846153847,4348.205128205129,4249.2307692307695,4182.051282051282,4520.512820512821
93.08781,0.3348396,0.514083,0.3337208,0.5570657,0,0.0,0.0,0.0,0.0,0.64382315,0,0,0.0,0.0,0,0,16.0,0.0,0.0,4614.358974358975,3949.2307692307695,4508.717948717949,4444.102564102564,4239.48717948718,4543.076923076924,4453.333333333334,4436.923076923077,4369.743589743591,4709.743589743591,4336.923076923077,4240.512820512821,4147.6923076923085,4514.358974358975
93.33803,0.3348396,0.514083,0.3337208,0.5570657,0,0.0,0.0,0.0,0.0,0.4301122,0,0,0.0,0.0,0,0,48.0,0.0,0.0,4601.538461538462,3933.8461538461543,4505.128205128206,4442.564102564103,4249.74358974359,4550.256410256411,4478.461538461539,4462.051282051282,4383.076923076924,4721.025641025642,4343.076923076924,4251.794871794872,4173.846153846154,4521.538461538462
93.58824,0.3302372,0.49213246,0.33368185,0.5565817,0,0.0,0.0,0.0,0.0,0.104509674,0,0,0.0,0.0,0,0,80.0,0.0,203.0,4607.179487179488,3944.615384615385,4522.564102564103,4451.282051282052,4260.000000000001,4558.974358974359,4478.461538461539,4461.025641025642,4396.923076923077,4727.179487179488,4355.8974358974365,4251.282051282052,4190.256410256411,4532.307692307693
93.838455,0.3302372,0.49213246,0.33368185,0.5565817,0,0.0,0.0,0.0,0.0,0.13146375,0,0,0.0,0.0,0,0,112.0,0.0,203.0,4598.974358974359,3941.538461538462,4519.48717948718,4445.128205128206,4245.641025641026,4548.717948717949,4463.589743589744,4450.256410256411,4391.794871794872,4729.743589743591,4360.512820512821,4255.8974358974365,4207.179487179487,4544.102564102564
