timestamp,excitement,frustration,meditation,engagementBoredom,blink,clench,laugh,smile,eyebrow,furrowBrow,lookLeft,lookRight,smirkLeft,smirkRight,winkLeft,winkRight,eeg0,eeg1,eeg2,eeg3,eeg4,eeg5,eeg6,eeg7,eeg8,eeg9,eeg10,eeg11,eeg12,eeg13,eeg14,eeg15,eeg16
161.41216,0.8035862,0.9150352,0.37083787,0.60699767,1,0.0,0.0,0.0,0.0,0.43052363,0,0,0.0,0.0,0,0,7.0,0.0,492.0,4494.358974358975,3948.205128205129,4462.564102564103,4427.179487179487,4232.307692307693,4538.974358974359,4385.641025641026,4375.384615384616,4437.948717948719,4725.641025641026,4277.948717948719,4192.820512820514,4159.48717948718,4489.743589743591
161.66237,0.74785364,0.8725201,0.36704907,0.60148335,0,0.0,0.0,0.0,0.0,0.71192867,0,0,0.0,0.0,0,0,39.0,0.0,0.0,4633.846153846154,3974.358974358975,4493.333333333334,4431.282051282052,4233.846153846154,4543.589743589744,4416.410256410257,4409.743589743591,4435.384615384616,4744.615384615386,4303.076923076924,4224.615384615385,4187.6923076923085,4662.564102564103
161.91258,0.74785364,0.8725201,0.36704907,0.60148335,0,0.0,0.0,0.0,0.0,0.7753916,0,0,0.0,0.0,0,1,71.0,0.0,492.0,4420.000000000001,3952.307692307693,4436.410256410257,4430.256410256411,4226.666666666667,4545.641025641026,4409.2307692307695,4399.48717948718,4445.641025641026,4707.179487179488,4264.102564102564,4155.384615384616,4161.025641025642,4375.8974358974365
162.1628,0.771472,0.847231,0.3636359,0.59651834,0,0.0,0.0,0.0,0.0,0.9412893,0,0,0.0,0.0,0,0,103.0,0.0,520.0,4343.589743589744,3955.8974358974365,4461.538461538462,4444.615384615385,4241.538461538462,4544.102564102564,4423.076923076924,4403.589743589744,4437.435897435898,4718.461538461539,4301.025641025642,4175.384615384616,4161.025641025642,4451.282051282052
162.41301,0.771472,0.847231,0.3636359,0.59651834,0,0.0,0.0,0.0,0.8463473,0.0,0,0,0.0,0.0,0,0,6.0,0.0,583.0,4253.333333333334,3938.9743589743593,4453.333333333334,4427.179487179487,4237.435897435898,4537.948717948719,4386.666666666667,4353.333333333334,4405.641025641026,4691.794871794872,4275.8974358974365,4147.179487179487,4152.820512820514,4427.6923076923085
162.6945,0.829705,1.0,0.36058882,0.5920749,0,0.0,0.0,0.0,1.0,0.0,0,0,0.0,0.0,0,0,42.0,0.0,0.0,4593.846153846154,3942.0512820512827,4488.717948717949,4397.435897435898,4231.794871794872,4541.025641025642,4418.974358974359,4388.717948717949,4448.717948717949,4746.666666666667,4315.384615384616,4192.307692307693,4177.435897435898,4635.384615384616
162.91344,0.829705,1.0,0.36058882,0.5920749,0,0.0,0.0,0.0,0.0,1.0,0,0,0.0,0.0,0,0,70.0,0.0,583.0,5186.153846153847,3926.1538461538466,4478.974358974359,4396.923076923077,4204.615384615385,4521.025641025642,4377.435897435898,4362.051282051282,4424.102564102564,4696.923076923077,4316.410256410257,4200.512820512821,4091.7948717948725,5362.564102564103
163.19493,0.9401404,1.0,0.35785675,0.5880853,0,0.0,0.0,0.0,0.0,1.0,0,0,0.0,0.0,0,0,106.0,0.0,561.0,5663.589743589744,3944.1025641025644,4450.256410256411,4425.641025641026,4186.666666666667,4505.641025641026,4393.333333333334,4395.8974358974365,4448.205128205129,4743.076923076924,4341.538461538462,4168.717948717949,4192.820512820514,5253.333333333334
163.19493,0.9401404,1.0,0.35785675,0.5880853,0,0.0,0.0,0.0,0.0,1.0,0,0,0.0,0.0,0,0,106.0,0.0,561.0,5663.589743589744,3944.1025641025644,4450.256410256411,4425.641025641026,4186.666666666667,4505.641025641026,4393.333333333334,4395.8974358974365,4448.205128205129,4743.076923076924,4341.538461538462,4168.717948717949,4192.820512820514,5253.333333333334
163.69536,1.0,1.0,0.3554044,0.5845007,0,0.0,0.0,0.0,0.0,1.0,0,0,0.0,0.0,0,0,41.0,0.0,0.0,6417.948717948719,3967.692307692308,4455.8974358974365,4491.282051282052,4231.794871794872,4526.153846153847,4363.076923076924,4385.128205128206,4429.743589743591,4761.025641025642,4283.076923076924,4160.000000000001,4170.256410256411,5260.512820512821
163.69536,1.0,1.0,0.3554044,0.5845007,0,0.0,0.0,0.0,0.0,1.0,0,0,0.0,0.0,0,0,41.0,0.0,0.0,6417.948717948719,3967.692307692308,4455.8974358974365,4491.282051282052,4231.794871794872,4526.153846153847,4363.076923076924,4385.128205128206,4429.743589743591,4761.025641025642,4283.076923076924,4160.000000000001,4170.256410256411,5260.512820512821
164.16452,1.0,1.0,0.35317722,0.58125526,0,0.0,0.0,0.0,0.0,1.0,0,0,0.0,0.0,0,0,101.0,0.0,517.0,5670.256410256411,3937.435897435898,4439.48717948718,4435.384615384616,4256.410256410257,4553.846153846154,4395.8974358974365,4411.282051282052,4457.948717948719,4697.948717948719,4318.974358974359,4164.102564102564,4196.923076923077,4935.8974358974365
164.16452,1.0,1.0,0.35317722,0.58125526,0,0.0,0.0,0.0,0.0,1.0,0,0,0.0,0.0,0,0,101.0,0.0,517.0,5670.256410256411,3937.435897435898,4439.48717948718,4435.384615384616,4256.410256410257,4553.846153846154,4395.8974358974365,4411.282051282052,4457.948717948719,4697.948717948719,4318.974358974359,4164.102564102564,4196.923076923077,4935.8974358974365
164.66495,0.9485515,1.0,0.35117078,0.5783328,0,0.0,0.0,0.0,0.0,1.0,0,0,0.0,0.0,0,0,36.0,0.0,0.0,4991.794871794872,3942.564102564103,4461.025641025642,4432.820512820514,4264.102564102564,4566.153846153847,4420.000000000001,4410.769230769231,4454.358974358975,4717.948717948719,4308.717948717949,4168.205128205129,4145.128205128206,4772.307692307693
164.66495,0.9485515,1.0,0.35117078,0.5783328,0,0.0,0.0,0.0,0.0,1.0,0,0,0.0,0.0,0,0,36.0,0.0,0.0,4991.794871794872,3942.564102564103,4461.025641025642,4432.820512820514,4264.102564102564,4566.153846153847,4420.000000000001,4410.769230769231,4454.358974358975,4717.948717948719,4308.717948717949,4168.205128205129,4145.128205128206,4772.307692307693
165.16537,0.9108281,1.0,0.34936327,0.57570106,0,0.0,0.0,0.0,0.0,1.0,0,0,0.0,0.0,0,0,100.0,0.0,443.0,4604.102564102564,3955.8974358974365,4505.641025641026,4449.743589743591,4278.974358974359,4583.589743589744,4436.923076923077,4421.025641025642,4461.538461538462,4737.948717948719,4376.923076923077,4217.435897435898,4184.102564102564,4710.769230769231
165.16537,0.9108281,1.0,0.34936327,0.57570106,0,0.0,0.0,0.0,0.0,1.0,0,0,0.0,0.0,0,0,100.0,0.0,443.0,4604.102564102564,3955.8974358974365,4505.641025641026,4449.743589743591,4278.974358974359,4583.589743589744,4436.923076923077,4421.025641025642,4461.538461538462,4737.948717948719,4376.923076923077,4217.435897435898,4184.102564102564,4710.769230769231
165.6658,0.9578026,1.0,0.34773692,0.57333297,0,0.0,0.0,0.0,0.0,1.0,0,0,0.0,0.0,0,0,35.0,0.0,0.0,4647.179487179488,3957.9487179487182,4523.076923076924,4462.051282051282,4285.128205128206,4585.128205128206,4475.8974358974365,4477.435897435898,4483.589743589744,4781.538461538462,4363.076923076924,4251.794871794872,4212.820512820514,4681.025641025642
165.6658,0.9578026,1.0,0.34773692,0.57333297,0,0.0,0.0,0.0,0.0,1.0,0,0,0.0,0.0,0,0,35.0,0.0,0.0,4647.179487179488,3957.9487179487182,4523.076923076924,4462.051282051282,4285.128205128206,4585.128205128206,4475.8974358974365,4477.435897435898,4483.589743589744,4781.538461538462,4363.076923076924,4251.794871794872,4212.820512820514,4681.025641025642
166.16624,0.94994986,1.0,0.34627566,0.571204,0,0.0,0.0,0.0,0.0,0.85238177,0,0,0.0,0.0,0,0,99.0,0.0,507.0,4512.820512820514,3963.589743589744,4534.358974358975,4458.974358974359,4262.051282051282,4555.8974358974365,4478.461538461539,4483.076923076924,4436.923076923077,4752.820512820514,4377.948717948719,4289.2307692307695,4226.153846153847,4637.435897435898
166.41646,0.94994986,1.0,0.34627566,0.571204,0,0.0,0.0,0.0,0.0,0.38819617,0,0,0.0,0.0,0,0,2.0,0.0,521.0,4458.461538461539,3961.0256410256416,4566.666666666667,4462.051282051282,4264.102564102564,4555.8974358974365,4532.820512820514,4524.615384615385,4411.282051282052,4737.948717948719,4355.384615384616,4302.564102564103,4220.512820512821,4610.256410256411
166.66667,0.9300593,1.0,0.34495923,0.57113427,0,0.0,0.0,0.0,0.0,0.086023666,0,0,0.0,0.0,0,0,34.0,0.0,0.0,4475.384615384616,3987.692307692308,4593.846153846154,4475.384615384616,4249.74358974359,4543.076923076924,4536.410256410257,4534.871794871796,4375.384615384616,4720.512820512821,4358.974358974359,4337.435897435898,4228.205128205129,4610.769230769231
166.91689,0.9300593,1.0,0.34495923,0.57113427,0,0.0,0.0,0.0,0.0,0.5835781,0,0,0.0,0.0,0,0,66.0,0.0,521.0,4515.384615384616,3991.7948717948725,4608.717948717949,4473.846153846154,4245.641025641026,4538.461538461539,4523.589743589744,4506.666666666667,4344.615384615385,4698.461538461539,4334.871794871796,4344.102564102564,4221.538461538462,4584.102564102564
167.1671,1.0,1.0,0.34377334,0.57571375,0,0.0,0.0,0.0,0.0,0.45793515,0,0,0.0,0.0,0,0,98.0,0.0,561.0,4504.102564102564,3990.2564102564106,4587.6923076923085,4475.8974358974365,4245.128205128206,4537.435897435898,4521.538461538462,4513.333333333334,4349.2307692307695,4687.6923076923085,4319.48717948718,4334.871794871796,4192.820512820514,4554.358974358975
167.2844,1.0,1.0,0.34377334,0.57571375,0,0.0,0.0,0.0,0.0,1.0,0,0,0.0,0.0,0,0,114.0,0.0,561.0,4506.153846153847,3984.1025641025644,4586.153846153847,4484.615384615385,4249.74358974359,4540.000000000001,4526.153846153847,4519.48717948718,4369.743589743591,4701.025641025642,4328.205128205129,4341.025641025642,4204.615384615385,4512.820512820514
167.69098,0.98200023,1.0,0.34272274,0.57985157,0,0.0,0.0,0.0,0.0,1.0,0,0,0.0,0.0,0,0,37.0,0.0,0.0,4424.102564102564,3975.3846153846157,4537.948717948719,4490.256410256411,4262.051282051282,4548.717948717949,4497.435897435898,4495.8974358974365,4365.641025641026,4686.666666666667,4305.641025641026,4278.461538461539,4169.74358974359,4526.666666666667
167.78482,0.98200023,1.0,0.34272274,0.57985157,0,0.0,0.0,0.0,0.0,1.0,0,0,0.0,0.0,0,0,49.0,0.0,0.0,4419.48717948718,3976.410256410257,4524.615384615385,4491.282051282052,4263.076923076924,4548.717948717949,4487.6923076923085,4496.410256410257,4384.615384615385,4705.641025641026,4337.435897435898,4287.6923076923085,4182.051282051282,4543.589743589744
168.19142,1.0,1.0,0.34178382,0.5835756,0,0.0,0.0,0.0,0.0,1.0,0,0,0.0,0.0,0,0,101.0,0.0,517.0,4305.128205128206,3958.461538461539,4503.076923076924,4487.179487179488,4265.641025641026,4561.025641025642,4466.153846153847,4474.871794871796,4412.820512820514,4651.794871794872,4341.538461538462,4262.051282051282,4183.076923076924,4561.538461538462
168.28525,1.0,1.0,0.34178382,0.5835756,0,0.0,0.0,0.0,0.0,1.0,0,0,0.0,0.0,0,0,113.0,0.0,517.0,4303.076923076924,3962.564102564103,4502.564102564103,4487.179487179488,4266.666666666667,4557.435897435898,4460.512820512821,4471.282051282052,4414.358974358975,4658.974358974359,4325.128205128206,4262.564102564103,4177.435897435898,4559.48717948718
168.69185,0.97138196,1.0,0.34093875,0.5850846,0,0.0,0.0,0.0,0.0,1.0,0,0,0.0,0.0,0,0,36.0,0.0,0.0,4297.948717948719,3960.5128205128212,4491.282051282052,4475.384615384616,4272.820512820514,4565.641025641026,4435.8974358974365,4447.179487179487,4420.512820512821,4684.615384615386,4315.384615384616,4235.8974358974365,4157.948717948719,4529.2307692307695
168.69185,0.97138196,1.0,0.34093875,0.5850846,0,0.0,0.0,0.0,0.0,1.0,0,0,0.0,0.0,0,0,36.0,0.0,0.0,4297.948717948719,3960.5128205128212,4491.282051282052,4475.384615384616,4272.820512820514,4565.641025641026,4435.8974358974365,4447.179487179487,4420.512820512821,4684.615384615386,4315.384615384616,4235.8974358974365,4157.948717948719,4529.2307692307695
169.19228,1.0,0.9743023,0.34017822,0.58180004,0,0.0,0.0,0.0,0.0,0.9422739,0,0,0.0,0.0,0,0,100.0,0.0,442.0,4324.615384615385,3947.692307692308,4476.410256410257,4458.974358974359,4269.2307692307695,4564.615384615385,4442.051282051282,4446.153846153847,4431.282051282052,4717.435897435898,4330.256410256411,4228.205128205129,4181.538461538462,4550.769230769231
169.41121,1.0,0.9743023,0.34017822,0.58180004,0,0.0,0.0,0.0,0.0,0.9835056,0,0,0.0,0.0,0,0,128.0,0.0,442.0,4347.179487179487,3946.666666666667,4474.358974358975,4461.025641025642,4271.794871794872,4568.717948717949,4438.974358974359,4441.025641025642,4449.743589743591,4750.769230769231,4329.2307692307695,4218.974358974359,4183.076923076924,4546.153846153847
169.66142,1.0,0.9017705,0.3394876,0.5788266,0,0.0,0.0,0.0,0.0,0.13282482,0,0,0.0,0.0,0,0,31.0,0.0,0.0,4317.948717948719,3926.1538461538466,4465.641025641026,4446.666666666667,4261.025641025642,4553.846153846154,4417.948717948719,4409.2307692307695,4433.846153846154,4726.666666666667,4327.179487179487,4213.333333333334,4180.512820512821,4545.641025641026
169.91164,1.0,0.9017705,0.3394876,0.5788266,0,0.0,0.0,0.0,0.0,0.0,0,0,0.0,0.0,0,0,63.0,0.0,0.0,4321.538461538462,3911.7948717948725,4461.025641025642,4443.076923076924,4261.025641025642,4561.025641025642,4437.948717948719,4431.794871794872,4445.641025641026,4745.641025641026,4342.051282051282,4207.179487179487,4197.948717948719,4550.769230769231
170.16187,1.0,0.84212464,0.33886546,0.5761489,0,0.0,0.0,0.0,0.0,0.0,0,0,0.0,0.0,0,0,95.0,0.0,519.0,4323.076923076924,3923.076923076924,4474.871794871796,4445.128205128206,4265.128205128206,4565.641025641026,4429.2307692307695,4422.051282051282,4450.769230769231,4760.000000000001,4361.025641025642,4213.846153846154,4205.128205128206,4549.2307692307695
170.41208,1.0,0.84212464,0.33886546,0.5761489,0,0.0,0.0,0.0,0.0,0.22982319,0,0,0.0,0.0,0,0,127.0,0.0,519.0,4325.641025641026,3927.692307692308,4470.769230769231,4442.564102564103,4252.307692307693,4553.333333333334,4405.128205128206,4396.923076923077,4421.025641025642,4725.641025641026,4318.974358974359,4183.076923076924,4148.717948717949,4515.384615384616
170.6623,0.9853917,0.7934481,0.33830497,0.57373774,0,0.0,0.0,0.0,0.0,1.0,0,0,0.0,0.0,0,0,30.0,0.0,0.0,4441.025641025642,3948.205128205129,4503.076923076924,4442.564102564103,4257.435897435898,4558.461538461539,4428.717948717949,4416.410256410257,4433.846153846154,4765.641025641026,4352.820512820514,4231.794871794872,4167.6923076923085,4573.846153846154
170.7874,0.9853917,0.7934481,0.33830497,0.57373774,0,0.0,0.0,0.0,0.0,1.0,0,0,0.0,0.0,0,0,46.0,0.0,0.0,4408.205128205129,3945.6410256410263,4492.307692307693,4442.051282051282,4258.974358974359,4555.8974358974365,4414.871794871796,4411.794871794872,4437.435897435898,4775.384615384616,4350.769230769231,4221.025641025642,4175.384615384616,4585.128205128206
171.194,0.90492606,0.7495413,0.3378051,0.5715804,0,0.0,0.0,0.0,0.0,0.72117853,0,0,0.0,0.0,0,0,98.0,0.0,561.0,4363.589743589744,3931.7948717948725,4488.717948717949,4438.461538461539,4260.000000000001,4564.102564102564,4429.2307692307695,4427.179487179487,4444.615384615385,4811.794871794872,4345.128205128206,4214.871794871796,4176.410256410257,4582.564102564103
171.41293,0.90492606,0.7495413,0.3378051,0.5715804,0,0.0,0.0,0.0,0.0,0.3604583,0,0,0.0,0.0,0,0,126.0,0.0,561.0,4397.435897435898,3936.9230769230776,4489.743589743591,4444.102564102564,4263.589743589744,4566.153846153847,4424.102564102564,4413.333333333334,4430.769230769231,4789.743589743591,4355.384615384616,4216.410256410257,4168.205128205129,4569.2307692307695
171.66315,0.8229488,0.72225153,0.3373524,0.5696309,0,0.0,0.0,0.0,0.0,0.0,0,0,0.0,0.0,0,0,29.0,0.0,0.0,4400.000000000001,3932.820512820513,4476.410256410257,4441.025641025642,4250.256410256411,4545.641025641026,4419.48717948718,4415.384615384616,4421.025641025642,4775.384615384616,4350.769230769231,4207.179487179487,4158.974358974359,4547.179487179488
171.66315,0.8229488,0.72225153,0.3373524,0.5696309,0,0.0,0.0,0.0,0.0,0.0,0,0,0.0,0.0,0,0,29.0,0.0,0.0,4400.000000000001,3932.820512820513,4476.410256410257,4441.025641025642,4250.256410256411,4545.641025641026,4419.48717948718,4415.384615384616,4421.025641025642,4775.384615384616,4350.769230769231,4207.179487179487,4158.974358974359,4547.179487179488
172.16357,0.83040446,0.6994389,0.33694565,0.5678782,0,0.0,0.0,0.0,0.0,0.0,0,0,0.0,0.0,0,0,93.0,0.0,517.0,4433.846153846154,3934.358974358975,4481.538461538462,4444.102564102564,4256.410256410257,4553.846153846154,4435.384615384616,4429.2307692307695,4439.48717948718,4790.769230769231,4391.282051282052,4218.974358974359,4187.6923076923085,4568.205128205129
172.16357,0.83040446,0.6994389,0.33694565,0.5678782,0,0.0,0.0,0.0,0.0,0.0,0,0,0.0,0.0,0,0,93.0,0.0,517.0,4433.846153846154,3934.358974358975,4481.538461538462,4444.102564102564,4256.410256410257,4553.846153846154,4435.384615384616,4429.2307692307695,4439.48717948718,4790.769230769231,4391.282051282052,4218.974358974359,4187.6923076923085,4568.205128205129
172.664,0.7372433,0.6767491,0.3365797,0.5663012,0,0.0,0.0,0.0,0.0,0.0,0,0,0.0,0.0,0,0,28.0,0.0,0.0,4423.589743589744,3921.538461538462,4474.358974358975,4431.282051282052,4248.717948717949,4541.538461538462,4422.564102564103,4415.384615384616,4441.538461538462,4780.512820512821,4392.820512820514,4215.8974358974365,4179.48717948718,4537.435897435898
172.97678,0.7372433,0.6767491,0.3365797,0.5663012,0,0.0,0.0,0.0,0.0,0.0,0,0,0.0,0.0,0,0,68.0,0.0,571.0,4445.128205128206,3924.1025641025644,4469.743589743591,4433.846153846154,4244.102564102564,4535.8974358974365,4427.179487179487,4412.820512820514,4437.435897435898,4772.820512820514,4401.025641025642,4207.179487179487,4178.974358974359,4534.358974358975
173.16444,0.7047697,0.6561442,0.33625004,0.56488216,0,0.0,0.0,0.0,0.0,0.0,0,0,0.0,0.0,0,0,92.0,0.0,442.0,4455.8974358974365,3928.717948717949,4469.743589743591,4436.923076923077,4248.205128205129,4541.538461538462,4417.435897435898,4395.384615384616,4431.794871794872,4771.282051282052,4418.461538461539,4217.435897435898,4188.205128205129,4540.000000000001
173.41466,0.7047697,0.6561442,0.33625004,0.56488216,0,0.0,0.0,0.0,0.0,0.0,0,0,0.0,0.0,0,0,124.0,0.0,442.0,4485.641025641026,3933.8461538461543,4491.794871794872,4445.128205128206,4259.48717948718,4554.871794871796,4445.128205128206,4426.153846153847,4449.743589743591,4793.846153846154,4414.871794871796,4209.74358974359,4193.846153846154,4554.871794871796
173.66487,0.6552619,0.6404096,0.33595306,0.5636063,0,0.0,0.0,0.0,0.0,0.0,0,0,0.0,0.0,0,0,27.0,0.0,0.0,4492.820512820514,3930.2564102564106,4491.282051282052,4444.102564102564,4249.74358974359,4546.153846153847,4428.717948717949,4395.8974358974365,4426.666666666667,4765.128205128206,4384.615384615385,4196.923076923077,4158.461538461539,4530.769230769231
173.66487,0.6552619,0.6404096,0.33595306,0.5636063,0,0.0,0.0,0.0,0.0,0.0,0,0,0.0,0.0,0,0,27.0,0.0,0.0,4492.820512820514,3930.2564102564106,4491.282051282052,4444.102564102564,4249.74358974359,4546.153846153847,4428.717948717949,4395.8974358974365,4426.666666666667,4765.128205128206,4384.615384615385,4196.923076923077,4158.461538461539,4530.769230769231
174.1653,0.57847667,0.6260997,0.33539712,0.5693084,0,0.0,0.0,0.0,0.0,0.0,0,0,0.0,0.0,0,0,91.0,0.0,524.0,4495.384615384616,3921.0256410256416,4504.102564102564,4427.6923076923085,4233.333333333334,4534.871794871796,4449.743589743591,4421.025641025642,4416.410256410257,4730.256410256411,4401.538461538462,4214.358974358975,4172.307692307693,3434.3589743589746
174.41551,0.57847667,0.6260997,0.33539712,0.5693084,0,0.0,0.0,0.0,0.0,1.0,0,0,0.0,0.0,0,0,123.0,0.0,524.0,4518.461538461539,3928.717948717949,4507.6923076923085,4438.974358974359,4246.153846153847,4536.923076923077,4461.025641025642,4439.48717948718,4436.923076923077,4783.076923076924,4413.846153846154,4230.769230769231,4199.48717948718,4610.769230769231
174.697,0.7094003,0.6151539,0.33489853,0.5744567,0,0.0,0.0,0.0,0.0,1.0,0,0,0.0,0.0,0,0,30.0,0.0,0.0,4510.769230769231,3928.205128205129,4505.641025641026,4440.000000000001,4245.641025641026,4540.512820512821,4471.794871794872,4450.769230769231,4436.923076923077,4780.000000000001,4421.025641025642,4239.48717948718,4193.333333333334,4623.589743589744
174.91594,0.7094003,0.6151539,0.33489853,0.5744567,0,0.0,0.0,0.0,0.0,0.27489296,0,0,0.0,0.0,0,0,58.0,0.0,0.0,4508.717948717949,3925.1282051282055,4503.589743589744,4440.000000000001,4242.564102564103,4535.8974358974365,4471.282051282052,4458.974358974359,4443.589743589744,4782.564102564103,4410.256410256411,4237.948717948719,4196.923076923077,4614.871794871796
175.16615,0.6314865,0.5987521,0.33444905,0.57907283,0,0.0,0.0,0.0,0.0,0.0,0,0,0.0,0.0,0,0,90.0,0.0,561.0,4537.435897435898,3942.0512820512827,4517.435897435898,4444.615384615385,4237.435897435898,4529.2307692307695,4447.6923076923085,4442.051282051282,4433.846153846154,4772.820512820514,4403.589743589744,4249.74358974359,4190.769230769231,4633.333333333334
175.16615,0.6314865,0.5987521,0.33444905,0.57907283,0,0.0,0.0,0.0,0.0,0.0,0,0,0.0,0.0,0,0,90.0,0.0,561.0,4537.435897435898,3942.0512820512827,4517.435897435898,4444.615384615385,4237.435897435898,4529.2307692307695,4447.6923076923085,4442.051282051282,4433.846153846154,4772.820512820514,4403.589743589744,4249.74358974359,4190.769230769231,4633.333333333334
175.6666,0.6226748,0.5848981,0.33404547,0.5832269,0,0.0,0.0,0.0,0.0,0.0,0,0,0.0,0.0,0,0,25.0,0.0,0.0,4494.871794871796,3928.205128205129,4472.820512820514,4440.512820512821,4237.948717948719,4531.794871794872,4446.666666666667,4432.820512820514,4416.410256410257,4751.794871794872,4363.589743589744,4206.666666666667,4166.666666666667,4559.48717948718
175.82297,0.6226748,0.5848981,0.33404547,0.5832269,0,0.0,0.0,0.0,0.0,0.0,0,0,0.0,0.0,0,1,45.0,0.0,0.0,4555.384615384616,3942.564102564103,4493.333333333334,4444.615384615385,4246.666666666667,4531.794871794872,4441.538461538462,4419.48717948718,4415.384615384616,4773.333333333334,4382.564102564103,4232.820512820514,4183.076923076924,4596.410256410257
176.16702,0.54243106,0.58759344,0.3339733,0.5801082,0,0.0,0.0,0.0,0.0,0.0,0,0,0.0,0.0,0,0,89.0,0.0,517.0,4483.589743589744,3927.692307692308,4489.743589743591,4443.076923076924,4248.717948717949,4540.000000000001,4448.205128205129,4431.794871794872,4427.6923076923085,4782.051282051282,4395.8974358974365,4226.153846153847,4182.564102564103,4565.128205128206
176.16702,0.54243106,0.58759344,0.3339733,0.5801082,0,0.0,0.0,0.0,0.0,0.0,0,0,0.0,0.0,0,0,89.0,0.0,517.0,4483.589743589744,3927.692307692308,4489.743589743591,4443.076923076924,4248.717948717949,4540.000000000001,4448.205128205129,4431.794871794872,4427.6923076923085,4782.051282051282,4395.8974358974365,4226.153846153847,4182.564102564103,4565.128205128206
176.66745,0.5198467,0.5865289,0.33390835,0.57729983,0,0.0,0.0,0.0,0.0,0.0,0,0,0.0,0.0,0,0,24.0,0.0,0.0,4509.2307692307695,3931.7948717948725,4486.153846153847,4439.48717948718,4240.000000000001,4537.435897435898,4427.179487179487,4416.923076923077,4427.6923076923085,4776.923076923077,4409.2307692307695,4223.076923076924,4178.974358974359,4540.512820512821
176.66745,0.5198467,0.5865289,0.33390835,0.57729983,0,0.0,0.0,0.0,0.0,0.0,0,0,0.0,0.0,0,0,24.0,0.0,0.0,4509.2307692307695,3931.7948717948725,4486.153846153847,4439.48717948718,4240.000000000001,4537.435897435898,4427.179487179487,4416.923076923077,4427.6923076923085,4776.923076923077,4409.2307692307695,4223.076923076924,4178.974358974359,4540.512820512821
177.16788,0.41389874,0.5824798,0.33384988,0.57477087,0,0.0,0.0,0.0,0.0,0.0,0,0,0.0,0.0,0,0,88.0,0.0,441.0,4518.461538461539,3929.7435897435903,4478.461538461539,4440.512820512821,4246.153846153847,4541.538461538462,4420.000000000001,4412.820512820514,4436.923076923077,4781.538461538462,4410.256410256411,4235.8974358974365,4181.538461538462,4543.589743589744
177.16788,0.41389874,0.5824798,0.33384988,0.57477087,0,0.0,0.0,0.0,0.0,0.0,0,0,0.0,0.0,0,0,88.0,0.0,441.0,4518.461538461539,3929.7435897435903,4478.461538461539,4440.512820512821,4246.153846153847,4541.538461538462,4420.000000000001,4412.820512820514,4436.923076923077,4781.538461538462,4410.256410256411,4235.8974358974365,4181.538461538462,4543.589743589744
177.6683,0.4009221,0.5719371,0.3337972,0.5807731,0,0.0,0.0,0.0,0.0,1.0,0,0,0.0,0.0,0,0,23.0,0.0,0.0,4515.8974358974365,3926.1538461538466,4474.871794871796,4436.923076923077,4244.102564102564,4542.051282051282,4427.6923076923085,4414.358974358975,4428.717948717949,4775.8974358974365,4398.974358974359,4235.384615384616,4184.615384615385,4453.333333333334
177.79341,0.4009221,0.5719371,0.3337972,0.5807731,0,0.0,0.0,0.0,0.0,0.0,0,0,0.0,0.0,0,0,39.0,0.0,0.0,4505.641025641026,3925.6410256410263,4472.820512820514,4432.820512820514,4248.717948717949,4540.512820512821,4421.538461538462,4410.256410256411,4429.743589743591,4770.256410256411,4404.102564102564,4214.358974358975,4181.025641025642,4438.974358974359
178.16875,0.3759926,0.5482141,0.33333308,0.59138125,0,0.0,0.0,0.0,0.0,0.0,0,0,0.0,0.0,0,0,87.0,0.0,517.0,4505.641025641026,3924.1025641025644,4473.333333333334,4429.2307692307695,4238.974358974359,4537.948717948719,4425.128205128206,4418.974358974359,4434.358974358975,4779.48717948718,4413.846153846154,4225.641025641026,4206.666666666667,4453.846153846154
178.16875,0.3759926,0.5482141,0.33333308,0.59138125,0,0.0,0.0,0.0,0.0,0.0,0,0,0.0,0.0,0,0,87.0,0.0,517.0,4505.641025641026,3924.1025641025644,4473.333333333334,4429.2307692307695,4238.974358974359,4537.948717948719,4425.128205128206,4418.974358974359,4434.358974358975,4779.48717948718,4413.846153846154,4225.641025641026,4206.666666666667,4453.846153846154
178.66917,0.40464735,0.5223247,0.3293846,0.604086,0,0.0,0.0,0.0,0.0,0.0,0,0,0.0,0.0,0,0,22.0,0.0,0.0,4510.769230769231,3925.6410256410263,4477.948717948719,4436.410256410257,4240.512820512821,4537.435897435898,4418.461538461539,4388.717948717949,4421.025641025642,4783.589743589744,4401.538461538462,4241.538461538462,4192.307692307693,4463.589743589744
178.66917,0.40464735,0.5223247,0.3293846,0.604086,0,0.0,0.0,0.0,0.0,0.0,0,0,0.0,0.0,0,0,22.0,0.0,0.0,4510.769230769231,3925.6410256410263,4477.948717948719,4436.410256410257,4240.512820512821,4537.435897435898,4418.461538461539,4388.717948717949,4421.025641025642,4783.589743589744,4401.538461538462,4241.538461538462,4192.307692307693,4463.589743589744
179.1696,0.4331786,0.5075793,0.32362518,0.61551267,0,0.0,0.0,0.0,0.0,0.0,0,0,0.0,0.0,0,0,86.0,0.0,561.0,4603.589743589744,3942.564102564103,4489.743589743591,4444.102564102564,4243.589743589744,4537.948717948719,4413.846153846154,4382.564102564103,4414.358974358975,4770.769230769231,4384.615384615385,4218.461538461539,4164.615384615385,4507.179487179488
179.41982,0.4331786,0.5075793,0.32362518,0.61551267,0,0.0,0.0,0.0,0.0,0.7287129,0,0,0.0,0.0,0,1,118.0,0.0,561.0,4522.051282051282,3925.6410256410263,4459.48717948718,4441.538461538462,4247.179487179487,4534.358974358975,4409.743589743591,4389.2307692307695,4414.358974358975,4762.051282051282,4392.307692307693,4198.461538461539,4158.974358974359,4452.820512820514
179.73259,0.36674687,0.51886195,0.3184426,0.6252234,0,0.0,0.0,0.0,0.0,0.6569967,0,0,0.0,0.0,0,1,29.0,0.0,0.0,4588.205128205129,3941.0256410256416,4471.282051282052,4444.615384615385,4249.2307692307695,4538.461538461539,4418.974358974359,4388.717948717949,4412.307692307693,4770.256410256411,4404.102564102564,4197.435897435898,4171.282051282052,4487.6923076923085
179.92024,0.36674687,0.51886195,0.3184426,0.6252234,0,0.0,0.0,0.0,0.0,0.61537766,0,0,0.0,0.0,0,1,53.0,0.0,0.0,4542.051282051282,3926.1538461538466,4468.717948717949,4442.564102564103,4245.641025641026,4536.923076923077,4420.000000000001,4414.358974358975,4440.000000000001,4786.666666666667,4408.717948717949,4202.051282051282,4174.358974358975,4471.794871794872
180.17046,0.31263006,0.6053184,0.3137797,0.6337499,0,0.0,0.0,0.0,0.0,0.518973,0,0,0.0,0.0,0,0,85.0,0.0,517.0,4494.358974358975,3936.410256410257,4476.923076923077,4443.076923076924,4248.717948717949,4540.000000000001,4426.666666666667,4407.6923076923085,4434.871794871796,4780.000000000001,4412.820512820514,4198.461538461539,4164.615384615385,4469.2307692307695
180.29556,0.31263006,0.6053184,0.3137797,0.6337499,0,0.0,0.0,0.0,0.0,1.0,0,0,0.0,0.0,0,0,101.0,0.0,517.0,4464.615384615385,3942.0512820512827,4473.846153846154,4444.615384615385,4246.153846153847,4535.8974358974365,4416.923076923077,4403.076923076924,4422.051282051282,4775.384615384616,4403.589743589744,4197.435897435898,4166.666666666667,4475.384615384616
180.70216,0.37595302,0.7250127,0.31310564,0.6386044,0,0.0,0.0,0.0,0.0,1.0,0,0,0.0,0.0,0,0,24.0,0.0,0.0,4523.589743589744,3942.564102564103,4476.410256410257,4443.076923076924,4244.615384615385,4530.256410256411,4409.2307692307695,4400.512820512821,4429.2307692307695,4787.179487179488,4415.384615384616,4210.256410256411,4182.051282051282,4483.076923076924
180.70216,0.37595302,0.7250127,0.31310564,0.6386044,0,0.0,0.0,0.0,0.0,1.0,0,0,0.0,0.0,0,0,24.0,0.0,0.0,4523.589743589744,3942.564102564103,4476.410256410257,4443.076923076924,4244.615384615385,4530.256410256411,4409.2307692307695,4400.512820512821,4429.2307692307695,4787.179487179488,4415.384615384616,4210.256410256411,4182.051282051282,4483.076923076924
181.20259,0.33077574,0.8866621,0.31512842,0.64047766,0,0.0,0.0,0.0,0.0,0.452938,0,0,0.0,0.0,0,0,88.0,0.0,440.0,4522.051282051282,3943.076923076924,4476.410256410257,4443.076923076924,4248.205128205129,4538.461538461539,4428.205128205129,4415.384615384616,4437.948717948719,4789.743589743591,4414.358974358975,4203.589743589744,4183.589743589744,4544.615384615385
181.42154,0.33077574,0.8866621,0.31512842,0.64047766,0,0.0,0.0,0.0,0.0,0.13507193,0,0,0.0,0.0,0,0,116.0,0.0,440.0,4523.076923076924,3958.461538461539,4473.333333333334,4450.769230769231,4262.051282051282,4549.743589743591,4446.153846153847,4433.846153846154,4452.307692307693,4794.871794871796,4395.8974358974365,4182.564102564103,4163.076923076924,4525.128205128206
181.67175,0.2682922,0.8965838,0.31696463,0.6342919,0,0.0,0.0,0.0,0.0,0.0,0,0,0.0,0.0,0,0,19.0,0.0,0.0,4554.871794871796,3955.3846153846157,4477.948717948719,4445.128205128206,4247.6923076923085,4543.589743589744,4424.615384615385,4421.025641025642,4438.461538461539,4786.666666666667,4397.435897435898,4182.564102564103,4153.846153846154,4517.435897435898
181.67175,0.2682922,0.8965838,0.31696463,0.6342919,0,0.0,0.0,0.0,0.0,0.0,0,0,0.0,0.0,0,0,19.0,0.0,0.0,4554.871794871796,3955.3846153846157,4477.948717948719,4445.128205128206,4247.6923076923085,4543.589743589744,4424.615384615385,4421.025641025642,4438.461538461539,4786.666666666667,4397.435897435898,4182.564102564103,4153.846153846154,4517.435897435898
182.17218,0.2745263,0.9148777,0.3186187,0.62602496,1,0.0,0.0,0.0,0.0,0.0,0,0,0.0,0.0,0,0,83.0,0.0,521.0,4584.615384615385,3952.307692307693,4497.948717948719,4452.307692307693,4260.512820512821,4552.307692307693,4445.128205128206,4447.6923076923085,4461.025641025642,4815.384615384616,4423.589743589744,4231.794871794872,4196.410256410257,4589.743589743591
182.4224,0.2745263,0.9148777,0.3186187,0.62602496,0,0.0,0.0,0.0,0.0,0.7771434,0,0,0.0,0.0,0,0,115.0,0.0,521.0,4573.846153846154,3944.1025641025644,4489.2307692307695,4441.538461538462,4252.307692307693,4548.717948717949,4440.512820512821,4431.282051282052,4452.820512820514,4809.743589743591,4433.333333333334,4210.256410256411,4203.076923076924,4562.051282051282
182.70389,0.2379655,0.8792613,0.32010877,0.6185833,0,0.0,0.0,0.0,0.0,0.6737915,0,0,0.0,0.0,0,1,22.0,0.0,0.0,4616.410256410257,3946.666666666667,4506.666666666667,4448.205128205129,4252.820512820514,4550.769230769231,4439.48717948718,4427.179487179487,4463.076923076924,4821.538461538462,4449.2307692307695,4240.000000000001,4224.102564102564,4595.8974358974365
182.92282,0.2379655,0.8792613,0.32010877,0.6185833,0,0.0,0.0,0.0,0.0,0.45956147,0,0,0.0,0.0,0,1,50.0,0.0,0.0,4551.282051282052,3943.589743589744,4476.923076923077,4447.6923076923085,4254.871794871796,4556.410256410257,4445.641025641026,4429.2307692307695,4462.564102564103,4813.846153846154,4433.846153846154,4214.871794871796,4205.641025641026,4548.717948717949
183.17303,0.24226099,0.9309008,0.3214495,0.611884,0,0.0,0.0,0.0,0.0,0.17676817,0,0,0.0,0.0,0,0,82.0,0.0,561.0,4571.794871794872,3942.0512820512827,4488.205128205129,4445.641025641026,4258.461538461539,4550.769230769231,4438.974358974359,4432.820512820514,4455.384615384616,4810.256410256411,4436.923076923077,4214.871794871796,4197.948717948719,4549.2307692307695
183.42325,0.24226099,0.9309008,0.3214495,0.611884,0,0.0,0.0,0.0,0.0,0.0,0,0,0.0,0.0,0,0,114.0,0.0,561.0,4554.358974358975,3942.0512820512827,4490.256410256411,4448.205128205129,4256.410256410257,4550.769230769231,4445.128205128206,4434.871794871796,4461.025641025642,4816.410256410257,4432.307692307693,4217.948717948719,4206.153846153847,4553.846153846154
183.67348,0.24715269,0.9464935,0.32265425,0.60585266,0,0.0,0.0,0.0,0.0,0.0,0,0,0.0,0.0,0,0,17.0,0.0,0.0,4568.205128205129,3940.0000000000005,4490.256410256411,4447.6923076923085,4257.948717948719,4555.384615384616,4445.128205128206,4428.205128205129,4437.948717948719,4797.948717948719,4416.923076923077,4211.282051282052,4193.333333333334,4559.48717948718
183.67348,0.24715269,0.9464935,0.32265425,0.60585266,0,0.0,0.0,0.0,0.0,0.0,0,0,0.0,0.0,0,0,17.0,0.0,0.0,4568.205128205129,3940.0000000000005,4490.256410256411,4447.6923076923085,4257.948717948719,4555.384615384616,4445.128205128206,4428.205128205129,4437.948717948719,4797.948717948719,4416.923076923077,4211.282051282052,4193.333333333334,4559.48717948718
184.1739,0.26778865,0.91205066,0.32320076,0.6004224,0,0.0,0.0,0.0,0.0,0.0,0,0,0.0,0.0,0,0,81.0,0.0,517.0,4549.2307692307695,3911.7948717948725,4458.461538461539,4437.948717948719,4247.179487179487,4549.743589743591,4424.102564102564,4410.256410256411,4447.179487179487,4803.589743589744,4439.48717948718,4191.794871794872,4220.000000000001,4546.153846153847
184.1739,0.26778865,0.91205066,0.32320076,0.6004224,0,0.0,0.0,0.0,0.0,0.0,0,0,0.0,0.0,0,0,81.0,0.0,517.0,4549.2307692307695,3911.7948717948725,4458.461538461539,4437.948717948719,4247.179487179487,4549.743589743591,4424.102564102564,4410.256410256411,4447.179487179487,4803.589743589744,4439.48717948718,4191.794871794872,4220.000000000001,4546.153846153847
184.67433,0.23889533,0.87927866,0.32216948,0.5955427,1,0.0,0.0,0.0,0.0,0.0,0,0,0.0,0.0,0,0,16.0,0.0,0.0,4577.948717948719,3939.48717948718,4491.794871794872,4447.6923076923085,4259.48717948718,4556.410256410257,4444.615384615385,4424.615384615385,4439.48717948718,4803.076923076924,4421.538461538462,4196.923076923077,4194.871794871796,4536.923076923077
184.92455,0.23889533,0.87927866,0.32216948,0.5955427,0,0.0,0.0,0.0,0.0,0.6667131,0,0,0.0,0.0,0,0,48.0,0.0,0.0,4585.641025641026,3937.435897435898,4474.358974358975,4441.538461538462,4251.794871794872,4549.2307692307695,4431.282051282052,4415.384615384616,4434.871794871796,4788.205128205129,4397.435897435898,4170.769230769231,4165.641025641026,4512.307692307693
185.17476,0.27795058,0.8284803,0.32124236,0.59407985,0,0.0,0.0,0.0,0.0,0.19616117,0,0,0.0,0.0,0,0,80.0,0.0,440.0,4582.051282051282,3926.666666666667,4474.358974358975,4434.358974358975,4246.153846153847,4538.974358974359,4411.282051282052,4401.025641025642,4422.564102564103,4776.923076923077,4391.282051282052,4178.974358974359,4162.051282051282,4515.384615384616
185.29987,0.27795058,0.8284803,0.32124236,0.59407985,0,0.0,0.0,0.0,0.0,1.0,0,0,0.0,0.0,0,0,96.0,0.0,440.0,4566.153846153847,3943.076923076924,4466.153846153847,4434.358974358975,4247.6923076923085,4543.589743589744,4404.102564102564,4385.128205128206,4404.102564102564,4710.256410256411,4386.666666666667,4155.8974358974365,4124.615384615385,2976.410256410257
185.70647,0.2809401,0.7800578,0.32039684,0.5928066,0,0.0,0.0,0.0,0.0,1.0,0,0,0.0,0.0,0,0,19.0,0.0,0.0,4562.051282051282,3935.8974358974365,4476.923076923077,4432.820512820514,4248.205128205129,4544.615384615385,4422.051282051282,4408.717948717949,4433.333333333334,4792.307692307693,4399.48717948718,4197.435897435898,4181.025641025642,4610.769230769231
185.98796,0.2809401,0.7800578,0.32039684,0.5928066,0,0.0,0.0,0.0,0.0,1.0,0,0,0.0,0.0,0,0,55.0,0.0,0.0,4530.769230769231,3927.692307692308,4471.794871794872,4429.2307692307695,4242.051282051282,4540.512820512821,4422.051282051282,4398.461538461539,4426.666666666667,4781.025641025642,4405.128205128206,4189.74358974359,4189.74358974359,4609.2307692307695
186.2069,0.24437056,0.7367944,0.32016864,0.5887498,0,0.0,0.0,0.0,0.0,0.18780537,0,0,0.0,0.0,0,0,83.0,0.0,518.0,4562.051282051282,3933.8461538461543,4479.48717948718,4438.461538461539,4250.769230769231,4550.769230769231,4424.615384615385,4401.538461538462,4434.358974358975,4790.769230769231,4418.461538461539,4208.717948717949,4193.333333333334,4622.051282051282
186.4571,0.24437056,0.7367944,0.32016864,0.5887498,1,0.0,0.0,0.0,0.0,0.0,0,0,0.0,0.0,0,0,115.0,0.0,518.0,4590.769230769231,3941.538461538462,4491.794871794872,4431.282051282052,4240.512820512821,4538.974358974359,4403.076923076924,4386.666666666667,4434.358974358975,4794.871794871796,4425.641025641026,4220.512820512821,4207.179487179487,4649.743589743591
186.67606,0.20083821,0.695675,0.32149628,0.5850777,0,0.0,0.0,0.0,0.0,0.5838652,0,0,0.0,0.0,0,0,14.0,0.0,561.0,4529.2307692307695,3936.410256410257,4476.923076923077,4435.384615384616,4241.538461538462,4540.512820512821,4423.589743589744,4407.6923076923085,4437.948717948719,4789.743589743591,4419.48717948718,4204.615384615385,4188.717948717949,4602.564102564103
186.92627,0.20083821,0.695675,0.32149628,0.5850777,0,0.0,0.0,0.0,0.0,0.22962596,0,0,0.0,0.0,0,0,46.0,0.0,0.0,4510.256410256411,3924.615384615385,4472.307692307693,4440.512820512821,4245.641025641026,4543.589743589744,4426.153846153847,4401.025641025642,4437.435897435898,4781.538461538462,4406.666666666667,4178.974358974359,4155.8974358974365,4553.846153846154
187.17648,0.20524612,0.6756344,0.32269225,0.5817731,0,0.0,0.0,0.0,0.0,0.0,0,0,0.0,0.0,0,0,78.0,0.0,561.0,4531.282051282052,3927.692307692308,4470.769230769231,4441.538461538462,4245.641025641026,4545.128205128206,4433.846153846154,4406.666666666667,4436.410256410257,4788.205128205129,4421.025641025642,4198.461538461539,4189.74358974359,4585.128205128206
187.17648,0.20524612,0.6756344,0.32269225,0.5817731,0,0.0,0.0,0.0,0.0,0.0,0,0,0.0,0.0,0,0,78.0,0.0,561.0,4531.282051282052,3927.692307692308,4470.769230769231,4441.538461538462,4245.641025641026,4545.128205128206,4433.846153846154,4406.666666666667,4436.410256410257,4788.205128205129,4421.025641025642,4198.461538461539,4189.74358974359,4585.128205128206
187.67691,0.23007424,0.6600351,0.3237696,0.57879734,0,0.0,0.0,0.0,0.0,0.0,0,0,0.0,0.0,0,0,13.0,0.0,517.0,4537.435897435898,3940.5128205128212,4471.794871794872,4441.538461538462,4245.641025641026,4538.461538461539,4418.974358974359,4403.589743589744,4428.717948717949,4780.000000000001,4426.153846153847,4197.435897435898,4174.358974358975,4596.923076923077
187.67691,0.23007424,0.6600351,0.3237696,0.57879734,0,0.0,0.0,0.0,0.0,0.0,0,0,0.0,0.0,0,0,13.0,0.0,517.0,4537.435897435898,3940.5128205128212,4471.794871794872,4441.538461538462,4245.641025641026,4538.461538461539,4418.974358974359,4403.589743589744,4428.717948717949,4780.000000000001,4426.153846153847,4197.435897435898,4174.358974358975,4596.923076923077
188.17734,0.23817943,0.6696639,0.32474008,0.57611775,0,0.0,0.0,0.0,0.0,0.58484936,0,0,0.0,0.0,0,0,77.0,0.0,517.0,4512.820512820514,3922.564102564103,4455.8974358974365,4442.564102564103,4254.871794871796,4551.282051282052,4437.948717948719,4419.48717948718,4452.307692307693,4814.358974358975,4458.461538461539,4202.564102564103,4227.179487179487,4603.589743589744
188.42755,0.23817943,0.6696639,0.32474008,0.57611775,0,0.0,0.0,0.0,0.0,0.5598788,0,0,0.0,0.0,0,0,109.0,0.0,517.0,4490.769230769231,3918.461538461539,4467.179487179487,4441.025641025642,4252.307692307693,4549.2307692307695,4448.205128205129,4432.820512820514,4456.923076923077,4810.256410256411,4444.102564102564,4205.641025641026,4222.564102564103,4574.871794871796
188.67776,0.2233898,0.6554137,0.3256132,0.5737086,0,0.0,0.0,0.0,0.0,0.18109125,0,0,0.0,0.0,0,0,12.0,0.0,438.0,4486.153846153847,3925.1282051282055,4457.948717948719,4434.871794871796,4245.641025641026,4540.000000000001,4426.666666666667,4409.2307692307695,4435.8974358974365,4796.410256410257,4438.461538461539,4197.948717948719,4201.538461538462,4566.153846153847
188.92798,0.2233898,0.6554137,0.3256132,0.5737086,0,0.0,0.0,0.0,0.0,0.075129144,0,0,0.0,0.0,0,0,44.0,0.0,0.0,4486.153846153847,3928.717948717949,4457.435897435898,4434.871794871796,4244.615384615385,4537.948717948719,4425.128205128206,4417.435897435898,4436.923076923077,4789.2307692307695,4423.076923076924,4187.179487179487,4184.102564102564,4558.974358974359
189.1782,0.14914282,0.64192015,0.32639968,0.57237244,0,0.0,0.0,0.0,0.0,0.0,0,0,0.0,0.0,0,0,76.0,0.0,438.0,4475.384615384616,3937.435897435898,4469.2307692307695,4442.564102564103,4244.615384615385,4540.000000000001,4428.205128205129,4412.820512820514,4438.974358974359,4796.410256410257,4432.820512820514,4190.256410256411,4174.871794871796,4536.923076923077
189.1782,0.14914282,0.64192015,0.32639968,0.57237244,0,0.0,0.0,0.0,0.0,0.0,0,0,0.0,0.0,0,0,76.0,0.0,438.0,4475.384615384616,3937.435897435898,4469.2307692307695,4442.564102564103,4244.615384615385,4540.000000000001,4428.205128205129,4412.820512820514,4438.974358974359,4796.410256410257,4432.820512820514,4190.256410256411,4174.871794871796,4536.923076923077
189.67863,0.17973821,0.6294917,0.32737756,0.5738313,0,0.0,0.0,0.0,0.0,0.0,0,0,0.0,0.0,0,0,11.0,0.0,517.0,4535.384615384616,3927.1794871794878,4478.461538461539,4432.820512820514,4240.512820512821,4540.000000000001,4422.564102564103,4403.076923076924,4425.128205128206,4784.615384615386,4413.333333333334,4200.512820512821,4161.538461538462,4533.333333333334
189.92885,0.17973821,0.6294917,0.32737756,0.5738313,0,0.0,0.0,0.0,0.0,0.595027,0,0,0.0,0.0,0,0,43.0,0.0,0.0,4568.205128205129,3926.1538461538466,4487.6923076923085,4430.256410256411,4235.8974358974365,4537.948717948719,4425.641025641026,4417.948717948719,4437.948717948719,4801.025641025642,4413.333333333334,4200.000000000001,4176.410256410257,4514.871794871796
190.17906,0.21586055,0.60956377,0.3282572,0.57625633,0,0.0,0.0,0.0,0.0,0.0,0,0,0.0,0.0,0,0,75.0,0.0,517.0,4592.820512820514,3925.1282051282055,4488.717948717949,4430.769230769231,4236.410256410257,4538.974358974359,4442.051282051282,4432.307692307693,4442.564102564103,4802.564102564103,4426.153846153847,4201.538461538462,4184.615384615385,4517.948717948719
190.17906,0.21586055,0.60956377,0.3282572,0.57625633,0,0.0,0.0,0.0,0.0,0.0,0,0,0.0,0.0,0,0,75.0,0.0,517.0,4592.820512820514,3925.1282051282055,4488.717948717949,4430.769230769231,4236.410256410257,4538.974358974359,4442.051282051282,4432.307692307693,4442.564102564103,4802.564102564103,4426.153846153847,4201.538461538462,4184.615384615385,4517.948717948719
190.71077,0.23721424,0.5981199,0.3290412,0.5784536,0,0.0,0.0,0.0,0.0,1.0,0,0,0.0,0.0,0,0,14.0,0.0,561.0,4634.871794871796,3928.717948717949,4524.102564102564,4429.743589743591,4229.74358974359,4522.564102564103,4453.846153846154,4447.6923076923085,4414.871794871796,4798.974358974359,4434.871794871796,4240.512820512821,4222.051282051282,4605.128205128206
190.9297,0.23721424,0.5981199,0.3290412,0.5784536,0,0.0,0.0,0.0,0.0,1.0,0,0,0.0,0.0,0,0,42.0,0.0,0.0,4617.435897435898,3934.358974358975,4523.076923076924,4435.8974358974365,4231.282051282052,4521.025641025642,4475.384615384616,4461.538461538462,4397.948717948719,4782.051282051282,4412.820512820514,4230.256410256411,4206.666666666667,4582.564102564103
191.2112,0.21864836,0.59402835,0.32947043,0.57859707,0,0.0,0.0,0.0,0.0,0.20567657,0,0,0.0,0.0,0,0,78.0,0.0,561.0,4591.282051282052,3940.5128205128212,4505.641025641026,4429.743589743591,4221.538461538462,4516.410256410257,4448.717948717949,4426.666666666667,4358.461538461539,4730.769230769231,4367.179487179487,4213.333333333334,4154.871794871796,4530.256410256411
191.43013,0.21864836,0.59402835,0.32947043,0.57859707,0,0.0,0.0,0.0,0.0,0.045791626,0,0,0.0,0.0,0,0,106.0,0.0,561.0,4591.794871794872,3937.9487179487182,4502.051282051282,4440.000000000001,4228.717948717949,4524.102564102564,4466.666666666667,4434.871794871796,4362.051282051282,4733.333333333334,4368.717948717949,4229.2307692307695,4173.846153846154,4550.769230769231
191.68034,0.23739839,0.589371,0.32985994,0.57677114,0,0.0,0.0,0.0,0.0,0.0,0,0,0.0,0.0,0,0,9.0,0.0,548.0,4584.102564102564,3942.0512820512827,4491.794871794872,4437.948717948719,4234.358974358975,4526.153846153847,4460.512820512821,4448.717948717949,4353.846153846154,4730.256410256411,4363.589743589744,4213.333333333334,4162.051282051282,4515.384615384616
191.68034,0.23739839,0.589371,0.32985994,0.57677114,0,0.0,0.0,0.0,0.0,0.0,0,0,0.0,0.0,0,0,9.0,0.0,548.0,4584.102564102564,3942.0512820512827,4491.794871794872,4437.948717948719,4234.358974358975,4526.153846153847,4460.512820512821,4448.717948717949,4353.846153846154,4730.256410256411,4363.589743589744,4213.333333333334,4162.051282051282,4515.384615384616
192.18079,0.21439183,0.5812543,0.33021083,0.5743028,0,0.0,0.0,0.0,0.0,0.0,0,0,0.0,0.0,0,0,73.0,0.0,547.0,4646.666666666667,3956.9230769230776,4570.256410256411,4444.102564102564,4224.102564102564,4515.8974358974365,4481.025641025642,4473.846153846154,4302.564102564103,4706.666666666667,4376.923076923077,4277.435897435898,4163.076923076924,4505.128205128206
192.18079,0.21439183,0.5812543,0.33021083,0.5743028,0,0.0,0.0,0.0,0.0,0.0,0,0,0.0,0.0,0,0,73.0,0.0,547.0,4646.666666666667,3956.9230769230776,4570.256410256411,4444.102564102564,4224.102564102564,4515.8974358974365,4481.025641025642,4473.846153846154,4302.564102564103,4706.666666666667,4376.923076923077,4277.435897435898,4163.076923076924,4505.128205128206
192.68121,0.29922694,0.5594588,0.33052656,0.5720801,0,0.0,0.0,0.0,0.0,0.0,0,0,0.0,0.0,0,0,8.0,0.0,512.0,4721.538461538462,3957.9487179487182,4587.6923076923085,4456.923076923077,4232.307692307693,4519.48717948718,4546.666666666667,4511.282051282052,4284.102564102564,4676.923076923077,4376.923076923077,4367.179487179487,4163.076923076924,4540.000000000001
192.68121,0.29922694,0.5594588,0.33052656,0.5720801,0,0.0,0.0,0.0,0.0,0.0,0,0,0.0,0.0,0,0,8.0,0.0,512.0,4721.538461538462,3957.9487179487182,4587.6923076923085,4456.923076923077,4232.307692307693,4519.48717948718,4546.666666666667,4511.282051282052,4284.102564102564,4676.923076923077,4376.923076923077,4367.179487179487,4163.076923076924,4540.000000000001
193.18164,0.368755,0.55352765,0.330811,0.5700785,0,0.0,0.0,0.0,0.0,0.8255831,0,0,0.0,0.0,0,0,72.0,0.0,512.0,4702.051282051282,3956.410256410257,4542.051282051282,4443.076923076924,4218.461538461539,4507.179487179488,4516.410256410257,4464.615384615385,4263.589743589744,4613.846153846154,4346.666666666667,4348.717948717949,4126.666666666667,4462.051282051282
193.49442,0.368755,0.55352765,0.330811,0.5700785,1,0.0,0.0,0.0,0.0,0.32950994,0,0,0.0,0.0,0,0,112.0,0.0,438.0,4700.000000000001,3957.435897435898,4502.564102564103,4443.589743589744,4228.205128205129,4515.384615384616,4474.871794871796,4460.000000000001,4286.153846153847,4610.769230769231,4329.2307692307695,4329.743589743591,4102.051282051282,4439.48717948718
193.68207,0.44939598,0.58870214,0.33106723,0.56827885,0,0.0,0.0,0.0,0.0,0.51770675,0,0,0.0,0.0,0,0,7.0,0.0,493.0,4648.717948717949,3941.538461538462,4475.384615384616,4443.076923076924,4242.051282051282,4530.256410256411,4481.025641025642,4468.717948717949,4306.153846153847,4614.871794871796,4312.307692307693,4304.615384615385,4096.410256410257,4402.564102564103
193.93228,0.44939598,0.58870214,0.33106723,0.56827885,0,0.0,0.0,0.0,0.0,1.0,0,0,0.0,0.0,0,0,39.0,0.0,0.0,4632.307692307693,3961.538461538462,4449.743589743591,4446.153846153847,4238.461538461539,4530.256410256411,4443.076923076924,4425.641025641026,4278.974358974359,4575.384615384616,4278.974358974359,4253.846153846154,4053.333333333334,4289.74358974359
194.1825,0.523178,0.66520286,0.33129802,0.56856376,0,0.0,0.0,0.0,0.0,0.55791,0,0,0.0,0.0,0,0,71.0,0.0,493.0,4651.794871794872,3925.6410256410263,4469.2307692307695,4436.410256410257,4236.923076923077,4530.256410256411,4446.666666666667,4449.2307692307695,4327.6923076923085,4623.589743589744,4318.974358974359,4304.102564102564,4129.74358974359,4410.256410256411
194.43272,0.523178,0.66520286,0.33129802,0.56856376,0,0.0,0.0,0.0,0.0,0.8724621,0,0,0.0,0.0,0,0,103.0,0.0,522.0,4602.051282051282,3915.8974358974365,4461.025641025642,4438.974358974359,4247.179487179487,4537.948717948719,4453.333333333334,4475.384615384616,4359.48717948718,4648.717948717949,4325.128205128206,4288.717948717949,4149.74358974359,4378.461538461539
194.7142,0.4780236,0.7998204,0.3332155,0.5688192,1,0.0,0.0,0.0,0.0,0.44368258,0,0,0.0,0.0,0,0,10.0,0.0,561.0,4644.102564102564,3937.435897435898,4473.846153846154,4442.564102564103,4248.205128205129,4540.000000000001,4435.8974358974365,4459.48717948718,4350.256410256411,4647.179487179488,4315.8974358974365,4274.871794871796,4149.2307692307695,4428.717948717949
194.93315,0.4780236,0.7998204,0.3332155,0.5688192,0,0.0,0.0,0.0,0.0,0.63304275,0,0,0.0,0.0,0,0,38.0,0.0,0.0,4543.076923076924,3908.205128205129,4440.000000000001,4433.333333333334,4244.102564102564,4535.384615384616,4427.179487179487,4451.282051282052,4344.615384615385,4637.435897435898,4295.8974358974365,4229.2307692307695,4133.333333333334,4358.461538461539
195.18336,0.5451063,0.92045295,0.33745673,0.57208574,0,0.0,0.0,0.0,0.0,0.537644,0,0,0.0,0.0,0,0,70.0,0.0,584.0,4678.974358974359,3943.589743589744,4477.948717948719,4443.589743589744,4246.153846153847,4537.948717948719,4410.769230769231,4442.051282051282,4360.000000000001,4665.641025641026,4309.743589743591,4268.717948717949,4161.025641025642,4502.564102564103
195.43358,0.5451063,0.92045295,0.33745673,0.57208574,0,0.0,0.0,0.0,0.0,0.6621672,0,0,0.0,0.0,0,1,102.0,0.0,561.0,4536.410256410257,3915.3846153846157,4441.025641025642,4442.051282051282,4251.282051282052,4549.2307692307695,4423.076923076924,4434.871794871796,4379.48717948718,4664.102564102564,4303.589743589744,4212.820512820514,4148.205128205129,4384.615384615385
195.68379,0.52366036,1.0,0.3413378,0.5750243,0,0.0,0.0,0.0,0.0,0.69969463,0,0,0.0,0.0,0,0,5.0,0.0,567.0,4526.153846153847,3913.333333333334,4447.179487179487,4439.48717948718,4252.820512820514,4554.358974358975,4423.076923076924,4449.2307692307695,4404.102564102564,4690.769230769231,4326.666666666667,4222.564102564103,4181.538461538462,4434.871794871796
195.934,0.52366036,1.0,0.3413378,0.5750243,0,0.0,0.0,0.0,0.0,0.2402272,0,0,0.0,0.0,0,0,37.0,0.0,0.0,4568.717948717949,3922.0512820512827,4457.948717948719,4442.051282051282,4249.2307692307695,4552.307692307693,4411.282051282052,4438.974358974359,4412.820512820514,4711.794871794872,4347.6923076923085,4247.179487179487,4195.384615384616,4474.358974358975
196.18422,0.5697582,0.94867396,0.34483007,0.5776675,0,0.0,0.0,0.0,0.0,0.112204604,0,0,0.0,0.0,0,0,69.0,0.0,567.0,4547.179487179488,3919.48717948718,4456.923076923077,4442.564102564103,4279.48717948718,4537.948717948719,4402.051282051282,4417.435897435898,4403.589743589744,4702.051282051282,4323.589743589744,4237.435897435898,4171.794871794872,4455.8974358974365
196.30933,0.5697582,0.94867396,0.34483007,0.5776675,0,0.0,0.0,0.0,0.0,0.0,0,0,0.0,0.0,0,0,85.0,0.0,517.0,4534.358974358975,3914.8717948717954,4462.051282051282,4443.076923076924,4264.102564102564,4545.641025641026,4401.025641025642,4429.2307692307695,4420.000000000001,4714.871794871796,4323.076923076924,4235.384615384616,4168.205128205129,4444.102564102564
196.71593,0.56835055,0.8969476,0.34798545,0.57702625,0,0.0,0.0,0.0,0.0,1.0,0,0,0.0,0.0,0,0,8.0,0.0,512.0,4570.256410256411,3930.2564102564106,4493.333333333334,4441.538461538462,4245.128205128206,4538.461538461539,4440.000000000001,4452.307692307693,4381.538461538462,4717.948717948719,4351.282051282052,4260.512820512821,4194.358974358975,4513.846153846154
196.93486,0.56835055,0.8969476,0.34798545,0.57702625,0,0.0,0.0,0.0,0.0,1.0,0,0,0.0,0.0,0,0,36.0,0.0,0.0,4687.6923076923085,3971.2820512820517,4556.410256410257,4450.256410256411,4231.794871794872,4525.641025641026,4464.615384615385,4470.769230769231,4343.589743589744,4707.6923076923085,4337.948717948719,4317.435897435898,4195.8974358974365,4608.717948717949
197.21635,0.56387925,0.87172854,0.3483016,0.5745475,0,0.0,0.0,0.0,0.0,0.4564045,0,0,0.0,0.0,0,0,72.0,0.0,512.0,4610.256410256411,3949.2307692307695,4542.051282051282,4441.538461538462,4222.564102564103,4517.435897435898,4478.461538461539,4465.128205128206,4298.461538461539,4649.743589743591,4300.000000000001,4316.410256410257,4150.769230769231,4532.820512820514
197.4353,0.56387925,0.87172854,0.3483016,0.5745475,1,0.0,0.0,0.0,0.0,0.9288152,0,0,0.0,0.0,0,0,100.0,0.0,438.0,4635.8974358974365,3954.8717948717954,4552.820512820514,4442.564102564103,4216.410256410257,4506.153846153847,4461.025641025642,4450.256410256411,4290.769230769231,4632.820512820514,4316.410256410257,4338.461538461539,4148.205128205129,4557.435897435898
197.68552,0.53587323,0.8672268,0.34679246,0.5723044,0,0.0,0.0,0.0,0.0,0.7295128,0,0,0.0,0.0,0,0,3.0,0.0,547.0,4614.871794871796,3940.5128205128212,4540.000000000001,4435.8974358974365,4222.564102564103,4516.923076923077,4489.2307692307695,4480.000000000001,4308.205128205129,4636.923076923077,4309.743589743591,4349.2307692307695,4130.769230769231,4542.051282051282
197.93573,0.53587323,0.8672268,0.34679246,0.5723044,0,0.0,0.0,0.0,0.0,0.8332624,0,0,0.0,0.0,0,0,35.0,0.0,0.0,4632.307692307693,3969.7435897435903,4524.615384615385,4435.8974358974365,4223.076923076924,4517.435897435898,4457.948717948719,4438.461538461539,4282.564102564103,4573.333333333334,4240.512820512821,4262.564102564103,4025.1282051282055,4434.871794871796
198.18594,0.576269,0.8519648,0.34543306,0.57028455,0,0.0,0.0,0.0,0.0,0.35175663,0,0,0.0,0.0,0,0,67.0,0.0,547.0,4620.512820512821,3959.48717948718,4505.128205128206,4434.358974358975,4231.794871794872,4521.025641025642,4442.564102564103,4431.794871794872,4308.717948717949,4596.923076923077,4283.589743589744,4273.333333333334,4070.2564102564106,4476.923076923077
198.43616,0.576269,0.8519648,0.34543306,0.57028455,0,0.0,0.0,0.0,0.0,0.17525204,0,0,0.0,0.0,0,0,99.0,0.0,522.0,4625.128205128206,3952.307692307693,4489.743589743591,4431.794871794872,4238.461538461539,4535.384615384616,4459.48717948718,4456.410256410257,4356.923076923077,4636.410256410257,4292.307692307693,4290.256410256411,4091.2820512820517,4502.564102564103
198.68637,0.57217544,0.83315015,0.34420854,0.56846684,0,0.0,0.0,0.0,0.0,0.0,0,0,0.0,0.0,0,0,2.0,0.0,521.0,4598.461538461539,3930.7692307692314,4490.256410256411,4422.051282051282,4222.051282051282,4521.538461538462,4426.153846153847,4443.589743589744,4371.282051282052,4646.666666666667,4302.564102564103,4278.974358974359,4104.102564102564,4523.076923076924
198.68637,0.57217544,0.83315015,0.34420854,0.56846684,0,0.0,0.0,0.0,0.0,0.0,0,0,0.0,0.0,0,0,2.0,0.0,521.0,4598.461538461539,3930.7692307692314,4490.256410256411,4422.051282051282,4222.051282051282,4521.538461538462,4426.153846153847,4443.589743589744,4371.282051282052,4646.666666666667,4302.564102564103,4278.974358974359,4104.102564102564,4523.076923076924
199.1868,0.5894204,0.79480755,0.34310672,0.56683,0,0.0,0.0,0.0,0.0,0.0,0,0,0.0,0.0,0,0,66.0,0.0,521.0,4566.666666666667,3913.8461538461543,4450.769230769231,4414.871794871796,4231.794871794872,4531.794871794872,4422.564102564103,4436.410256410257,4378.461538461539,4659.48717948718,4300.000000000001,4217.435897435898,4105.641025641026,4483.076923076924
199.1868,0.5894204,0.79480755,0.34310672,0.56683,0,0.0,0.0,0.0,0.0,0.0,0,0,0.0,0.0,0,0,66.0,0.0,521.0,4566.666666666667,3913.8461538461543,4450.769230769231,4414.871794871796,4231.794871794872,4531.794871794872,4422.564102564103,4436.410256410257,4378.461538461539,4659.48717948718,4300.000000000001,4217.435897435898,4105.641025641026,4483.076923076924
199.74979,0.5166612,0.75660455,0.3421142,0.5653582,0,0.0,0.0,0.0,0.0,0.5454962,0,0,0.0,0.0,0,0,9.0,0.0,546.0,4486.666666666667,3888.717948717949,4436.410256410257,4414.358974358975,4229.74358974359,4530.256410256411,4396.923076923077,4416.410256410257,4401.025641025642,4687.179487179488,4299.48717948718,4201.025641025642,4122.564102564103,4471.794871794872
199.93745,0.5166612,0.75660455,0.3421142,0.5653582,0,0.0,0.0,0.0,0.0,1.0,0,0,0.0,0.0,0,0,33.0,0.0,0.0,4496.923076923077,3893.333333333334,4444.615384615385,4414.358974358975,4231.794871794872,4531.282051282052,4399.48717948718,4417.435897435898,4404.615384615385,4694.871794871796,4307.6923076923085,4225.128205128206,4140.512820512821,4475.8974358974365
200.18767,0.4653989,0.72587335,0.3412202,0.5739523,0,0.0,0.0,0.0,0.0,0.2057713,0,0,0.0,0.0,0,0,65.0,0.0,479.0,4509.743589743591,3897.435897435898,4442.564102564103,4418.974358974359,4233.846153846154,4536.410256410257,4396.410256410257,4415.384615384616,4414.871794871796,4703.589743589744,4311.794871794872,4215.384615384616,4149.74358974359,4458.974358974359
200.43788,0.4653989,0.72587335,0.3412202,0.5739523,0,0.0,0.0,0.0,0.0,0.24515486,0,0,0.0,0.0,0,0,97.0,0.0,517.0,4541.025641025642,3906.666666666667,4445.641025641026,4426.666666666667,4241.025641025642,4539.48717948718,4407.179487179487,4411.794871794872,4417.948717948719,4715.8974358974365,4301.538461538462,4204.615384615385,4150.256410256411,4472.307692307693
200.6881,0.5173607,0.70424813,0.33900565,0.5919553,0,0.0,0.0,0.0,0.0,0.10954989,0,0,0.0,0.0,0,0,0.0,0.0,504.0,4537.948717948719,3894.8717948717954,4440.512820512821,4417.948717948719,4230.769230769231,4528.205128205129,4400.000000000001,4413.846153846154,4428.205128205129,4728.205128205129,4312.307692307693,4203.076923076924,4160.512820512821,4466.153846153847
200.93831,0.5173607,0.70424813,0.33900565,0.5919553,0,0.0,0.0,0.0,0.0,0.0,0,0,0.0,0.0,0,0,32.0,0.0,0.0,4587.6923076923085,3911.7948717948725,4460.512820512821,4432.307692307693,4235.384615384616,4537.948717948719,4406.666666666667,4407.179487179487,4430.256410256411,4740.512820512821,4322.564102564103,4217.435897435898,4173.333333333334,4491.282051282052
201.18071,0.5992833,0.69219285,0.33457664,0.6081733,0,0.0,0.0,0.0,0.0,0.6300136,0,0,0.0,0.0,0,0,64.0,0.0,504.0,4514.358974358975,3912.307692307693,4459.48717948718,4429.743589743591,4231.794871794872,4534.871794871796,4408.717948717949,4409.2307692307695,4438.461538461539,4752.307692307693,4335.8974358974365,4218.461538461539,4184.102564102564,4491.794871794872
201.43092,0.5992833,0.69219285,0.33457664,0.6081733,0,0.0,0.0,0.0,0.0,0.79637045,0,0,0.0,0.0,0,0,96.0,0.0,438.0,4478.974358974359,3894.8717948717954,4458.461538461539,4426.153846153847,4231.794871794872,4537.948717948719,4427.6923076923085,4431.282051282052,4456.923076923077,4759.48717948718,4341.025641025642,4211.282051282052,4173.846153846154,4489.743589743591
201.68114,0.5790496,0.6769084,0.3305904,0.62275994,0,0.0,0.0,0.0,0.0,0.21451549,0,0,0.0,0.0,0,0,128.0,0.0,438.0,4520.000000000001,3908.205128205129,4473.333333333334,4430.769230769231,4238.974358974359,4538.974358974359,4434.871794871796,4434.358974358975,4449.2307692307695,4758.974358974359,4337.948717948719,4199.48717948718,4168.717948717949,4484.615384615385
201.80624,0.5790496,0.6769084,0.3305904,0.62275994,0,0.0,0.0,0.0,0.0,1.0,0,0,0.0,0.0,0,0,15.0,0.0,529.0,4539.48717948718,3924.615384615385,4477.435897435898,4442.051282051282,4247.6923076923085,4544.102564102564,4437.948717948719,4436.923076923077,4441.025641025642,4731.794871794872,4344.102564102564,4208.205128205129,4158.974358974359,3449.2307692307695
202.21284,0.5261011,0.66887754,0.3269973,0.63593996,0,0.0,0.0,0.0,0.0,1.0,0,0,0.0,0.0,0,0,67.0,0.0,547.0,4556.410256410257,3921.538461538462,4476.410256410257,4435.384615384616,4233.846153846154,4528.717948717949,4417.435897435898,4415.8974358974365,4435.8974358974365,4763.076923076924,4347.6923076923085,4220.000000000001,4170.256410256411,4594.871794871796
202.43178,0.5261011,0.66887754,0.3269973,0.63593996,0,0.0,0.0,0.0,0.0,0.43053767,0,0,0.0,0.0,0,0,95.0,0.0,522.0,4558.461538461539,3927.1794871794878,4472.820512820514,4431.282051282052,4231.794871794872,4530.256410256411,4421.025641025642,4430.256410256411,4441.025641025642,4769.743589743591,4332.820512820514,4200.512820512821,4162.051282051282,4553.333333333334
202.68199,0.47509453,0.6670313,0.32381275,0.64652723,0,0.0,0.0,0.0,0.0,0.27775845,0,0,0.0,0.0,0,0,127.0,0.0,522.0,4558.461538461539,3922.564102564103,4475.384615384616,4428.205128205129,4229.74358974359,4523.076923076924,4422.564102564103,4426.153846153847,4432.820512820514,4749.743589743591,4317.435897435898,4192.820512820514,4129.74358974359,4563.076923076924
202.9322,0.47509453,0.6670313,0.32381275,0.64652723,0,0.0,0.0,0.0,0.0,0.08073646,0,0,0.0,0.0,0,0,30.0,0.0,0.0,4557.948717948719,3920.5128205128212,4460.000000000001,4428.205128205129,4231.282051282052,4523.076923076924,4404.102564102564,4404.102564102564,4413.333333333334,4743.589743589744,4333.846153846154,4201.538461538462,4147.179487179487,4572.307692307693
203.18242,0.4358232,0.6452057,0.32339355,0.6461011,0,0.0,0.0,0.0,0.0,0.0,0,0,0.0,0.0,0,0,62.0,0.0,0.0,4554.871794871796,3910.2564102564106,4466.153846153847,4422.564102564103,4230.256410256411,4522.564102564103,4409.2307692307695,4408.205128205129,4434.358974358975,4756.923076923077,4357.948717948719,4212.820512820514,4169.74358974359,4570.769230769231
203.18242,0.4358232,0.6452057,0.32339355,0.6461011,0,0.0,0.0,0.0,0.0,0.0,0,0,0.0,0.0,0,0,62.0,0.0,0.0,4554.871794871796,3910.2564102564106,4466.153846153847,4422.564102564103,4230.256410256411,4522.564102564103,4409.2307692307695,4408.205128205129,4434.358974358975,4756.923076923077,4357.948717948719,4212.820512820514,4169.74358974359,4570.769230769231
203.68285,0.40709248,0.61942077,0.3243964,0.63664365,0,0.0,0.0,0.0,0.0,0.12278079,0,0,0.0,0.0,0,0,126.0,0.0,561.0,4540.000000000001,3894.358974358975,4454.871794871796,4429.2307692307695,4231.282051282052,4532.820512820514,4425.641025641026,4410.256410256411,4444.102564102564,4768.205128205129,4358.974358974359,4211.282051282052,4175.384615384616,4564.102564102564
203.93307,0.40709248,0.61942077,0.3243964,0.63664365,0,0.0,0.0,0.0,0.0,0.0,0,0,0.0,0.0,0,0,29.0,0.0,0.0,4557.435897435898,3910.2564102564106,4475.384615384616,4430.769230769231,4240.512820512821,4535.8974358974365,4426.153846153847,4395.8974358974365,4430.769230769231,4770.769230769231,4376.923076923077,4232.820512820514,4187.179487179487,4573.333333333334
204.18329,0.45492014,0.588508,0.32529977,0.62813133,0,0.0,0.0,0.0,0.0,0.0,0,0,0.0,0.0,0,0,61.0,0.0,0.0,4578.974358974359,3921.538461538462,4481.538461538462,4433.333333333334,4247.179487179487,4547.6923076923085,4434.358974358975,4431.282051282052,4459.48717948718,4794.358974358975,4395.8974358974365,4236.410256410257,4198.461538461539,4568.717948717949
204.46478,0.45492014,0.588508,0.32529977,0.62813133,1,0.0,0.0,0.0,0.0,0.0,0,0,0.0,0.0,0,0,97.0,0.0,517.0,4617.435897435898,3948.717948717949,4490.256410256411,4441.025641025642,4248.205128205129,4551.282051282052,4443.076923076924,4428.717948717949,4453.333333333334,4791.282051282052,4389.743589743591,4246.666666666667,4195.8974358974365,4600.512820512821
204.68372,0.40879306,0.57534987,0.3261135,0.6204691,0,0.0,0.0,0.0,0.0,0.47300595,0,0,0.0,0.0,0,0,125.0,0.0,517.0,4569.2307692307695,3927.692307692308,4480.000000000001,4431.794871794872,4248.205128205129,4538.461538461539,4441.538461538462,4427.179487179487,4453.846153846154,4784.615384615386,4383.076923076924,4231.282051282052,4186.666666666667,4552.820512820514
204.93393,0.40879306,0.57534987,0.3261135,0.6204691,0,0.0,0.0,0.0,0.0,0.24206705,0,0,0.0,0.0,0,0,28.0,0.0,0.0,4568.205128205129,3936.9230769230776,4493.333333333334,4436.410256410257,4247.6923076923085,4544.615384615385,4447.6923076923085,4437.948717948719,4462.051282051282,4796.410256410257,4400.512820512821,4236.923076923077,4205.128205128206,4558.461538461539
205.18414,0.41180164,0.56158966,0.32591215,0.61994785,0,0.0,0.0,0.0,0.0,0.13906254,0,0,0.0,0.0,0,0,60.0,0.0,0.0,4569.743589743591,3930.7692307692314,4488.717948717949,4432.820512820514,4247.179487179487,4546.153846153847,4453.846153846154,4435.384615384616,4446.666666666667,4788.205128205129,4381.538461538462,4237.948717948719,4195.384615384616,4566.666666666667
205.43436,0.41180164,0.56158966,0.32591215,0.61994785,0,0.0,0.0,0.0,0.0,0.2898287,0,0,0.0,0.0,0,0,92.0,0.0,438.0,4571.794871794872,3930.2564102564106,4500.000000000001,4435.384615384616,4248.717948717949,4549.2307692307695,4461.025641025642,4440.000000000001,4447.179487179487,4793.333333333334,4406.666666666667,4236.410256410257,4202.564102564103,4541.025641025642
205.68457,0.4305423,0.5544668,0.32507268,0.62590474,0,0.0,0.0,0.0,0.0,0.0,0,0,0.0,0.0,0,0,124.0,0.0,438.0,4552.820512820514,3927.1794871794878,4492.820512820514,4433.333333333334,4243.589743589744,4546.666666666667,4452.820512820514,4434.358974358975,4432.820512820514,4784.102564102564,4396.923076923077,4249.74358974359,4184.615384615385,4540.512820512821
205.68457,0.4305423,0.5544668,0.32507268,0.62590474,0,0.0,0.0,0.0,0.0,0.0,0,0,0.0,0.0,0,0,124.0,0.0,438.0,4552.820512820514,3927.1794871794878,4492.820512820514,4433.333333333334,4243.589743589744,4546.666666666667,4452.820512820514,4434.358974358975,4432.820512820514,4784.102564102564,4396.923076923077,4249.74358974359,4184.615384615385,4540.512820512821
206.185,0.46854037,0.5732991,0.3231792,0.64288545,0,0.0,0.0,0.0,0.0,0.7029811,0,0,0.0,0.0,0,0,59.0,0.0,0.0,4611.282051282052,3924.615384615385,4565.641025641026,4443.589743589744,4245.128205128206,4544.102564102564,4533.333333333334,4541.025641025642,4491.794871794872,4864.615384615386,4475.8974358974365,4332.820512820514,4329.743589743591,4645.641025641026
206.43521,0.46854037,0.5732991,0.3231792,0.64288545,0,0.0,0.0,0.0,0.0,0.20799826,0,0,0.0,0.0,0,0,91.0,0.0,520.0,4643.589743589744,3939.48717948718,4601.538461538462,4454.358974358975,4245.641025641026,4541.538461538462,4554.358974358975,4555.384615384616,4465.641025641026,4850.256410256411,4464.615384615385,4351.282051282052,4330.769230769231,4643.589743589744
206.7167,0.5696442,0.5884847,0.32146543,0.65823925,0,0.0,0.0,0.0,0.0,1.0,0,0,0.0,0.0,0,0,127.0,0.0,520.0,4711.794871794872,3960.0000000000005,4638.461538461539,4461.025641025642,4244.615384615385,4536.923076923077,4565.641025641026,4572.307692307693,4446.666666666667,4843.589743589744,4450.769230769231,4384.102564102564,4323.589743589744,4709.2307692307695
206.93565,0.5696442,0.5884847,0.32146543,0.65823925,0,0.0,0.0,0.0,0.0,1.0,0,0,0.0,0.0,0,0,26.0,0.0,0.0,4865.641025641026,3973.8461538461543,4649.743589743591,4457.948717948719,4222.051282051282,4508.717948717949,4548.717948717949,4548.205128205129,4415.384615384616,4814.871794871796,4445.128205128206,4417.435897435898,4317.435897435898,4853.846153846154
207.21715,0.63552547,0.6243352,0.32106376,0.6604119,0,0.0,0.0,0.0,0.0,0.6333139,0,0,0.0,0.0,0,0,62.0,0.0,0.0,4736.410256410257,3946.1538461538466,4585.128205128206,4447.179487179487,4229.2307692307695,4515.8974358974365,4553.846153846154,4547.179487179488,4411.794871794872,4776.410256410257,4421.025641025642,4363.076923076924,4250.769230769231,4646.153846153847
207.43608,0.63552547,0.6243352,0.32106376,0.6604119,0,0.0,0.0,0.0,0.0,0.51448953,0,0,0.0,0.0,0,0,90.0,0.0,561.0,4735.8974358974365,3944.1025641025644,4571.282051282052,4468.205128205129,4231.282051282052,4523.076923076924,4532.820512820514,4545.641025641026,4432.307692307693,4800.512820512821,4421.538461538462,4359.48717948718,4246.153846153847,4662.051282051282
207.6863,0.73905665,0.6529865,0.3216449,0.6558624,0,0.0,0.0,0.0,0.0,0.0,0,0,0.0,0.0,0,0,122.0,0.0,561.0,4716.923076923077,3937.9487179487182,4546.153846153847,4454.358974358975,4229.2307692307695,4519.48717948718,4507.179487179488,4516.410256410257,4424.615384615385,4772.820512820514,4410.769230769231,4348.717948717949,4231.794871794872,4636.923076923077
207.6863,0.73905665,0.6529865,0.3216449,0.6558624,0,0.0,0.0,0.0,0.0,0.0,0,0,0.0,0.0,0,0,122.0,0.0,561.0,4716.923076923077,3937.9487179487182,4546.153846153847,4454.358974358975,4229.2307692307695,4519.48717948718,4507.179487179488,4516.410256410257,4424.615384615385,4772.820512820514,4410.769230769231,4348.717948717949,4231.794871794872,4636.923076923077
208.18672,0.7370286,0.66695255,0.32282406,0.64541817,0,0.0,0.0,0.0,0.0,0.0,0,0,0.0,0.0,1,0,57.0,0.0,0.0,4812.820512820514,3942.0512820512827,4512.307692307693,4450.256410256411,4237.948717948719,4527.6923076923085,4469.2307692307695,4473.846153846154,4414.871794871796,4726.666666666667,4380.000000000001,4315.384615384616,4189.2307692307695,4652.820512820514
208.43694,0.7370286,0.66695255,0.32282406,0.64541817,0,0.0,0.0,0.0,0.0,0.8410459,0,0,0.0,0.0,1,0,89.0,0.0,517.0,4730.256410256411,3929.7435897435903,4492.820512820514,4445.641025641026,4245.641025641026,4538.974358974359,4461.025641025642,4462.564102564103,4409.743589743591,4702.051282051282,4366.153846153847,4287.179487179487,4163.589743589744,4571.282051282052
208.68715,0.8263247,0.6977789,0.32388622,0.6360189,0,0.0,0.0,0.0,0.0,0.44072828,0,0,0.0,0.0,0,0,121.0,0.0,517.0,4720.512820512821,3926.1538461538466,4476.410256410257,4439.48717948718,4244.615384615385,4534.871794871796,4441.538461538462,4439.48717948718,4391.794871794872,4664.102564102564,4347.179487179487,4259.48717948718,4142.564102564103,4546.666666666667
208.93736,0.8263247,0.6977789,0.32388622,0.6360189,1,0.0,0.0,0.0,0.0,0.51468074,0,0,0.0,0.0,0,0,24.0,0.0,0.0,4698.461538461539,3926.666666666667,4477.948717948719,4443.076923076924,4254.358974358975,4546.153846153847,4430.769230769231,4430.769230769231,4403.589743589744,4667.179487179488,4352.820512820514,4236.410256410257,4155.384615384616,4536.410256410257
209.18759,0.82128084,0.7193547,0.324843,0.6275589,0,0.0,0.0,0.0,0.0,0.76050055,0,0,0.0,0.0,0,0,56.0,0.0,0.0,4695.8974358974365,3926.666666666667,4499.48717948718,4436.410256410257,4241.025641025642,4533.846153846154,4443.589743589744,4445.128205128206,4408.205128205129,4685.128205128206,4371.794871794872,4268.205128205129,4168.205128205129,4536.410256410257
209.4378,0.82128084,0.7193547,0.324843,0.6275589,0,0.0,0.0,0.0,0.0,0.10537483,0,0,0.0,0.0,0,0,88.0,0.0,438.0,4710.769230769231,3941.538461538462,4505.128205128206,4440.512820512821,4242.051282051282,4528.205128205129,4453.846153846154,4468.717948717949,4420.000000000001,4704.102564102564,4352.820512820514,4245.128205128206,4155.384615384616,4522.564102564103
209.68802,0.7931097,0.75744456,0.32570282,0.61995524,0,0.0,0.0,0.0,0.0,0.0,0,0,0.0,0.0,0,0,120.0,0.0,438.0,4693.846153846154,3941.0256410256416,4523.589743589744,4444.102564102564,4238.974358974359,4528.717948717949,4455.384615384616,4462.564102564103,4422.564102564103,4729.743589743591,4362.051282051282,4264.615384615385,4178.974358974359,4544.102564102564
209.68802,0.7931097,0.75744456,0.32570282,0.61995524,0,0.0,0.0,0.0,0.0,0.0,0,0,0.0,0.0,0,0,120.0,0.0,438.0,4693.846153846154,3941.0256410256416,4523.589743589744,4444.102564102564,4238.974358974359,4528.717948717949,4455.384615384616,4462.564102564103,4422.564102564103,4729.743589743591,4362.051282051282,4264.615384615385,4178.974358974359,4544.102564102564
210.18845,0.73013526,0.7373801,0.32647732,0.6221372,0,0.0,0.0,0.0,0.0,0.0,0,0,0.0,0.0,0,0,55.0,0.0,0.0,4671.282051282052,3941.538461538462,4525.641025641026,4444.615384615385,4244.102564102564,4536.923076923077,4480.000000000001,4489.743589743591,4451.282051282052,4780.512820512821,4375.8974358974365,4295.8974358974365,4215.384615384616,4572.820512820514
210.18845,0.73013526,0.7373801,0.32647732,0.6221372,0,0.0,0.0,0.0,0.0,0.0,0,0,0.0,0.0,0,0,55.0,0.0,0.0,4671.282051282052,3941.538461538462,4525.641025641026,4444.615384615385,4244.102564102564,4536.923076923077,4480.000000000001,4489.743589743591,4451.282051282052,4780.512820512821,4375.8974358974365,4295.8974358974365,4215.384615384616,4572.820512820514
210.68887,0.7111233,0.7056713,0.3260623,0.63635397,0,0.0,0.0,0.0,0.0,0.0,0,0,0.0,0.0,0,0,119.0,0.0,515.0,4651.794871794872,3943.589743589744,4509.743589743591,4442.564102564103,4245.641025641026,4536.923076923077,4460.000000000001,4454.871794871796,4437.948717948719,4785.128205128206,4376.923076923077,4294.871794871796,4212.307692307693,4553.846153846154
210.93909,0.7111233,0.7056713,0.3260623,0.63635397,0,0.0,0.0,0.0,0.0,0.16454512,0,0,0.0,0.0,0,0,22.0,0.0,0.0,4646.153846153847,3931.7948717948725,4486.153846153847,4433.846153846154,4244.102564102564,4537.948717948719,4450.769230769231,4453.333333333334,4429.743589743591,4771.794871794872,4350.769230769231,4260.512820512821,4186.153846153847,4525.128205128206
211.1893,0.6788894,0.66824275,0.32455862,0.65724057,0,0.0,0.0,0.0,0.0,0.1147487,0,0,0.0,0.0,0,0,54.0,0.0,0.0,4654.358974358975,3942.0512820512827,4496.410256410257,4443.589743589744,4247.179487179487,4539.48717948718,4445.641025641026,4441.025641025642,4430.256410256411,4786.153846153847,4367.6923076923085,4278.461538461539,4197.435897435898,4555.8974358974365
211.43951,0.6788894,0.66824275,0.32455862,0.65724057,0,0.0,0.0,0.0,0.0,0.0,0,0,0.0,0.0,0,0,86.0,0.0,561.0,4622.564102564103,3926.1538461538466,4474.358974358975,4431.282051282052,4236.923076923077,4537.435897435898,4433.333333333334,4415.8974358974365,4402.564102564103,4754.871794871796,4340.512820512821,4247.179487179487,4167.179487179487,4514.358974358975
211.68973,0.68049574,0.6327044,0.32286566,0.6812357,1,0.0,0.0,0.0,0.0,0.0,0,0,0.0,0.0,0,0,118.0,0.0,561.0,4622.564102564103,3926.1538461538466,4471.282051282052,4435.8974358974365,4247.6923076923085,4548.205128205129,4440.512820512821,4430.769230769231,4421.538461538462,4765.641025641026,4342.051282051282,4238.974358974359,4161.025641025642,4491.282051282052
211.93996,0.68049574,0.6327044,0.32286566,0.6812357,0,0.0,0.0,0.0,0.0,1.0,0,0,0.0,0.0,0,0,21.0,0.0,0.0,4602.051282051282,3924.1025641025644,4472.307692307693,4442.051282051282,4247.179487179487,4539.48717948718,4438.974358974359,4425.641025641026,4402.051282051282,4742.051282051282,4324.102564102564,4231.794871794872,4150.769230769231,4294.358974358975
212.22144,0.6645741,0.59843415,0.32135054,0.69806993,0,0.0,0.0,0.0,1.0,0.0,0,0,0.0,0.0,0,0,57.0,0.0,0.0,4576.923076923077,3927.1794871794878,4465.128205128206,4434.871794871796,4242.564102564103,4537.435897435898,4433.846153846154,4414.358974358975,4410.769230769231,4757.435897435898,4328.717948717949,4232.307692307693,4160.000000000001,4536.923076923077
212.44038,0.6645741,0.59843415,0.32135054,0.69806993,0,0.0,0.0,0.0,0.0,1.0,0,0,0.0,0.0,0,0,85.0,0.0,517.0,4568.205128205129,3923.076923076924,4473.846153846154,4435.8974358974365,4246.153846153847,4538.974358974359,4422.051282051282,4410.769230769231,4418.461538461539,4767.179487179488,4337.948717948719,4230.256410256411,4181.025641025642,4566.666666666667
212.72188,0.6773922,0.5675909,0.32143837,0.7132208,1,0.0,0.0,0.0,0.0,0.51328105,0,0,0.0,0.0,0,0,121.0,0.0,517.0,4594.871794871796,3927.1794871794878,4476.923076923077,4438.974358974359,4245.128205128206,4540.512820512821,4412.820512820514,4395.8974358974365,4403.076923076924,4755.8974358974365,4329.743589743591,4226.153846153847,4167.179487179487,4582.051282051282
212.94081,0.6773922,0.5675909,0.32143837,0.7132208,0,0.0,0.0,0.0,0.0,0.6105581,0,0,0.0,0.0,0,0,20.0,0.0,0.0,4521.025641025642,3926.1538461538466,4462.051282051282,4431.794871794872,4235.8974358974365,4538.461538461539,4422.564102564103,4412.820512820514,4426.153846153847,4757.948717948719,4332.820512820514,4220.512820512821,4166.153846153847,4540.000000000001
213.19102,0.71436006,0.54979485,0.32152772,0.7144049,0,0.0,0.0,0.0,0.0,0.4465157,0,0,0.0,0.0,0,0,52.0,0.0,0.0,4538.461538461539,3934.358974358975,4473.333333333334,4433.846153846154,4239.48717948718,4536.923076923077,4405.641025641026,4377.435897435898,4393.333333333334,4738.974358974359,4320.000000000001,4215.384615384616,4130.256410256411,4551.794871794872
213.44124,0.71436006,0.54979485,0.32152772,0.7144049,0,0.0,0.0,0.0,0.0,0.4105854,0,0,0.0,0.0,0,1,84.0,0.0,438.0,4521.538461538462,3917.9487179487182,4461.538461538462,4426.666666666667,4237.435897435898,4537.435897435898,4413.846153846154,4373.846153846154,4412.820512820514,4754.358974358975,4347.179487179487,4218.974358974359,4149.74358974359,4533.846153846154
213.69145,0.6525778,0.5421452,0.32271856,0.6980137,0,0.0,0.0,0.0,0.0,0.47377628,0,0,0.0,0.0,0,0,116.0,0.0,438.0,4556.410256410257,3927.692307692308,4458.974358974359,4427.179487179487,4244.615384615385,4542.051282051282,4412.820512820514,4391.794871794872,4421.538461538462,4771.282051282052,4395.8974358974365,4222.051282051282,4161.025641025642,4535.8974358974365
213.94167,0.6525778,0.5421452,0.32271856,0.6980137,0,0.0,0.0,0.0,0.0,0.8089691,0,0,0.0,0.0,0,0,19.0,0.0,0.0,4589.2307692307695,3937.9487179487182,4464.102564102564,4429.743589743591,4245.641025641026,4538.974358974359,4411.282051282052,4397.948717948719,4419.48717948718,4771.282051282052,4374.358974358975,4208.205128205129,4169.2307692307695,4503.076923076924
214.19188,0.63618076,0.58353347,0.3237912,0.68327564,0,0.0,0.0,0.0,0.0,0.501429,0,0,0.0,0.0,0,0,51.0,0.0,0.0,4579.48717948718,3926.1538461538466,4442.564102564103,4418.974358974359,4223.076923076924,4527.179487179488,4388.205128205129,4360.000000000001,4384.615384615385,4735.384615384616,4348.205128205129,4172.820512820514,4124.102564102564,4460.000000000001
214.4421,0.63618076,0.58353347,0.3237912,0.68327564,0,0.0,0.0,0.0,0.0,0.13181195,0,0,0.0,0.0,0,0,83.0,0.0,521.0,4592.820512820514,3925.6410256410263,4454.358974358975,4427.179487179487,4214.871794871796,4529.743589743591,4418.974358974359,4371.282051282052,4382.051282051282,4741.025641025642,4357.948717948719,4188.717948717949,4124.615384615385,4478.974358974359
214.69232,0.6531611,0.61438984,0.3247584,0.67002,0,0.0,0.0,0.0,0.0,0.11397581,0,0,0.0,0.0,0,0,115.0,0.0,521.0,4656.410256410257,3933.8461538461543,4509.2307692307695,4433.333333333334,4229.2307692307695,4528.205128205129,4450.256410256411,4425.641025641026,4425.641025641026,4791.282051282052,4401.538461538462,4247.179487179487,4188.205128205129,4536.410256410257
214.81743,0.6531611,0.61438984,0.3247584,0.67002,0,0.0,0.0,0.0,0.0,0.0,0,0,0.0,0.0,0,0,2.0,0.0,521.0,4646.666666666667,3942.0512820512827,4529.743589743591,4432.307692307693,4224.615384615385,4522.564102564103,4464.102564102564,4454.358974358975,4445.641025641026,4800.512820512821,4414.358974358975,4262.051282051282,4200.512820512821,4537.948717948719
215.19275,0.6779836,0.6236174,0.32562965,0.65811276,0,0.0,0.0,0.0,0.0,0.0,0,0,0.0,0.0,0,0,50.0,0.0,0.0,4827.179487179488,3975.3846153846157,4588.205128205129,4443.589743589744,4202.564102564103,4509.743589743591,4472.307692307693,4457.948717948719,4405.128205128206,4773.333333333334,4434.358974358975,4330.256410256411,4238.461538461539,4697.435897435898
215.47424,0.6779836,0.6236174,0.32562965,0.65811276,0,0.0,0.0,0.0,0.0,0.64518744,0,0,0.0,0.0,0,0,86.0,0.0,561.0,4753.333333333334,3946.666666666667,4571.794871794872,4443.589743589744,4208.717948717949,4506.666666666667,4504.615384615385,4505.641025641026,4428.717948717949,4797.435897435898,4448.205128205129,4346.666666666667,4252.307692307693,4622.564102564103
215.69318,0.671794,0.63767564,0.327874,0.6528116,0,0.0,0.0,0.0,0.0,0.3353262,0,0,0.0,0.0,0,0,114.0,0.0,561.0,4732.307692307693,3941.538461538462,4551.282051282052,4442.564102564103,4221.538461538462,4509.2307692307695,4483.589743589744,4461.538461538462,4375.8974358974365,4730.769230769231,4384.615384615385,4299.48717948718,4195.384615384616,4584.102564102564
215.94339,0.671794,0.63767564,0.327874,0.6528116,0,0.0,0.0,0.0,0.0,0.103966266,0,0,0.0,0.0,0,0,17.0,0.0,0.0,4750.256410256411,3960.5128205128212,4548.717948717949,4449.2307692307695,4243.076923076924,4528.205128205129,4480.000000000001,4481.025641025642,4408.717948717949,4758.974358974359,4363.589743589744,4295.384615384616,4206.666666666667,4586.153846153847
216.1936,0.66683435,0.65189964,0.3313653,0.65638274,0,0.0,0.0,0.0,0.0,0.0,0,0,0.0,0.0,0,0,49.0,0.0,0.0,4744.615384615386,3951.2820512820517,4524.615384615385,4453.846153846154,4248.717948717949,4536.410256410257,4473.333333333334,4472.820512820514,4409.743589743591,4753.333333333334,4340.000000000001,4270.769230769231,4196.410256410257,4562.564102564103
216.1936,0.66683435,0.65189964,0.3313653,0.65638274,0,0.0,0.0,0.0,0.0,0.0,0,0,0.0,0.0,0,0,49.0,0.0,0.0,4744.615384615386,3951.2820512820517,4524.615384615385,4453.846153846154,4248.717948717949,4536.410256410257,4473.333333333334,4472.820512820514,4409.743589743591,4753.333333333334,4340.000000000001,4270.769230769231,4196.410256410257,4562.564102564103
216.69403,0.7108519,0.66116476,0.33581588,0.6595843,0,0.0,0.0,0.0,0.0,0.0,0,0,0.0,0.0,0,0,113.0,0.0,517.0,4676.410256410257,3943.076923076924,4493.333333333334,4447.6923076923085,4249.2307692307695,4527.6923076923085,4432.820512820514,4419.48717948718,4376.410256410257,4720.000000000001,4285.641025641026,4210.256410256411,4127.6923076923085,4492.307692307693
216.94424,0.7108519,0.66116476,0.33581588,0.6595843,0,0.0,0.0,0.0,0.0,1.0,0,0,0.0,0.0,0,0,16.0,0.0,0.0,4651.282051282052,3926.666666666667,4478.974358974359,4441.025641025642,4236.923076923077,4520.512820512821,4426.666666666667,4423.589743589744,4392.307692307693,4684.102564102564,4296.923076923077,4201.538461538462,4138.461538461539,3116.923076923077
217.22574,0.6667878,0.6649517,0.33982676,0.66255087,0,0.0,0.0,0.0,0.0,1.0,0,0,0.0,0.0,0,0,52.0,0.0,0.0,4576.923076923077,3908.717948717949,4465.128205128206,4445.128205128206,4251.282051282052,4538.974358974359,4438.461538461539,4438.461538461539,4446.153846153847,4785.128205128206,4367.6923076923085,4238.461538461539,4238.461538461539,4647.6923076923085
217.44469,0.6667878,0.6649517,0.33982676,0.66255087,0,0.0,0.0,0.0,0.0,1.0,0,0,0.0,0.0,0,0,80.0,0.0,438.0,4603.589743589744,3911.2820512820517,4475.8974358974365,4438.974358974359,4246.666666666667,4537.948717948719,4432.820512820514,4416.410256410257,4422.051282051282,4771.282051282052,4364.102564102564,4243.589743589744,4226.666666666667,4642.051282051282
217.72617,0.62071633,0.6287167,0.34342656,0.6568975,0,0.0,0.0,0.0,0.0,0.20016012,0,0,0.0,0.0,0,0,116.0,0.0,438.0,4585.128205128206,3906.666666666667,4467.179487179487,4437.948717948719,4248.205128205129,4538.974358974359,4444.615384615385,4426.153846153847,4441.538461538462,4782.051282051282,4385.641025641026,4232.820512820514,4214.871794871796,4625.641025641026
217.94511,0.62071633,0.6287167,0.34342656,0.6568975,0,0.0,0.0,0.0,0.0,0.39734238,0,0,0.0,0.0,0,0,15.0,0.0,517.0,4718.974358974359,3962.564102564103,4524.102564102564,4476.923076923077,4285.128205128206,4580.512820512821,4459.48717948718,4435.384615384616,4452.307692307693,4815.8974358974365,4415.8974358974365,4299.48717948718,4260.000000000001,4750.769230769231
218.19533,0.6797912,0.6054298,0.3451869,0.64635605,0,0.0,0.0,0.0,0.0,0.71480185,0,0,0.0,0.0,0,1,47.0,0.0,0.0,4569.743589743591,3911.2820512820517,4462.051282051282,4440.512820512821,4248.205128205129,4546.153846153847,4424.102564102564,4396.923076923077,4432.307692307693,4770.256410256411,4386.666666666667,4221.025641025642,4192.820512820514,4568.717948717949
218.44554,0.6797912,0.6054298,0.3451869,0.64635605,0,0.0,0.0,0.0,0.0,0.9609319,0,0,0.0,0.0,0,0,79.0,0.0,517.0,4706.153846153847,3938.9743589743593,4507.6923076923085,4441.538461538462,4234.358974358975,4535.384615384616,4411.794871794872,4368.717948717949,4383.589743589744,4735.384615384616,4348.205128205129,4238.974358974359,4136.410256410257,4636.410256410257
218.69576,0.6634862,0.616059,0.34399137,0.6368693,0,0.0,0.0,0.0,0.0,1.0,0,0,0.0,0.0,0,0,111.0,0.0,517.0,4579.48717948718,3943.589743589744,4463.589743589744,4443.076923076924,4238.461538461539,4536.410256410257,4412.820512820514,4372.307692307693,4400.512820512821,4726.666666666667,4347.6923076923085,4191.282051282052,4114.358974358975,4479.48717948718
218.94597,0.6634862,0.616059,0.34399137,0.6368693,0,0.0,0.0,0.0,0.0,0.5418237,0,0,0.0,0.0,0,0,14.0,0.0,561.0,4596.410256410257,3950.7692307692314,4491.282051282052,4444.615384615385,4244.102564102564,4540.512820512821,4421.025641025642,4379.48717948718,4402.051282051282,4739.48717948718,4346.666666666667,4209.74358974359,4129.2307692307695,4492.307692307693
219.19618,0.7305515,0.6292321,0.3429145,0.6283308,0,0.0,0.0,0.0,0.0,0.12058924,0,0,0.0,0.0,0,0,46.0,0.0,0.0,4604.615384615385,3959.48717948718,4495.8974358974365,4456.923076923077,4252.307692307693,4547.179487179488,4435.384615384616,4396.410256410257,4408.205128205129,4746.153846153847,4355.384615384616,4220.000000000001,4134.358974358975,4503.589743589744
219.32129,0.7305515,0.6292321,0.3429145,0.6283308,0,0.0,0.0,0.0,0.0,0.0,0,0,0.0,0.0,0,0,62.0,0.0,0.0,4623.076923076924,3971.2820512820517,4523.589743589744,4474.871794871796,4264.615384615385,4561.538461538462,4454.871794871796,4419.48717948718,4421.025641025642,4770.256410256411,4366.666666666667,4265.641025641026,4165.128205128206,4550.256410256411
219.69661,0.72560966,0.7389206,0.34194452,0.620645,0,0.0,0.0,0.0,0.0,1.0,0,0,0.0,0.0,0,0,110.0,0.0,561.0,4618.974358974359,3957.9487179487182,4524.615384615385,4462.051282051282,4265.128205128206,4558.974358974359,4471.794871794872,4454.871794871796,4437.435897435898,4794.871794871796,4407.179487179487,4307.179487179487,4212.307692307693,4608.205128205129
219.94682,0.72560966,0.7389206,0.34194452,0.620645,0,0.0,0.0,0.0,0.0,0.68808776,0,0,0.0,0.0,0,0,13.0,0.0,517.0,4611.794871794872,3954.358974358975,4525.128205128206,4458.974358974359,4247.179487179487,4543.589743589744,4453.846153846154,4445.641025641026,4425.128205128206,4774.358974358975,4392.820512820514,4292.307692307693,4192.820512820514,4598.974358974359
220.19705,0.7104258,0.7387881,0.34107083,0.61372614,0,0.0,0.0,0.0,0.0,0.11950178,0,0,0.0,0.0,0,0,45.0,0.0,0.0,4597.948717948719,3942.0512820512827,4508.717948717949,4444.615384615385,4248.205128205129,4544.102564102564,4441.538461538462,4443.589743589744,4428.205128205129,4765.128205128206,4375.384615384616,4283.076923076924,4190.769230769231,4580.512820512821
220.44727,0.7104258,0.7387881,0.34107083,0.61372614,0,0.0,0.0,0.0,0.0,0.0,0,0,0.0,0.0,0,0,77.0,0.0,517.0,4576.923076923077,3941.0256410256416,4496.410256410257,4447.179487179487,4248.717948717949,4550.769230769231,4435.8974358974365,4422.564102564103,4403.589743589744,4745.128205128206,4365.128205128206,4240.512820512821,4177.948717948719,4547.179487179488
220.69748,0.6405259,0.73397905,0.34028384,0.60750276,0,0.0,0.0,0.0,0.0,0.0,0,0,0.0,0.0,0,0,109.0,0.0,517.0,4754.871794871796,3970.7692307692314,4532.307692307693,4452.820512820514,4235.8974358974365,4536.923076923077,4428.205128205129,4429.743589743591,4389.2307692307695,4749.2307692307695,4385.641025641026,4293.333333333334,4186.666666666667,4674.358974358975
220.91641,0.6405259,0.73397905,0.34028384,0.60750276,0,0.0,0.0,0.0,0.0,0.0,0,0,0.0,0.0,0,0,8.0,0.0,511.0,4586.666666666667,3936.410256410257,4491.282051282052,4446.666666666667,4247.179487179487,4541.538461538462,4452.820512820514,4450.769230769231,4413.333333333334,4747.6923076923085,4376.410256410257,4243.076923076924,4174.358974358975,4525.128205128206
221.1979,0.540542,0.7763546,0.33832,0.6019101,0,0.0,0.0,0.0,0.0,0.33855698,0,0,0.0,0.0,0,0,44.0,0.0,0.0,4590.769230769231,3939.48717948718,4521.025641025642,4441.538461538462,4241.538461538462,4538.974358974359,4468.717948717949,4455.8974358974365,4390.769230769231,4738.974358974359,4374.871794871796,4241.025641025642,4188.205128205129,4509.2307692307695
221.44812,0.540542,0.7763546,0.33832,0.6019101,1,0.0,0.0,0.0,0.0,1.0,0,0,0.0,0.0,0,0,76.0,0.0,438.0,4598.974358974359,3953.333333333334,4528.717948717949,4446.666666666667,4240.512820512821,4533.333333333334,4458.461538461539,4445.641025641026,4381.538461538462,4733.333333333334,4374.871794871796,4260.000000000001,4202.564102564103,4531.282051282052
221.69833,0.5246697,0.795174,0.336553,0.59572124,0,0.0,0.0,0.0,0.0,0.5988542,0,0,0.0,0.0,0,0,108.0,0.0,438.0,4600.512820512821,3958.461538461539,4551.282051282052,4457.435897435898,4241.025641025642,4538.461538461539,4495.384615384616,4475.384615384616,4381.025641025642,4724.102564102564,4372.820512820514,4285.641025641026,4199.48717948718,4530.769230769231
221.94855,0.5246697,0.795174,0.336553,0.59572124,0,0.0,0.0,0.0,0.0,0.11040883,0,0,0.0,0.0,0,0,11.0,0.0,517.0,4601.025641025642,3972.820512820513,4555.384615384616,4458.974358974359,4245.128205128206,4539.48717948718,4493.846153846154,4474.871794871796,4375.8974358974365,4710.256410256411,4360.512820512821,4288.717948717949,4205.128205128206,4530.769230769231
222.19876,0.5696384,0.8780353,0.334057,0.5916983,0,0.0,0.0,0.0,0.0,0.0,0,0,0.0,0.0,0,0,43.0,0.0,0.0,4593.846153846154,3952.820512820513,4537.948717948719,4444.615384615385,4234.358974358975,4526.153846153847,4492.307692307693,4467.6923076923085,4360.000000000001,4691.794871794872,4351.794871794872,4286.153846153847,4175.8974358974365,4513.333333333334
222.19876,0.5696384,0.8780353,0.334057,0.5916983,0,0.0,0.0,0.0,0.0,0.0,0,0,0.0,0.0,0,0,43.0,0.0,0.0,4593.846153846154,3952.820512820513,4537.948717948719,4444.615384615385,4234.358974358975,4526.153846153847,4492.307692307693,4467.6923076923085,4360.000000000001,4691.794871794872,4351.794871794872,4286.153846153847,4175.8974358974365,4513.333333333334
222.69919,0.54149264,1.0,0.33095774,0.59057105,0,0.0,0.0,0.0,0.0,0.0,0,0,0.0,0.0,0,0,107.0,0.0,517.0,4576.410256410257,3943.076923076924,4503.076923076924,4445.128205128206,4246.666666666667,4540.512820512821,4474.358974358975,4447.179487179487,4368.717948717949,4680.512820512821,4340.000000000001,4263.589743589744,4154.358974358975,4477.948717948719
222.94942,0.54149264,1.0,0.33095774,0.59057105,0,0.0,0.0,0.0,0.0,0.37608296,0,0,0.0,0.0,0,0,10.0,0.0,561.0,4555.8974358974365,3944.1025641025644,4487.6923076923085,4443.589743589744,4247.179487179487,4543.589743589744,4453.846153846154,4422.564102564103,4348.205128205129,4654.871794871796,4304.102564102564,4228.205128205129,4119.48717948718,4471.794871794872
223.19963,0.59444565,1.0,0.32852286,0.5895544,0,0.0,0.0,0.0,0.0,0.14236957,0,0,0.0,0.0,0,0,42.0,0.0,0.0,4542.051282051282,3938.461538461539,4474.871794871796,4443.589743589744,4248.205128205129,4543.076923076924,4445.641025641026,4417.948717948719,4365.641025641026,4674.358974358975,4304.615384615385,4222.564102564103,4132.820512820514,4474.358974358975
223.44984,0.59444565,1.0,0.32852286,0.5895544,0,0.0,0.0,0.0,0.0,0.0,0,0,0.0,0.0,0,0,74.0,0.0,561.0,4533.846153846154,3926.1538461538466,4475.384615384616,4430.769230769231,4241.025641025642,4537.435897435898,4428.205128205129,4412.307692307693,4378.974358974359,4689.2307692307695,4322.564102564103,4231.282051282052,4149.74358974359,4480.000000000001
223.70006,0.56985486,0.9886087,0.3286364,0.5886374,0,0.0,0.0,0.0,0.0,0.0,0,0,0.0,0.0,0,0,106.0,0.0,561.0,4513.333333333334,3925.1282051282055,4461.538461538462,4431.282051282052,4247.6923076923085,4540.000000000001,4430.769230769231,4395.384615384616,4377.948717948719,4686.153846153847,4313.333333333334,4211.282051282052,4132.820512820514,4470.256410256411
223.82516,0.56985486,0.9886087,0.3286364,0.5886374,0,0.0,0.0,0.0,0.0,1.0,0,0,0.0,0.0,0,0,122.0,0.0,561.0,4500.512820512821,3909.7435897435903,4442.564102564103,4425.128205128206,4240.512820512821,4536.923076923077,4424.102564102564,4374.871794871796,4351.282051282052,4605.641025641026,4294.358974358975,4178.974358974359,4054.358974358975,2451.794871794872
224.23177,0.5535785,0.96008915,0.32964703,0.5863072,0,0.0,0.0,0.0,1.0,0.0,0,0,0.0,0.0,0,0,45.0,0.0,0.0,4519.48717948718,3934.358974358975,4419.48717948718,4426.153846153847,4243.076923076924,4540.000000000001,4414.871794871796,4381.025641025642,4389.743589743591,4709.743589743591,4295.384615384616,4185.641025641026,4107.179487179487,4586.666666666667
224.32559,0.5535785,0.96008915,0.32964703,0.5863072,0,0.0,0.0,0.0,0.0,1.0,0,0,0.0,0.0,0,0,57.0,0.0,0.0,4520.512820512821,3936.9230769230776,4424.615384615385,4427.179487179487,4243.076923076924,4541.025641025642,4415.8974358974365,4376.923076923077,4386.666666666667,4710.256410256411,4312.307692307693,4182.051282051282,4116.410256410257,4599.48717948718
224.7322,0.5783651,0.8905295,0.33001566,0.5842101,0,0.0,0.0,0.0,0.0,0.1888461,0,0,0.0,0.0,0,0,109.0,0.0,517.0,4540.512820512821,3942.564102564103,4444.102564102564,4431.794871794872,4248.717948717949,4549.743589743591,4425.128205128206,4384.615384615385,4402.564102564103,4726.666666666667,4316.923076923077,4169.74358974359,4115.384615384616,4562.564102564103
224.95113,0.5783651,0.8905295,0.33001566,0.5842101,0,0.0,0.0,0.0,0.0,0.0,0,0,0.0,0.0,0,0,8.0,0.0,511.0,4544.102564102564,3924.615384615385,4442.564102564103,4427.179487179487,4236.410256410257,4538.974358974359,4414.871794871796,4375.8974358974365,4391.794871794872,4716.410256410257,4313.333333333334,4174.871794871796,4116.410256410257,4559.48717948718
225.20134,0.553004,0.8769082,0.33034992,0.58099604,0,0.0,0.0,0.0,0.0,0.6198868,0,0,0.0,0.0,0,0,40.0,0.0,0.0,4574.871794871796,3912.307692307693,4461.025641025642,4433.846153846154,4247.6923076923085,4550.256410256411,4438.974358974359,4402.051282051282,4437.435897435898,4771.282051282052,4372.820512820514,4228.717948717949,4200.512820512821,4646.153846153847
225.45157,0.553004,0.8769082,0.33034992,0.58099604,0,0.0,0.0,0.0,0.0,0.7881486,0,0,0.0,0.0,0,0,72.0,0.0,511.0,4565.128205128206,3910.7692307692314,4456.923076923077,4429.743589743591,4241.025641025642,4537.948717948719,4417.948717948719,4373.333333333334,4406.153846153847,4749.743589743591,4368.205128205129,4222.564102564103,4184.102564102564,4616.923076923077
225.70178,0.56481403,0.8675008,0.33065102,0.578102,0,0.0,0.0,0.0,0.0,0.29695565,0,0,0.0,0.0,0,0,104.0,0.0,438.0,4547.6923076923085,3899.48717948718,4441.538461538462,4422.564102564103,4232.307692307693,4535.8974358974365,4425.641025641026,4386.666666666667,4413.333333333334,4753.333333333334,4358.461538461539,4205.128205128206,4175.384615384616,4577.948717948719
225.952,0.56481403,0.8675008,0.33065102,0.578102,0,0.0,0.0,0.0,0.0,0.18240047,0,0,0.0,0.0,0,0,7.0,0.0,492.0,4574.358974358975,3912.820512820513,4452.820512820514,4422.564102564103,4233.333333333334,4534.358974358975,4414.358974358975,4364.102564102564,4411.282051282052,4754.358974358975,4364.102564102564,4202.564102564103,4175.8974358974365,4583.076923076924
226.20221,0.5307116,0.8126939,0.33092225,0.5754977,0,0.0,0.0,0.0,0.0,0.423253,0,0,0.0,0.0,0,0,39.0,0.0,0.0,4727.179487179488,3933.8461538461543,4507.179487179488,4428.717948717949,4231.282051282052,4533.333333333334,4418.461538461539,4384.102564102564,4396.410256410257,4759.48717948718,4361.538461538462,4244.615384615385,4186.153846153847,4684.102564102564
226.45242,0.5307116,0.8126939,0.33092225,0.5754977,0,0.0,0.0,0.0,0.0,0.7356113,0,0,0.0,0.0,0,0,71.0,0.0,492.0,4567.179487179488,3910.7692307692314,4456.410256410257,4426.666666666667,4238.461538461539,4538.461538461539,4415.384615384616,4398.974358974359,4416.923076923077,4756.923076923077,4350.769230769231,4198.461538461539,4158.461538461539,4542.564102564103
226.70264,0.47479767,0.79525787,0.33116627,0.57315093,0,0.0,0.0,0.0,0.0,0.9693419,0,0,0.0,0.0,0,0,103.0,0.0,521.0,4582.564102564103,3921.0256410256416,4462.564102564103,4430.256410256411,4238.461538461539,4538.461538461539,4416.410256410257,4401.538461538462,4429.743589743591,4773.333333333334,4366.153846153847,4196.923076923077,4162.051282051282,4538.461538461539
226.95285,0.47479767,0.79525787,0.33116627,0.57315093,0,0.0,0.0,0.0,0.0,0.41141358,0,0,0.0,0.0,0,0,6.0,0.0,585.0,4569.2307692307695,3910.2564102564106,4477.435897435898,4432.820512820514,4249.2307692307695,4548.717948717949,4443.589743589744,4435.384615384616,4463.076923076924,4814.358974358975,4414.871794871796,4253.846153846154,4237.948717948719,4587.6923076923085
227.20306,0.49958414,0.7413546,0.3313861,0.57103777,0,0.0,0.0,0.0,0.0,0.17740169,0,0,0.0,0.0,0,0,38.0,0.0,0.0,4554.871794871796,3913.333333333334,4463.589743589744,4431.282051282052,4246.153846153847,4540.512820512821,4428.205128205129,4423.076923076924,4446.666666666667,4798.461538461539,4398.974358974359,4216.410256410257,4212.307692307693,4560.000000000001
227.45328,0.49958414,0.7413546,0.3313861,0.57103777,0,0.0,0.0,0.0,0.0,0.2780986,0,0,0.0,0.0,0,0,70.0,0.0,585.0,4569.2307692307695,3945.1282051282055,4477.948717948719,4441.538461538462,4241.538461538462,4539.48717948718,4411.282051282052,4394.358974358975,4402.564102564103,4752.820512820514,4364.615384615385,4199.48717948718,4143.076923076924,4538.461538461539
227.70349,0.49030527,0.71376044,0.33158407,0.56913656,0,0.0,0.0,0.0,0.0,0.2962495,0,0,0.0,0.0,0,0,102.0,0.0,561.0,4553.846153846154,3937.9487179487182,4474.871794871796,4435.384615384616,4240.512820512821,4536.410256410257,4416.410256410257,4390.769230769231,4404.615384615385,4752.307692307693,4377.948717948719,4195.8974358974365,4146.666666666667,4528.717948717949
227.9537,0.49030527,0.71376044,0.33158407,0.56913656,0,0.0,0.0,0.0,0.0,0.13132888,0,0,0.0,0.0,0,0,5.0,0.0,567.0,4539.48717948718,3944.1025641025644,4469.2307692307695,4441.025641025642,4243.076923076924,4537.948717948719,4416.410256410257,4402.564102564103,4421.025641025642,4763.589743589744,4384.102564102564,4184.102564102564,4157.435897435898,4525.641025641026
228.20393,0.47736326,0.7368338,0.33295223,0.56742764,1,0.0,0.0,0.0,0.0,0.0,0,0,0.0,0.0,0,0,37.0,0.0,0.0,4579.48717948718,3942.0512820512827,4508.717948717949,4444.615384615385,4238.461538461539,4534.358974358975,4446.666666666667,4422.564102564103,4393.333333333334,4756.923076923077,4382.051282051282,4225.641025641026,4185.128205128206,4541.025641025642
228.26648,0.47736326,0.7368338,0.33295223,0.56742764,0,0.0,0.0,0.0,0.0,0.0,0,0,0.0,0.0,0,0,45.0,0.0,0.0,4530.256410256411,3932.307692307693,4490.256410256411,4433.333333333334,4231.794871794872,4522.564102564103,4456.923076923077,4435.8974358974365,4392.307692307693,4746.666666666667,4353.846153846154,4188.717948717949,4158.974358974359,4494.358974358975
228.70436,0.5198272,0.7625356,0.33509004,0.56990147,0,0.0,0.0,0.0,0.0,0.0,0,0,0.0,0.0,0,0,101.0,0.0,517.0,4657.435897435898,3994.358974358975,4613.333333333334,4461.025641025642,4233.333333333334,4521.025641025642,4518.974358974359,4513.333333333334,4390.769230769231,4781.025641025642,4374.358974358975,4318.461538461539,4258.461538461539,4565.128205128206
228.70436,0.5198272,0.7625356,0.33509004,0.56990147,0,0.0,0.0,0.0,0.0,0.0,0,0,0.0,0.0,0,0,101.0,0.0,517.0,4657.435897435898,3994.358974358975,4613.333333333334,4461.025641025642,4233.333333333334,4521.025641025642,4518.974358974359,4513.333333333334,4390.769230769231,4781.025641025642,4374.358974358975,4318.461538461539,4258.461538461539,4565.128205128206
229.20479,0.5167492,0.7889803,0.33773485,0.58439493,0,0.0,0.0,0.0,0.0,0.0,0,0,0.0,0.0,0,0,29.0,0.0,0.0,4679.48717948718,4001.538461538462,4604.615384615385,4475.8974358974365,4233.333333333334,4521.025641025642,4540.000000000001,4506.666666666667,4321.538461538462,4695.384615384616,4347.6923076923085,4335.384615384616,4190.769230769231,4505.128205128206
229.39244,0.5167492,0.7889803,0.33773485,0.58439493,0,0.0,0.0,0.0,0.0,0.0,0,0,0.0,0.0,1,0,60.0,0.0,0.0,4696.410256410257,3990.7692307692314,4581.538461538462,4472.307692307693,4231.282051282052,4516.410256410257,4506.666666666667,4469.743589743591,4276.923076923077,4640.512820512821,4329.2307692307695,4330.769230769231,4146.666666666667,4528.205128205129
229.7365,0.6347896,0.8390772,0.34012043,0.597463,0,0.0,0.0,0.0,0.0,1.0,0,0,0.0,0.0,0,0,104.0,0.0,438.0,4656.410256410257,3989.7435897435903,4557.948717948719,4472.820512820514,4239.48717948718,4531.282051282052,4522.564102564103,4495.384615384616,4299.48717948718,4647.179487179488,4349.743589743591,4348.717948717949,4128.205128205129,4502.051282051282
229.95543,0.6347896,0.8390772,0.34012043,0.597463,0,0.0,0.0,0.0,0.0,1.0,0,0,0.0,0.0,0,0,3.0,0.0,547.0,4640.512820512821,3964.615384615385,4522.051282051282,4458.974358974359,4235.8974358974365,4529.743589743591,4509.2307692307695,4496.923076923077,4307.179487179487,4638.974358974359,4354.871794871796,4325.128205128206,4116.923076923077,4497.435897435898
230.23692,0.5877651,0.85629255,0.3419821,0.6092243,0,0.0,0.0,0.0,0.0,0.0440719,0,0,0.0,0.0,0,0,39.0,0.0,0.0,4643.589743589744,3960.5128205128212,4494.358974358975,4456.923076923077,4243.589743589744,4538.461538461539,4463.076923076924,4477.435897435898,4330.769230769231,4640.000000000001,4346.666666666667,4296.410256410257,4110.256410256411,4504.615384615385
230.45586,0.5877651,0.85629255,0.3419821,0.6092243,0,0.0,0.0,0.0,0.0,0.050672717,0,0,0.0,0.0,0,0,67.0,0.0,547.0,4635.384615384616,3958.9743589743593,4489.2307692307695,4457.435897435898,4253.333333333334,4550.769230769231,4457.435897435898,4463.589743589744,4340.000000000001,4649.2307692307695,4355.8974358974365,4283.589743589744,4124.102564102564,4505.128205128206
230.70607,0.56309247,0.83257,0.34201917,0.61575776,0,0.0,0.0,0.0,0.0,0.12070292,0,0,0.0,0.0,0,0,99.0,0.0,523.0,4629.743589743591,3962.564102564103,4474.358974358975,4458.461538461539,4250.256410256411,4552.307692307693,4428.205128205129,4452.820512820514,4356.410256410257,4659.48717948718,4347.179487179487,4254.358974358975,4115.384615384616,4487.6923076923085
230.83118,0.56309247,0.83257,0.34201917,0.61575776,0,0.0,0.0,0.0,0.0,0.0,0,0,0.0,0.0,0,0,115.0,0.0,523.0,4599.48717948718,3947.692307692308,4458.461538461539,4453.846153846154,4253.333333333334,4549.2307692307695,4415.8974358974365,4453.846153846154,4367.179487179487,4666.153846153847,4366.153846153847,4236.410256410257,4130.769230769231,4483.589743589744
231.20651,0.51785487,0.7882579,0.3411434,0.6093656,0,0.0,0.0,0.0,0.0,0.0,0,0,0.0,0.0,0,0,34.0,0.0,0.0,4573.333333333334,3938.9743589743593,4442.564102564103,4444.102564102564,4240.512820512821,4554.358974358975,4412.307692307693,4443.589743589744,4376.410256410257,4671.794871794872,4352.820512820514,4211.794871794872,4125.128205128206,4484.615384615385
231.45673,0.51785487,0.7882579,0.3411434,0.6093656,0,0.0,0.0,0.0,0.0,0.62722266,0,0,0.0,0.0,0,0,66.0,0.0,517.0,4658.461538461539,3929.2307692307695,4476.410256410257,4444.615384615385,4247.6923076923085,4555.8974358974365,4420.512820512821,4433.846153846154,4387.6923076923085,4702.564102564103,4380.512820512821,4253.333333333334,4153.846153846154,4593.333333333334
231.70694,0.51846904,0.7475233,0.34035456,0.6036108,0,0.0,0.0,0.0,0.0,0.73933226,0,0,0.0,0.0,0,0,98.0,0.0,561.0,4580.512820512821,3908.717948717949,4453.333333333334,4435.8974358974365,4241.538461538462,4548.205128205129,4400.000000000001,4413.846153846154,4383.589743589744,4687.179487179488,4359.48717948718,4219.48717948718,4133.846153846154,4539.48717948718
231.95715,0.51846904,0.7475233,0.34035456,0.6036108,0,0.0,0.0,0.0,0.0,0.27826464,0,0,0.0,0.0,0,0,1.0,0.0,479.0,4588.717948717949,3924.615384615385,4463.076923076924,4444.102564102564,4257.948717948719,4556.923076923077,4409.743589743591,4427.179487179487,4421.538461538462,4733.333333333334,4387.179487179487,4224.615384615385,4176.923076923077,4541.538461538462
232.20737,0.54063,0.7666412,0.33964333,0.5984296,0,0.0,0.0,0.0,0.0,0.502122,0,0,0.0,0.0,0,1,33.0,0.0,0.0,4586.666666666667,3924.1025641025644,4472.307692307693,4443.076923076924,4251.794871794872,4553.846153846154,4410.256410256411,4411.794871794872,4418.461538461539,4730.256410256411,4377.435897435898,4230.769230769231,4170.769230769231,4540.512820512821
232.48886,0.54063,0.7666412,0.33964333,0.5984296,0,0.0,0.0,0.0,0.0,0.76217014,0,0,0.0,0.0,0,0,69.0,0.0,567.0,4543.076923076924,3919.48717948718,4449.743589743591,4446.666666666667,4262.564102564103,4556.410256410257,4421.025641025642,4414.871794871796,4431.794871794872,4752.820512820514,4385.641025641026,4203.589743589744,4177.948717948719,4513.333333333334
232.7078,0.5338654,0.79393685,0.3390027,0.59377146,0,0.0,0.0,0.0,0.0,0.839456,0,0,0.0,0.0,0,0,97.0,0.0,517.0,4511.282051282052,3918.461538461539,4426.666666666667,4443.076923076924,4260.512820512821,4562.564102564103,4411.282051282052,4394.358974358975,4426.666666666667,4738.461538461539,4358.974358974359,4156.923076923077,4157.948717948719,4436.410256410257
232.95801,0.5338654,0.79393685,0.3390027,0.59377146,0,0.0,0.0,0.0,0.0,0.4407071,0,0,0.0,0.0,0,0,0.0,0.0,504.0,4506.666666666667,3923.589743589744,4429.2307692307695,4442.564102564103,4250.256410256411,4551.282051282052,4407.179487179487,4401.025641025642,4428.717948717949,4749.2307692307695,4377.435897435898,4174.358974358975,4163.076923076924,4463.076923076924
233.20822,0.53146976,0.80953103,0.33696613,0.5925392,0,0.0,0.0,0.0,0.0,1.0,0,0,0.0,0.0,0,0,32.0,0.0,0.0,4510.256410256411,3924.1025641025644,4442.051282051282,4441.538461538462,4246.666666666667,4544.615384615385,4396.410256410257,4375.8974358974365,4401.538461538462,4668.717948717949,4374.358974358975,4171.794871794872,4094.358974358975,2317.435897435898
233.45844,0.53146976,0.80953103,0.33696613,0.5925392,0,0.0,0.0,0.0,0.0,1.0,0,0,0.0,0.0,0,0,64.0,0.0,504.0,4535.8974358974365,3913.8461538461543,4457.435897435898,4443.589743589744,4247.6923076923085,4550.256410256411,4416.923076923077,4384.615384615385,4425.128205128206,4724.102564102564,4367.179487179487,4183.076923076924,4143.589743589744,3086.1538461538466
233.73993,0.53878963,0.7821929,0.3351351,0.5914613,0,0.0,0.0,0.0,0.0,1.0,0,0,0.0,0.0,0,1,100.0,0.0,435.0,4552.307692307693,3924.615384615385,4450.256410256411,4444.615384615385,4254.358974358975,4554.871794871796,4432.307692307693,4396.410256410257,4441.025641025642,4780.512820512821,4344.615384615385,4161.025641025642,4154.358974358975,4852.307692307693
233.80249,0.53878963,0.7821929,0.3351351,0.5914613,0,0.0,0.0,0.0,0.0,1.0,0,0,0.0,0.0,0,0,108.0,0.0,435.0,4558.461538461539,3923.589743589744,4455.8974358974365,4445.641025641026,4249.74358974359,4556.410256410257,4424.615384615385,4395.384615384616,4441.025641025642,4783.076923076924,4368.205128205129,4178.461538461539,4168.205128205129,4855.8974358974365
234.24036,0.52547157,0.73479426,0.3334878,0.59049124,0,0.0,0.0,0.0,0.0,1.0,0,0,0.0,0.0,0,0,35.0,0.0,0.0,4602.564102564103,3917.435897435898,4460.512820512821,4442.051282051282,4247.6923076923085,4552.820512820514,4426.666666666667,4402.051282051282,4445.128205128206,4784.615384615386,4361.025641025642,4193.846153846154,4169.2307692307695,4763.589743589744
234.3342,0.52547157,0.73479426,0.3334878,0.59049124,0,0.0,0.0,0.0,0.0,1.0,0,0,0.0,0.0,0,0,47.0,0.0,0.0,4605.641025641026,3921.0256410256416,4471.282051282052,4442.564102564103,4248.205128205129,4548.205128205129,4432.820512820514,4407.6923076923085,4452.820512820514,4789.2307692307695,4375.8974358974365,4202.051282051282,4175.8974358974365,4745.641025641026
234.70952,0.5159232,0.6940509,0.3320082,0.5895961,0,0.0,0.0,0.0,0.0,0.28619912,0,0,0.0,0.0,0,0,95.0,0.0,508.0,4596.923076923077,3911.2820512820517,4471.282051282052,4437.435897435898,4245.641025641026,4547.6923076923085,4435.384615384616,4408.717948717949,4449.2307692307695,4788.205128205129,4389.743589743591,4216.410256410257,4187.6923076923085,4710.256410256411
234.95973,0.5159232,0.6940509,0.3320082,0.5895961,0,0.0,0.0,0.0,0.0,0.24153826,0,0,0.0,0.0,0,0,127.0,0.0,508.0,4613.846153846154,3926.666666666667,4478.974358974359,4443.076923076924,4248.205128205129,4555.384615384616,4443.589743589744,4410.256410256411,4456.923076923077,4797.948717948719,4396.410256410257,4228.717948717949,4210.769230769231,4685.128205128206
235.20995,0.5390515,0.67918414,0.33214182,0.5858386,0,0.0,0.0,0.0,0.0,0.6367017,0,0,0.0,0.0,0,0,30.0,0.0,0.0,4672.820512820514,3928.205128205129,4506.153846153847,4445.641025641026,4251.282051282052,4555.384615384616,4445.128205128206,4414.871794871796,4451.282051282052,4793.333333333334,4415.384615384616,4257.435897435898,4205.128205128206,4730.256410256411
235.46016,0.5390515,0.67918414,0.33214182,0.5858386,0,0.0,0.0,0.0,0.0,0.48489553,0,0,0.0,0.0,0,0,62.0,0.0,0.0,4645.128205128206,3926.1538461538466,4498.974358974359,4443.589743589744,4256.410256410257,4556.410256410257,4455.384615384616,4425.128205128206,4453.846153846154,4796.410256410257,4408.717948717949,4250.256410256411,4198.461538461539,4680.000000000001
235.71037,0.5086895,0.6728443,0.33226216,0.58245534,0,0.0,0.0,0.0,0.0,0.37412712,0,0,0.0,0.0,0,0,94.0,0.0,561.0,4655.384615384616,3929.2307692307695,4502.564102564103,4444.102564102564,4253.846153846154,4555.8974358974365,4446.153846153847,4432.307692307693,4438.974358974359,4803.589743589744,4410.256410256411,4252.820512820514,4221.538461538462,4667.179487179488
235.96059,0.5086895,0.6728443,0.33226216,0.58245534,0,0.0,0.0,0.0,0.0,0.0,0,0,0.0,0.0,0,0,126.0,0.0,561.0,4602.564102564103,3912.307692307693,4475.384615384616,4432.307692307693,4247.179487179487,4549.2307692307695,4449.2307692307695,4430.769230769231,4427.6923076923085,4786.153846153847,4411.282051282052,4231.282051282052,4198.461538461539,4624.615384615385
236.2108,0.4908951,0.7027283,0.33237052,0.57940894,0,0.0,0.0,0.0,0.0,0.0,0,0,0.0,0.0,0,0,29.0,0.0,0.0,4641.025641025642,3927.1794871794878,4508.205128205129,4444.102564102564,4261.538461538462,4557.948717948719,4459.48717948718,4443.076923076924,4441.025641025642,4802.564102564103,4413.333333333334,4253.846153846154,4206.153846153847,4624.615384615385
236.2108,0.4908951,0.7027283,0.33237052,0.57940894,0,0.0,0.0,0.0,0.0,0.0,0,0,0.0,0.0,0,0,29.0,0.0,0.0,4641.025641025642,3927.1794871794878,4508.205128205129,4444.102564102564,4261.538461538462,4557.948717948719,4459.48717948718,4443.076923076924,4441.025641025642,4802.564102564103,4413.333333333334,4253.846153846154,4206.153846153847,4624.615384615385
236.71124,0.42751545,0.7732419,0.33246815,0.57666975,1,0.0,0.0,0.0,0.0,0.0,0,0,0.0,0.0,0,0,93.0,0.0,519.0,4600.512820512821,3928.717948717949,4489.2307692307695,4440.000000000001,4246.153846153847,4541.538461538462,4435.384615384616,4402.051282051282,4415.8974358974365,4765.641025641026,4385.128205128206,4214.358974358975,4162.051282051282,4555.8974358974365
236.96146,0.42751545,0.7732419,0.33246815,0.57666975,0,0.0,0.0,0.0,0.0,0.7418861,0,0,0.0,0.0,0,0,125.0,0.0,519.0,4586.153846153847,3923.589743589744,4487.6923076923085,4441.538461538462,4248.717948717949,4552.307692307693,4458.974358974359,4423.589743589744,4430.769230769231,4776.410256410257,4383.076923076924,4212.820512820514,4178.461538461539,4550.256410256411
237.21167,0.39868602,0.77828383,0.3325561,0.575217,0,0.0,0.0,0.0,0.0,0.67191154,0,0,0.0,0.0,0,0,28.0,0.0,0.0,4584.102564102564,3908.205128205129,4472.820512820514,4440.512820512821,4249.2307692307695,4550.256410256411,4444.102564102564,4415.8974358974365,4444.615384615385,4804.102564102564,4429.2307692307695,4237.435897435898,4256.923076923077,4608.205128205129
237.33678,0.39868602,0.77828383,0.3325561,0.575217,0,0.0,0.0,0.0,0.0,1.0,0,0,0.0,0.0,0,0,44.0,0.0,0.0,4540.000000000001,3903.589743589744,4480.000000000001,4433.846153846154,4247.179487179487,4546.666666666667,4446.666666666667,4430.769230769231,4450.769230769231,4811.794871794872,4459.48717948718,4246.666666666667,4260.000000000001,4562.051282051282
237.7121,0.36788455,0.82312334,0.33388346,0.5739083,0,0.0,0.0,0.0,0.0,0.1470638,0,0,0.0,0.0,0,0,92.0,0.0,433.0,4536.410256410257,3912.307692307693,4472.307692307693,4442.564102564103,4247.179487179487,4544.102564102564,4448.205128205129,4431.794871794872,4446.153846153847,4790.256410256411,4417.948717948719,4216.923076923077,4215.384615384616,4541.538461538462
237.96231,0.36788455,0.82312334,0.33388346,0.5739083,0,0.0,0.0,0.0,0.0,1.0,0,0,0.0,0.0,0,0,124.0,0.0,433.0,4696.923076923077,3952.307692307693,4511.794871794872,4444.102564102564,4230.769230769231,4531.794871794872,4427.179487179487,4394.871794871796,4392.820512820514,4753.333333333334,4384.615384615385,4220.512820512821,4157.948717948719,4598.974358974359
238.21252,0.3566562,0.9017643,0.33918062,0.57272935,0,0.0,0.0,0.0,0.0,0.9198577,0,0,0.0,0.0,0,0,27.0,0.0,0.0,4623.589743589744,3973.8461538461543,4509.743589743591,4475.384615384616,4278.974358974359,4572.307692307693,4464.102564102564,4441.538461538462,4444.102564102564,4793.333333333334,4401.538461538462,4223.076923076924,4175.8974358974365,4547.6923076923085
238.46274,0.3566562,0.9017643,0.33918062,0.57272935,0,0.0,0.0,0.0,0.0,0.29322782,0,0,0.0,0.0,0,0,59.0,0.0,0.0,4602.564102564103,3945.1282051282055,4492.307692307693,4447.179487179487,4247.6923076923085,4546.153846153847,4427.179487179487,4400.512820512821,4411.794871794872,4759.48717948718,4376.410256410257,4195.8974358974365,4151.282051282052,4504.102564102564
238.71295,0.44375184,0.90291977,0.3439476,0.5707926,0,0.0,0.0,0.0,0.0,0.14510742,0,0,0.0,0.0,0,0,91.0,0.0,515.0,4626.666666666667,3944.1025641025644,4489.2307692307695,4449.2307692307695,4254.358974358975,4552.820512820514,4437.435897435898,4409.2307692307695,4414.871794871796,4773.846153846154,4381.025641025642,4191.794871794872,4158.461538461539,4546.666666666667
238.83806,0.44375184,0.90291977,0.3439476,0.5707926,0,0.0,0.0,0.0,0.0,0.0,0,0,0.0,0.0,0,0,107.0,0.0,515.0,4599.48717948718,3944.1025641025644,4475.8974358974365,4454.358974358975,4254.871794871796,4555.8974358974365,4433.333333333334,4407.179487179487,4414.871794871796,4766.153846153847,4366.666666666667,4186.153846153847,4157.948717948719,4526.666666666667
239.2134,0.45767924,0.9310614,0.34849605,0.5690486,0,0.0,0.0,0.0,0.0,1.0,0,0,0.0,0.0,0,0,26.0,0.0,0.0,4571.282051282052,3933.333333333334,4475.384615384616,4442.051282051282,4248.205128205129,4552.307692307693,4447.6923076923085,4423.589743589744,4428.717948717949,4768.205128205129,4374.358974358975,4186.153846153847,4150.256410256411,4493.333333333334
239.46361,0.45767924,0.9310614,0.34849605,0.5690486,0,0.0,0.0,0.0,1.0,0.0,0,0,0.0,0.0,0,0,58.0,0.0,0.0,4579.48717948718,3924.615384615385,4489.2307692307695,4438.974358974359,4245.641025641026,4550.256410256411,4440.512820512821,4411.794871794872,4420.000000000001,4762.051282051282,4355.384615384616,4191.282051282052,4141.538461538462,4552.307692307693
239.7451,0.35407943,0.9250779,0.35260403,0.5664814,0,0.0,0.0,0.0,0.0,0.48639327,0,0,0.0,0.0,0,0,94.0,0.0,561.0,4585.128205128206,3921.538461538462,4473.846153846154,4431.282051282052,4244.615384615385,4546.153846153847,4446.153846153847,4427.179487179487,4433.333333333334,4773.333333333334,4387.179487179487,4194.358974358975,4175.8974358974365,4574.871794871796
239.96404,0.35407943,0.9250779,0.35260403,0.5664814,0,0.0,0.0,0.0,0.0,0.16158064,0,0,0.0,0.0,0,0,122.0,0.0,561.0,4581.538461538462,3897.9487179487182,4449.743589743591,4411.282051282052,4216.410256410257,4520.512820512821,4411.282051282052,4397.948717948719,4411.794871794872,4750.256410256411,4376.410256410257,4170.769230769231,4156.410256410257,4538.974358974359
240.21425,0.41073123,0.8837759,0.35318965,0.5641644,0,0.0,0.0,0.0,0.0,0.4080415,0,0,0.0,0.0,0,0,25.0,0.0,0.0,4619.48717948718,3911.7948717948725,4462.564102564103,4415.384615384616,4230.769230769231,4528.205128205129,4421.538461538462,4395.384615384616,4405.128205128206,4751.794871794872,4383.589743589744,4190.256410256411,4161.025641025642,4542.051282051282
240.49574,0.41073123,0.8837759,0.35318965,0.5641644,1,0.0,0.0,0.0,0.0,0.0,0,0,0.0,0.0,0,0,57.0,0.0,0.0,4749.743589743591,3945.1282051282055,4528.205128205129,4429.2307692307695,4230.769230769231,4526.153846153847,4425.641025641026,4408.205128205129,4404.615384615385,4776.923076923077,4370.769230769231,4234.871794871796,4164.102564102564,4634.871794871796
240.71468,0.4595151,0.86500245,0.35220617,0.5629646,0,0.0,0.0,0.0,0.0,0.6939603,0,0,0.0,0.0,0,0,89.0,0.0,519.0,4618.974358974359,3916.410256410257,4473.846153846154,4418.974358974359,4230.256410256411,4525.128205128206,4416.923076923077,4401.025641025642,4403.589743589744,4762.051282051282,4350.769230769231,4186.153846153847,4142.564102564103,4524.102564102564
240.96489,0.4595151,0.86500245,0.35220617,0.5629646,0,0.0,0.0,0.0,0.0,0.52016395,0,0,0.0,0.0,0,0,121.0,0.0,519.0,4598.461538461539,3925.6410256410263,4476.923076923077,4429.743589743591,4243.076923076924,4538.974358974359,4426.666666666667,4404.615384615385,4400.512820512821,4754.871794871796,4359.48717948718,4181.538461538462,4146.153846153847,4527.179487179488
241.2151,0.4142362,0.82063353,0.35030365,0.5618849,0,0.0,0.0,0.0,0.0,0.0,0,0,0.0,0.0,0,0,24.0,0.0,0.0,4603.589743589744,3928.205128205129,4481.538461538462,4431.282051282052,4241.538461538462,4537.948717948719,4426.153846153847,4405.641025641026,4410.769230769231,4764.102564102564,4371.282051282052,4187.179487179487,4167.6923076923085,4529.743589743591
241.2151,0.4142362,0.82063353,0.35030365,0.5618849,0,0.0,0.0,0.0,0.0,0.0,0,0,0.0,0.0,0,0,24.0,0.0,0.0,4603.589743589744,3928.205128205129,4481.538461538462,4431.282051282052,4241.538461538462,4537.948717948719,4426.153846153847,4405.641025641026,4410.769230769231,4764.102564102564,4371.282051282052,4187.179487179487,4167.6923076923085,4529.743589743591
241.71553,0.3406263,0.8075847,0.34859008,0.5609138,0,0.0,0.0,0.0,0.0,0.55614054,0,0,0.0,0.0,0,1,88.0,0.0,430.0,4564.102564102564,3929.2307692307695,4473.846153846154,4430.769230769231,4246.666666666667,4539.48717948718,4425.641025641026,4415.384615384616,4420.512820512821,4765.128205128206,4382.051282051282,4187.6923076923085,4165.641025641026,4523.076923076924
241.96576,0.3406263,0.8075847,0.34859008,0.5609138,0,0.0,0.0,0.0,0.0,0.4945602,0,0,0.0,0.0,0,0,120.0,0.0,430.0,4555.384615384616,3941.538461538462,4478.974358974359,4443.589743589744,4248.717948717949,4551.282051282052,4445.641025641026,4415.384615384616,4404.615384615385,4759.48717948718,4370.769230769231,4199.48717948718,4158.974358974359,4521.538461538462
242.21597,0.30466127,0.79966426,0.3470435,0.5600382,0,0.0,0.0,0.0,0.0,0.0,0,0,0.0,0.0,0,0,23.0,0.0,0.0,4571.282051282052,3951.2820512820517,4484.615384615385,4457.435897435898,4256.923076923077,4553.846153846154,4443.076923076924,4422.051282051282,4422.051282051282,4772.820512820514,4377.435897435898,4199.48717948718,4164.615384615385,4525.641025641026
242.4349,0.30466127,0.79966426,0.3470435,0.5600382,0,0.0,0.0,0.0,0.0,0.0,0,0,0.0,0.0,0,1,51.0,0.0,0.0,4614.358974358975,3950.2564102564106,4509.743589743591,4458.974358974359,4254.358974358975,4554.358974358975,4437.948717948719,4431.282051282052,4432.307692307693,4792.307692307693,4407.6923076923085,4240.000000000001,4200.512820512821,4643.589743589744
242.74768,0.23456378,0.77412,0.34566358,0.55925477,0,0.0,0.0,0.0,0.0,1.0,0,0,0.0,0.0,0,0,91.0,0.0,520.0,4558.974358974359,3930.2564102564106,4489.743589743591,4445.128205128206,4247.179487179487,4553.846153846154,4453.846153846154,4444.102564102564,4442.564102564103,4789.2307692307695,4386.153846153847,4215.8974358974365,4182.051282051282,4609.2307692307695
242.74768,0.23456378,0.77412,0.34566358,0.55925477,0,0.0,0.0,0.0,0.0,1.0,0,0,0.0,0.0,0,0,91.0,0.0,520.0,4558.974358974359,3930.2564102564106,4489.743589743591,4445.128205128206,4247.179487179487,4553.846153846154,4453.846153846154,4444.102564102564,4442.564102564103,4789.2307692307695,4386.153846153847,4215.8974358974365,4182.051282051282,4609.2307692307695
243.21683,0.22755995,0.7585919,0.34442684,0.5585517,0,0.0,0.0,0.0,0.0,0.13018079,0,0,0.0,0.0,0,0,19.0,0.0,0.0,4560.512820512821,3935.3846153846157,4486.153846153847,4443.589743589744,4246.666666666667,4554.358974358975,4446.666666666667,4428.205128205129,4432.307692307693,4788.717948717949,4394.871794871796,4220.000000000001,4192.820512820514,4623.076923076924
243.46704,0.22755995,0.7585919,0.34442684,0.5585517,0,0.0,0.0,0.0,0.0,0.6589862,0,0,0.0,0.0,0,0,54.0,0.0,0.0,4558.974358974359,3931.2820512820517,4490.256410256411,4445.128205128206,4250.769230769231,4557.435897435898,4455.8974358974365,4430.256410256411,4450.769230769231,4797.948717948719,4390.769230769231,4214.871794871796,4193.333333333334,4608.717948717949
243.71725,0.19922067,0.7426557,0.3433095,0.55791736,0,0.0,0.0,0.0,0.0,0.8171599,0,0,0.0,0.0,0,0,86.0,0.0,561.0,4555.384615384616,3928.717948717949,4473.333333333334,4442.051282051282,4248.205128205129,4551.794871794872,4445.128205128206,4408.717948717949,4422.051282051282,4773.333333333334,4371.282051282052,4199.48717948718,4165.128205128206,4566.666666666667
243.96747,0.19922067,0.7426557,0.3433095,0.55791736,0,0.0,0.0,0.0,0.0,0.13777742,0,0,0.0,0.0,0,0,118.0,0.0,561.0,4537.948717948719,3919.48717948718,4456.923076923077,4429.743589743591,4239.48717948718,4544.615384615385,4434.871794871796,4404.102564102564,4420.512820512821,4768.205128205129,4372.307692307693,4193.333333333334,4173.846153846154,4565.128205128206
244.21768,0.1900402,0.72955,0.3423031,0.55734605,0,0.0,0.0,0.0,0.0,0.0,0,0,0.0,0.0,0,0,21.0,0.0,0.0,4540.512820512821,3930.7692307692314,4467.6923076923085,4416.410256410257,4236.410256410257,4542.051282051282,4432.307692307693,4400.512820512821,4412.307692307693,4762.051282051282,4378.974358974359,4186.153846153847,4171.794871794872,4557.948717948719
244.21768,0.1900402,0.72955,0.3423031,0.55734605,0,0.0,0.0,0.0,0.0,0.0,0,0,0.0,0.0,0,0,21.0,0.0,0.0,4540.512820512821,3930.7692307692314,4467.6923076923085,4416.410256410257,4236.410256410257,4542.051282051282,4432.307692307693,4400.512820512821,4412.307692307693,4762.051282051282,4378.974358974359,4186.153846153847,4171.794871794872,4557.948717948719
