timestamp,excitement,frustration,meditation,engagementBoredom,blink,clench,laugh,smile,eyebrow,furrowBrow,lookLeft,lookRight,smirkLeft,smirkRight,winkLeft,winkRight,eeg0,eeg1,eeg2,eeg3,eeg4,eeg5,eeg6,eeg7,eeg8,eeg9,eeg10,eeg11,eeg12,eeg13,eeg14,eeg15,eeg16
538.971,1.0,1.0,0.34135193,0.5683739,1,0.0,0.0,0.0,0.0,0.65826607,0,0,0.0,0.0,0,0,49.0,0.0,0.0,4345.641025641026,3933.333333333334,4632.820512820514,4452.307692307693,4246.666666666667,4533.333333333334,4557.435897435898,4638.461538461539,4312.820512820514,4727.179487179488,4484.615384615385,4442.564102564103,4318.461538461539,4576.923076923077
539.2212,1.0,1.0,0.34135193,0.5683739,0,0.0,0.0,0.0,0.0,1.0,0,0,0.0,0.0,0,0,81.0,0.0,515.0,4329.2307692307695,3923.076923076924,4593.846153846154,4440.512820512821,4233.846153846154,4523.589743589744,4521.025641025642,4585.128205128206,4288.205128205129,4693.846153846154,4454.871794871796,4415.8974358974365,4251.282051282052,4511.282051282052
539.47144,1.0,1.0,0.34054556,0.56675184,0,0.0,0.0,0.0,0.0,0.16344702,0,0,0.0,0.0,0,0,113.0,0.0,515.0,4350.256410256411,3937.435897435898,4601.538461538462,4449.2307692307695,4249.2307692307695,4536.410256410257,4516.410256410257,4569.2307692307695,4328.205128205129,4693.333333333334,4443.589743589744,4425.641025641026,4228.717948717949,4501.538461538462
539.7216,1.0,1.0,0.34054556,0.56675184,0,0.0,0.0,0.0,0.0,0.023701651,0,0,0.0,0.0,0,0,16.0,0.0,0.0,4378.461538461539,3959.48717948718,4600.000000000001,4456.923076923077,4277.435897435898,4584.102564102564,4505.641025641026,4549.743589743591,4347.179487179487,4695.8974358974365,4436.923076923077,4411.282051282052,4222.051282051282,4512.307692307693
539.97186,0.997368,1.0,0.33981952,0.56529146,0,0.0,0.0,0.0,0.0,1.0,0,0,0.0,0.0,0,0,48.0,0.0,0.0,4319.48717948718,3931.7948717948725,4552.307692307693,4441.538461538462,4261.538461538462,4566.153846153847,4488.205128205129,4509.743589743591,4335.8974358974365,4667.6923076923085,4375.8974358974365,4371.282051282052,4150.769230769231,4469.2307692307695
540.097,0.997368,1.0,0.33981952,0.56529146,0,0.0,0.0,0.0,1.0,0.0,0,0,0.0,0.0,0,0,64.0,0.0,501.0,4349.2307692307695,3940.5128205128212,4566.153846153847,4442.051282051282,4259.48717948718,4563.589743589744,4472.307692307693,4503.589743589744,4344.615384615385,4658.461538461539,4385.128205128206,4367.179487179487,4147.6923076923085,4453.333333333334
540.50354,1.0,1.0,0.3391699,0.5639823,0,0.0,0.0,0.0,0.5842544,0.0,0,0,0.0,0.0,0,1,116.0,0.0,399.0,4393.333333333334,3936.9230769230776,4541.538461538462,4456.410256410257,4263.076923076924,4560.000000000001,4451.794871794872,4500.512820512821,4346.153846153847,4660.512820512821,4354.358974358975,4345.128205128206,4129.74358974359,4499.48717948718
540.7225,1.0,1.0,0.3391699,0.5639823,0,0.0,0.0,0.0,0.0,0.8389876,0,0,0.0,0.0,0,1,15.0,0.0,518.0,4358.974358974359,3942.564102564103,4534.871794871796,4462.051282051282,4269.74358974359,4566.153846153847,4471.282051282052,4514.358974358975,4388.205128205129,4676.410256410257,4371.282051282052,4346.666666666667,4142.564102564103,4457.435897435898
540.9727,0.9920987,1.0,0.3385838,0.5628025,0,0.0,0.0,0.0,0.0,0.42231137,0,0,0.0,0.0,0,0,47.0,0.0,0.0,4333.846153846154,3918.9743589743593,4516.410256410257,4457.948717948719,4270.769230769231,4564.102564102564,4461.025641025642,4468.205128205129,4375.8974358974365,4660.512820512821,4352.820512820514,4311.282051282052,4133.333333333334,4421.538461538462
541.2229,0.9920987,1.0,0.3385838,0.5628025,0,0.0,0.0,0.0,0.0,0.66849554,0,0,0.0,0.0,0,0,79.0,0.0,518.0,4355.8974358974365,3913.333333333334,4505.641025641026,4446.666666666667,4253.333333333334,4552.820512820514,4448.205128205129,4463.076923076924,4390.256410256411,4672.307692307693,4340.512820512821,4301.538461538462,4134.871794871796,4417.948717948719
541.47314,1.0,1.0,0.33805633,0.5617419,0,0.0,0.0,0.0,0.0,0.8850257,0,0,0.0,0.0,0,0,111.0,0.0,518.0,4376.410256410257,3926.1538461538466,4511.282051282052,4455.8974358974365,4260.512820512821,4553.846153846154,4440.512820512821,4437.435897435898,4373.846153846154,4663.076923076924,4324.102564102564,4300.512820512821,4139.48717948718,4411.282051282052
541.7234,1.0,1.0,0.33805633,0.5617419,0,0.0,0.0,0.0,0.0,0.67664737,0,0,0.0,0.0,0,0,14.0,0.0,554.0,4514.358974358975,3947.1794871794878,4521.538461538462,4457.435897435898,4255.384615384616,4551.282051282052,4428.717948717949,4424.102564102564,4384.615384615385,4669.743589743591,4318.461538461539,4305.128205128206,4144.102564102564,4512.307692307693
542.0048,1.0,1.0,0.33758184,0.5607874,0,0.0,0.0,0.0,0.0,0.7262184,0,0,0.0,0.0,0,0,50.0,0.0,0.0,4413.846153846154,3938.461538461539,4510.256410256411,4472.820512820514,4287.6923076923085,4581.025641025642,4465.641025641026,4457.948717948719,4415.8974358974365,4686.153846153847,4323.076923076924,4283.076923076924,4148.717948717949,4416.410256410257
542.25507,1.0,1.0,0.33758184,0.5607874,1,0.0,0.0,0.0,0.0,0.6706586,0,0,0.0,0.0,0,0,82.0,0.0,554.0,4427.179487179487,3935.8974358974365,4520.000000000001,4469.743589743591,4281.025641025642,4580.512820512821,4459.48717948718,4466.666666666667,4438.461538461539,4768.205128205129,4344.102564102564,4287.179487179487,4174.871794871796,4435.384615384616
542.474,1.0,1.0,0.33715463,0.5599288,0,0.0,0.0,0.0,0.0,0.47305554,0,0,0.0,0.0,0,0,110.0,0.0,554.0,4390.769230769231,3909.7435897435903,4492.307692307693,4444.615384615385,4253.846153846154,4548.717948717949,4470.769230769231,4449.2307692307695,4405.641025641026,4730.256410256411,4299.48717948718,4241.538461538462,4142.051282051282,4373.333333333334
542.72424,1.0,1.0,0.33715463,0.5599288,0,0.0,0.0,0.0,0.0,1.0,0,0,0.0,0.0,0,1,13.0,0.0,515.0,4476.410256410257,3918.461538461539,4533.846153846154,4444.102564102564,4247.179487179487,4544.615384615385,4516.410256410257,4505.641025641026,4434.358974358975,4755.8974358974365,4316.410256410257,4281.025641025642,4189.2307692307695,4431.794871794872
543.00574,1.0,1.0,0.33676997,0.5591557,0,0.0,0.0,0.0,0.0,0.48667625,0,0,0.0,0.0,0,0,49.0,0.0,0.0,4522.051282051282,3920.5128205128212,4553.846153846154,4444.102564102564,4233.333333333334,4528.717948717949,4509.743589743591,4513.846153846154,4418.461538461539,4754.358974358975,4330.256410256411,4305.641025641026,4200.000000000001,4440.000000000001
543.3185,1.0,1.0,0.33676997,0.5591557,1,0.0,0.0,0.0,0.0,0.80721647,0,0,0.0,0.0,0,0,89.0,0.0,515.0,4556.923076923077,3946.666666666667,4571.794871794872,4460.000000000001,4244.615384615385,4538.461538461539,4537.435897435898,4531.282051282052,4429.2307692307695,4760.000000000001,4345.641025641026,4328.717948717949,4229.74358974359,4455.384615384616
543.47485,1.0,1.0,0.33727598,0.56584215,0,0.0,0.0,0.0,0.0,1.0,0,0,0.0,0.0,0,0,109.0,0.0,515.0,4655.8974358974365,3959.48717948718,4589.743589743591,4458.461538461539,4239.48717948718,4527.6923076923085,4526.666666666667,4516.923076923077,4414.871794871796,4726.666666666667,4352.307692307693,4355.384615384616,4249.74358974359,3690.2564102564106
543.47485,1.0,1.0,0.33727598,0.56584215,0,0.0,0.0,0.0,0.0,1.0,0,0,0.0,0.0,0,0,109.0,0.0,515.0,4655.8974358974365,3959.48717948718,4589.743589743591,4458.461538461539,4239.48717948718,4527.6923076923085,4526.666666666667,4516.923076923077,4414.871794871796,4726.666666666667,4352.307692307693,4355.384615384616,4249.74358974359,3690.2564102564106
544.0066,0.9897394,1.0,0.33773398,0.57186794,0,0.0,0.0,0.0,0.0,1.0,0,0,0.0,0.0,0,0,48.0,0.0,0.0,4501.538461538462,3941.0256410256416,4528.717948717949,4455.384615384616,4248.205128205129,4539.48717948718,4513.333333333334,4502.051282051282,4422.564102564103,4731.282051282052,4306.666666666667,4292.820512820514,4176.923076923077,4472.820512820514
544.2255,0.9897394,1.0,0.33773398,0.57186794,0,0.0,0.0,0.0,0.0,0.090502866,0,0,0.0,0.0,0,0,76.0,0.0,403.0,4502.051282051282,3945.1282051282055,4529.2307692307695,4457.948717948719,4252.820512820514,4549.743589743591,4500.000000000001,4476.923076923077,4408.717948717949,4743.589743589744,4312.820512820514,4309.743589743591,4167.6923076923085,4473.846153846154
544.4757,0.9165438,1.0,0.33814397,0.57728183,1,0.0,0.0,0.0,0.0,0.5696801,0,0,0.0,0.0,0,0,108.0,0.0,403.0,4574.358974358975,3944.1025641025644,4523.076923076924,4454.871794871796,4246.666666666667,4544.615384615385,4471.282051282052,4454.358974358975,4393.333333333334,4722.051282051282,4290.256410256411,4285.128205128206,4159.48717948718,4495.384615384616
544.72595,0.9165438,1.0,0.33814397,0.57728183,0,0.0,0.0,0.0,0.0,0.84656703,0,0,0.0,0.0,0,0,11.0,0.0,522.0,4500.512820512821,3939.48717948718,4510.256410256411,4451.794871794872,4257.948717948719,4551.282051282052,4464.102564102564,4456.923076923077,4406.153846153847,4716.923076923077,4307.6923076923085,4263.589743589744,4146.666666666667,4460.512820512821
544.97614,0.98299366,1.0,0.33851296,0.5821541,0,0.0,0.0,0.0,0.0,0.13570835,0,0,0.0,0.0,0,0,43.0,0.0,0.0,4476.923076923077,3935.8974358974365,4491.794871794872,4444.102564102564,4253.846153846154,4547.6923076923085,4433.333333333334,4422.051282051282,4381.025641025642,4686.666666666667,4290.256410256411,4231.282051282052,4127.179487179487,4445.128205128206
545.10126,0.98299366,1.0,0.33851296,0.5821541,0,0.0,0.0,0.0,0.0,0.0,0,0,0.0,0.0,0,0,59.0,0.0,0.0,4511.794871794872,3957.9487179487182,4517.948717948719,4457.948717948719,4281.025641025642,4573.333333333334,4464.615384615385,4446.666666666667,4410.256410256411,4709.743589743591,4304.615384615385,4248.717948717949,4158.974358974359,4471.282051282052
545.57043,1.0,1.0,0.3379926,0.5791514,0,0.0,0.0,0.0,0.0,0.0,0,0,0.0,0.0,0,0,118.0,0.0,554.0,4477.435897435898,3944.1025641025644,4519.48717948718,4460.000000000001,4280.000000000001,4576.923076923077,4466.666666666667,4437.435897435898,4413.333333333334,4711.794871794872,4286.666666666667,4271.282051282052,4160.512820512821,4467.6923076923085
545.7268,1.0,1.0,0.3379926,0.5791514,0,0.0,0.0,0.0,0.0,0.75424373,0,0,0.0,0.0,0,0,10.0,0.0,554.0,4484.102564102564,3953.333333333334,4521.025641025642,4464.615384615385,4287.179487179487,4584.615384615385,4452.820512820514,4432.820512820514,4416.923076923077,4715.8974358974365,4281.025641025642,4272.820512820514,4165.128205128206,4432.307692307693
545.977,1.0,1.0,0.33752412,0.5764481,0,0.0,0.0,0.0,0.0,0.72305393,0,0,0.0,0.0,0,0,42.0,0.0,0.0,4493.846153846154,3925.6410256410263,4488.717948717949,4443.589743589744,4266.666666666667,4563.589743589744,4438.974358974359,4400.512820512821,4391.794871794872,4683.076923076924,4238.461538461539,4240.000000000001,4130.256410256411,4392.307692307693
546.22723,1.0,1.0,0.33752412,0.5764481,0,0.0,0.0,0.0,0.0,0.3183249,0,0,0.0,0.0,0,0,74.0,0.0,554.0,4530.256410256411,3938.461538461539,4500.512820512821,4447.179487179487,4264.615384615385,4564.102564102564,4420.000000000001,4387.6923076923085,4376.923076923077,4684.615384615386,4262.564102564103,4245.128205128206,4135.384615384616,4449.2307692307695
546.4774,1.0,1.0,0.33710226,0.57401234,0,0.0,0.0,0.0,0.0,0.24893166,0,0,0.0,0.0,0,0,106.0,0.0,554.0,4506.666666666667,3939.48717948718,4502.564102564103,4447.179487179487,4269.2307692307695,4570.256410256411,4447.179487179487,4410.769230769231,4415.384615384616,4713.846153846154,4272.307692307693,4262.564102564103,4155.384615384616,4487.179487179488
546.7902,1.0,1.0,0.33710226,0.57401234,0,0.0,0.0,0.0,0.0,0.7384216,0,0,0.0,0.0,0,0,17.0,0.0,0.0,4433.333333333334,3923.076923076924,4481.025641025642,4445.641025641026,4267.179487179487,4565.641025641026,4442.564102564103,4391.794871794872,4398.461538461539,4696.923076923077,4269.74358974359,4228.205128205129,4134.358974358975,4425.641025641026
546.97784,1.0,1.0,0.33711746,0.5718194,0,0.0,0.0,0.0,0.0,0.7457434,0,0,0.0,0.0,0,0,41.0,0.0,0.0,4471.282051282052,3948.717948717949,4497.948717948719,4461.538461538462,4283.589743589744,4581.025641025642,4464.102564102564,4413.333333333334,4424.615384615385,4713.846153846154,4269.74358974359,4249.74358974359,4134.871794871796,4438.461538461539
547.10297,1.0,1.0,0.33711746,0.5718194,0,0.0,0.0,0.0,0.0,0.0,0,0,0.0,0.0,0,0,57.0,0.0,0.0,4454.358974358975,3935.3846153846157,4485.128205128206,4447.179487179487,4268.205128205129,4570.256410256411,4444.102564102564,4400.512820512821,4400.000000000001,4696.923076923077,4266.153846153847,4225.641025641026,4124.102564102564,4418.974358974359
547.47833,0.9813831,1.0,0.33760405,0.5698471,0,0.0,0.0,0.0,0.0,0.7153721,0,0,0.0,0.0,0,0,105.0,0.0,517.0,4496.410256410257,3926.666666666667,4491.282051282052,4444.615384615385,4267.179487179487,4570.256410256411,4462.051282051282,4402.564102564103,4418.461538461539,4708.205128205129,4276.923076923077,4223.076923076924,4133.846153846154,4478.461538461539
547.7285,0.9813831,1.0,0.33760405,0.5698471,0,0.0,0.0,0.0,0.0,0.44897783,0,0,0.0,0.0,0,0,8.0,0.0,506.0,4434.871794871796,3904.615384615385,4407.6923076923085,4438.461538461539,4201.025641025642,4474.358974358975,4406.153846153847,4350.256410256411,4352.307692307693,4657.435897435898,4257.435897435898,4164.615384615385,4084.615384615385,4433.846153846154
547.97876,1.0,1.0,0.3387188,0.56697625,1,0.0,0.0,0.0,0.0,0.60106623,0,0,0.0,0.0,0,0,40.0,0.0,0.0,4396.923076923077,3878.461538461539,4401.025641025642,4428.205128205129,4195.384615384616,4467.179487179487,4394.871794871796,4314.871794871796,4301.538461538462,4626.666666666667,4234.358974358975,4142.051282051282,4039.48717948718,4395.384615384616
548.22894,1.0,1.0,0.3387188,0.56697625,0,0.0,0.0,0.0,0.0,1.0,0,0,0.0,0.0,0,0,72.0,0.0,506.0,4406.153846153847,3889.7435897435903,4398.974358974359,4434.358974358975,4173.333333333334,4441.025641025642,4344.102564102564,4288.717948717949,4296.410256410257,4621.538461538462,4195.8974358974365,4103.589743589744,4008.717948717949,4351.282051282052
548.54175,1.0,1.0,0.3446989,0.5618775,0,0.0,0.0,0.0,0.0,0.4099878,0,0,0.0,0.0,1,0,112.0,0.0,406.0,4449.743589743591,3906.666666666667,4431.794871794872,4438.974358974359,4205.128205128206,4449.2307692307695,4368.205128205129,4288.717948717949,4292.820512820514,4643.076923076924,4205.128205128206,4163.076923076924,4034.8717948717954,4379.48717948718
548.7294,1.0,1.0,0.3446989,0.5618775,0,0.0,0.0,0.0,0.0,0.6347253,0,0,0.0,0.0,1,0,7.0,0.0,494.0,4411.794871794872,3912.307692307693,4423.076923076924,4445.641025641026,4228.717948717949,4474.358974358975,4393.333333333334,4296.410256410257,4306.666666666667,4645.641025641026,4207.179487179487,4171.794871794872,4031.7948717948725,4348.717948717949
548.9796,1.0,1.0,0.35659203,0.55728835,0,0.0,0.0,0.0,0.0,0.57613796,0,0,0.0,0.0,0,0,39.0,0.0,0.0,4491.282051282052,3924.1025641025644,4453.846153846154,4455.8974358974365,4249.2307692307695,4499.48717948718,4404.615384615385,4327.179487179487,4331.794871794872,4664.615384615386,4262.564102564103,4244.102564102564,4029.23076923077,4357.435897435898
549.2298,1.0,1.0,0.35659203,0.55728835,1,0.0,0.0,0.0,0.0,0.9143185,0,0,0.0,0.0,0,0,71.0,0.0,494.0,4492.820512820514,3926.1538461538466,4447.6923076923085,4444.615384615385,4244.102564102564,4502.564102564103,4408.717948717949,4309.2307692307695,4326.666666666667,4648.717948717949,4257.948717948719,4234.871794871796,4034.8717948717954,4384.615384615385
549.48004,0.97335094,1.0,0.36494684,0.55465263,0,0.0,0.0,0.0,0.0,0.4578433,0,0,0.0,0.0,0,0,103.0,0.0,522.0,4499.48717948718,3930.2564102564106,4455.384615384616,4449.2307692307695,4247.6923076923085,4513.333333333334,4423.589743589744,4347.179487179487,4357.948717948719,4676.923076923077,4266.666666666667,4200.000000000001,4050.7692307692314,4385.128205128206
549.76154,0.97335094,1.0,0.36494684,0.55465263,0,0.0,0.0,0.0,0.0,0.5779427,0,0,0.0,0.0,0,0,10.0,0.0,555.0,4532.307692307693,3919.48717948718,4457.948717948719,4443.589743589744,4248.205128205129,4523.589743589744,4434.871794871796,4370.256410256411,4384.615384615385,4700.000000000001,4287.6923076923085,4201.025641025642,4074.8717948717954,4379.48717948718
549.98047,0.8442833,1.0,0.37797746,0.54957384,0,0.0,0.0,0.0,0.0,0.5214314,0,0,0.0,0.0,0,0,38.0,0.0,0.0,4535.384615384616,3916.410256410257,4463.589743589744,4439.48717948718,4248.717948717949,4528.717948717949,4448.205128205129,4387.6923076923085,4400.000000000001,4713.846153846154,4321.538461538462,4197.948717948719,4109.2307692307695,4358.974358974359
550.23065,0.8442833,1.0,0.37797746,0.54957384,0,0.0,0.0,0.0,0.0,0.5605763,0,0,0.0,0.0,0,0,70.0,0.0,585.0,4558.974358974359,3938.461538461539,4487.6923076923085,4460.000000000001,4268.205128205129,4551.794871794872,4457.435897435898,4407.179487179487,4417.435897435898,4741.025641025642,4352.820512820514,4232.820512820514,4161.538461538462,4459.48717948718
550.4809,0.9300945,1.0,0.3907612,0.5388332,0,0.0,0.0,0.0,0.0,0.4349183,0,0,0.0,0.0,0,0,102.0,0.0,555.0,4568.717948717949,3928.717948717949,4496.410256410257,4456.410256410257,4256.923076923077,4547.6923076923085,4456.410256410257,4396.410256410257,4419.48717948718,4736.410256410257,4350.769230769231,4214.871794871796,4151.282051282052,4466.666666666667
550.7311,0.9300945,1.0,0.3907612,0.5388332,0,0.0,0.0,0.0,0.0,0.1637434,0,0,0.0,0.0,0,0,5.0,0.0,571.0,4579.48717948718,3932.820512820513,4487.179487179488,4445.128205128206,4254.871794871796,4551.282051282052,4432.820512820514,4368.717948717949,4391.794871794872,4722.051282051282,4345.641025641026,4206.153846153847,4147.179487179487,4482.051282051282
550.9813,0.8625064,1.0,0.40123206,0.5347923,0,0.0,0.0,0.0,0.0,0.0,0,0,0.0,0.0,0,0,37.0,0.0,0.0,4657.435897435898,3953.8461538461543,4505.128205128206,4448.205128205129,4252.307692307693,4555.8974358974365,4441.025641025642,4390.256410256411,4422.051282051282,4755.384615384616,4377.948717948719,4228.205128205129,4194.358974358975,4576.410256410257
551.2628,0.8625064,1.0,0.40123206,0.5347923,0,0.0,0.0,0.0,0.0,0.543123,0,0,0.0,0.0,0,0,73.0,0.0,445.0,4529.2307692307695,3936.410256410257,4502.564102564103,4446.153846153847,4266.666666666667,4572.820512820514,4454.358974358975,4416.923076923077,4437.435897435898,4755.384615384616,4369.2307692307695,4231.282051282052,4182.564102564103,4496.923076923077
551.48175,0.81681144,1.0,0.4056889,0.5434724,0,0.0,0.0,0.0,0.0,0.61411095,0,0,0.0,0.0,0,0,101.0,0.0,517.0,4529.743589743591,3935.3846153846157,4506.666666666667,4444.102564102564,4262.051282051282,4570.769230769231,4480.000000000001,4443.076923076924,4438.974358974359,4758.461538461539,4358.974358974359,4229.2307692307695,4183.076923076924,4465.641025641026
551.73193,0.81681144,1.0,0.4056889,0.5434724,0,0.0,0.0,0.0,0.0,0.37072816,0,0,0.0,0.0,0,0,4.0,0.0,572.0,4488.717948717949,3903.589743589744,4486.153846153847,4442.051282051282,4230.256410256411,4547.179487179488,4431.794871794872,4390.769230769231,4405.128205128206,4804.102564102564,4330.769230769231,4226.666666666667,4142.564102564103,4466.153846153847
551.9822,0.8213462,1.0,0.4095055,0.54984874,0,0.0,0.0,0.0,0.0,0.20097034,0,0,0.0,0.0,0,0,36.0,0.0,0.0,4556.923076923077,3944.1025641025644,4506.666666666667,4444.102564102564,4266.666666666667,4582.564102564103,4479.48717948718,4444.615384615385,4422.564102564103,4753.333333333334,4380.512820512821,4292.307692307693,4195.384615384616,4527.179487179488
552.1073,0.8213462,1.0,0.4095055,0.54984874,0,0.0,0.0,0.0,0.0,0.0,0,0,0.0,0.0,0,0,52.0,0.0,0.0,4551.794871794872,3949.2307692307695,4503.589743589744,4446.666666666667,4274.871794871796,4588.717948717949,4473.333333333334,4443.589743589744,4416.923076923077,4741.538461538462,4370.256410256411,4280.000000000001,4168.205128205129,4515.384615384616
552.4826,0.7675806,1.0,0.41491798,0.5580579,1,0.0,0.0,0.0,0.0,0.0,0,0,0.0,0.0,0,0,100.0,0.0,400.0,4556.923076923077,3935.8974358974365,4493.333333333334,4443.076923076924,4272.820512820514,4587.179487179488,4458.461538461539,4411.794871794872,4407.179487179487,4729.2307692307695,4368.717948717949,4257.435897435898,4165.641025641026,4491.282051282052
552.73285,0.7675806,1.0,0.41491798,0.5580579,0,0.0,0.0,0.0,0.0,0.8002413,0,0,0.0,0.0,0,0,3.0,0.0,548.0,4540.512820512821,3935.3846153846157,4495.384615384616,4445.641025641026,4276.923076923077,4597.435897435898,4480.000000000001,4445.641025641026,4434.871794871796,4756.923076923077,4381.538461538462,4249.2307692307695,4169.2307692307695,4501.538461538462
552.98303,0.71196926,1.0,0.41606748,0.56544596,0,0.0,0.0,0.0,0.0,0.5773423,0,0,0.0,0.0,0,0,35.0,0.0,0.0,4580.000000000001,3941.538461538462,4490.769230769231,4442.051282051282,4267.179487179487,4588.717948717949,4472.820512820514,4436.923076923077,4431.794871794872,4757.435897435898,4375.384615384616,4219.48717948718,4146.153846153847,4468.205128205129
553.2333,0.71196926,1.0,0.41606748,0.56544596,0,0.0,0.0,0.0,0.0,0.33534956,0,0,0.0,0.0,0,0,67.0,0.0,548.0,4624.615384615385,3953.8461538461543,4490.256410256411,4446.153846153847,4273.333333333334,4591.794871794872,4467.6923076923085,4421.025641025642,4426.666666666667,4745.641025641026,4370.256410256411,4197.948717948719,4134.358974358975,4472.307692307693
553.48346,0.6699992,1.0,0.4127015,0.5720946,1,0.0,0.0,0.0,0.0,0.7302427,0,0,0.0,0.0,0,0,99.0,0.0,522.0,4646.666666666667,3953.8461538461543,4505.128205128206,4445.128205128206,4270.769230769231,4585.128205128206,4460.512820512821,4424.102564102564,4423.589743589744,4747.6923076923085,4392.820512820514,4224.615384615385,4148.717948717949,4510.769230769231
553.7337,0.6699992,1.0,0.4127015,0.5720946,0,0.0,0.0,0.0,0.0,0.75756073,0,0,0.0,0.0,0,0,2.0,0.0,520.0,4605.128205128206,3950.2564102564106,4506.153846153847,4446.666666666667,4276.410256410257,4597.435897435898,4455.8974358974365,4398.974358974359,4396.923076923077,4726.666666666667,4385.641025641026,4192.820512820514,4126.153846153847,4501.025641025642
553.9839,0.61113524,1.0,0.40795228,0.5705265,0,0.0,0.0,0.0,0.0,0.67642623,0,0,0.0,0.0,0,0,34.0,0.0,0.0,4775.384615384616,3986.666666666667,4561.025641025642,4460.000000000001,4284.615384615385,4603.589743589744,4484.615384615385,4433.333333333334,4430.769230769231,4775.8974358974365,4421.538461538462,4269.74358974359,4190.769230769231,4679.48717948718
554.23413,0.61113524,1.0,0.40795228,0.5705265,0,0.0,0.0,0.0,0.0,0.6413572,0,0,0.0,0.0,0,0,66.0,0.0,520.0,4613.846153846154,3945.1282051282055,4476.923076923077,4446.153846153847,4287.6923076923085,4604.615384615385,4476.410256410257,4440.512820512821,4445.641025641026,4761.538461538462,4391.794871794872,4216.410256410257,4152.307692307693,4503.076923076924
554.4843,0.6637721,1.0,0.40550792,0.5691145,0,0.0,0.0,0.0,0.0,0.6041399,0,0,0.0,0.0,0,0,98.0,0.0,555.0,4603.589743589744,3943.589743589744,4472.307692307693,4442.051282051282,4282.051282051282,4604.102564102564,4465.128205128206,4415.8974358974365,4431.282051282052,4749.2307692307695,4381.025641025642,4205.128205128206,4141.538461538462,4491.282051282052
554.73456,0.6637721,1.0,0.40550792,0.5691145,1,0.0,0.0,0.0,0.0,0.6376681,0,0,0.0,0.0,0,0,1.0,0.0,475.0,4602.564102564103,3940.0000000000005,4476.410256410257,4429.743589743591,4277.435897435898,4593.333333333334,4450.256410256411,4399.48717948718,4422.564102564103,4744.615384615386,4387.179487179487,4211.794871794872,4159.48717948718,4504.615384615385
554.98474,0.6612556,1.0,0.40330485,0.5668192,0,0.0,0.0,0.0,0.0,0.77333224,0,0,0.0,0.0,0,0,33.0,0.0,0.0,4601.025641025642,3946.1538461538466,4492.307692307693,4442.051282051282,4278.974358974359,4597.948717948719,4469.2307692307695,4423.589743589744,4439.48717948718,4760.512820512821,4391.794871794872,4228.717948717949,4170.256410256411,4523.589743589744
555.235,0.6612556,1.0,0.40330485,0.5668192,0,0.0,0.0,0.0,0.0,0.21207543,0,0,0.0,0.0,0,0,65.0,0.0,475.0,4600.000000000001,3947.692307692308,4496.923076923077,4443.589743589744,4271.794871794872,4590.256410256411,4464.615384615385,4421.025641025642,4426.666666666667,4758.461538461539,4407.6923076923085,4241.025641025642,4174.358974358975,4539.48717948718
555.48517,0.5949216,1.0,0.40131897,0.56475294,0,0.0,0.0,0.0,0.0,0.0,0,0,0.0,0.0,0,0,97.0,0.0,517.0,4577.435897435898,3931.7948717948725,4474.358974358975,4442.051282051282,4278.461538461539,4590.256410256411,4470.769230769231,4414.358974358975,4431.282051282052,4753.846153846154,4393.846153846154,4212.820512820514,4161.025641025642,4502.564102564103
555.48517,0.5949216,1.0,0.40131897,0.56475294,0,0.0,0.0,0.0,0.0,0.0,0,0,0.0,0.0,0,0,97.0,0.0,517.0,4577.435897435898,3931.7948717948725,4474.358974358975,4442.051282051282,4278.461538461539,4590.256410256411,4470.769230769231,4414.358974358975,4431.282051282052,4753.846153846154,4393.846153846154,4212.820512820514,4161.025641025642,4502.564102564103
555.9856,0.47503647,1.0,0.39952865,0.57902074,0,0.0,0.0,0.0,0.0,0.0,0,0,0.0,0.0,0,0,32.0,0.0,0.0,4583.076923076924,3948.717948717949,4491.794871794872,4445.641025641026,4275.384615384616,4588.717948717949,4463.076923076924,4417.948717948719,4428.717948717949,4757.435897435898,4409.743589743591,4224.615384615385,4168.717948717949,4512.820512820514
556.23584,0.47503647,1.0,0.39952865,0.57902074,0,0.0,0.0,0.0,0.0,0.25938186,0,0,0.0,0.0,0,0,64.0,0.0,503.0,4596.923076923077,3940.5128205128212,4493.846153846154,4436.923076923077,4265.641025641026,4576.410256410257,4446.666666666667,4395.384615384616,4399.48717948718,4735.8974358974365,4394.871794871796,4202.564102564103,4141.025641025642,4515.384615384616
556.486,0.407011,1.0,0.39791444,0.6043823,0,0.0,0.0,0.0,0.0,0.2068199,0,0,0.0,0.0,0,0,96.0,0.0,399.0,4579.48717948718,3941.538461538462,4494.358974358975,4440.000000000001,4266.666666666667,4583.589743589744,4466.153846153847,4419.48717948718,4429.2307692307695,4752.307692307693,4397.435897435898,4230.769230769231,4161.025641025642,4520.512820512821
556.61115,0.407011,1.0,0.39791444,0.6043823,0,0.0,0.0,0.0,0.0,0.0,0,0,0.0,0.0,0,0,112.0,0.0,399.0,4598.974358974359,3942.564102564103,4502.564102564103,4444.102564102564,4266.153846153847,4573.846153846154,4458.974358974359,4411.282051282052,4425.128205128206,4754.871794871796,4393.846153846154,4227.6923076923085,4162.564102564103,4532.820512820514
556.98645,0.40020514,1.0,0.39289972,0.6314385,0,0.0,0.0,0.0,0.0,0.0,0,0,0.0,0.0,0,0,31.0,0.0,0.0,4572.307692307693,3935.3846153846157,4498.461538461539,4431.282051282052,4256.410256410257,4565.128205128206,4461.538461538462,4398.974358974359,4406.153846153847,4730.769230769231,4384.615384615385,4205.641025641026,4146.153846153847,4502.564102564103
557.2367,0.40020514,1.0,0.39289972,0.6314385,0,0.0,0.0,0.0,0.0,0.2511479,0,0,0.0,0.0,0,0,63.0,0.0,0.0,4593.846153846154,3940.5128205128212,4515.384615384616,4442.564102564103,4262.564102564103,4572.820512820514,4481.025641025642,4433.846153846154,4435.384615384616,4763.589743589744,4410.256410256411,4244.102564102564,4186.153846153847,4514.871794871796
557.4869,0.3398243,1.0,0.38400492,0.6557733,0,0.0,0.0,0.0,0.0,0.190518,0,0,0.0,0.0,0,0,95.0,0.0,522.0,4568.717948717949,3926.1538461538466,4505.641025641026,4428.205128205129,4250.769230769231,4557.435897435898,4468.717948717949,4424.102564102564,4421.025641025642,4752.820512820514,4405.128205128206,4228.717948717949,4172.307692307693,4515.8974358974365
557.7371,0.3398243,1.0,0.38400492,0.6557733,0,0.0,0.0,0.0,0.0,0.36486977,0,0,0.0,0.0,0,0,127.0,0.0,522.0,4558.461538461539,3937.9487179487182,4506.666666666667,4434.358974358975,4255.384615384616,4561.538461538462,4464.102564102564,4428.717948717949,4431.282051282052,4758.461538461539,4418.974358974359,4216.410256410257,4179.48717948718,4525.128205128206
557.98737,0.3365761,0.9422314,0.3753501,0.6776516,0,0.0,0.0,0.0,0.0,0.0,0,0,0.0,0.0,0,0,30.0,0.0,0.0,4556.923076923077,3918.461538461539,4506.666666666667,4427.179487179487,4248.717948717949,4552.307692307693,4464.615384615385,4417.435897435898,4409.743589743591,4745.128205128206,4402.564102564103,4213.846153846154,4148.717948717949,4506.153846153847
557.98737,0.3365761,0.9422314,0.3753501,0.6776516,0,0.0,0.0,0.0,0.0,0.0,0,0,0.0,0.0,0,0,30.0,0.0,0.0,4556.923076923077,3918.461538461539,4506.666666666667,4427.179487179487,4248.717948717949,4552.307692307693,4464.615384615385,4417.435897435898,4409.743589743591,4745.128205128206,4402.564102564103,4213.846153846154,4148.717948717949,4506.153846153847
558.4878,0.30115524,0.8805967,0.3671686,0.6899053,0,0.0,0.0,0.0,0.0,0.0,0,0,0.0,0.0,0,0,94.0,0.0,555.0,4576.410256410257,3935.8974358974365,4507.179487179488,4431.794871794872,4253.333333333334,4562.051282051282,4449.743589743591,4392.307692307693,4402.564102564103,4746.666666666667,4410.256410256411,4210.256410256411,4163.076923076924,4521.025641025642
558.4878,0.30115524,0.8805967,0.3671686,0.6899053,0,0.0,0.0,0.0,0.0,0.0,0,0,0.0,0.0,0,0,94.0,0.0,555.0,4576.410256410257,3935.8974358974365,4507.179487179488,4431.794871794872,4253.333333333334,4562.051282051282,4449.743589743591,4392.307692307693,4402.564102564103,4746.666666666667,4410.256410256411,4210.256410256411,4163.076923076924,4521.025641025642
558.9882,0.30673847,0.8313168,0.36010242,0.6880937,0,0.0,0.0,0.0,0.0,1.0,0,0,0.0,0.0,0,0,29.0,0.0,0.0,4551.794871794872,3938.9743589743593,4491.282051282052,4426.153846153847,4251.282051282052,4559.48717948718,4437.948717948719,4394.871794871796,4402.564102564103,4736.923076923077,4361.025641025642,4164.102564102564,4146.153846153847,4453.846153846154
559.2384,0.30673847,0.8313168,0.36010242,0.6880937,0,0.0,0.0,0.0,0.0,0.44365323,0,0,0.0,0.0,0,0,61.0,0.0,0.0,4561.538461538462,3943.589743589744,4504.615384615385,4427.6923076923085,4246.153846153847,4552.820512820514,4437.948717948719,4411.282051282052,4406.153846153847,4742.564102564103,4375.384615384616,4181.025641025642,4183.589743589744,4473.333333333334
559.48865,0.33114204,0.7872599,0.3537417,0.6834407,0,0.0,0.0,0.0,0.0,0.15021431,0,0,0.0,0.0,0,0,93.0,0.0,518.0,4552.307692307693,3930.7692307692314,4505.641025641026,4428.205128205129,4241.538461538462,4548.205128205129,4455.384615384616,4412.307692307693,4405.128205128206,4742.564102564103,4353.333333333334,4178.974358974359,4174.871794871796,4476.923076923077
559.6137,0.33114204,0.7872599,0.3537417,0.6834407,0,0.0,0.0,0.0,0.0,0.0,0,0,0.0,0.0,0,0,109.0,0.0,518.0,4560.000000000001,3927.692307692308,4508.205128205129,4428.205128205129,4235.8974358974365,4543.076923076924,4450.769230769231,4410.769230769231,4403.589743589744,4739.48717948718,4350.256410256411,4182.564102564103,4183.076923076924,4485.128205128206
559.9891,0.29497993,0.74881417,0.34866488,0.67737865,0,0.0,0.0,0.0,0.0,0.0,0,0,0.0,0.0,0,0,28.0,0.0,0.0,4592.307692307693,3971.2820512820517,4528.205128205129,4458.974358974359,4268.717948717949,4571.794871794872,4467.6923076923085,4434.358974358975,4411.794871794872,4751.282051282052,4360.512820512821,4215.384615384616,4198.974358974359,4516.923076923077
560.23926,0.29497993,0.74881417,0.34866488,0.67737865,0,0.0,0.0,0.0,0.0,1.0,0,0,0.0,0.0,0,0,60.0,0.0,0.0,4670.769230769231,3934.358974358975,4541.538461538462,4442.051282051282,4250.256410256411,4549.2307692307695,4463.589743589744,4437.435897435898,4429.743589743591,4779.48717948718,4392.307692307693,4270.769230769231,4293.333333333334,4664.102564102564
560.52075,0.31183326,0.7381656,0.34540954,0.6680722,0,0.0,0.0,0.0,0.0,0.7393569,0,0,0.0,0.0,0,0,96.0,0.0,398.0,4575.8974358974365,3923.076923076924,4472.820512820514,4434.871794871796,4250.256410256411,4552.307692307693,4472.307692307693,4449.2307692307695,4430.256410256411,4764.102564102564,4369.743589743591,4250.256410256411,4241.025641025642,4542.051282051282
560.7397,0.31183326,0.7381656,0.34540954,0.6680722,0,0.0,0.0,0.0,0.0,0.3013887,0,0,0.0,0.0,0,0,124.0,0.0,398.0,4563.076923076924,3922.0512820512827,4475.8974358974365,4439.48717948718,4261.025641025642,4560.512820512821,4472.307692307693,4423.076923076924,4407.6923076923085,4743.589743589744,4347.179487179487,4233.333333333334,4206.666666666667,4511.282051282052
560.9899,0.2717886,0.7097047,0.34419706,0.6564339,0,0.0,0.0,0.0,0.0,0.23642997,0,0,0.0,0.0,0,0,27.0,0.0,0.0,4597.948717948719,3936.9230769230776,4494.358974358975,4443.589743589744,4257.948717948719,4562.051282051282,4465.128205128206,4435.8974358974365,4425.641025641026,4757.948717948719,4362.564102564103,4248.717948717949,4225.641025641026,4543.589743589744
561.2401,0.2717886,0.7097047,0.34419706,0.6564339,0,0.0,0.0,0.0,0.0,0.76350063,0,0,0.0,0.0,0,0,59.0,0.0,0.0,4574.871794871796,3940.5128205128212,4477.435897435898,4442.051282051282,4256.410256410257,4564.102564102564,4463.076923076924,4419.48717948718,4399.48717948718,4749.2307692307695,4340.512820512821,4225.128205128206,4204.102564102564,4448.205128205129
561.5216,0.31878126,0.6807161,0.3431102,0.64600694,0,0.0,0.0,0.0,0.0,1.0,0,0,0.0,0.0,0,0,95.0,0.0,525.0,4581.538461538462,3937.435897435898,4485.641025641026,4440.512820512821,4249.74358974359,4553.846153846154,4462.051282051282,4431.794871794872,4416.410256410257,4748.205128205129,4353.333333333334,4230.769230769231,4201.538461538462,4509.2307692307695
561.74054,0.31878126,0.6807161,0.3431102,0.64600694,1,0.0,0.0,0.0,0.0,1.0,0,0,0.0,0.0,0,0,123.0,0.0,525.0,4609.2307692307695,3936.9230769230776,4486.666666666667,4441.538461538462,4249.74358974359,4555.8974358974365,4444.615384615385,4413.333333333334,4398.974358974359,4737.435897435898,4354.871794871796,4233.333333333334,4193.333333333334,4546.666666666667
562.02203,0.28812742,0.6729409,0.34213254,0.6366227,0,0.0,0.0,0.0,0.0,0.8107216,0,0,0.0,0.0,0,0,30.0,0.0,0.0,4583.076923076924,3948.205128205129,4474.871794871796,4442.051282051282,4248.717948717949,4549.2307692307695,4428.205128205129,4371.794871794872,4363.076923076924,4702.051282051282,4312.820512820514,4178.461538461539,4124.615384615385,4477.435897435898
562.24097,0.28812742,0.6729409,0.34213254,0.6366227,0,0.0,0.0,0.0,0.0,0.20972615,0,0,0.0,0.0,0,0,58.0,0.0,0.0,4563.076923076924,3930.7692307692314,4466.153846153847,4438.461538461539,4246.666666666667,4550.769230769231,4436.410256410257,4396.923076923077,4388.205128205129,4711.794871794872,4308.205128205129,4184.615384615385,4145.128205128206,4490.256410256411
562.4912,0.3226308,0.65928364,0.34124908,0.62814677,0,0.0,0.0,0.0,0.0,0.16884075,0,0,0.0,0.0,0,0,90.0,0.0,555.0,4599.48717948718,3937.9487179487182,4496.923076923077,4436.410256410257,4249.2307692307695,4550.256410256411,4435.8974358974365,4392.307692307693,4392.820512820514,4725.128205128206,4333.846153846154,4224.615384615385,4170.769230769231,4534.871794871796
562.7414,0.3226308,0.65928364,0.34124908,0.62814677,0,0.0,0.0,0.0,0.0,0.20828556,0,0,0.0,0.0,0,0,122.0,0.0,555.0,4602.051282051282,3940.0000000000005,4495.8974358974365,4427.6923076923085,4240.000000000001,4543.076923076924,4428.717948717949,4397.948717948719,4397.948717948719,4730.256410256411,4335.8974358974365,4239.48717948718,4182.564102564103,4535.384615384616
562.99164,0.2793037,0.64894354,0.34045362,0.6205213,0,0.0,0.0,0.0,0.0,0.0,0,0,0.0,0.0,0,0,25.0,0.0,0.0,4576.923076923077,3929.7435897435903,4491.282051282052,4425.641025641026,4238.974358974359,4538.461538461539,4441.025641025642,4402.051282051282,4390.256410256411,4723.076923076924,4330.769230769231,4226.666666666667,4161.025641025642,4518.974358974359
562.99164,0.2793037,0.64894354,0.34045362,0.6205213,0,0.0,0.0,0.0,0.0,0.0,0,0,0.0,0.0,0,0,25.0,0.0,0.0,4576.923076923077,3929.7435897435903,4491.282051282052,4425.641025641026,4238.974358974359,4538.461538461539,4441.025641025642,4402.051282051282,4390.256410256411,4723.076923076924,4330.769230769231,4226.666666666667,4161.025641025642,4518.974358974359
563.49207,0.292387,0.64816535,0.3397374,0.6136574,0,0.0,0.0,0.0,0.0,0.0,0,0,0.0,0.0,0,0,89.0,0.0,518.0,4560.512820512821,3935.3846153846157,4501.538461538462,4429.743589743591,4245.128205128206,4550.769230769231,4433.846153846154,4401.538461538462,4395.384615384616,4723.589743589744,4328.717948717949,4220.512820512821,4161.538461538462,4513.333333333334
563.49207,0.292387,0.64816535,0.3397374,0.6136574,0,0.0,0.0,0.0,0.0,0.0,0,0,0.0,0.0,0,0,89.0,0.0,518.0,4560.512820512821,3935.3846153846157,4501.538461538462,4429.743589743591,4245.128205128206,4550.769230769231,4433.846153846154,4401.538461538462,4395.384615384616,4723.589743589744,4328.717948717949,4220.512820512821,4161.538461538462,4513.333333333334
563.9925,0.25626448,0.6289304,0.33909252,0.60747874,0,0.0,0.0,0.0,0.0,0.0,0,0,0.0,0.0,0,0,24.0,0.0,0.0,4585.128205128206,3935.3846153846157,4507.179487179488,4429.743589743591,4249.2307692307695,4553.333333333334,4453.846153846154,4428.205128205129,4413.846153846154,4744.615384615386,4334.871794871796,4232.307692307693,4182.564102564103,4521.025641025642
564.24274,0.25626448,0.6289304,0.33909252,0.60747874,0,0.0,0.0,0.0,1.0,0.0,0,0,0.0,0.0,0,0,56.0,0.0,0.0,4577.435897435898,3932.307692307693,4503.589743589744,4431.794871794872,4251.282051282052,4553.846153846154,4468.205128205129,4434.358974358975,4418.974358974359,4743.589743589744,4343.589743589744,4230.256410256411,4177.435897435898,4528.205128205129
564.52423,0.24167925,0.60194194,0.33851454,0.6019389,0,0.0,0.0,0.0,0.0,0.0,0,0,0.0,0.0,0,0,92.0,0.0,398.0,4580.000000000001,3936.9230769230776,4493.846153846154,4430.256410256411,4252.820512820514,4556.923076923077,4452.307692307693,4413.333333333334,4402.564102564103,4729.2307692307695,4328.717948717949,4220.512820512821,4164.615384615385,4515.384615384616
564.52423,0.24167925,0.60194194,0.33851454,0.6019389,0,0.0,0.0,0.0,0.0,0.0,0,0,0.0,0.0,0,0,92.0,0.0,398.0,4580.000000000001,3936.9230769230776,4493.846153846154,4430.256410256411,4252.820512820514,4556.923076923077,4452.307692307693,4413.333333333334,4402.564102564103,4729.2307692307695,4328.717948717949,4220.512820512821,4164.615384615385,4515.384615384616
564.99335,0.21606882,0.57360446,0.33799294,0.596941,0,0.0,0.0,0.0,0.0,0.24425095,0,0,0.0,0.0,0,0,23.0,0.0,0.0,4549.2307692307695,3934.8717948717954,4505.128205128206,4431.794871794872,4246.153846153847,4547.179487179488,4443.589743589744,4418.461538461539,4407.179487179487,4735.8974358974365,4341.025641025642,4234.358974358975,4176.923076923077,4500.000000000001
565.11847,0.21606882,0.57360446,0.33799294,0.596941,0,0.0,0.0,0.0,0.0,0.0,0,0,0.0,0.0,0,0,39.0,0.0,0.0,4540.512820512821,3931.7948717948725,4489.743589743591,4432.307692307693,4249.2307692307695,4552.307692307693,4450.769230769231,4424.615384615385,4403.589743589744,4726.666666666667,4329.743589743591,4208.205128205129,4147.6923076923085,4474.871794871796
565.55634,0.18352613,0.56201136,0.33752415,0.59244823,0,0.0,0.0,0.0,0.0,0.0,0,0,0.0,0.0,0,0,95.0,0.0,524.0,4539.48717948718,3942.564102564103,4489.743589743591,4438.461538461539,4248.205128205129,4554.871794871796,4458.461538461539,4409.2307692307695,4397.435897435898,4724.102564102564,4333.333333333334,4224.102564102564,4151.794871794872,4501.538461538462
565.6189,0.18352613,0.56201136,0.33752415,0.59244823,0,0.0,0.0,0.0,0.0,1.0,0,0,0.0,0.0,0,0,103.0,0.0,524.0,4554.358974358975,3931.7948717948725,4493.333333333334,4436.923076923077,4251.282051282052,4553.846153846154,4457.948717948719,4412.820512820514,4400.000000000001,4722.564102564103,4331.794871794872,4217.435897435898,4150.769230769231,4336.923076923077
565.9942,0.19084089,0.5573884,0.33710262,0.58840775,0,0.0,0.0,0.0,0.0,1.0,0,0,0.0,0.0,0,0,22.0,0.0,0.0,4566.666666666667,3947.692307692308,4488.717948717949,4443.076923076924,4260.512820512821,4561.538461538462,4452.820512820514,4423.076923076924,4416.923076923077,4739.48717948718,4377.948717948719,4218.461538461539,4180.512820512821,4391.282051282052
566.24445,0.19084089,0.5573884,0.33710262,0.58840775,0,0.0,0.0,0.0,0.0,0.4082093,0,0,0.0,0.0,0,0,54.0,0.0,0.0,4551.794871794872,3942.0512820512827,4488.205128205129,4442.564102564103,4252.820512820514,4554.871794871796,4444.615384615385,4403.589743589744,4389.743589743591,4719.48717948718,4368.717948717949,4205.128205128206,4157.435897435898,4402.564102564103
566.4946,0.18756945,0.55611086,0.33672327,0.58477026,0,0.0,0.0,0.0,0.0,1.0,0,0,0.0,0.0,0,0,86.0,0.0,555.0,4546.153846153847,3957.435897435898,4487.6923076923085,4444.102564102564,4256.410256410257,4551.794871794872,4435.8974358974365,4392.820512820514,4372.820512820514,4698.461538461539,4329.2307692307695,4164.102564102564,4097.435897435898,4385.128205128206
566.7449,0.18756945,0.55611086,0.33672327,0.58477026,0,0.0,0.0,0.0,1.0,0.0,0,0,0.0,0.0,0,0,118.0,0.0,555.0,4575.8974358974365,3961.538461538462,4490.769230769231,4445.641025641026,4256.410256410257,4557.435897435898,4449.2307692307695,4407.6923076923085,4393.846153846154,4722.051282051282,4332.820512820514,4192.307692307693,4115.384615384616,4422.564102564103
567.02637,0.16150504,0.5524216,0.33638346,0.58150786,0,0.0,0.0,0.0,0.31376395,0.0,0,0,0.0,0.0,0,0,25.0,0.0,0.0,4734.871794871796,3991.7948717948725,4540.000000000001,4446.666666666667,4249.2307692307695,4545.128205128206,4437.948717948719,4385.128205128206,4374.358974358975,4722.564102564103,4327.6923076923085,4235.8974358974365,4153.333333333334,4561.025641025642
567.2453,0.16150504,0.5524216,0.33638346,0.58150786,0,0.0,0.0,0.0,0.0,0.77792454,0,0,0.0,0.0,0,0,53.0,0.0,0.0,4553.333333333334,3946.666666666667,4479.48717948718,4441.025641025642,4256.923076923077,4555.8974358974365,4440.000000000001,4384.102564102564,4383.589743589744,4709.743589743591,4318.974358974359,4188.717948717949,4123.589743589744,4400.512820512821
567.5268,0.12938786,0.5466892,0.33607814,0.57857466,0,0.0,0.0,0.0,0.0,1.0,0,0,0.0,0.0,0,0,89.0,0.0,518.0,4576.410256410257,3950.7692307692314,4503.076923076924,4444.102564102564,4259.48717948718,4557.948717948719,4457.948717948719,4408.717948717949,4406.666666666667,4737.435897435898,4332.820512820514,4233.333333333334,4156.410256410257,4467.179487179487
567.5268,0.12938786,0.5466892,0.33607814,0.57857466,0,0.0,0.0,0.0,0.0,1.0,0,0,0.0,0.0,0,0,89.0,0.0,518.0,4576.410256410257,3950.7692307692314,4503.076923076924,4444.102564102564,4259.48717948718,4557.948717948719,4457.948717948719,4408.717948717949,4406.666666666667,4737.435897435898,4332.820512820514,4233.333333333334,4156.410256410257,4467.179487179487
568.0272,0.14811097,0.5573126,0.33580366,0.57593864,0,0.0,0.0,0.0,0.0,0.87126756,0,0,0.0,0.0,0,0,24.0,0.0,0.0,4522.051282051282,3942.0512820512827,4479.48717948718,4439.48717948718,4250.256410256411,4547.6923076923085,4445.641025641026,4387.179487179487,4378.461538461539,4709.743589743591,4316.923076923077,4194.871794871796,4126.666666666667,4452.307692307693
568.24615,0.14811097,0.5573126,0.33580366,0.57593864,0,0.0,0.0,0.0,0.0,0.2545654,0,0,0.0,0.0,0,0,52.0,0.0,0.0,4552.820512820514,3934.358974358975,4486.153846153847,4438.461538461539,4248.717948717949,4547.179487179488,4436.923076923077,4400.000000000001,4397.948717948719,4718.974358974359,4315.8974358974365,4206.153846153847,4144.102564102564,4466.153846153847
568.49634,0.13646494,0.65374523,0.33555564,0.573561,0,0.0,0.0,0.0,0.0,0.8795948,0,0,0.0,0.0,0,1,84.0,0.0,397.0,4544.102564102564,3931.2820512820517,4491.794871794872,4431.794871794872,4254.358974358975,4544.615384615385,4461.025641025642,4421.538461538462,4409.2307692307695,4727.179487179488,4331.794871794872,4210.256410256411,4145.641025641026,4474.358974358975
568.7466,0.13646494,0.65374523,0.33555564,0.573561,0,0.0,0.0,0.0,0.0,0.67727,0,0,0.0,0.0,0,0,116.0,0.0,397.0,4593.333333333334,3929.7435897435903,4487.179487179488,4433.333333333334,4203.076923076924,4544.615384615385,4436.410256410257,4373.846153846154,4371.282051282052,4706.153846153847,4348.717948717949,4227.6923076923085,4153.846153846154,4462.051282051282
568.9968,0.16741996,0.8960817,0.3353323,0.57142043,1,0.0,0.0,0.0,0.0,0.69094545,0,0,0.0,0.0,0,0,19.0,0.0,0.0,4631.794871794872,3925.6410256410263,4477.435897435898,4412.820512820514,4193.846153846154,4511.794871794872,4410.256410256411,4361.538461538462,4348.717948717949,4673.846153846154,4330.256410256411,4209.74358974359,4126.153846153847,4483.589743589744
569.247,0.16741996,0.8960817,0.3353323,0.57142043,0,0.0,0.0,0.0,0.0,0.6451964,0,0,0.0,0.0,0,0,51.0,0.0,0.0,4575.384615384616,3915.8974358974365,4466.153846153847,4414.871794871796,4202.051282051282,4527.179487179488,4426.666666666667,4361.025641025642,4357.435897435898,4686.153846153847,4336.923076923077,4202.564102564103,4141.025641025642,4458.974358974359
569.55194,0.2684029,1.0,0.33513126,0.56949323,0,0.0,0.0,0.0,0.0,0.7994138,0,0,0.0,0.0,0,0,91.0,0.0,525.0,4561.025641025642,3914.8717948717954,4477.948717948719,4415.8974358974365,4231.282051282052,4546.153846153847,4449.2307692307695,4409.743589743591,4401.025641025642,4704.615384615386,4357.435897435898,4215.8974358974365,4156.923076923077,4471.794871794872
569.7396,0.2684029,1.0,0.33513126,0.56949323,0,0.0,0.0,0.0,0.0,0.816738,0,0,0.0,0.0,0,0,115.0,0.0,525.0,4547.6923076923085,3919.48717948718,4489.743589743591,4417.435897435898,4249.2307692307695,4561.538461538462,4478.974358974359,4446.666666666667,4426.153846153847,4733.846153846154,4542.564102564103,4248.717948717949,4180.512820512821,4489.2307692307695
569.98987,0.29639965,1.0,0.3349503,0.5677589,0,0.0,0.0,0.0,0.0,0.25188497,0,0,0.0,0.0,0,0,18.0,0.0,0.0,4572.307692307693,3925.1282051282055,4510.769230769231,4421.538461538462,4256.923076923077,4569.2307692307695,4491.794871794872,4460.512820512821,4451.794871794872,4755.8974358974365,4514.358974358975,4258.974358974359,4210.256410256411,4501.025641025642
570.24005,0.29639965,1.0,0.3349503,0.5677589,0,0.0,0.0,0.0,0.0,0.0,0,0,0.0,0.0,0,0,50.0,0.0,0.0,4604.102564102564,3930.7692307692314,4534.871794871796,4428.717948717949,4256.923076923077,4565.641025641026,4502.564102564103,4482.051282051282,4447.179487179487,4758.974358974359,4479.48717948718,4249.74358974359,4244.615384615385,4497.948717948719
570.5528,0.4372661,1.0,0.3347874,0.566199,0,0.0,0.0,0.0,0.0,0.80553234,0,0,0.0,0.0,0,0,90.0,0.0,555.0,4616.923076923077,3940.0000000000005,4532.307692307693,4430.769230769231,4249.74358974359,4563.076923076924,4510.256410256411,4501.538461538462,4461.538461538462,4777.948717948719,4451.282051282052,4257.435897435898,4287.179487179487,4497.948717948719
570.7405,0.4372661,1.0,0.3347874,0.566199,0,0.0,0.0,0.0,0.0,0.34158954,0,0,0.0,0.0,0,0,114.0,0.0,555.0,4634.358974358975,3947.1794871794878,4564.102564102564,4444.615384615385,4263.076923076924,4566.153846153847,4543.076923076924,4553.333333333334,4477.435897435898,4795.8974358974365,4443.076923076924,4284.102564102564,4304.102564102564,4491.282051282052
570.9907,0.5413885,1.0,0.3346407,0.5692345,0,0.0,0.0,0.0,0.0,1.0,0,0,0.0,0.0,0,1,17.0,0.0,0.0,4651.794871794872,3944.615384615385,4561.025641025642,4441.538461538462,4240.512820512821,4544.102564102564,4524.102564102564,4521.538461538462,4426.153846153847,4773.846153846154,4446.153846153847,4313.333333333334,4309.2307692307695,4538.974358974359
571.2409,0.5413885,1.0,0.3346407,0.5692345,0,0.0,0.0,0.0,0.0,1.0,0,0,0.0,0.0,0,0,49.0,0.0,0.0,4635.384615384616,3941.0256410256416,4554.871794871796,4439.48717948718,4229.2307692307695,4530.256410256411,4521.025641025642,4523.589743589744,4428.205128205129,4782.051282051282,4438.461538461539,4313.846153846154,4298.974358974359,4535.384615384616
571.5224,0.68642193,1.0,0.33450934,0.57197505,0,0.0,0.0,0.0,0.0,0.33359712,0,0,0.0,0.0,0,0,85.0,0.0,518.0,4618.461538461539,3942.0512820512827,4535.8974358974365,4438.461538461539,4227.179487179487,4517.435897435898,4496.410256410257,4489.2307692307695,4394.358974358975,4756.410256410257,4419.48717948718,4289.74358974359,4272.307692307693,4523.589743589744
571.77264,0.68642193,1.0,0.33450934,0.57197505,0,0.0,0.0,0.0,0.0,0.5011646,0,0,0.0,0.0,0,1,117.0,0.0,518.0,4656.923076923077,3933.8461538461543,4535.384615384616,4428.717948717949,4224.615384615385,4513.846153846154,4467.6923076923085,4462.051282051282,4352.820512820514,4741.538461538462,4393.846153846154,4289.74358974359,4235.8974358974365,4546.666666666667
572.0228,0.6272095,1.0,0.33439144,0.57444155,0,0.0,0.0,0.0,0.0,0.70620185,0,0,0.0,0.0,0,0,20.0,0.0,0.0,4596.923076923077,3928.205128205129,4509.2307692307695,4428.205128205129,4230.769230769231,4521.538461538462,4466.666666666667,4461.538461538462,4359.48717948718,4722.051282051282,4404.615384615385,4281.538461538462,4228.717948717949,4521.538461538462
572.24176,0.6272095,1.0,0.33439144,0.57444155,0,0.0,0.0,0.0,0.0,0.6652153,0,0,0.0,0.0,0,0,48.0,0.0,0.0,4577.948717948719,3918.9743589743593,4489.743589743591,4422.051282051282,4228.717948717949,4517.948717948719,4454.358974358975,4447.6923076923085,4358.461538461539,4703.076923076924,4388.717948717949,4249.74358974359,4191.282051282052,4482.051282051282
572.492,0.6000249,1.0,0.33428523,0.57665265,0,0.0,0.0,0.0,0.0,0.13695884,0,0,0.0,0.0,0,0,80.0,0.0,387.0,4613.333333333334,3932.820512820513,4504.102564102564,4429.743589743591,4235.8974358974365,4530.769230769231,4452.307692307693,4446.153846153847,4364.615384615385,4711.794871794872,4401.538461538462,4287.6923076923085,4207.179487179487,4512.820512820514
572.7422,0.6000249,1.0,0.33428523,0.57665265,0,0.0,0.0,0.0,0.0,1.0,0,0,0.0,0.0,0,0,112.0,0.0,387.0,4624.102564102564,3949.7435897435903,4503.076923076924,4447.179487179487,4248.717948717949,4545.128205128206,4455.384615384616,4442.564102564103,4359.48717948718,4705.128205128206,4390.256410256411,4271.794871794872,4179.48717948718,4500.512820512821
573.0237,0.50347763,1.0,0.33418995,0.5742104,0,0.0,0.0,0.0,1.0,0.0,0,0,0.0,0.0,0,0,19.0,0.0,0.0,4605.641025641026,3942.0512820512827,4491.794871794872,4428.717948717949,4243.076923076924,4543.076923076924,4443.076923076924,4421.538461538462,4353.846153846154,4688.717948717949,4366.666666666667,4257.435897435898,4154.358974358975,4514.358974358975
573.2426,0.50347763,1.0,0.33418995,0.5742104,0,0.0,0.0,0.0,0.0,0.23633264,0,0,0.0,0.0,0,0,47.0,0.0,0.0,4582.564102564103,3922.0512820512827,4484.615384615385,4426.666666666667,4252.307692307693,4550.256410256411,4455.8974358974365,4426.666666666667,4372.820512820514,4707.179487179488,4384.102564102564,4274.358974358975,4186.666666666667,4528.717948717949
573.49286,0.5182004,1.0,0.33410388,0.57200533,0,0.0,0.0,0.0,0.0,0.23921938,0,0,0.0,0.0,0,0,79.0,0.0,522.0,4610.256410256411,3932.820512820513,4503.076923076924,4430.256410256411,4252.307692307693,4549.743589743591,4454.358974358975,4446.666666666667,4392.307692307693,4722.564102564103,4397.948717948719,4287.179487179487,4194.871794871796,4545.128205128206
573.74304,0.5182004,1.0,0.33410388,0.57200533,0,0.0,0.0,0.0,0.0,1.0,0,0,0.0,0.0,0,0,111.0,0.0,522.0,4612.820512820514,3930.2564102564106,4494.871794871796,4427.6923076923085,4252.307692307693,4555.384615384616,4449.743589743591,4445.641025641026,4406.666666666667,4728.717948717949,4384.102564102564,4258.974358974359,4200.000000000001,4533.333333333334
574.02454,0.4816914,0.9385602,0.3340267,0.57002646,0,0.0,0.0,0.0,1.0,0.0,0,0,0.0,0.0,0,0,18.0,0.0,0.0,4642.564102564103,3946.666666666667,4521.025641025642,4427.6923076923085,4245.128205128206,4552.820512820514,4468.205128205129,4459.48717948718,4390.256410256411,4730.256410256411,4374.871794871796,4278.974358974359,4209.2307692307695,4534.871794871796
574.24347,0.4816914,0.9385602,0.3340267,0.57002646,0,0.0,0.0,0.0,0.08508884,0.0,0,0,0.0,0.0,0,0,46.0,0.0,0.0,4613.846153846154,3942.564102564103,4523.589743589744,4430.769230769231,4246.153846153847,4548.717948717949,4490.256410256411,4480.000000000001,4383.589743589744,4728.717948717949,4378.974358974359,4275.8974358974365,4229.74358974359,4528.205128205129
574.4937,0.51575345,0.888524,0.33395702,0.5682406,0,0.0,0.0,0.0,0.0,0.113282226,0,0,0.0,0.0,0,0,78.0,0.0,555.0,4652.820512820514,3972.307692307693,4535.384615384616,4447.179487179487,4249.2307692307695,4549.743589743591,4484.102564102564,4476.410256410257,4372.820512820514,4729.2307692307695,4361.025641025642,4271.794871794872,4224.615384615385,4511.794871794872
574.7439,0.51575345,0.888524,0.33395702,0.5682406,0,0.0,0.0,0.0,0.0,0.0,0,0,0.0,0.0,0,0,110.0,0.0,555.0,4623.589743589744,3959.48717948718,4523.589743589744,4442.564102564103,4238.974358974359,4537.948717948719,4484.615384615385,4475.384615384616,4360.000000000001,4728.717948717949,4371.794871794872,4278.461538461539,4236.410256410257,4524.102564102564
574.99414,0.5260963,0.8382767,0.3338943,0.5666335,0,0.0,0.0,0.0,0.0,0.0,0,0,0.0,0.0,0,0,13.0,0.0,518.0,4791.794871794872,3982.564102564103,4546.153846153847,4438.974358974359,4229.2307692307695,4531.282051282052,4471.282051282052,4462.051282051282,4335.384615384616,4716.410256410257,4364.102564102564,4298.974358974359,4225.128205128206,4613.846153846154
575.2443,0.5260963,0.8382767,0.3338943,0.5666335,0,0.0,0.0,0.0,0.0,0.8034001,0,0,0.0,0.0,0,0,45.0,0.0,0.0,4605.641025641026,3944.615384615385,4504.615384615385,4432.820512820514,4230.256410256411,4531.282051282052,4478.461538461539,4486.153846153847,4360.000000000001,4721.025641025642,4372.820512820514,4308.205128205129,4228.717948717949,4417.948717948719
575.5258,0.446958,0.80493397,0.3338381,0.5651919,0,0.0,0.0,0.0,0.0,1.0,0,0,0.0,0.0,0,1,81.0,0.0,518.0,4629.2307692307695,3950.2564102564106,4509.2307692307695,4446.666666666667,4244.615384615385,4546.666666666667,4498.461538461539,4506.153846153847,4356.410256410257,4725.641025641026,4372.820512820514,4295.384615384616,4224.102564102564,4515.8974358974365
575.6197,0.446958,0.80493397,0.3338381,0.5651919,0,0.0,0.0,0.0,0.0,1.0,0,0,0.0,0.0,0,0,93.0,0.0,518.0,4643.076923076924,3953.8461538461543,4525.128205128206,4448.717948717949,4247.6923076923085,4545.641025641026,4512.820512820514,4524.102564102564,4376.923076923077,4743.589743589744,4402.564102564103,4333.333333333334,4254.358974358975,4544.615384615385
576.02625,0.42763296,0.7727151,0.33378756,0.56389505,0,0.0,0.0,0.0,0.0,0.5521084,0,0,0.0,0.0,0,0,16.0,0.0,0.0,4637.435897435898,3958.9743589743593,4526.666666666667,4444.615384615385,4236.923076923077,4536.410256410257,4494.358974358975,4498.461538461539,4336.923076923077,4718.461538461539,4386.153846153847,4319.48717948718,4225.128205128206,4502.564102564103
576.24524,0.42763296,0.7727151,0.33378756,0.56389505,0,0.0,0.0,0.0,0.0,1.0,0,0,0.0,0.0,0,0,44.0,0.0,0.0,4641.025641025642,3955.3846153846157,4527.179487179488,4445.128205128206,4229.2307692307695,4528.717948717949,4483.076923076924,4496.410256410257,4328.717948717949,4696.410256410257,4363.076923076924,4309.2307692307695,4203.589743589744,4113.846153846154
576.52673,0.44908795,0.7272794,0.3337421,0.5627289,0,0.0,0.0,0.0,0.0,1.0,0,0,0.0,0.0,0,0,80.0,0.0,387.0,4643.076923076924,3960.5128205128212,4523.076923076924,4445.641025641026,4231.794871794872,4532.820512820514,4485.128205128206,4483.589743589744,4325.641025641026,4695.8974358974365,4380.000000000001,4304.102564102564,4195.8974358974365,4487.179487179488
576.74567,0.44908795,0.7272794,0.3337421,0.5627289,0,0.0,0.0,0.0,0.0,1.0,0,0,0.0,0.0,0,0,108.0,0.0,387.0,4638.461538461539,3955.3846153846157,4525.641025641026,4446.153846153847,4231.794871794872,4533.846153846154,4470.256410256411,4462.051282051282,4325.128205128206,4693.333333333334,4383.589743589744,4305.128205128206,4191.282051282052,4493.846153846154
577.02716,0.4049821,0.7025497,0.33370122,0.5616799,0,0.0,0.0,0.0,0.0,0.20139854,0,0,0.0,0.0,0,0,15.0,0.0,523.0,4634.358974358975,3940.0000000000005,4520.512820512821,4441.025641025642,4229.74358974359,4531.282051282052,4449.743589743591,4456.923076923077,4343.589743589744,4697.435897435898,4389.743589743591,4301.538461538462,4194.358974358975,4525.641025641026
577.2461,0.4049821,0.7025497,0.33370122,0.5616799,0,0.0,0.0,0.0,0.0,0.1524868,0,0,0.0,0.0,0,0,43.0,0.0,0.0,4600.000000000001,3934.8717948717954,4498.461538461539,4436.923076923077,4233.333333333334,4534.871794871796,4467.6923076923085,4455.8974358974365,4347.179487179487,4695.8974358974365,4382.051282051282,4274.871794871796,4192.820512820514,4506.666666666667
577.4963,0.35349295,0.67127526,0.3336643,0.5607328,0,0.0,0.0,0.0,0.0,0.10246441,0,0,0.0,0.0,0,0,75.0,0.0,523.0,4610.769230769231,3929.7435897435903,4506.153846153847,4446.153846153847,4252.307692307693,4553.846153846154,4465.128205128206,4447.6923076923085,4366.666666666667,4710.256410256411,4394.871794871796,4288.717948717949,4204.615384615385,4542.051282051282
577.7465,0.35349295,0.67127526,0.3336643,0.5607328,0,0.0,0.0,0.0,0.0,0.12965833,0,0,0.0,0.0,0,0,107.0,0.0,523.0,4598.461538461539,3931.7948717948725,4504.615384615385,4444.615384615385,4249.2307692307695,4551.282051282052,4445.128205128206,4412.820512820514,4352.307692307693,4688.717948717949,4374.871794871796,4262.051282051282,4186.666666666667,4516.923076923077
577.9967,0.419511,0.6312996,0.33363104,0.55988014,0,0.0,0.0,0.0,0.0,0.17255655,0,0,0.0,0.0,0,0,10.0,0.0,555.0,4596.410256410257,3934.8717948717954,4493.333333333334,4443.589743589744,4249.74358974359,4554.358974358975,4436.923076923077,4390.256410256411,4347.6923076923085,4675.8974358974365,4351.794871794872,4236.410256410257,4137.948717948719,4457.948717948719
578.1218,0.419511,0.6312996,0.33363104,0.55988014,0,0.0,0.0,0.0,0.0,1.0,0,0,0.0,0.0,0,0,26.0,0.0,0.0,4691.794871794872,3962.564102564103,4504.615384615385,4443.589743589744,4242.564102564103,4543.076923076924,4412.307692307693,4360.512820512821,4309.743589743591,4643.589743589744,4323.589743589744,4229.74358974359,4105.128205128206,4522.051282051282
578.52844,0.45448703,0.6061604,0.3336012,0.5591149,0,0.0,0.0,0.0,0.0,1.0,0,0,0.0,0.0,0,0,78.0,0.0,555.0,4560.000000000001,3922.0512820512827,4493.333333333334,4443.589743589744,4254.871794871796,4552.307692307693,4433.846153846154,4403.589743589744,4373.333333333334,4685.641025641026,4351.282051282052,4235.8974358974365,4152.307692307693,4501.025641025642
578.7474,0.45448703,0.6061604,0.3336012,0.5591149,0,0.0,0.0,0.0,0.0,0.3432614,0,0,0.0,0.0,0,0,106.0,0.0,555.0,4552.307692307693,3908.717948717949,4487.6923076923085,4433.846153846154,4246.153846153847,4548.717948717949,4427.179487179487,4376.410256410257,4362.051282051282,4674.358974358975,4344.615384615385,4224.615384615385,4143.076923076924,4488.717948717949
578.99756,0.4533289,0.57538867,0.3335743,0.55842423,0,0.0,0.0,0.0,0.0,0.16670881,0,0,0.0,0.0,0,0,9.0,0.0,444.0,4547.179487179488,3913.8461538461543,4492.307692307693,4433.846153846154,4251.282051282052,4550.769230769231,4426.153846153847,4380.512820512821,4377.435897435898,4685.641025641026,4348.205128205129,4237.435897435898,4166.666666666667,4503.076923076924
579.1227,0.4533289,0.57538867,0.3335743,0.55842423,0,0.0,0.0,0.0,0.0,0.0,0,0,0.0,0.0,0,0,25.0,0.0,0.0,4542.564102564103,3908.717948717949,4479.48717948718,4428.205128205129,4250.769230769231,4552.820512820514,4431.794871794872,4390.769230769231,4382.051282051282,4684.615384615386,4341.538461538462,4230.256410256411,4162.051282051282,4488.717948717949
579.498,0.5345602,0.5510966,0.33355007,0.5578031,0,0.0,0.0,0.0,0.0,0.24552722,0,0,0.0,0.0,0,0,73.0,0.0,444.0,4573.333333333334,3923.589743589744,4511.282051282052,4431.794871794872,4248.717948717949,4550.769230769231,4444.615384615385,4404.615384615385,4407.179487179487,4708.205128205129,4356.410256410257,4257.948717948719,4182.051282051282,4500.512820512821
579.6231,0.5345602,0.5510966,0.33355007,0.5578031,0,0.0,0.0,0.0,0.0,1.0,0,0,0.0,0.0,0,0,89.0,0.0,518.0,4573.333333333334,3926.666666666667,4520.512820512821,4439.48717948718,4245.128205128206,4552.307692307693,4449.2307692307695,4413.333333333334,4415.384615384616,4710.769230769231,4357.948717948719,4267.179487179487,4182.564102564103,4285.641025641026
580.0297,0.5518756,0.534668,0.33352834,0.5572458,0,0.0,0.0,0.0,0.0,1.0,0,0,0.0,0.0,0,0,12.0,0.0,387.0,4561.538461538462,3881.538461538462,4522.051282051282,4429.743589743591,4252.820512820514,4558.974358974359,4470.256410256411,4452.307692307693,4436.410256410257,4735.8974358974365,4364.102564102564,4270.256410256411,4230.769230769231,4507.179487179488
580.24866,0.5518756,0.534668,0.33352834,0.5572458,0,0.0,0.0,0.0,0.0,0.21270536,0,0,0.0,0.0,0,0,40.0,0.0,0.0,4641.025641025642,3917.9487179487182,4549.2307692307695,4443.076923076924,4257.435897435898,4564.615384615385,4511.282051282052,4501.025641025642,4438.974358974359,4756.923076923077,4369.743589743591,4294.358974358975,4268.717948717949,4533.846153846154
580.49884,0.6516227,0.51890236,0.33350873,0.55674297,0,0.0,0.0,0.0,0.0,0.06172922,0,0,0.0,0.0,0,0,72.0,0.0,506.0,4664.102564102564,3928.205128205129,4573.846153846154,4443.589743589744,4244.615384615385,4547.179487179488,4526.666666666667,4534.871794871796,4420.512820512821,4759.48717948718,4375.8974358974365,4321.538461538462,4279.48717948718,4560.000000000001
580.7491,0.6516227,0.51890236,0.33350873,0.55674297,0,0.0,0.0,0.0,0.0,0.15150248,0,0,0.0,0.0,0,0,104.0,0.0,387.0,4669.2307692307695,3932.307692307693,4569.2307692307695,4442.051282051282,4226.666666666667,4531.282051282052,4502.051282051282,4511.282051282052,4364.102564102564,4720.512820512821,4352.820512820514,4313.333333333334,4266.666666666667,4532.307692307693
580.9993,0.64561146,0.5033524,0.33349112,0.5562906,0,0.0,0.0,0.0,0.0,0.63302106,0,0,0.0,0.0,0,0,7.0,0.0,492.0,4676.410256410257,3940.5128205128212,4562.564102564103,4445.128205128206,4228.717948717949,4526.153846153847,4508.717948717949,4526.153846153847,4354.871794871796,4712.307692307693,4353.333333333334,4307.179487179487,4255.8974358974365,4495.384615384616
581.2495,0.64561146,0.5033524,0.33349112,0.5562906,0,0.0,0.0,0.0,0.0,1.0,0,0,0.0,0.0,0,0,39.0,0.0,0.0,4676.923076923077,3948.717948717949,4568.205128205129,4457.435897435898,4236.923076923077,4533.333333333334,4515.384615384616,4519.48717948718,4346.666666666667,4709.2307692307695,4366.153846153847,4315.8974358974365,4265.128205128206,4505.128205128206
581.531,0.6479786,0.49130338,0.3334753,0.55588484,0,0.0,0.0,0.0,0.0,1.0,0,0,0.0,0.0,0,0,75.0,0.0,522.0,4667.179487179488,3954.8717948717954,4554.871794871796,4454.358974358975,4231.794871794872,4524.615384615385,4507.179487179488,4509.743589743591,4336.410256410257,4695.384615384616,4373.846153846154,4332.820512820514,4227.179487179487,4552.307692307693
581.74994,0.6479786,0.49130338,0.3334753,0.55588484,0,0.0,0.0,0.0,0.0,0.4068273,0,0,0.0,0.0,0,0,103.0,0.0,522.0,4765.128205128206,3963.589743589744,4573.846153846154,4453.846153846154,4229.74358974359,4517.948717948719,4469.743589743591,4468.205128205129,4310.769230769231,4670.256410256411,4371.794871794872,4335.384615384616,4207.179487179487,4622.564102564103
582.03143,0.59412676,0.49325323,0.33346108,0.55551976,0,0.0,0.0,0.0,0.0,0.68989164,0,0,0.0,0.0,0,0,10.0,0.0,555.0,4603.589743589744,3942.0512820512827,4522.051282051282,4448.205128205129,4238.461538461539,4528.205128205129,4453.846153846154,4442.051282051282,4306.666666666667,4650.769230769231,4351.282051282052,4268.205128205129,4147.179487179487,4487.179487179488
582.12524,0.59412676,0.49325323,0.33346108,0.55551976,0,0.0,0.0,0.0,0.0,1.0,0,0,0.0,0.0,0,0,22.0,0.0,0.0,4581.025641025642,3949.7435897435903,4518.461538461539,4451.282051282052,4247.6923076923085,4536.923076923077,4461.538461538462,4445.641025641026,4316.410256410257,4652.820512820514,4344.102564102564,4260.000000000001,4137.435897435898,4464.615384615385
582.5006,0.65612334,0.4845143,0.33344826,0.5551905,0,0.0,0.0,0.0,0.0,0.27582982,0,0,0.0,0.0,0,0,70.0,0.0,585.0,4587.6923076923085,3941.538461538462,4522.564102564103,4447.6923076923085,4250.769230769231,4546.153846153847,4447.6923076923085,4434.871794871796,4332.307692307693,4657.948717948719,4368.717948717949,4273.333333333334,4137.435897435898,4497.435897435898
582.7508,0.65612334,0.4845143,0.33344826,0.5551905,0,0.0,0.0,0.0,0.0,0.13210067,0,0,0.0,0.0,0,0,102.0,0.0,555.0,4548.205128205129,3925.1282051282055,4521.538461538462,4443.076923076924,4246.153846153847,4544.615384615385,4431.282051282052,4414.871794871796,4328.205128205129,4647.179487179488,4367.6923076923085,4251.282051282052,4118.461538461539,4465.641025641026
583.00104,0.74551976,0.47687048,0.3334367,0.5548942,0,0.0,0.0,0.0,0.0,0.0,0,0,0.0,0.0,0,0,5.0,0.0,571.0,4533.333333333334,3925.6410256410263,4504.615384615385,4442.051282051282,4249.74358974359,4546.153846153847,4440.512820512821,4432.820512820514,4345.641025641026,4657.435897435898,4371.794871794872,4237.948717948719,4121.025641025642,4440.000000000001
583.1261,0.74551976,0.47687048,0.3334367,0.5548942,0,0.0,0.0,0.0,0.0,1.0,0,0,0.0,0.0,0,0,21.0,0.0,0.0,4557.948717948719,3937.9487179487182,4517.435897435898,4461.538461538462,4245.641025641026,4548.205128205129,4444.102564102564,4444.615384615385,4344.102564102564,4645.128205128206,4355.384615384616,4231.282051282052,4115.384615384616,4011.7948717948725
583.5327,0.8191684,0.47090396,0.33342636,0.55462825,0,0.0,0.0,0.0,1.0,0.0,0,0,0.0,0.0,0,0,73.0,0.0,443.0,4611.282051282052,3955.3846153846157,4540.512820512821,4461.025641025642,4248.717948717949,4555.384615384616,4468.205128205129,4468.205128205129,4330.256410256411,4664.615384615386,4363.076923076924,4247.179487179487,4159.48717948718,4473.333333333334
583.6891,0.8191684,0.47090396,0.33342636,0.55462825,0,0.0,0.0,0.0,0.0,1.0,0,0,0.0,0.0,0,1,93.0,0.0,518.0,4655.384615384616,3955.3846153846157,4566.666666666667,4458.974358974359,4247.6923076923085,4550.256410256411,4473.846153846154,4473.333333333334,4329.2307692307695,4668.717948717949,4368.205128205129,4278.461538461539,4170.256410256411,4508.205128205129
584.03314,0.72670776,0.47369877,0.333417,0.5543883,0,0.0,0.0,0.0,0.0,1.0,0,0,0.0,0.0,0,0,8.0,0.0,506.0,4604.102564102564,3943.076923076924,4537.948717948719,4445.128205128206,4243.076923076924,4541.538461538462,4472.307692307693,4447.6923076923085,4288.717948717949,4641.538461538462,4359.48717948718,4254.871794871796,4174.358974358975,4473.846153846154
584.03314,0.72670776,0.47369877,0.333417,0.5543883,0,0.0,0.0,0.0,0.0,1.0,0,0,0.0,0.0,0,0,8.0,0.0,506.0,4604.102564102564,3943.076923076924,4537.948717948719,4445.128205128206,4243.076923076924,4541.538461538462,4472.307692307693,4447.6923076923085,4288.717948717949,4641.538461538462,4359.48717948718,4254.871794871796,4174.358974358975,4473.846153846154
584.53357,0.5795855,0.47804794,0.33340862,0.5541731,0,0.0,0.0,0.0,0.0,0.18971078,0,0,0.0,0.0,0,0,72.0,0.0,506.0,4619.48717948718,3917.9487179487182,4540.000000000001,4437.948717948719,4239.48717948718,4531.282051282052,4468.717948717949,4429.743589743591,4284.102564102564,4635.8974358974365,4366.153846153847,4270.256410256411,4156.410256410257,4495.8974358974365
584.7525,0.5795855,0.47804794,0.33340862,0.5541731,0,0.0,0.0,0.0,0.0,0.08892468,0,0,0.0,0.0,0,0,100.0,0.0,387.0,4597.948717948719,3926.1538461538466,4522.564102564103,4441.538461538462,4238.974358974359,4536.923076923077,4453.846153846154,4409.743589743591,4288.205128205129,4632.307692307693,4370.769230769231,4246.153846153847,4153.846153846154,4504.615384615385
585.00275,0.5692506,0.484935,0.33340105,0.5539789,0,0.0,0.0,0.0,0.0,0.10848636,0,0,0.0,0.0,0,0,3.0,0.0,548.0,4622.051282051282,3930.7692307692314,4538.461538461539,4444.615384615385,4239.48717948718,4529.2307692307695,4440.000000000001,4405.128205128206,4298.461538461539,4627.6923076923085,4368.717948717949,4268.205128205129,4145.641025641026,4494.358974358975
585.12787,0.5692506,0.484935,0.33340105,0.5539789,0,0.0,0.0,0.0,0.0,0.0,0,0,0.0,0.0,0,0,19.0,0.0,0.0,4610.256410256411,3926.666666666667,4523.076923076924,4444.615384615385,4238.974358974359,4528.717948717949,4437.948717948719,4390.256410256411,4288.717948717949,4627.179487179488,4359.48717948718,4250.256410256411,4133.333333333334,4485.641025641026
585.56573,0.5431534,0.4791746,0.33339423,0.55380416,0,0.0,0.0,0.0,0.0,0.0,0,0,0.0,0.0,0,1,75.0,0.0,524.0,4610.256410256411,3937.9487179487182,4532.307692307693,4443.589743589744,4245.128205128206,4537.435897435898,4473.846153846154,4453.846153846154,4332.820512820514,4655.8974358974365,4375.8974358974365,4269.74358974359,4169.74358974359,4502.564102564103
585.75336,0.5431534,0.4791746,0.33339423,0.55380416,0,0.0,0.0,0.0,1.0,0.0,0,0,0.0,0.0,0,0,99.0,0.0,524.0,4628.205128205129,3943.076923076924,4562.564102564103,4443.076923076924,4246.153846153847,4537.948717948719,4490.769230769231,4473.333333333334,4331.794871794872,4656.923076923077,4371.282051282052,4288.717948717949,4177.948717948719,4502.051282051282
586.03485,0.5463137,0.46413416,0.33338815,0.5536474,0,0.0,0.0,0.0,0.0,0.45507842,0,0,0.0,0.0,0,0,6.0,0.0,585.0,4667.6923076923085,3948.205128205129,4583.076923076924,4447.6923076923085,4239.48717948718,4540.000000000001,4514.871794871796,4495.384615384616,4337.435897435898,4672.307692307693,4389.743589743591,4328.205128205129,4222.564102564103,4562.051282051282
586.2851,0.5463137,0.46413416,0.33338815,0.5536474,0,0.0,0.0,0.0,0.0,0.48320553,0,0,0.0,0.0,0,0,38.0,0.0,0.0,4687.179487179488,3962.0512820512827,4589.2307692307695,4470.769230769231,4254.871794871796,4554.871794871796,4517.948717948719,4504.615384615385,4364.102564102564,4689.2307692307695,4418.974358974359,4347.179487179487,4252.307692307693,4575.384615384616
586.504,0.690756,0.46638674,0.33338264,0.55350596,0,0.0,0.0,0.0,0.0,1.0,0,0,0.0,0.0,0,0,66.0,0.0,511.0,5043.589743589744,3971.2820512820517,4587.6923076923085,4455.8974358974365,4231.794871794872,4521.025641025642,4498.461538461539,4491.794871794872,4349.743589743591,4686.153846153847,4413.333333333334,4354.871794871796,4236.923076923077,4592.307692307693
586.504,0.690756,0.46638674,0.33338264,0.55350596,0,0.0,0.0,0.0,0.0,1.0,0,0,0.0,0.0,0,0,66.0,0.0,511.0,5043.589743589744,3971.2820512820517,4587.6923076923085,4455.8974358974365,4231.794871794872,4521.025641025642,4498.461538461539,4491.794871794872,4349.743589743591,4686.153846153847,4413.333333333334,4354.871794871796,4236.923076923077,4592.307692307693
587.00446,0.7452644,0.5821245,0.3333777,0.5533787,0,0.0,0.0,0.0,0.0,0.96296096,0,0,0.0,0.0,0,1,1.0,0.0,475.0,5094.871794871796,3965.6410256410263,4553.333333333334,4458.461538461539,4230.256410256411,4524.102564102564,4482.564102564103,4453.846153846154,4341.025641025642,4650.256410256411,4390.256410256411,4317.435897435898,4171.794871794872,4509.743589743591
587.28595,0.7452644,0.5821245,0.3333777,0.5533787,0,0.0,0.0,0.0,0.0,1.0,0,0,0.0,0.0,0,0,37.0,0.0,0.0,4965.128205128206,3964.1025641025644,4525.128205128206,4449.2307692307695,4233.333333333334,4527.179487179488,4450.769230769231,4422.564102564103,4349.743589743591,4646.153846153847,4385.641025641026,4298.974358974359,4162.051282051282,4511.282051282052
587.5049,0.86583257,0.6860456,0.33337322,0.55326414,0,0.0,0.0,0.0,0.0,1.0,0,0,0.0,0.0,0,0,65.0,0.0,475.0,4917.435897435898,3966.1538461538466,4531.282051282052,4457.435897435898,4246.666666666667,4546.153846153847,4462.051282051282,4418.974358974359,4353.333333333334,4646.153846153847,4377.435897435898,4302.564102564103,4155.8974358974365,4520.512820512821
587.5049,0.86583257,0.6860456,0.33337322,0.55326414,0,0.0,0.0,0.0,0.0,1.0,0,0,0.0,0.0,0,0,65.0,0.0,475.0,4917.435897435898,3966.1538461538466,4531.282051282052,4457.435897435898,4246.666666666667,4546.153846153847,4462.051282051282,4418.974358974359,4353.333333333334,4646.153846153847,4377.435897435898,4302.564102564103,4155.8974358974365,4520.512820512821
588.0366,0.89505476,0.7014033,0.33336923,0.55316144,0,0.0,0.0,0.0,0.0,1.0,0,0,0.0,0.0,0,0,4.0,0.0,572.0,4705.641025641026,3932.307692307693,4482.564102564103,4431.282051282052,4239.48717948718,4536.410256410257,4429.743589743591,4400.512820512821,4368.205128205129,4641.025641025642,4352.307692307693,4234.358974358975,4136.410256410257,4505.128205128206
588.0366,0.89505476,0.7014033,0.33336923,0.55316144,0,0.0,0.0,0.0,0.0,1.0,0,0,0.0,0.0,0,0,4.0,0.0,572.0,4705.641025641026,3932.307692307693,4482.564102564103,4431.282051282052,4239.48717948718,4536.410256410257,4429.743589743591,4400.512820512821,4368.205128205129,4641.025641025642,4352.307692307693,4234.358974358975,4136.410256410257,4505.128205128206
588.50574,0.866712,0.7096229,0.33336562,0.55306876,0,0.0,0.0,0.0,0.0,0.0,0,0,0.0,0.0,0,0,64.0,0.0,503.0,4665.128205128206,3946.1538461538466,4495.8974358974365,4443.589743589744,4252.820512820514,4552.307692307693,4419.48717948718,4378.461538461539,4372.307692307693,4644.615384615385,4340.000000000001,4230.256410256411,4134.871794871796,4511.282051282052
588.81854,0.866712,0.7096229,0.33336562,0.55306876,0,0.0,0.0,0.0,0.0,0.0,0,0,0.0,0.0,0,0,104.0,0.0,387.0,4609.2307692307695,3935.3846153846157,4493.846153846154,4441.025641025642,4252.820512820514,4553.333333333334,4427.6923076923085,4399.48717948718,4403.589743589744,4668.205128205129,4345.641025641026,4237.948717948719,4151.794871794872,4509.2307692307695
589.00616,0.77715,0.6462168,0.33336237,0.5529854,0,0.0,0.0,0.0,0.0,0.0,0,0,0.0,0.0,0,0,128.0,0.0,387.0,4576.923076923077,3940.0000000000005,4486.666666666667,4443.589743589744,4260.512820512821,4560.000000000001,4425.128205128206,4394.358974358975,4395.384615384616,4665.128205128206,4329.2307692307695,4216.410256410257,4116.410256410257,4463.589743589744
589.2564,0.77715,0.6462168,0.33336237,0.5529854,0,0.0,0.0,0.0,0.0,1.0,0,0,0.0,0.0,0,0,31.0,0.0,0.0,4603.589743589744,3940.0000000000005,4490.256410256411,4434.358974358975,4252.307692307693,4553.846153846154,4417.948717948719,4388.717948717949,4400.512820512821,4669.2307692307695,4327.6923076923085,4224.615384615385,4123.589743589744,4483.076923076924
589.5379,0.6777333,0.60871166,0.33335945,0.5529107,0,0.0,0.0,0.0,0.0,1.0,0,0,0.0,0.0,0,0,67.0,0.0,548.0,4585.128205128206,3933.8461538461543,4474.871794871796,4430.769230769231,4251.282051282052,4555.8974358974365,4414.871794871796,4386.153846153847,4396.923076923077,4665.128205128206,4315.8974358974365,4203.076923076924,4123.076923076924,4483.076923076924
589.75684,0.6777333,0.60871166,0.33335945,0.5529107,0,0.0,0.0,0.0,0.0,0.0,0,0,0.0,0.0,0,0,95.0,0.0,524.0,4582.051282051282,3930.2564102564106,4491.794871794872,4432.307692307693,4254.358974358975,4554.871794871796,4413.333333333334,4391.794871794872,4411.794871794872,4681.025641025642,4325.641025641026,4213.333333333334,4140.512820512821,4498.461538461539
590.007,0.64127594,0.58547163,0.33335683,0.55284315,0,0.0,0.0,0.0,0.0,0.0,0,0,0.0,0.0,0,0,127.0,0.0,524.0,4571.794871794872,3925.6410256410263,4488.717948717949,4428.717948717949,4252.820512820514,4551.794871794872,4431.282051282052,4396.410256410257,4412.820512820514,4680.000000000001,4310.256410256411,4195.384615384616,4125.128205128206,4487.179487179488
590.007,0.64127594,0.58547163,0.33335683,0.55284315,0,0.0,0.0,0.0,0.0,0.0,0,0,0.0,0.0,0,0,127.0,0.0,524.0,4571.794871794872,3925.6410256410263,4488.717948717949,4428.717948717949,4252.820512820514,4551.794871794872,4431.282051282052,4396.410256410257,4412.820512820514,4680.000000000001,4310.256410256411,4195.384615384616,4125.128205128206,4487.179487179488
590.50745,0.6127785,0.5650123,0.33335447,0.5527825,0,0.0,0.0,0.0,0.0,0.3192578,0,0,0.0,0.0,0,0,62.0,0.0,0.0,4554.871794871796,3930.7692307692314,4491.794871794872,4428.205128205129,4252.820512820514,4556.410256410257,4420.512820512821,4409.2307692307695,4430.256410256411,4702.051282051282,4335.384615384616,4208.205128205129,4151.282051282052,4506.153846153847
590.7577,0.6127785,0.5650123,0.33335447,0.5527825,1,0.0,0.0,0.0,0.0,1.0,0,0,0.0,0.0,0,0,94.0,0.0,555.0,4614.358974358975,3927.692307692308,4521.025641025642,4428.205128205129,4252.307692307693,4558.974358974359,4447.179487179487,4434.871794871796,4430.256410256411,4721.025641025642,4338.974358974359,4244.102564102564,4201.025641025642,4551.794871794872
591.0079,0.6991522,0.5469521,0.33335236,0.5527279,0,0.0,0.0,0.0,0.0,1.0,0,0,0.0,0.0,0,0,126.0,0.0,555.0,4592.307692307693,3938.461538461539,4522.564102564103,4443.589743589744,4257.948717948719,4558.461538461539,4482.051282051282,4478.974358974359,4440.000000000001,4728.717948717949,4342.051282051282,4218.974358974359,4226.666666666667,4419.48717948718
591.3207,0.6991522,0.5469521,0.33335236,0.5527279,0,0.0,0.0,0.0,0.0,1.0,0,0,0.0,0.0,0,0,37.0,0.0,0.0,4638.974358974359,3943.076923076924,4551.282051282052,4445.128205128206,4248.717948717949,4552.820512820514,4502.564102564103,4497.948717948719,4409.743589743591,4718.461538461539,4333.333333333334,4235.384615384616,4240.000000000001,4511.282051282052
591.5396,0.7576173,0.5432714,0.33335045,0.5526789,0,0.0,0.0,0.0,0.18142179,0.0,0,0,0.0,0.0,0,0,65.0,0.0,475.0,4663.589743589744,3946.1538461538466,4570.769230769231,4440.000000000001,4233.846153846154,4533.846153846154,4507.179487179488,4510.256410256411,4405.128205128206,4720.000000000001,4358.974358974359,4266.666666666667,4259.48717948718,4531.282051282052
591.6334,0.7576173,0.5432714,0.33335045,0.5526789,0,0.0,0.0,0.0,0.0,0.0,0,0,0.0,0.0,0,0,77.0,0.0,518.0,4664.615384615386,3941.0256410256416,4576.410256410257,4442.564102564103,4232.820512820514,4531.794871794872,4515.8974358974365,4513.846153846154,4388.717948717949,4713.846153846154,4352.820512820514,4273.846153846154,4261.025641025642,4541.025641025642
592.0088,0.7273164,0.5620611,0.33334872,0.55263466,0,0.0,0.0,0.0,0.0,0.0,0,0,0.0,0.0,0,0,125.0,0.0,518.0,4610.769230769231,3935.8974358974365,4552.820512820514,4447.179487179487,4240.512820512821,4534.358974358975,4504.615384615385,4479.48717948718,4354.871794871796,4672.820512820514,4338.974358974359,4240.000000000001,4190.769230769231,4495.8974358974365
592.259,0.7273164,0.5620611,0.33334872,0.55263466,0,0.0,0.0,0.0,0.0,0.91865367,0,0,0.0,0.0,0,0,28.0,0.0,0.0,4654.871794871796,3942.0512820512827,4557.435897435898,4444.102564102564,4236.410256410257,4528.717948717949,4494.871794871796,4478.461538461539,4364.102564102564,4686.153846153847,4364.102564102564,4286.153846153847,4206.153846153847,4535.384615384616
592.5092,0.7463325,0.57893765,0.33334717,0.5525949,0,0.0,0.0,0.0,0.0,0.0986106,0,0,0.0,0.0,0,0,60.0,0.0,0.0,4678.974358974359,3945.1282051282055,4557.948717948719,4445.128205128206,4245.641025641026,4540.512820512821,4489.743589743591,4467.6923076923085,4370.769230769231,4695.384615384616,4378.974358974359,4311.282051282052,4207.6923076923085,4547.179487179488
592.7594,0.7463325,0.57893765,0.33334717,0.5525949,0,0.0,0.0,0.0,0.0,0.43142703,0,0,0.0,0.0,0,0,92.0,0.0,387.0,4834.358974358975,3974.358974358975,4561.025641025642,4448.205128205129,4243.076923076924,4538.974358974359,4452.307692307693,4420.000000000001,4328.717948717949,4661.538461538462,4355.8974358974365,4285.128205128206,4160.512820512821,4636.923076923077
593.00964,0.66517836,0.6094501,0.33334577,0.55255914,0,0.0,0.0,0.0,0.0,0.8152299,0,0,0.0,0.0,0,0,124.0,0.0,387.0,4658.974358974359,3945.1282051282055,4505.128205128206,4443.076923076924,4254.358974358975,4550.769230769231,4439.48717948718,4423.076923076924,4357.435897435898,4655.8974358974365,4337.948717948719,4238.974358974359,4111.282051282052,4478.461538461539
593.2598,0.66517836,0.6094501,0.33334577,0.55255914,0,0.0,0.0,0.0,0.0,1.0,0,0,0.0,0.0,0,0,27.0,0.0,0.0,4629.2307692307695,3945.6410256410263,4504.615384615385,4440.000000000001,4243.076923076924,4542.564102564103,4430.256410256411,4406.153846153847,4352.820512820514,4644.102564102564,4315.384615384616,4229.2307692307695,4077.9487179487187,4447.179487179487
593.5413,0.74465775,0.6283012,0.33334452,0.55252707,0,0.0,0.0,0.0,0.0,1.0,0,0,0.0,0.0,0,0,63.0,0.0,0.0,4593.333333333334,3929.7435897435903,4487.179487179488,4430.769230769231,4241.538461538462,4537.948717948719,4416.923076923077,4386.153846153847,4347.6923076923085,4649.743589743591,4318.461538461539,4222.051282051282,4098.974358974359,4480.512820512821
593.76025,0.74465775,0.6283012,0.33334452,0.55252707,0,0.0,0.0,0.0,0.0,0.34629396,0,0,0.0,0.0,0,0,91.0,0.0,523.0,4572.820512820514,3929.7435897435903,4490.769230769231,4437.435897435898,4249.2307692307695,4546.153846153847,4430.256410256411,4396.923076923077,4356.410256410257,4651.282051282052,4318.461538461539,4217.435897435898,4092.820512820513,4482.564102564103
594.0105,0.7847773,0.59777015,0.33334342,0.5524981,0,0.0,0.0,0.0,0.0,0.17847936,0,0,0.0,0.0,0,0,123.0,0.0,523.0,4562.051282051282,3929.2307692307695,4478.461538461539,4441.538461538462,4257.435897435898,4556.410256410257,4432.820512820514,4392.820512820514,4364.102564102564,4660.000000000001,4318.461538461539,4229.74358974359,4096.923076923077,4491.282051282052
594.2607,0.7847773,0.59777015,0.33334342,0.5524981,0,0.0,0.0,0.0,0.0,0.0,0,0,0.0,0.0,0,0,26.0,0.0,0.0,4576.410256410257,3936.9230769230776,4490.256410256411,4439.48717948718,4255.8974358974365,4555.384615384616,4408.717948717949,4372.820512820514,4370.769230769231,4664.615384615386,4335.384615384616,4218.974358974359,4108.717948717949,4494.871794871796
594.5109,0.7533479,0.57535547,0.3333424,0.55247205,0,0.0,0.0,0.0,0.0,0.0,0,0,0.0,0.0,0,0,58.0,0.0,0.0,4569.743589743591,3937.9487179487182,4508.717948717949,4442.051282051282,4252.820512820514,4554.871794871796,4411.282051282052,4375.384615384616,4379.48717948718,4680.512820512821,4340.512820512821,4226.666666666667,4133.333333333334,4507.179487179488
594.5109,0.7533479,0.57535547,0.3333424,0.55247205,0,0.0,0.0,0.0,0.0,0.0,0,0,0.0,0.0,0,0,58.0,0.0,0.0,4569.743589743591,3937.9487179487182,4508.717948717949,4442.051282051282,4252.820512820514,4554.871794871796,4411.282051282052,4375.384615384616,4379.48717948718,4680.512820512821,4340.512820512821,4226.666666666667,4133.333333333334,4507.179487179488
595.01135,0.7078018,0.54722077,0.33334148,0.55244863,0,0.0,0.0,0.0,0.0,0.0,0,0,0.0,0.0,0,0,122.0,0.0,555.0,4578.461538461539,3925.6410256410263,4505.641025641026,4429.2307692307695,4245.128205128206,4552.307692307693,4440.512820512821,4403.076923076924,4380.000000000001,4682.051282051282,4338.974358974359,4234.871794871796,4138.974358974359,4501.025641025642
595.01135,0.7078018,0.54722077,0.33334148,0.55244863,0,0.0,0.0,0.0,0.0,0.0,0,0,0.0,0.0,0,0,122.0,0.0,555.0,4578.461538461539,3925.6410256410263,4505.641025641026,4429.2307692307695,4245.128205128206,4552.307692307693,4440.512820512821,4403.076923076924,4380.000000000001,4682.051282051282,4338.974358974359,4234.871794871796,4138.974358974359,4501.025641025642
595.5118,0.6418306,0.54181355,0.33334067,0.55242753,0,0.0,0.0,0.0,0.0,0.58701575,0,0,0.0,0.0,0,1,57.0,0.0,0.0,4567.6923076923085,3935.8974358974365,4502.051282051282,4434.871794871796,4255.8974358974365,4557.948717948719,4445.641025641026,4435.384615384616,4395.8974358974365,4695.384615384616,4336.923076923077,4217.435897435898,4158.974358974359,4488.205128205129
595.76196,0.6418306,0.54181355,0.33334067,0.55242753,0,0.0,0.0,0.0,0.0,0.48637825,0,0,0.0,0.0,0,0,89.0,0.0,518.0,4587.179487179488,3936.9230769230776,4521.025641025642,4435.8974358974365,4249.2307692307695,4551.282051282052,4444.615384615385,4436.923076923077,4392.820512820514,4705.641025641026,4349.743589743591,4248.717948717949,4180.000000000001,4510.769230769231
596.0122,0.56906056,0.53752005,0.33333993,0.5524086,0,0.0,0.0,0.0,0.0,0.0,0,0,0.0,0.0,0,0,121.0,0.0,518.0,4554.358974358975,3933.8461538461543,4506.153846153847,4442.564102564103,4252.820512820514,4559.48717948718,4453.333333333334,4450.256410256411,4401.538461538462,4705.641025641026,4342.564102564103,4232.820512820514,4164.102564102564,4484.102564102564
596.2624,0.56906056,0.53752005,0.33333993,0.5524086,0,0.0,0.0,0.0,0.0,1.0,0,0,0.0,0.0,0,0,24.0,0.0,0.0,4534.871794871796,3924.1025641025644,4506.153846153847,4433.846153846154,4249.2307692307695,4555.8974358974365,4443.076923076924,4423.076923076924,4380.000000000001,4698.461538461539,4343.589743589744,4245.641025641026,4159.48717948718,4517.948717948719
596.5439,0.6115574,0.52916145,0.33333927,0.5523916,0,0.0,0.0,0.0,1.0,0.0,0,0,0.0,0.0,0,0,60.0,0.0,0.0,4520.000000000001,3917.9487179487182,4493.333333333334,4430.769230769231,4252.820512820514,4558.461538461539,4448.205128205129,4439.48717948718,4407.6923076923085,4728.717948717949,4380.000000000001,4267.6923076923085,4215.8974358974365,4553.846153846154
596.7628,0.6115574,0.52916145,0.33333927,0.5523916,0,0.0,0.0,0.0,0.0,0.6620304,0,0,0.0,0.0,0,0,88.0,0.0,387.0,4691.794871794872,3943.076923076924,4542.564102564103,4440.512820512821,4251.794871794872,4555.8974358974365,4447.6923076923085,4438.461538461539,4404.615384615385,4740.512820512821,4398.974358974359,4308.717948717949,4242.051282051282,4707.179487179488
597.01306,0.6315951,0.53008103,0.33333868,0.5523763,0,0.0,0.0,0.0,0.0,0.75464386,0,0,0.0,0.0,0,0,120.0,0.0,387.0,4515.8974358974365,3931.2820512820517,4498.974358974359,4432.307692307693,4253.846153846154,4553.846153846154,4427.6923076923085,4408.717948717949,4402.051282051282,4708.205128205129,4342.051282051282,4233.846153846154,4142.051282051282,4517.948717948719
597.2633,0.6315951,0.53008103,0.33333868,0.5523763,0,0.0,0.0,0.0,0.0,0.76652306,0,0,0.0,0.0,0,0,23.0,0.0,0.0,4527.6923076923085,3930.7692307692314,4502.564102564103,4433.846153846154,4252.307692307693,4554.871794871796,4435.8974358974365,4418.461538461539,4393.846153846154,4703.076923076924,4333.846153846154,4223.076923076924,4122.051282051282,4494.871794871796
597.5135,0.5459978,0.5126621,0.33333814,0.55236244,0,0.0,0.0,0.0,0.0,0.22672704,0,0,0.0,0.0,0,0,55.0,0.0,0.0,4532.307692307693,3935.3846153846157,4505.128205128206,4441.538461538462,4253.846153846154,4554.358974358975,4440.000000000001,4412.307692307693,4392.307692307693,4709.743589743591,4342.564102564103,4227.6923076923085,4124.615384615385,4482.564102564103
597.6386,0.5459978,0.5126621,0.33333814,0.55236244,0,0.0,0.0,0.0,0.0,1.0,0,0,0.0,0.0,0,0,71.0,0.0,493.0,4535.384615384616,3929.7435897435903,4493.846153846154,4429.743589743591,4247.6923076923085,4547.6923076923085,4433.333333333334,4415.8974358974365,4386.153846153847,4702.564102564103,4334.358974358975,4206.666666666667,4116.410256410257,4485.128205128206
598.0452,0.54594207,0.49624225,0.33333763,0.5523501,0,0.0,0.0,0.0,0.0,1.0,0,0,0.0,0.0,0,0,123.0,0.0,523.0,4523.076923076924,3932.307692307693,4494.871794871796,4442.564102564103,4249.2307692307695,4547.6923076923085,4427.6923076923085,4394.871794871796,4381.025641025642,4703.076923076924,4342.051282051282,4212.307692307693,4121.025641025642,4505.641025641026
598.26416,0.54594207,0.49624225,0.33333763,0.5523501,0,0.0,0.0,0.0,0.0,0.17943783,0,0,0.0,0.0,0,0,22.0,0.0,0.0,4524.102564102564,3931.2820512820517,4503.589743589744,4431.282051282052,4247.179487179487,4542.564102564103,4431.282051282052,4418.974358974359,4389.743589743591,4711.794871794872,4351.282051282052,4229.74358974359,4130.769230769231,4510.256410256411
598.51434,0.5758221,0.48746163,0.33333722,0.5523389,0,0.0,0.0,0.0,0.0,0.0,0,0,0.0,0.0,0,0,54.0,0.0,0.0,4548.205128205129,3934.358974358975,4508.717948717949,4442.051282051282,4246.666666666667,4540.512820512821,4426.666666666667,4407.6923076923085,4400.000000000001,4721.025641025642,4362.564102564103,4215.8974358974365,4133.846153846154,4515.384615384616
598.7646,0.5758221,0.48746163,0.33333722,0.5523389,0,0.0,0.0,0.0,0.0,1.0,0,0,0.0,0.0,0,0,86.0,0.0,555.0,4652.820512820514,3953.8461538461543,4524.615384615385,4444.615384615385,4236.410256410257,4532.307692307693,4413.333333333334,4384.102564102564,4382.051282051282,4711.282051282052,4355.8974358974365,4237.435897435898,4149.74358974359,4628.717948717949
599.0461,0.4759198,0.47802648,0.33333683,0.5523289,0,0.0,0.0,0.0,0.0,1.0,0,0,0.0,0.0,0,0,122.0,0.0,555.0,4545.641025641026,3925.1282051282055,4489.743589743591,4434.871794871796,4247.6923076923085,4547.6923076923085,4427.6923076923085,4397.948717948719,4402.564102564103,4713.846153846154,4346.666666666667,4197.948717948719,4120.000000000001,4503.589743589744
599.265,0.4759198,0.47802648,0.33333683,0.5523289,0,0.0,0.0,0.0,0.0,0.35071746,0,0,0.0,0.0,0,0,21.0,0.0,0.0,4551.282051282052,3914.358974358975,4503.589743589744,4431.282051282052,4245.641025641026,4544.615384615385,4440.512820512821,4403.589743589744,4400.000000000001,4723.589743589744,4355.8974358974365,4220.000000000001,4128.205128205129,4518.461538461539
599.5152,0.4813143,0.47600433,0.33333647,0.5523199,0,0.0,0.0,0.0,0.0,0.0,0,0,0.0,0.0,0,0,53.0,0.0,0.0,4543.076923076924,3924.615384615385,4504.102564102564,4445.641025641026,4268.717948717949,4571.282051282052,4463.589743589744,4437.435897435898,4455.384615384616,4773.333333333334,4397.948717948719,4252.820512820514,4203.076923076924,4561.538461538462
599.7967,0.4813143,0.47600433,0.33333647,0.5523199,1,0.0,0.0,0.0,0.0,0.7596638,0,0,0.0,0.0,0,0,89.0,0.0,518.0,4584.102564102564,3920.0000000000005,4503.076923076924,4434.871794871796,4253.846153846154,4556.410256410257,4434.358974358975,4402.564102564103,4422.051282051282,4751.282051282052,4379.48717948718,4234.358974358975,4167.179487179487,4550.769230769231
600.0156,0.5482865,0.48646072,0.33333614,0.5523117,0,0.0,0.0,0.0,0.0,0.90552676,0,0,0.0,0.0,0,0,117.0,0.0,518.0,4553.846153846154,3915.3846153846157,4490.256410256411,4430.256410256411,4252.820512820514,4556.923076923077,4438.974358974359,4401.025641025642,4427.179487179487,4747.6923076923085,4364.615384615385,4225.128205128206,4141.025641025642,4500.512820512821
600.26587,0.5482865,0.48646072,0.33333614,0.5523117,0,0.0,0.0,0.0,0.0,1.0,0,0,0.0,0.0,0,0,20.0,0.0,0.0,4561.025641025642,3925.6410256410263,4473.846153846154,4427.179487179487,4244.102564102564,4546.153846153847,4412.307692307693,4376.923076923077,4398.461538461539,4725.128205128206,4338.974358974359,4187.179487179487,4086.1538461538466,4468.205128205129
600.54736,0.5322543,0.5085534,0.33333588,0.55230445,0,0.0,0.0,0.0,0.0,1.0,0,0,0.0,0.0,0,1,56.0,0.0,0.0,4620.000000000001,3942.564102564103,4521.025641025642,4428.717948717949,4243.076923076924,4549.743589743591,4427.6923076923085,4384.102564102564,4395.384615384616,4730.769230769231,4361.538461538462,4231.794871794872,4125.641025641026,4548.717948717949
600.7663,0.5322543,0.5085534,0.33333588,0.55230445,0,0.0,0.0,0.0,0.0,0.7055721,0,0,0.0,0.0,0,1,84.0,0.0,387.0,4553.846153846154,3928.205128205129,4494.358974358975,4430.256410256411,4241.538461538462,4544.615384615385,4422.564102564103,4390.256410256411,4406.153846153847,4731.282051282052,4354.358974358975,4211.282051282052,4127.6923076923085,4517.948717948719
601.0165,0.4473052,0.5306199,0.3333356,0.55229783,0,0.0,0.0,0.0,0.0,0.0,0,0,0.0,0.0,0,0,116.0,0.0,387.0,4526.666666666667,3942.0512820512827,4491.282051282052,4438.461538461539,4251.282051282052,4555.8974358974365,4434.871794871796,4399.48717948718,4416.410256410257,4737.435897435898,4361.538461538462,4214.358974358975,4137.435897435898,4523.076923076924
601.0165,0.4473052,0.5306199,0.3333356,0.55229783,0,0.0,0.0,0.0,0.0,0.0,0,0,0.0,0.0,0,0,116.0,0.0,387.0,4526.666666666667,3942.0512820512827,4491.282051282052,4438.461538461539,4251.282051282052,4555.8974358974365,4434.871794871796,4399.48717948718,4416.410256410257,4737.435897435898,4361.538461538462,4214.358974358975,4137.435897435898,4523.076923076924
601.5169,0.3508606,0.5526292,0.3333354,0.5522919,0,0.0,0.0,0.0,0.0,0.0,0,0,0.0,0.0,0,0,51.0,0.0,0.0,4537.435897435898,3940.5128205128212,4499.48717948718,4438.974358974359,4249.74358974359,4552.820512820514,4431.282051282052,4411.794871794872,4419.48717948718,4748.717948717949,4373.333333333334,4231.282051282052,4144.615384615385,4527.179487179488
601.5169,0.3508606,0.5526292,0.3333354,0.5522919,0,0.0,0.0,0.0,0.0,0.0,0,0,0.0,0.0,0,0,51.0,0.0,0.0,4537.435897435898,3940.5128205128212,4499.48717948718,4438.974358974359,4249.74358974359,4552.820512820514,4431.282051282052,4411.794871794872,4419.48717948718,4748.717948717949,4373.333333333334,4231.282051282052,4144.615384615385,4527.179487179488
602.01733,0.27690917,0.5452242,0.3333352,0.55228657,0,0.0,0.0,0.0,0.0,0.0,0,0,0.0,0.0,0,0,115.0,0.0,522.0,4537.948717948719,3930.2564102564106,4473.846153846154,4428.717948717949,4242.564102564103,4546.666666666667,4430.256410256411,4396.410256410257,4403.076923076924,4731.282051282052,4360.000000000001,4189.74358974359,4132.307692307693,4514.871794871796
602.01733,0.27690917,0.5452242,0.3333352,0.55228657,0,0.0,0.0,0.0,0.0,0.0,0,0,0.0,0.0,0,0,115.0,0.0,522.0,4537.948717948719,3930.2564102564106,4473.846153846154,4428.717948717949,4242.564102564103,4546.666666666667,4430.256410256411,4396.410256410257,4403.076923076924,4731.282051282052,4360.000000000001,4189.74358974359,4132.307692307693,4514.871794871796
602.5491,0.28522965,0.5264601,0.333335,0.5522818,0,0.0,0.0,0.0,1.0,0.0,0,0,0.0,0.0,0,0,54.0,0.0,0.0,4561.025641025642,3936.9230769230776,4505.641025641026,4438.461538461539,4253.333333333334,4558.461538461539,4436.923076923077,4418.974358974359,4430.256410256411,4778.461538461539,4385.641025641026,4227.179487179487,4148.717948717949,4523.589743589744
602.768,0.28522965,0.5264601,0.333335,0.5522818,0,0.0,0.0,0.0,0.0,0.0,0,0,0.0,0.0,0,0,82.0,0.0,555.0,4572.820512820514,3935.8974358974365,4505.128205128206,4442.564102564103,4249.74358974359,4556.410256410257,4442.564102564103,4423.589743589744,4434.358974358975,4786.153846153847,4388.205128205129,4230.256410256411,4164.102564102564,4546.666666666667
603.01825,0.20785737,0.50491923,0.33333483,0.55227745,0,0.0,0.0,0.0,0.0,0.0,0,0,0.0,0.0,0,0,114.0,0.0,555.0,4720.512820512821,3961.538461538462,4552.820512820514,4441.025641025642,4240.512820512821,4544.102564102564,4435.384615384616,4413.333333333334,4404.102564102564,4783.589743589744,4401.025641025642,4272.307692307693,4182.564102564103,4673.846153846154
603.26843,0.20785737,0.50491923,0.33333483,0.55227745,0,0.0,0.0,0.0,0.0,0.692339,0,0,0.0,0.0,0,1,17.0,0.0,0.0,4584.615384615385,3937.435897435898,4524.615384615385,4430.256410256411,4240.000000000001,4545.128205128206,4455.384615384616,4431.282051282052,4426.666666666667,4776.923076923077,4392.820512820514,4242.051282051282,4158.974358974359,4533.846153846154
603.5187,0.17131145,0.5021612,0.33333468,0.5522736,0,0.0,0.0,0.0,0.0,0.4650829,0,0,0.0,0.0,0,0,49.0,0.0,0.0,4563.589743589744,3931.2820512820517,4512.307692307693,4431.282051282052,4245.128205128206,4549.743589743591,4455.384615384616,4430.769230769231,4429.2307692307695,4772.820512820514,4393.846153846154,4221.538461538462,4147.179487179487,4525.128205128206
603.76886,0.17131145,0.5021612,0.33333468,0.5522736,0,0.0,0.0,0.0,0.0,0.25843525,0,0,0.0,0.0,0,0,81.0,0.0,518.0,4538.461538461539,3925.1282051282055,4505.641025641026,4431.282051282052,4244.102564102564,4546.666666666667,4452.820512820514,4424.102564102564,4422.051282051282,4762.564102564103,4388.205128205129,4213.333333333334,4134.871794871796,4517.435897435898
604.0191,0.1831929,0.50462484,0.33333454,0.5522701,0,0.0,0.0,0.0,0.0,0.0,0,0,0.0,0.0,0,0,113.0,0.0,518.0,4569.743589743591,3918.461538461539,4509.2307692307695,4427.179487179487,4239.48717948718,4543.589743589744,4448.717948717949,4418.461538461539,4417.435897435898,4761.025641025642,4392.820512820514,4227.179487179487,4152.820512820514,4512.307692307693
604.0191,0.1831929,0.50462484,0.33333454,0.5522701,0,0.0,0.0,0.0,0.0,0.0,0,0,0.0,0.0,0,0,113.0,0.0,518.0,4569.743589743591,3918.461538461539,4509.2307692307695,4427.179487179487,4239.48717948718,4543.589743589744,4448.717948717949,4418.461538461539,4417.435897435898,4761.025641025642,4392.820512820514,4227.179487179487,4152.820512820514,4512.307692307693
604.51953,0.12964068,0.5067063,0.33333442,0.55226696,0,0.0,0.0,0.0,0.0,1.0,0,0,0.0,0.0,0,0,48.0,0.0,0.0,4557.435897435898,3924.615384615385,4492.307692307693,4428.717948717949,4243.076923076924,4549.743589743591,4442.051282051282,4410.769230769231,4419.48717948718,4761.025641025642,4385.128205128206,4210.256410256411,4146.153846153847,4526.153846153847
604.51953,0.12964068,0.5067063,0.33333442,0.55226696,0,0.0,0.0,0.0,0.0,1.0,0,0,0.0,0.0,0,0,48.0,0.0,0.0,4557.435897435898,3924.615384615385,4492.307692307693,4428.717948717949,4243.076923076924,4549.743589743591,4442.051282051282,4410.769230769231,4419.48717948718,4761.025641025642,4385.128205128206,4210.256410256411,4146.153846153847,4526.153846153847
605.0512,0.1786467,0.51002795,0.33333433,0.55226415,0,0.0,0.0,0.0,0.0,0.21401943,0,0,0.0,0.0,0,0,116.0,0.0,386.0,4572.307692307693,3937.435897435898,4475.8974358974365,4441.538461538462,4254.871794871796,4560.000000000001,4455.384615384616,4408.205128205129,4422.564102564103,4756.410256410257,4371.282051282052,4215.8974358974365,4133.846153846154,4516.923076923077
605.27014,0.1786467,0.51002795,0.33333433,0.55226415,0,0.0,0.0,0.0,0.0,0.48891225,0,0,0.0,0.0,0,0,15.0,0.0,523.0,4708.205128205129,3964.615384615385,4494.871794871796,4443.589743589744,4246.666666666667,4552.820512820514,4427.179487179487,4373.846153846154,4388.717948717949,4742.564102564103,4367.179487179487,4227.179487179487,4148.717948717949,4627.179487179488
605.5204,0.12318805,0.5098625,0.3333342,0.5522616,0,0.0,0.0,0.0,0.0,0.6073884,0,0,0.0,0.0,0,0,47.0,0.0,0.0,4570.769230769231,3942.0512820512827,4474.358974358975,4444.102564102564,4254.358974358975,4559.48717948718,4444.615384615385,4400.000000000001,4421.025641025642,4756.923076923077,4376.923076923077,4209.74358974359,4158.461538461539,4527.6923076923085
605.77057,0.12318805,0.5098625,0.3333342,0.5522616,0,0.0,0.0,0.0,0.0,0.6268059,0,0,0.0,0.0,0,0,79.0,0.0,523.0,4582.564102564103,3941.538461538462,4488.205128205129,4449.2307692307695,4267.179487179487,4569.2307692307695,4459.48717948718,4418.974358974359,4435.384615384616,4773.846153846154,4388.717948717949,4221.538461538462,4165.128205128206,4521.025641025642
606.0208,0.10302197,0.5173327,0.33333412,0.55225927,0,0.0,0.0,0.0,0.0,0.70374763,0,0,0.0,0.0,0,1,111.0,0.0,523.0,4568.205128205129,3922.0512820512827,4471.282051282052,4429.743589743591,4239.48717948718,4547.6923076923085,4433.333333333334,4393.333333333334,4416.410256410257,4746.153846153847,4374.358974358975,4198.461538461539,4145.641025641026,4510.769230769231
606.3023,0.10302197,0.5173327,0.33333412,0.55225927,0,0.0,0.0,0.0,0.0,0.6703144,0,0,0.0,0.0,0,0,18.0,0.0,0.0,4537.948717948719,3920.5128205128212,4488.205128205129,4431.282051282052,4250.256410256411,4553.846153846154,4450.769230769231,4406.666666666667,4418.461538461539,4756.410256410257,4372.307692307693,4211.282051282052,4160.000000000001,4508.717948717949
606.52124,0.07939135,0.5195812,0.33333406,0.55225724,0,0.0,0.0,0.0,0.0,0.24977164,0,0,0.0,0.0,0,0,46.0,0.0,0.0,4525.128205128206,3917.9487179487182,4478.974358974359,4440.000000000001,4252.820512820514,4560.000000000001,4451.282051282052,4412.307692307693,4438.461538461539,4774.358974358975,4388.205128205129,4219.48717948718,4192.820512820514,4525.128205128206
606.7714,0.07939135,0.5195812,0.33333406,0.55225724,0,0.0,0.0,0.0,0.0,0.15540414,0,0,0.0,0.0,0,0,78.0,0.0,555.0,4572.820512820514,3927.692307692308,4486.153846153847,4442.051282051282,4245.128205128206,4552.307692307693,4451.282051282052,4411.282051282052,4425.641025641026,4762.564102564103,4390.256410256411,4227.6923076923085,4189.74358974359,4538.974358974359
607.02167,0.047456164,0.5139855,0.33333397,0.5522554,0,0.0,0.0,0.0,0.0,0.0,0,0,0.0,0.0,0,0,110.0,0.0,555.0,4561.538461538462,3934.358974358975,4501.538461538462,4431.794871794872,4237.948717948719,4540.512820512821,4437.435897435898,4416.923076923077,4407.6923076923085,4754.358974358975,4384.102564102564,4228.717948717949,4173.846153846154,4537.948717948719
607.02167,0.047456164,0.5139855,0.33333397,0.5522554,0,0.0,0.0,0.0,0.0,0.0,0,0,0.0,0.0,0,0,110.0,0.0,555.0,4561.538461538462,3934.358974358975,4501.538461538462,4431.794871794872,4237.948717948719,4540.512820512821,4437.435897435898,4416.923076923077,4407.6923076923085,4754.358974358975,4384.102564102564,4228.717948717949,4173.846153846154,4537.948717948719
607.5221,0.0,0.49611816,0.3333339,0.5522537,0,0.0,0.0,0.0,0.0,0.0,0,0,0.0,0.0,0,0,45.0,0.0,0.0,4574.358974358975,3928.717948717949,4492.820512820514,4431.282051282052,4239.48717948718,4545.128205128206,4440.000000000001,4406.666666666667,4403.076923076924,4745.641025641026,4379.48717948718,4233.846153846154,4164.102564102564,4524.102564102564
607.6472,0.0,0.49611816,0.3333339,0.5522537,0,0.0,0.0,0.0,0.0,1.0,0,0,0.0,0.0,0,0,61.0,0.0,0.0,4549.743589743591,3937.9487179487182,4495.384615384616,4437.435897435898,4244.102564102564,4548.205128205129,4431.282051282052,4411.282051282052,4413.333333333334,4746.153846153847,4367.179487179487,4221.025641025642,4162.564102564103,4532.820512820514
608.06165,0.033411838,0.48384663,0.33333385,0.55225223,0,0.0,0.0,0.0,0.0,0.8082103,0,0,0.0,0.0,0,0,113.0,0.0,518.0,4559.48717948718,3924.615384615385,4491.794871794872,4430.769230769231,4245.641025641026,4549.743589743591,4443.076923076924,4409.2307692307695,4410.769230769231,4743.589743589744,4365.641025641026,4223.589743589744,4141.025641025642,4521.025641025642
608.2806,0.033411838,0.48384663,0.33333385,0.55225223,0,0.0,0.0,0.0,0.0,0.6914599,0,0,0.0,0.0,0,0,12.0,0.0,385.0,4562.051282051282,3938.461538461539,4507.6923076923085,4442.564102564103,4254.871794871796,4557.435897435898,4466.666666666667,4430.769230769231,4427.6923076923085,4761.538461538462,4384.102564102564,4238.461538461539,4168.205128205129,4527.6923076923085
608.53076,0.035170335,0.4768865,0.3333338,0.55225086,0,0.0,0.0,0.0,0.0,0.15647279,0,0,0.0,0.0,0,0,44.0,0.0,0.0,4549.743589743591,3938.461538461539,4500.000000000001,4442.051282051282,4257.948717948719,4560.000000000001,4453.333333333334,4420.000000000001,4417.948717948719,4752.307692307693,4374.358974358975,4226.666666666667,4154.871794871796,4534.358974358975
608.781,0.035170335,0.4768865,0.3333338,0.55225086,0,0.0,0.0,0.0,0.0,0.16921115,0,0,0.0,0.0,0,0,76.0,0.0,385.0,4562.564102564103,3941.538461538462,4500.000000000001,4443.076923076924,4258.461538461539,4555.384615384616,4449.743589743591,4417.948717948719,4426.666666666667,4771.282051282052,4398.461538461539,4229.2307692307695,4194.358974358975,4552.820512820514
609.0312,0.0,0.4658317,0.33333376,0.55224967,0,0.0,0.0,0.0,0.0,0.0,0,0,0.0,0.0,0,0,108.0,0.0,385.0,4573.846153846154,3927.1794871794878,4487.6923076923085,4430.769230769231,4245.641025641026,4547.6923076923085,4436.923076923077,4407.6923076923085,4417.948717948719,4752.820512820514,4378.461538461539,4220.000000000001,4181.538461538462,4537.948717948719
609.0312,0.0,0.4658317,0.33333376,0.55224967,0,0.0,0.0,0.0,0.0,0.0,0,0,0.0,0.0,0,0,108.0,0.0,385.0,4573.846153846154,3927.1794871794878,4487.6923076923085,4430.769230769231,4245.641025641026,4547.6923076923085,4436.923076923077,4407.6923076923085,4417.948717948719,4752.820512820514,4378.461538461539,4220.000000000001,4181.538461538462,4537.948717948719
609.5316,0.012639016,0.4641089,0.3333337,0.5522486,0,0.0,0.0,0.0,0.0,0.0,0,0,0.0,0.0,0,1,43.0,0.0,0.0,4533.846153846154,3926.1538461538466,4473.333333333334,4428.717948717949,4243.589743589744,4538.461538461539,4434.871794871796,4396.923076923077,4401.025641025642,4724.615384615386,4350.256410256411,4182.564102564103,4126.153846153847,4489.743589743591
609.78186,0.012639016,0.4641089,0.3333337,0.5522486,0,0.0,0.0,0.0,0.0,0.63352984,0,0,0.0,0.0,0,0,75.0,0.0,523.0,4528.205128205129,3938.9743589743593,4475.384615384616,4426.666666666667,4231.794871794872,4528.205128205129,4417.948717948719,4380.512820512821,4383.076923076924,4704.102564102564,4321.538461538462,4164.102564102564,4078.9743589743593,4456.923076923077
610.03204,0.1161712,0.45403135,0.33333367,0.5522476,0,0.0,0.0,0.0,0.0,1.0,0,0,0.0,0.0,0,0,107.0,0.0,523.0,4551.282051282052,3931.7948717948725,4482.051282051282,4426.153846153847,4235.384615384616,4534.358974358975,4425.128205128206,4389.2307692307695,4386.153846153847,4708.717948717949,4330.256410256411,4175.8974358974365,4098.974358974359,4425.128205128206
610.2823,0.1161712,0.45403135,0.33333367,0.5522476,0,0.0,0.0,0.0,0.0,1.0,0,0,0.0,0.0,0,0,10.0,0.0,555.0,4558.461538461539,3933.333333333334,4490.256410256411,4430.256410256411,4245.128205128206,4547.179487179488,4438.461538461539,4414.871794871796,4413.846153846154,4736.923076923077,4357.435897435898,4191.282051282052,4138.461538461539,4503.589743589744
610.5638,0.13550651,0.4520064,0.33333364,0.5522467,0,0.0,0.0,0.0,0.0,1.0,0,0,0.0,0.0,0,0,46.0,0.0,0.0,4535.384615384616,3925.1282051282055,4492.307692307693,4429.2307692307695,4248.717948717949,4549.2307692307695,4442.051282051282,4418.974358974359,4413.846153846154,4731.282051282052,4363.589743589744,4209.2307692307695,4153.333333333334,4524.615384615385
610.7827,0.13550651,0.4520064,0.33333364,0.5522467,0,0.0,0.0,0.0,1.0,0.0,0,0,0.0,0.0,0,0,74.0,0.0,555.0,4573.846153846154,3934.358974358975,4507.179487179488,4434.358974358975,4246.153846153847,4549.743589743591,4438.461538461539,4414.358974358975,4411.794871794872,4735.8974358974365,4357.435897435898,4214.358974358975,4145.128205128206,4532.307692307693
611.0642,0.06399633,0.4701102,0.3333336,0.5522459,0,0.0,0.0,0.0,0.16346845,0.0,0,0,0.0,0.0,0,0,110.0,0.0,555.0,4552.307692307693,3932.307692307693,4493.846153846154,4437.948717948719,4246.153846153847,4546.666666666667,4434.358974358975,4409.743589743591,4403.076923076924,4729.743589743591,4350.256410256411,4208.205128205129,4144.615384615385,4534.358974358975
611.28314,0.06399633,0.4701102,0.3333336,0.5522459,0,0.0,0.0,0.0,0.0,0.17363834,0,0,0.0,0.0,0,0,9.0,0.0,433.0,4558.461538461539,3933.8461538461543,4486.666666666667,4432.820512820514,4246.666666666667,4550.769230769231,4434.358974358975,4413.333333333334,4416.410256410257,4742.564102564103,4362.051282051282,4221.025641025642,4163.589743589744,4540.512820512821
611.5333,0.017861232,0.46868333,0.33333358,0.5522452,0,0.0,0.0,0.0,0.0,0.0,0,0,0.0,0.0,0,0,41.0,0.0,0.0,4560.512820512821,3937.9487179487182,4471.794871794872,4431.282051282052,4243.589743589744,4548.205128205129,4422.564102564103,4381.025641025642,4388.717948717949,4722.051282051282,4341.538461538462,4195.8974358974365,4134.358974358975,4502.051282051282
611.78357,0.017861232,0.46868333,0.33333358,0.5522452,0,0.0,0.0,0.0,0.0,0.37538952,0,0,0.0,0.0,0,0,73.0,0.0,433.0,4654.871794871796,3946.1538461538466,4495.8974358974365,4433.333333333334,4234.358974358975,4535.8974358974365,4415.8974358974365,4386.666666666667,4388.717948717949,4729.743589743591,4350.256410256411,4229.74358974359,4155.384615384616,4582.564102564103
612.03375,0.038920235,0.4855843,0.33333355,0.55224454,0,0.0,0.0,0.0,0.0,0.7143161,0,0,0.0,0.0,0,0,105.0,0.0,518.0,4566.666666666667,3933.8461538461543,4473.333333333334,4436.923076923077,4249.74358974359,4550.769230769231,4421.025641025642,4385.641025641026,4398.974358974359,4731.282051282052,4346.153846153847,4195.384615384616,4161.538461538462,4506.153846153847
612.284,0.038920235,0.4855843,0.33333355,0.55224454,0,0.0,0.0,0.0,0.0,1.0,0,0,0.0,0.0,0,0,8.0,0.0,507.0,4556.923076923077,3929.7435897435903,4490.769230769231,4432.307692307693,4253.846153846154,4553.846153846154,4442.564102564103,4404.102564102564,4404.615384615385,4742.051282051282,4362.051282051282,4209.74358974359,4189.2307692307695,4526.666666666667
612.53424,0.038906917,0.4936101,0.33333352,0.552244,0,0.0,0.0,0.0,0.0,0.0,0,0,0.0,0.0,0,0,40.0,0.0,0.0,4558.461538461539,3927.1794871794878,4490.256410256411,4428.717948717949,4244.615384615385,4547.6923076923085,4438.974358974359,4397.948717948719,4410.256410256411,4747.179487179488,4360.000000000001,4212.820512820514,4207.6923076923085,4523.589743589744
612.53424,0.038906917,0.4936101,0.33333352,0.552244,0,0.0,0.0,0.0,0.0,0.0,0,0,0.0,0.0,0,0,40.0,0.0,0.0,4558.461538461539,3927.1794871794878,4490.256410256411,4428.717948717949,4244.615384615385,4547.6923076923085,4438.974358974359,4397.948717948719,4410.256410256411,4747.179487179488,4360.000000000001,4212.820512820514,4207.6923076923085,4523.589743589744
613.03467,0.017067622,0.49436685,0.33333352,0.5522435,0,0.0,0.0,0.0,0.0,0.0,0,0,0.0,0.0,0,0,104.0,0.0,385.0,4568.717948717949,3929.7435897435903,4478.974358974359,4429.2307692307695,4240.000000000001,4544.615384615385,4429.2307692307695,4382.564102564103,4390.769230769231,4731.282051282052,4346.666666666667,4192.820512820514,4162.564102564103,4500.000000000001
613.31616,0.017067622,0.49436685,0.33333352,0.5522435,1,0.0,0.0,0.0,0.0,0.0,0,0,0.0,0.0,0,0,1.0,0.0,475.0,4724.615384615386,3955.8974358974365,4524.102564102564,4432.820512820514,4238.974358974359,4537.435897435898,4434.871794871796,4406.153846153847,4416.410256410257,4757.948717948719,4371.794871794872,4262.564102564103,4199.48717948718,4641.538461538462
613.5351,0.01784523,0.5065965,0.3333335,0.552243,0,0.0,0.0,0.0,0.0,0.7040075,0,0,0.0,0.0,0,0,39.0,0.0,0.0,4585.641025641026,3929.7435897435903,4473.846153846154,4431.282051282052,4250.769230769231,4550.769230769231,4440.000000000001,4415.384615384616,4422.051282051282,4756.923076923077,4346.153846153847,4207.179487179487,4166.153846153847,4493.333333333334
613.7853,0.01784523,0.5065965,0.3333335,0.552243,0,0.0,0.0,0.0,0.0,0.7241756,0,0,0.0,0.0,0,0,71.0,0.0,494.0,4630.256410256411,3944.1025641025644,4493.333333333334,4434.358974358975,4247.6923076923085,4550.256410256411,4443.076923076924,4420.000000000001,4414.358974358975,4755.384615384616,4353.333333333334,4218.461538461539,4169.74358974359,4496.410256410257
614.0355,0.07460109,0.5062589,0.3333335,0.5578409,0,0.0,0.0,0.0,0.0,0.54403085,0,0,0.0,0.0,0,0,103.0,0.0,523.0,4644.102564102564,3927.1794871794878,4487.179487179488,4426.153846153847,4244.102564102564,4545.641025641026,4438.461538461539,4404.615384615385,4405.128205128206,4744.102564102564,4348.205128205129,4226.153846153847,4160.512820512821,4480.512820512821
614.2857,0.07460109,0.5062589,0.3333335,0.5578409,0,0.0,0.0,0.0,0.0,1.0,0,0,0.0,0.0,0,0,6.0,0.0,586.0,4636.410256410257,3941.0256410256416,4489.2307692307695,4437.435897435898,4249.74358974359,4551.794871794872,4441.538461538462,4410.256410256411,4414.358974358975,4749.743589743591,4347.6923076923085,4215.384615384616,4158.974358974359,4420.512820512821
614.5672,0.10566576,0.5062139,0.33333346,0.56288254,0,0.0,0.0,0.0,0.0,1.0,0,0,0.0,0.0,0,0,42.0,0.0,0.0,4605.641025641026,3930.7692307692314,4488.205128205129,4427.179487179487,4237.948717948719,4545.128205128206,4434.358974358975,4406.666666666667,4401.538461538462,4742.051282051282,4331.794871794872,4214.358974358975,4152.820512820514,4516.923076923077
614.78613,0.10566576,0.5062139,0.33333346,0.56288254,0,0.0,0.0,0.0,0.0,0.62234205,0,0,0.0,0.0,0,0,70.0,0.0,586.0,4564.102564102564,3914.8717948717954,4462.051282051282,4425.128205128206,4198.461538461539,4483.589743589744,4407.179487179487,4368.717948717949,4370.256410256411,4714.358974358975,4308.717948717949,4189.74358974359,4123.589743589744,4492.307692307693
615.0676,0.2257153,0.49942023,0.33333346,0.56742,0,0.0,0.0,0.0,0.0,0.0,0,0,0.0,0.0,0,0,106.0,0.0,555.0,4672.307692307693,3931.2820512820517,4486.666666666667,4425.128205128206,4193.846153846154,4473.333333333334,4394.358974358975,4361.025641025642,4352.307692307693,4707.6923076923085,4304.102564102564,4203.589743589744,4130.769230769231,4597.948717948719
615.3179,0.2257153,0.49942023,0.33333346,0.56742,0,0.0,0.0,0.0,0.0,0.0,0,0,0.0,0.0,0,0,9.0,0.0,430.0,4563.589743589744,3936.410256410257,4476.410256410257,4427.6923076923085,4247.179487179487,4537.435897435898,4437.435897435898,4410.769230769231,4408.205128205129,4741.538461538462,4329.2307692307695,4195.384615384616,4142.051282051282,4500.512820512821
615.5368,0.26718092,0.4883028,0.33333343,0.57149714,0,0.0,0.0,0.0,0.0,0.0,0,0,0.0,0.0,0,0,37.0,0.0,0.0,4573.846153846154,3926.1538461538466,4485.128205128206,4423.076923076924,4246.666666666667,4548.205128205129,4444.102564102564,4424.615384615385,4425.641025641026,4752.820512820514,4346.666666666667,4217.435897435898,4162.564102564103,4527.179487179488
615.5368,0.26718092,0.4883028,0.33333343,0.57149714,0,0.0,0.0,0.0,0.0,0.0,0,0,0.0,0.0,0,0,37.0,0.0,0.0,4573.846153846154,3926.1538461538466,4485.128205128206,4423.076923076924,4246.666666666667,4548.205128205129,4444.102564102564,4424.615384615385,4425.641025641026,4752.820512820514,4346.666666666667,4217.435897435898,4162.564102564103,4527.179487179488
616.03723,0.21439426,0.47219637,0.33333343,0.56956476,0,0.0,0.0,0.0,0.0,0.0,0,0,0.0,0.0,0,0,88.0,0.0,385.0,4589.743589743591,3945.1282051282055,4494.871794871796,4428.717948717949,4251.282051282052,4557.435897435898,4431.794871794872,4400.512820512821,4411.282051282052,4740.512820512821,4349.2307692307695,4222.564102564103,4162.051282051282,4529.2307692307695
616.03723,0.21439426,0.47219637,0.33333343,0.56956476,0,0.0,0.0,0.0,0.0,0.0,0,0,0.0,0.0,0,0,101.0,0.0,518.0,4746.153846153847,3962.564102564103,4526.153846153847,4443.076923076924,4227.179487179487,4522.564102564103,4420.000000000001,4388.205128205129,4390.769230769231,4741.025641025642,4355.384615384616,4264.615384615385,4180.000000000001,4661.025641025642
616.53766,0.39866695,0.46424827,0.33333343,0.567825,0,0.0,0.0,0.0,0.0,0.52084523,0,0,0.0,0.0,0,0,36.0,0.0,0.0,4518.974358974359,3893.333333333334,4456.923076923077,4417.948717948719,4173.333333333334,4437.948717948719,4405.128205128206,4362.564102564103,4358.461538461539,4688.717948717949,4300.512820512821,4178.974358974359,4097.948717948719,4457.948717948719
616.78784,0.39866695,0.46424827,0.33333343,0.567825,0,0.0,0.0,0.0,0.0,0.0,0,0,0.0,0.0,0,0,68.0,0.0,573.0,4534.358974358975,3912.820512820513,4472.820512820514,4426.666666666667,4184.615384615385,4450.769230769231,4395.8974358974365,4364.615384615385,4369.2307692307695,4705.641025641026,4322.051282051282,4192.820512820514,4125.641025641026,4482.051282051282
617.0381,0.53450286,0.46616212,0.3333334,0.56625813,0,0.0,0.0,0.0,0.0,0.0,0,0,0.0,0.0,0,0,100.0,0.0,385.0,4497.948717948719,3895.8974358974365,4450.256410256411,4424.102564102564,4197.948717948719,4469.2307692307695,4410.769230769231,4379.48717948718,4363.076923076924,4692.820512820514,4289.2307692307695,4165.641025641026,4093.333333333334,4458.461538461539
617.0381,0.53450286,0.46616212,0.3333334,0.56625813,0,0.0,0.0,0.0,0.0,0.0,0,0,0.0,0.0,0,0,100.0,0.0,385.0,4497.948717948719,3895.8974358974365,4450.256410256411,4424.102564102564,4197.948717948719,4469.2307692307695,4410.769230769231,4379.48717948718,4363.076923076924,4692.820512820514,4289.2307692307695,4165.641025641026,4093.333333333334,4458.461538461539
617.5385,0.6359341,0.45280924,0.3333334,0.56484747,0,0.0,0.0,0.0,0.0,0.0,0,0,0.0,0.0,0,0,35.0,0.0,0.0,4595.384615384616,3919.48717948718,4488.717948717949,4416.410256410257,4207.179487179487,4489.2307692307695,4423.076923076924,4417.435897435898,4400.000000000001,4733.333333333334,4326.666666666667,4217.435897435898,4147.179487179487,4552.307692307693
617.78876,0.6359341,0.45280924,0.3333334,0.56484747,0,0.0,0.0,0.0,0.0,0.74563485,0,0,0.0,0.0,0,1,67.0,0.0,548.0,4504.615384615385,3951.7948717948725,4460.000000000001,4435.384615384616,4201.025641025642,4494.871794871796,4412.307692307693,4401.538461538462,4380.512820512821,4708.205128205129,4300.512820512821,4178.974358974359,4092.307692307693,4482.051282051282
618.03894,0.61552966,0.4651483,0.3293363,0.56357807,1,0.0,0.0,0.0,0.0,0.5016735,0,0,0.0,0.0,0,0,99.0,0.0,522.0,4516.923076923077,4104.615384615385,4431.282051282052,4456.923076923077,4209.2307692307695,4501.025641025642,4346.153846153847,4338.974358974359,4325.128205128206,4648.717948717949,4223.589743589744,4146.666666666667,3973.8461538461543,4432.820512820514
618.2892,0.61552966,0.4651483,0.3293363,0.56357807,0,0.0,0.0,0.0,0.0,0.5409544,0,0,0.0,0.0,0,0,2.0,0.0,521.0,4482.051282051282,4069.7435897435903,4417.435897435898,4452.820512820514,4223.076923076924,4525.128205128206,4362.564102564103,4358.461538461539,4333.333333333334,4669.2307692307695,4236.410256410257,4140.512820512821,4061.538461538462,4409.743589743591
618.53937,0.6161714,0.4672555,0.3253265,0.5624365,0,0.0,0.0,0.0,0.0,0.0949039,0,0,0.0,0.0,0,0,34.0,0.0,0.0,4525.641025641026,4079.48717948718,4443.076923076924,4463.076923076924,4268.717948717949,4584.102564102564,4392.307692307693,4373.846153846154,4364.102564102564,4709.743589743591,4239.48717948718,4149.74358974359,4168.205128205129,4420.512820512821
618.6645,0.6161714,0.4672555,0.3253265,0.5624365,0,0.0,0.0,0.0,0.0,1.0,0,0,0.0,0.0,0,0,50.0,0.0,0.0,4521.025641025642,4084.615384615385,4439.48717948718,4472.307692307693,4269.2307692307695,4594.358974358975,4403.589743589744,4399.48717948718,4380.000000000001,4727.179487179488,4270.769230769231,4176.410256410257,4191.794871794872,4329.2307692307695
619.0711,0.6796674,0.47852933,0.32171318,0.5614146,0,0.0,0.0,0.0,0.0,1.0,0,0,0.0,0.0,0,0,102.0,0.0,555.0,4549.2307692307695,4045.1282051282055,4461.025641025642,4457.948717948719,4268.205128205129,4594.358974358975,4410.769230769231,4408.717948717949,4389.743589743591,4729.2307692307695,4268.717948717949,4170.769230769231,4162.051282051282,4461.538461538462
619.29004,0.6796674,0.47852933,0.32171318,0.5614146,0,0.0,0.0,0.0,0.0,0.15424216,0,0,0.0,0.0,0,0,1.0,0.0,475.0,4552.307692307693,4043.589743589744,4460.512820512821,4445.128205128206,4261.025641025642,4589.743589743591,4408.205128205129,4402.051282051282,4383.076923076924,4719.48717948718,4273.846153846154,4170.769230769231,4146.153846153847,4460.512820512821
619.5402,0.77656454,0.48867175,0.31846738,0.56049424,0,0.0,0.0,0.0,0.0,0.0,0,0,0.0,0.0,0,0,33.0,0.0,0.0,4420.000000000001,3951.7948717948725,4363.076923076924,4427.6923076923085,4112.307692307693,4372.307692307693,4304.615384615385,4271.794871794872,4253.333333333334,4593.333333333334,4196.923076923077,4058.461538461539,4037.435897435898,4350.256410256411
619.5402,0.77656454,0.48867175,0.31846738,0.56049424,0,0.0,0.0,0.0,0.0,0.0,0,0,0.0,0.0,0,0,33.0,0.0,0.0,4420.000000000001,3951.7948717948725,4363.076923076924,4427.6923076923085,4112.307692307693,4372.307692307693,4304.615384615385,4271.794871794872,4253.333333333334,4593.333333333334,4196.923076923077,4058.461538461539,4037.435897435898,4350.256410256411
620.04065,0.89749974,0.49779993,0.31954777,0.5596659,0,0.0,0.0,0.0,0.0,0.0,0,0,0.0,0.0,0,0,97.0,0.0,518.0,4469.743589743591,3924.1025641025644,4384.615384615385,4421.538461538462,4122.051282051282,4358.461538461539,4324.615384615385,4291.794871794872,4272.307692307693,4608.717948717949,4214.871794871796,4072.307692307693,4050.2564102564106,4384.615384615385
620.04065,0.89749974,0.49779993,0.31954777,0.5596659,0,0.0,0.0,0.0,0.0,0.0,0,0,0.0,0.0,0,0,97.0,0.0,518.0,4469.743589743591,3924.1025641025644,4384.615384615385,4421.538461538462,4122.051282051282,4358.461538461539,4324.615384615385,4291.794871794872,4272.307692307693,4608.717948717949,4214.871794871796,4072.307692307693,4050.2564102564106,4384.615384615385
620.5411,0.9997997,0.5060153,0.32093206,0.55892074,0,0.0,0.0,0.0,0.0,1.0,0,0,0.0,0.0,0,0,32.0,0.0,0.0,4510.769230769231,3910.2564102564106,4430.256410256411,4421.538461538462,4160.512820512821,4407.179487179487,4364.102564102564,4322.051282051282,4307.179487179487,4641.538461538462,4229.74358974359,4136.410256410257,4057.9487179487182,4433.333333333334
620.5411,0.9997997,0.5060153,0.32093206,0.55892074,0,0.0,0.0,0.0,0.0,1.0,0,0,0.0,0.0,0,0,32.0,0.0,0.0,4510.769230769231,3910.2564102564106,4430.256410256411,4421.538461538462,4160.512820512821,4407.179487179487,4364.102564102564,4322.051282051282,4307.179487179487,4641.538461538462,4229.74358974359,4136.410256410257,4057.9487179487182,4433.333333333334
621.0415,0.9416469,0.5134091,0.32217845,0.55824983,0,0.0,0.0,0.0,0.0,1.0,0,0,0.0,0.0,0,0,96.0,0.0,381.0,4508.205128205129,3924.615384615385,4427.6923076923085,4429.2307692307695,4170.256410256411,4434.358974358975,4367.6923076923085,4331.282051282052,4316.410256410257,4643.076923076924,4241.538461538462,4138.461538461539,4070.7692307692314,4086.1538461538466
621.0415,0.9416469,0.5134091,0.32217845,0.55824983,0,0.0,0.0,0.0,0.0,1.0,0,0,0.0,0.0,0,0,96.0,0.0,381.0,4508.205128205129,3924.615384615385,4427.6923076923085,4429.2307692307695,4170.256410256411,4434.358974358975,4367.6923076923085,4331.282051282052,4316.410256410257,4643.076923076924,4241.538461538462,4138.461538461539,4070.7692307692314,4086.1538461538466
621.57324,0.95056516,0.5005921,0.32329646,0.5576476,0,0.0,0.0,0.0,0.0,0.77341473,0,0,0.0,0.0,0,0,35.0,0.0,0.0,4510.256410256411,3910.7692307692314,4458.974358974359,4427.179487179487,4190.769230769231,4466.666666666667,4405.128205128206,4389.2307692307695,4372.820512820514,4702.051282051282,4291.282051282052,4189.2307692307695,4124.615384615385,4481.025641025642
621.7922,0.95056516,0.5005921,0.32329646,0.5576476,0,0.0,0.0,0.0,0.0,0.38349777,0,0,0.0,0.0,0,0,63.0,0.0,0.0,4541.538461538462,3913.8461538461543,4473.333333333334,4425.641025641026,4198.974358974359,4470.769230769231,4406.666666666667,4388.205128205129,4363.076923076924,4691.282051282052,4280.000000000001,4184.615384615385,4085.6410256410263,4470.256410256411
622.04236,0.9113689,0.4964143,0.32430488,0.55710465,0,0.0,0.0,0.0,0.0,0.0,0,0,0.0,0.0,0,0,95.0,0.0,526.0,4553.333333333334,3878.9743589743593,4475.8974358974365,4426.153846153847,4217.435897435898,4495.384615384616,4448.717948717949,4443.076923076924,4400.512820512821,4729.2307692307695,4309.2307692307695,4216.410256410257,4149.2307692307695,4486.666666666667
622.2926,0.9113689,0.4964143,0.32430488,0.55710465,0,0.0,0.0,0.0,0.0,0.1108395,0,0,0.0,0.0,0,0,127.0,0.0,526.0,4571.282051282052,3882.0512820512827,4492.820512820514,4424.102564102564,4220.512820512821,4505.641025641026,4458.461538461539,4453.333333333334,4420.000000000001,4758.461538461539,4358.461538461539,4267.6923076923085,4198.461538461539,4538.974358974359
