timestamp,excitement,frustration,meditation,engagementBoredom,blink,clench,laugh,smile,eyebrow,furrowBrow,lookLeft,lookRight,smirkLeft,smirkRight,winkLeft,winkRight,eeg0,eeg1,eeg2,eeg3,eeg4,eeg5,eeg6,eeg7,eeg8,eeg9,eeg10,eeg11,eeg12,eeg13,eeg14,eeg15,eeg16
543.59216,0.65533876,0.39950994,0.33333334,0.5522388,0,0.0,0.0,0.0,0.0,0.9037746,0,0,0.0,0.0,0,1,98.0,0.0,555.0,4645.128205128206,3913.8461538461543,4514.871794871796,4378.974358974359,4245.128205128206,4543.589743589744,4569.2307692307695,4571.794871794872,4411.794871794872,4801.025641025642,4381.538461538462,4358.461538461539,4258.461538461539,4567.179487179488
543.84235,0.65533876,0.39950994,0.33333334,0.5522388,0,0.0,0.0,0.0,0.0,0.49977982,0,0,0.0,0.0,0,0,1.0,0.0,460.0,4671.794871794872,3948.205128205129,4520.512820512821,4376.923076923077,4232.820512820514,4533.333333333334,4541.538461538462,4554.358974358975,4387.6923076923085,4796.923076923077,4395.8974358974365,4360.512820512821,4231.282051282052,4518.461538461539
544.0926,0.6157975,0.56319654,0.33333334,0.5522388,0,0.0,0.0,0.0,0.5718447,0.0,0,0,0.0,0.0,0,0,33.0,0.0,0.0,4722.051282051282,3972.307692307693,4490.256410256411,4384.102564102564,4198.974358974359,4505.128205128206,4538.974358974359,4571.794871794872,4392.820512820514,4817.948717948719,4400.000000000001,4391.282051282052,4257.948717948719,4776.410256410257
544.3428,0.6157975,0.56319654,0.33333334,0.5522388,0,0.0,0.0,0.0,0.0,0.68941265,0,0,0.0,0.0,0,0,65.0,0.0,460.0,4763.589743589744,3958.9743589743593,4449.2307692307695,4390.769230769231,4197.948717948719,4502.051282051282,4496.410256410257,4522.051282051282,4370.256410256411,4804.615384615386,4425.641025641026,4348.205128205129,4265.641025641026,4706.666666666667
544.593,0.5789726,0.7234157,0.33333334,0.5522388,0,0.0,0.0,0.0,0.0,1.0,0,0,0.0,0.0,0,1,97.0,0.0,518.0,4983.076923076924,3953.8461538461543,4476.410256410257,4396.923076923077,4223.589743589744,4520.512820512821,4500.512820512821,4521.025641025642,4375.384615384616,4806.153846153847,4440.512820512821,4347.179487179487,4257.948717948719,4785.128205128206
544.593,0.5789726,0.7234157,0.33333334,0.5522388,0,0.0,0.0,0.0,0.0,1.0,0,0,0.0,0.0,0,1,97.0,0.0,518.0,4983.076923076924,3953.8461538461543,4476.410256410257,4396.923076923077,4223.589743589744,4520.512820512821,4500.512820512821,4521.025641025642,4375.384615384616,4806.153846153847,4440.512820512821,4347.179487179487,4257.948717948719,4785.128205128206
545.09344,0.63931686,0.98203874,0.33333334,0.5522388,0,0.0,0.0,0.0,0.0,0.6459578,0,0,0.0,0.0,0,0,32.0,0.0,0.0,5136.923076923077,3974.8717948717954,4497.435897435898,4412.820512820514,4233.846153846154,4533.333333333334,4474.358974358975,4495.384615384616,4374.871794871796,4813.846153846154,4399.48717948718,4353.846153846154,4283.076923076924,4834.358974358975
545.3436,0.63931686,0.98203874,0.33333334,0.5522388,0,0.0,0.0,0.0,0.0,0.9620888,0,0,0.0,0.0,0,1,64.0,0.0,509.0,4903.589743589744,3940.0000000000005,4428.205128205129,4397.435897435898,4250.769230769231,4546.153846153847,4465.641025641026,4481.025641025642,4369.743589743591,4794.871794871796,4383.076923076924,4278.974358974359,4228.205128205129,4643.589743589744
545.5939,0.70432556,1.0,0.33333334,0.5522388,1,0.0,0.0,0.0,0.0,0.9035994,0,0,0.0,0.0,0,0,96.0,0.0,62.0,4974.871794871796,3959.48717948718,4478.974358974359,4412.820512820514,4262.564102564103,4555.384615384616,4462.564102564103,4476.923076923077,4382.051282051282,4778.974358974359,4377.435897435898,4316.923076923077,4246.666666666667,4679.48717948718
545.8441,0.70432556,1.0,0.33333334,0.5522388,0,0.0,0.0,0.0,0.0,1.0,0,0,0.0,0.0,0,0,128.0,0.0,62.0,4841.025641025642,3950.2564102564106,4470.256410256411,4410.256410256411,4262.051282051282,4556.923076923077,4481.025641025642,4484.102564102564,4413.846153846154,4778.974358974359,4365.641025641026,4291.794871794872,4240.000000000001,4625.641025641026
546.0943,0.69854647,1.0,0.33333334,0.5522388,1,0.0,0.0,0.0,0.0,0.4660552,0,0,0.0,0.0,0,0,31.0,0.0,0.0,4763.589743589744,3941.0256410256416,4474.358974358975,4414.358974358975,4265.641025641026,4563.589743589744,4485.641025641026,4465.128205128206,4386.153846153847,4765.128205128206,4359.48717948718,4265.128205128206,4222.051282051282,4597.435897435898
546.34454,0.69854647,1.0,0.33333334,0.5522388,0,0.0,0.0,0.0,0.0,0.74595,0,0,0.0,0.0,0,0,63.0,0.0,0.0,4747.179487179488,3946.1538461538466,4508.717948717949,4412.820512820514,4266.153846153847,4561.025641025642,4484.102564102564,4466.666666666667,4406.666666666667,4772.307692307693,4363.589743589744,4301.538461538462,4253.846153846154,4628.717948717949
546.5947,0.6196432,1.0,0.33333334,0.5522388,0,0.0,0.0,0.0,0.0,0.27010253,0,0,0.0,0.0,0,0,95.0,0.0,517.0,4711.282051282052,3933.333333333334,4488.205128205129,4411.282051282052,4257.435897435898,4558.461538461539,4473.333333333334,4450.769230769231,4388.717948717949,4752.307692307693,4358.461538461539,4275.384615384616,4216.923076923077,4577.435897435898
546.845,0.6196432,1.0,0.33333334,0.5522388,0,0.0,0.0,0.0,0.0,0.5069125,0,0,0.0,0.0,0,0,127.0,0.0,517.0,4689.2307692307695,3944.1025641025644,4494.358974358975,4422.564102564103,4273.333333333334,4573.333333333334,4483.589743589744,4456.410256410257,4407.6923076923085,4760.512820512821,4359.48717948718,4285.128205128206,4218.461538461539,4584.615384615385
547.09515,0.7097856,1.0,0.33333334,0.5522388,0,0.0,0.0,0.0,0.0,0.111686036,0,0,0.0,0.0,0,0,30.0,0.0,0.0,4691.282051282052,3938.461538461539,4490.256410256411,4429.2307692307695,4278.974358974359,4579.48717948718,4480.512820512821,4451.282051282052,4412.307692307693,4755.8974358974365,4360.000000000001,4280.000000000001,4209.74358974359,4563.589743589744
547.3454,0.7097856,1.0,0.33333334,0.5522388,0,0.0,0.0,0.0,0.0,0.69004244,0,0,0.0,0.0,0,0,62.0,0.0,0.0,4793.846153846154,3958.461538461539,4531.794871794872,4429.743589743591,4258.461538461539,4560.000000000001,4468.205128205129,4453.333333333334,4411.282051282052,4761.025641025642,4372.307692307693,4317.435897435898,4238.461538461539,4696.410256410257
547.5956,0.6576835,1.0,0.33333334,0.5522388,0,0.0,0.0,0.0,0.0,1.0,0,0,0.0,0.0,0,0,94.0,0.0,555.0,4609.743589743591,3932.307692307693,4490.256410256411,4428.717948717949,4271.282051282052,4568.205128205129,4482.051282051282,4459.48717948718,4430.769230769231,4746.666666666667,4368.717948717949,4275.384615384616,4213.846153846154,4043.589743589744
547.5956,0.6576835,1.0,0.33333334,0.5522388,0,0.0,0.0,0.0,0.0,1.0,0,0,0.0,0.0,0,0,94.0,0.0,555.0,4609.743589743591,3932.307692307693,4490.256410256411,4428.717948717949,4271.282051282052,4568.205128205129,4482.051282051282,4459.48717948718,4430.769230769231,4746.666666666667,4368.717948717949,4275.384615384616,4213.846153846154,4043.589743589744
548.0022,0.619517,1.0,0.33333334,0.5522388,0,0.0,0.0,0.0,0.0,1.0,0,0,0.0,0.0,0,0,17.0,0.0,0.0,4585.641025641026,3934.8717948717954,4496.410256410257,4426.666666666667,4271.282051282052,4570.769230769231,4474.871794871796,4450.769230769231,4420.000000000001,4751.282051282052,4359.48717948718,4257.948717948719,4205.128205128206,4563.076923076924
548.34625,0.619517,1.0,0.33333334,0.5522388,0,0.0,0.0,0.0,0.0,1.0,0,0,0.0,0.0,0,0,61.0,0.0,0.0,4635.384615384616,3942.0512820512827,4511.282051282052,4426.153846153847,4257.948717948719,4556.410256410257,4447.6923076923085,4420.000000000001,4390.769230769231,4727.6923076923085,4349.2307692307695,4264.102564102564,4164.102564102564,4143.076923076924
548.5339,0.6393787,1.0,0.33333334,0.5522388,0,0.0,0.0,0.0,0.0,1.0,0,0,0.0,0.0,0,0,85.0,0.0,518.0,4567.6923076923085,3935.3846153846157,4507.179487179488,4428.205128205129,4255.8974358974365,4552.307692307693,4448.717948717949,4430.769230769231,4409.743589743591,4741.025641025642,4351.794871794872,4235.384615384616,4173.846153846154,4530.256410256411
548.5339,0.6393787,1.0,0.33333334,0.5522388,0,0.0,0.0,0.0,0.0,1.0,0,0,0.0,0.0,0,0,85.0,0.0,518.0,4567.6923076923085,3935.3846153846157,4507.179487179488,4428.205128205129,4255.8974358974365,4552.307692307693,4448.717948717949,4430.769230769231,4409.743589743591,4741.025641025642,4351.794871794872,4235.384615384616,4173.846153846154,4530.256410256411
549.09686,0.66945165,1.0,0.33333334,0.5522388,0,0.0,0.0,0.0,0.0,0.6449595,0,0,0.0,0.0,0,0,28.0,0.0,0.0,4540.000000000001,3928.205128205129,4506.153846153847,4430.256410256411,4262.051282051282,4563.589743589744,4454.871794871796,4417.948717948719,4401.538461538462,4733.333333333334,4364.102564102564,4239.48717948718,4176.410256410257,4531.794871794872
549.3471,0.66945165,1.0,0.33333334,0.5522388,0,0.0,0.0,0.0,0.0,0.854734,0,0,0.0,0.0,0,0,60.0,0.0,0.0,4517.948717948719,3928.205128205129,4505.128205128206,4427.179487179487,4254.871794871796,4552.820512820514,4440.512820512821,4402.564102564103,4388.717948717949,4727.6923076923085,4360.512820512821,4242.051282051282,4177.948717948719,4540.512820512821
549.5973,0.6790681,1.0,0.33333334,0.5522388,0,0.0,0.0,0.0,0.0,0.6764947,0,0,0.0,0.0,0,0,92.0,0.0,62.0,4662.564102564103,3981.538461538462,4538.461538461539,4444.102564102564,4246.666666666667,4550.256410256411,4432.820512820514,4398.461538461539,4377.435897435898,4732.820512820514,4362.564102564103,4271.282051282052,4199.48717948718,4642.051282051282
549.86316,0.6790681,1.0,0.33333334,0.5522388,0,0.0,0.0,0.0,0.0,0.7166489,0,0,0.0,0.0,0,0,124.0,0.0,62.0,4523.589743589744,3944.1025641025644,4505.128205128206,4440.000000000001,4250.769230769231,4556.410256410257,4449.2307692307695,4420.512820512821,4412.307692307693,4735.384615384616,4364.615384615385,4260.512820512821,4187.179487179487,4513.846153846154
550.1134,0.68105054,1.0,0.33333334,0.5522388,0,0.0,0.0,0.0,0.0,0.48685023,0,0,0.0,0.0,0,0,27.0,0.0,0.0,4519.48717948718,3929.7435897435903,4499.48717948718,4432.820512820514,4250.256410256411,4552.307692307693,4438.974358974359,4413.333333333334,4388.205128205129,4726.666666666667,4355.8974358974365,4238.974358974359,4170.256410256411,4505.641025641026
550.3636,0.68105054,1.0,0.33333334,0.5522388,0,0.0,0.0,0.0,0.0,0.16131863,0,0,0.0,0.0,0,0,59.0,0.0,0.0,4528.205128205129,3941.0256410256416,4508.717948717949,4440.000000000001,4263.589743589744,4562.564102564103,4471.282051282052,4440.512820512821,4404.615384615385,4732.307692307693,4359.48717948718,4255.8974358974365,4178.461538461539,4494.358974358975
550.61383,0.6862782,1.0,0.33333334,0.5522388,0,0.0,0.0,0.0,0.0,0.33237213,0,0,0.0,0.0,0,0,91.0,0.0,520.0,4538.461538461539,3936.410256410257,4506.153846153847,4440.000000000001,4258.461538461539,4562.051282051282,4457.948717948719,4444.615384615385,4415.384615384616,4738.461538461539,4362.051282051282,4277.948717948719,4194.871794871796,4517.948717948719
550.864,0.6862782,1.0,0.33333334,0.5522388,1,0.0,0.0,0.0,0.0,0.8576059,0,0,0.0,0.0,0,0,123.0,0.0,520.0,4558.461538461539,3945.1282051282055,4520.000000000001,4443.589743589744,4263.589743589744,4564.102564102564,4466.666666666667,4447.6923076923085,4406.666666666667,4735.384615384616,4367.6923076923085,4289.2307692307695,4200.000000000001,4524.615384615385
551.11426,0.6589185,0.99634147,0.33333334,0.5522388,0,0.0,0.0,0.0,0.0,0.58406335,0,0,0.0,0.0,0,0,26.0,0.0,0.0,4543.589743589744,3939.48717948718,4505.128205128206,4445.641025641026,4272.820512820514,4569.743589743591,4465.128205128206,4437.435897435898,4416.410256410257,4741.538461538462,4365.128205128206,4270.769230769231,4194.871794871796,4519.48717948718
551.36444,0.6589185,0.99634147,0.33333334,0.5522388,0,0.0,0.0,0.0,0.0,0.0,0,0,0.0,0.0,0,0,58.0,0.0,0.0,4569.2307692307695,3942.564102564103,4495.8974358974365,4444.102564102564,4271.282051282052,4571.282051282052,4478.461538461539,4456.923076923077,4423.589743589744,4746.666666666667,4361.025641025642,4267.6923076923085,4185.128205128206,4510.769230769231
551.5208,0.62113744,0.9517302,0.33333334,0.5522388,0,0.0,0.0,0.0,0.0,0.0,0,0,0.0,0.0,0,0,78.0,0.0,555.0,4576.410256410257,3945.6410256410263,4508.205128205129,4442.564102564103,4263.076923076924,4561.538461538462,4466.666666666667,4448.717948717949,4411.794871794872,4741.538461538462,4361.538461538462,4285.128205128206,4190.256410256411,4507.179487179488
551.5208,0.62113744,0.9517302,0.33333334,0.5522388,0,0.0,0.0,0.0,0.0,0.0,0,0,0.0,0.0,0,0,78.0,0.0,555.0,4576.410256410257,3945.6410256410263,4508.205128205129,4442.564102564103,4263.076923076924,4561.538461538462,4466.666666666667,4448.717948717949,4411.794871794872,4741.538461538462,4361.538461538462,4285.128205128206,4190.256410256411,4507.179487179488
552.1151,0.55253124,0.8900863,0.33333334,0.5522388,0,0.0,0.0,0.0,0.0,0.26944146,0,0,0.0,0.0,0,0,25.0,0.0,0.0,4590.256410256411,3957.435897435898,4512.820512820514,4447.179487179487,4258.974358974359,4565.128205128206,4473.846153846154,4461.538461538462,4412.820512820514,4742.051282051282,4362.051282051282,4282.564102564103,4176.410256410257,4544.102564102564
552.3653,0.55253124,0.8900863,0.33333334,0.5522388,0,0.0,0.0,0.0,0.0,0.31830442,0,0,0.0,0.0,0,0,57.0,0.0,0.0,4578.461538461539,3953.333333333334,4507.6923076923085,4452.820512820514,4265.641025641026,4568.205128205129,4470.769230769231,4450.769230769231,4402.564102564103,4738.974358974359,4357.435897435898,4281.025641025642,4173.846153846154,4534.358974358975
552.5217,0.49310946,0.836911,0.33333334,0.5522388,0,0.0,0.0,0.0,0.0,0.0,0,0,0.0,0.0,0,0,77.0,0.0,518.0,4538.974358974359,3933.8461538461543,4502.564102564103,4438.461538461539,4252.820512820514,4556.923076923077,4468.205128205129,4453.333333333334,4405.641025641026,4736.410256410257,4355.8974358974365,4260.000000000001,4162.051282051282,4494.358974358975
552.5217,0.49310946,0.836911,0.33333334,0.5522388,0,0.0,0.0,0.0,0.0,0.0,0,0,0.0,0.0,0,0,77.0,0.0,518.0,4538.974358974359,3933.8461538461543,4502.564102564103,4438.461538461539,4252.820512820514,4556.923076923077,4468.205128205129,4453.333333333334,4405.641025641026,4736.410256410257,4355.8974358974365,4260.000000000001,4162.051282051282,4494.358974358975
553.02216,0.46732926,0.7824652,0.33333334,0.5522388,0,0.0,0.0,0.0,0.0,0.0,0,0,0.0,0.0,0,0,12.0,0.0,62.0,4566.153846153847,3943.589743589744,4514.871794871796,4445.128205128206,4258.974358974359,4556.923076923077,4470.769230769231,4451.794871794872,4402.564102564103,4745.641025641026,4360.000000000001,4288.717948717949,4181.538461538462,4544.615384615385
553.36615,0.46732926,0.7824652,0.33333334,0.5522388,0,0.0,0.0,0.0,0.0,0.642907,0,0,0.0,0.0,0,0,56.0,0.0,0.0,4552.307692307693,3940.0000000000005,4507.6923076923085,4438.974358974359,4251.794871794872,4549.2307692307695,4468.717948717949,4460.000000000001,4414.871794871796,4754.358974358975,4360.512820512821,4280.000000000001,4173.333333333334,4550.769230769231
553.6164,0.43890247,0.7470474,0.33333334,0.5522388,0,0.0,0.0,0.0,0.0,0.62848866,0,0,0.0,0.0,0,0,88.0,0.0,62.0,4523.076923076924,3940.5128205128212,4490.769230769231,4446.153846153847,4241.025641025642,4538.461538461539,4456.923076923077,4443.076923076924,4400.000000000001,4738.974358974359,4355.8974358974365,4250.769230769231,4145.641025641026,4502.564102564103
553.8666,0.43890247,0.7470474,0.33333334,0.5522388,0,0.0,0.0,0.0,0.0,0.36166987,0,0,0.0,0.0,0,0,120.0,0.0,62.0,4554.871794871796,3936.410256410257,4493.333333333334,4443.589743589744,4247.179487179487,4545.128205128206,4445.641025641026,4425.641025641026,4380.512820512821,4730.256410256411,4350.256410256411,4253.333333333334,4143.076923076924,4496.923076923077
554.1168,0.44978195,0.7182714,0.33333334,0.5522388,0,0.0,0.0,0.0,0.0,0.0,0,0,0.0,0.0,0,0,23.0,0.0,0.0,4567.179487179488,3940.5128205128212,4493.846153846154,4442.564102564103,4244.102564102564,4541.025641025642,4443.589743589744,4433.333333333334,4387.6923076923085,4733.846153846154,4358.461538461539,4272.307692307693,4176.923076923077,4532.820512820514
554.1168,0.44978195,0.7182714,0.33333334,0.5522388,0,0.0,0.0,0.0,0.0,0.0,0,0,0.0,0.0,0,0,23.0,0.0,0.0,4567.179487179488,3940.5128205128212,4493.846153846154,4442.564102564103,4244.102564102564,4541.025641025642,4443.589743589744,4433.333333333334,4387.6923076923085,4733.846153846154,4358.461538461539,4272.307692307693,4176.923076923077,4532.820512820514
554.52344,0.46516216,0.6873875,0.33333334,0.5522388,0,0.0,0.0,0.0,0.0,0.0,0,0,0.0,0.0,0,0,75.0,0.0,520.0,4564.615384615385,3949.2307692307695,4492.820512820514,4446.153846153847,4256.410256410257,4560.000000000001,4458.461538461539,4447.6923076923085,4406.153846153847,4736.410256410257,4358.974358974359,4253.333333333334,4140.512820512821,4495.384615384616
554.8675,0.46516216,0.6873875,0.33333334,0.5522388,0,0.0,0.0,0.0,0.0,0.19075815,0,0,0.0,0.0,0,0,119.0,0.0,520.0,4562.564102564103,3946.666666666667,4497.435897435898,4444.102564102564,4254.871794871796,4556.410256410257,4457.948717948719,4442.051282051282,4403.076923076924,4734.871794871796,4356.410256410257,4257.948717948719,4140.000000000001,4496.923076923077
555.1177,0.4468351,0.65099055,0.33333334,0.5522388,1,0.0,0.0,0.0,0.0,0.7925058,0,0,0.0,0.0,0,0,22.0,0.0,0.0,4581.538461538462,3941.538461538462,4487.179487179488,4438.974358974359,4271.282051282052,4527.6923076923085,4425.641025641026,4410.769230769231,4365.641025641026,4721.025641025642,4363.076923076924,4241.538461538462,4121.025641025642,4534.358974358975
555.3679,0.4468351,0.65099055,0.33333334,0.5522388,0,0.0,0.0,0.0,0.0,0.77414197,0,0,0.0,0.0,0,0,54.0,0.0,0.0,4588.717948717949,3955.3846153846157,4506.153846153847,4445.128205128206,4278.974358974359,4547.179487179488,4457.948717948719,4445.128205128206,4401.025641025642,4730.769230769231,4367.6923076923085,4270.769230769231,4142.564102564103,4516.923076923077
555.6181,0.3972672,0.6162622,0.33333334,0.5522388,0,0.0,0.0,0.0,0.0,1.0,0,0,0.0,0.0,0,0,86.0,0.0,555.0,4569.743589743591,3950.2564102564106,4505.128205128206,4442.051282051282,4263.589743589744,4551.282051282052,4458.974358974359,4448.205128205129,4399.48717948718,4725.128205128206,4361.538461538462,4271.794871794872,4122.564102564103,4346.153846153847
555.8058,0.3972672,0.6162622,0.33333334,0.5522388,1,0.0,0.0,0.0,0.0,1.0,0,0,0.0,0.0,0,0,110.0,0.0,555.0,4590.769230769231,3959.48717948718,4503.076923076924,4443.076923076924,4266.666666666667,4549.743589743591,4450.256410256411,4445.128205128206,4406.153846153847,4732.307692307693,4363.076923076924,4271.282051282052,4126.153846153847,4376.410256410257
556.1185,0.39953122,0.59734815,0.33333334,0.5522388,0,0.0,0.0,0.0,0.0,0.9912097,0,0,0.0,0.0,0,0,21.0,0.0,0.0,4549.743589743591,3941.0256410256416,4492.820512820514,4429.2307692307695,4261.025641025642,4549.2307692307695,4463.589743589744,4448.205128205129,4395.8974358974365,4722.051282051282,4360.512820512821,4257.435897435898,4133.846153846154,4407.6923076923085
556.3688,0.39953122,0.59734815,0.33333334,0.5522388,0,0.0,0.0,0.0,0.0,0.6688457,0,0,0.0,0.0,0,0,53.0,0.0,0.0,4734.358974358975,3976.410256410257,4557.435897435898,4436.410256410257,4239.48717948718,4539.48717948718,4452.820512820514,4433.333333333334,4371.794871794872,4725.128205128206,4362.051282051282,4317.435897435898,4162.564102564103,4569.743589743591
556.61896,0.38770455,0.60411185,0.33333334,0.5522388,0,0.0,0.0,0.0,0.0,0.7960972,0,0,0.0,0.0,0,0,85.0,0.0,518.0,4571.794871794872,3916.410256410257,4506.153846153847,4418.461538461539,4244.615384615385,4547.6923076923085,4473.846153846154,4457.948717948719,4408.717948717949,4728.717948717949,4360.000000000001,4269.2307692307695,4151.794871794872,4501.025641025642
556.8692,0.38770455,0.60411185,0.33333334,0.5522388,0,0.0,0.0,0.0,0.0,0.90782976,0,0,0.0,0.0,0,0,117.0,0.0,518.0,4614.358974358975,3935.8974358974365,4524.102564102564,4428.205128205129,4255.8974358974365,4550.256410256411,4475.8974358974365,4462.564102564103,4408.717948717949,4742.564102564103,4369.743589743591,4299.48717948718,4178.461538461539,4604.102564102564
557.1194,0.37630782,0.67089015,0.33333334,0.5522388,1,0.0,0.0,0.0,0.0,0.80154735,0,0,0.0,0.0,0,0,20.0,0.0,0.0,4565.641025641026,3924.1025641025644,4508.717948717949,4426.153846153847,4269.74358974359,4556.410256410257,4491.794871794872,4462.564102564103,4409.743589743591,4728.717948717949,4360.512820512821,4271.282051282052,4153.846153846154,4569.2307692307695
557.3696,0.37630782,0.67089015,0.33333334,0.5522388,0,0.0,0.0,0.0,0.0,0.68499,0,0,0.0,0.0,0,0,52.0,0.0,0.0,4565.641025641026,3939.48717948718,4514.358974358975,4431.794871794872,4259.48717948718,4559.48717948718,4480.512820512821,4459.48717948718,4420.512820512821,4735.8974358974365,4366.666666666667,4280.000000000001,4171.282051282052,4602.564102564103
557.6198,0.3526771,0.73046416,0.33333334,0.5522388,1,0.0,0.0,0.0,0.0,0.80439734,0,0,0.0,0.0,0,0,84.0,0.0,62.0,4584.615384615385,3942.564102564103,4507.6923076923085,4431.282051282052,4246.153846153847,4552.307692307693,4464.615384615385,4439.48717948718,4405.641025641026,4733.846153846154,4363.589743589744,4255.384615384616,4169.74358974359,4586.153846153847
557.87006,0.3526771,0.73046416,0.33333334,0.5522388,0,0.0,0.0,0.0,0.0,0.98367953,0,0,0.0,0.0,0,0,116.0,0.0,62.0,4562.051282051282,3939.48717948718,4514.871794871796,4433.846153846154,4270.769230769231,4538.974358974359,4473.333333333334,4449.2307692307695,4406.666666666667,4733.333333333334,4363.076923076924,4270.769230769231,4171.794871794872,4572.307692307693
558.12024,0.34797165,0.7964488,0.33333334,0.5522388,0,0.0,0.0,0.0,0.0,0.17783988,0,0,0.0,0.0,0,0,19.0,0.0,0.0,4576.410256410257,3949.7435897435903,4518.974358974359,4435.8974358974365,4247.179487179487,4545.128205128206,4449.2307692307695,4434.358974358975,4400.000000000001,4729.743589743591,4362.564102564103,4257.435897435898,4162.051282051282,4569.2307692307695
558.3705,0.34797165,0.7964488,0.33333334,0.5522388,0,0.0,0.0,0.0,0.0,0.0,0,0,0.0,0.0,0,0,51.0,0.0,0.0,4572.820512820514,3951.2820512820517,4534.358974358975,4444.102564102564,4257.948717948719,4555.8974358974365,4480.000000000001,4446.666666666667,4406.666666666667,4735.384615384616,4359.48717948718,4276.923076923077,4167.6923076923085,4583.589743589744
558.52686,0.36772758,0.764285,0.33333334,0.5522388,0,0.0,0.0,0.0,0.0,0.0,0,0,0.0,0.0,0,0,71.0,0.0,494.0,4602.051282051282,3959.48717948718,4542.564102564103,4452.307692307693,4259.48717948718,4560.512820512821,4486.666666666667,4469.743589743591,4432.820512820514,4750.769230769231,4373.333333333334,4312.307692307693,4197.435897435898,4598.461538461539
558.71454,0.36772758,0.764285,0.33333334,0.5522388,0,0.0,0.0,0.0,0.0,0.0,0,0,0.0,0.0,0,1,95.0,0.0,523.0,4673.846153846154,3959.48717948718,4552.307692307693,4444.102564102564,4245.641025641026,4548.205128205129,4455.8974358974365,4430.769230769231,4395.8974358974365,4741.025641025642,4361.025641025642,4307.6923076923085,4179.48717948718,4593.846153846154
559.1211,0.36550203,0.7465472,0.33333334,0.5522388,0,0.0,0.0,0.0,0.0,0.81113756,0,0,0.0,0.0,0,0,18.0,0.0,0.0,4572.820512820514,3936.9230769230776,4499.48717948718,4441.025641025642,4255.384615384616,4531.282051282052,4449.2307692307695,4432.307692307693,4394.871794871796,4726.666666666667,4357.435897435898,4267.179487179487,4152.307692307693,4510.256410256411
559.37134,0.36550203,0.7465472,0.33333334,0.5522388,0,0.0,0.0,0.0,0.0,0.0,0,0,0.0,0.0,0,0,50.0,0.0,0.0,4578.461538461539,3941.538461538462,4498.974358974359,4438.974358974359,4246.666666666667,4532.307692307693,4442.564102564103,4412.820512820514,4382.564102564103,4719.48717948718,4348.205128205129,4265.641025641026,4145.128205128206,4530.769230769231
559.5277,0.35468933,0.73080206,0.33333334,0.5522388,0,0.0,0.0,0.0,0.0,0.0,0,0,0.0,0.0,0,0,70.0,0.0,588.0,4579.48717948718,3929.7435897435903,4507.6923076923085,4434.358974358975,4247.179487179487,4536.923076923077,4441.538461538462,4419.48717948718,4392.307692307693,4723.589743589744,4356.410256410257,4285.128205128206,4176.923076923077,4555.384615384616
559.87177,0.35468933,0.73080206,0.33333334,0.5522388,1,0.0,0.0,0.0,0.0,1.0,0,0,0.0,0.0,0,0,114.0,0.0,555.0,4631.282051282052,3941.538461538462,4520.000000000001,4438.974358974359,4236.410256410257,4531.794871794872,4447.179487179487,4416.410256410257,4375.8974358974365,4722.051282051282,4357.435897435898,4282.051282051282,4164.102564102564,4554.871794871796
560.122,0.39066437,0.72166526,0.33333334,0.5522388,0,0.0,0.0,0.0,0.0,0.8536616,0,0,0.0,0.0,0,0,17.0,0.0,0.0,4616.923076923077,3954.358974358975,4527.179487179488,4454.871794871796,4263.589743589744,4557.435897435898,4466.666666666667,4445.641025641026,4396.410256410257,4725.128205128206,4362.051282051282,4302.564102564103,4165.641025641026,4537.948717948719
560.3722,0.39066437,0.72166526,0.33333334,0.5522388,0,0.0,0.0,0.0,0.0,0.16646846,0,0,0.0,0.0,0,0,49.0,0.0,0.0,4620.000000000001,3944.1025641025644,4520.000000000001,4445.641025641026,4246.153846153847,4540.512820512821,4456.410256410257,4418.974358974359,4377.435897435898,4724.102564102564,4361.538461538462,4282.051282051282,4160.000000000001,4526.153846153847
560.62244,0.38176093,0.7112711,0.33333334,0.5522388,0,0.0,0.0,0.0,0.0,0.5268117,0,0,0.0,0.0,0,0,81.0,0.0,518.0,4725.641025641026,3947.1794871794878,4533.846153846154,4434.871794871796,4232.820512820514,4515.8974358974365,4437.948717948719,4398.461538461539,4354.358974358975,4717.948717948719,4351.794871794872,4286.666666666667,4149.74358974359,4608.205128205129
560.8726,0.38176093,0.7112711,0.33333334,0.5522388,0,0.0,0.0,0.0,0.0,0.6356169,0,0,0.0,0.0,0,0,113.0,0.0,518.0,4567.6923076923085,3926.666666666667,4492.307692307693,4434.358974358975,4244.102564102564,4535.8974358974365,4458.974358974359,4419.48717948718,4376.923076923077,4714.358974358975,4351.794871794872,4246.666666666667,4131.282051282052,4487.6923076923085
561.12286,0.3753372,0.69403356,0.33333334,0.5522388,0,0.0,0.0,0.0,0.0,0.5040741,0,0,0.0,0.0,0,0,16.0,0.0,0.0,4585.641025641026,3933.333333333334,4507.6923076923085,4435.8974358974365,4240.512820512821,4540.512820512821,4466.666666666667,4439.48717948718,4397.948717948719,4724.102564102564,4358.974358974359,4270.769230769231,4160.512820512821,4496.923076923077
561.37305,0.3753372,0.69403356,0.33333334,0.5522388,0,0.0,0.0,0.0,0.0,0.34570128,0,0,0.0,0.0,0,1,48.0,0.0,0.0,4568.717948717949,3941.0256410256416,4503.589743589744,4435.384615384616,4228.205128205129,4530.769230769231,4447.6923076923085,4424.102564102564,4378.974358974359,4712.820512820514,4350.769230769231,4259.48717948718,4140.512820512821,4468.205128205129
561.6233,0.35498342,0.75727457,0.33333334,0.5522388,0,0.0,0.0,0.0,0.0,0.3432658,0,0,0.0,0.0,0,0,80.0,0.0,62.0,4583.076923076924,3927.1794871794878,4511.794871794872,4436.923076923077,4216.410256410257,4552.820512820514,4463.589743589744,4441.538461538462,4395.8974358974365,4726.153846153847,4356.923076923077,4269.74358974359,4183.589743589744,4504.102564102564
561.74835,0.35498342,0.75727457,0.33333334,0.5522388,0,0.0,0.0,0.0,0.0,1.0,0,0,0.0,0.0,0,0,96.0,0.0,62.0,4579.48717948718,3927.1794871794878,4519.48717948718,4441.025641025642,4216.410256410257,4553.846153846154,4456.923076923077,4438.461538461539,4403.589743589744,4727.179487179488,4358.974358974359,4265.128205128206,4181.538461538462,4512.820512820514
562.02985,0.36505723,0.7354954,0.33333334,0.5522388,0,0.0,0.0,0.0,0.0,1.0,0,0,0.0,0.0,0,0,3.0,0.0,548.0,4603.076923076924,3935.8974358974365,4524.615384615385,4445.641025641026,4232.820512820514,4568.205128205129,4476.923076923077,4453.846153846154,4408.205128205129,4730.256410256411,4362.051282051282,4259.48717948718,4182.051282051282,4513.846153846154
562.24884,0.36505723,0.7354954,0.33333334,0.5522388,0,0.0,0.0,0.0,0.0,0.13829182,0,0,0.0,0.0,0,0,31.0,0.0,0.0,4605.641025641026,3941.538461538462,4523.589743589744,4440.512820512821,4233.333333333334,4560.000000000001,4472.307692307693,4466.153846153847,4414.871794871796,4735.384615384616,4361.025641025642,4272.307692307693,4188.205128205129,4531.794871794872
562.5616,0.3390978,0.7084241,0.33333334,0.5522388,1,0.0,0.0,0.0,0.0,0.0,0,0,0.0,0.0,0,0,71.0,0.0,494.0,4600.512820512821,3940.5128205128212,4491.794871794872,4437.435897435898,4232.820512820514,4552.307692307693,4450.769230769231,4432.820512820514,4375.384615384616,4714.358974358975,4347.179487179487,4224.615384615385,4139.48717948718,4538.974358974359
562.74927,0.3390978,0.7084241,0.33333334,0.5522388,0,0.0,0.0,0.0,0.0,0.9068026,0,0,0.0,0.0,0,0,95.0,0.0,522.0,4562.564102564103,3937.435897435898,4489.743589743591,4438.974358974359,4236.410256410257,4551.282051282052,4462.051282051282,4451.794871794872,4398.461538461539,4725.641025641026,4357.948717948719,4227.179487179487,4152.820512820514,4548.717948717949
563.03076,0.3386692,0.686484,0.33333334,0.5522388,0,0.0,0.0,0.0,0.0,0.5821893,0,0,0.0,0.0,0,0,2.0,0.0,515.0,4567.179487179488,3943.076923076924,4500.512820512821,4432.307692307693,4235.8974358974365,4553.846153846154,4456.410256410257,4440.512820512821,4386.666666666667,4715.384615384616,4351.282051282052,4236.410256410257,4149.2307692307695,4541.025641025642
563.2497,0.3386692,0.686484,0.33333334,0.5522388,0,0.0,0.0,0.0,0.0,0.0,0,0,0.0,0.0,0,0,30.0,0.0,0.0,4585.641025641026,3952.820512820513,4515.384615384616,4437.435897435898,4235.384615384616,4546.666666666667,4449.2307692307695,4436.923076923077,4391.282051282052,4724.615384615386,4351.794871794872,4255.384615384616,4171.794871794872,4559.48717948718
563.5312,0.31029016,0.65141845,0.33333334,0.5522388,0,0.0,0.0,0.0,0.0,0.0,0,0,0.0,0.0,0,0,66.0,0.0,515.0,4582.051282051282,3945.6410256410263,4504.615384615385,4441.538461538462,4246.666666666667,4557.435897435898,4471.282051282052,4452.820512820514,4399.48717948718,4727.6923076923085,4347.6923076923085,4250.256410256411,4171.794871794872,4531.794871794872
563.5312,0.31029016,0.65141845,0.33333334,0.5522388,0,0.0,0.0,0.0,0.0,0.0,0,0,0.0,0.0,0,0,66.0,0.0,515.0,4582.051282051282,3945.6410256410263,4504.615384615385,4441.538461538462,4246.666666666667,4557.435897435898,4471.282051282052,4452.820512820514,4399.48717948718,4727.6923076923085,4347.6923076923085,4250.256410256411,4171.794871794872,4531.794871794872
564.0316,0.28476843,0.6189662,0.33333334,0.5522388,0,0.0,0.0,0.0,0.0,0.0,0,0,0.0,0.0,0,0,1.0,0.0,460.0,4597.435897435898,3957.435897435898,4524.102564102564,4448.205128205129,4248.205128205129,4553.333333333334,4464.615384615385,4432.820512820514,4396.923076923077,4730.256410256411,4351.282051282052,4263.589743589744,4187.179487179487,4547.179487179488
564.0316,0.28476843,0.6189662,0.33333334,0.5522388,0,0.0,0.0,0.0,0.0,0.0,0,0,0.0,0.0,0,0,1.0,0.0,460.0,4597.435897435898,3957.435897435898,4524.102564102564,4448.205128205129,4248.205128205129,4553.333333333334,4464.615384615385,4432.820512820514,4396.923076923077,4730.256410256411,4351.282051282052,4263.589743589744,4187.179487179487,4547.179487179488
564.5946,0.22746854,0.5997316,0.33333334,0.5522388,0,0.0,0.0,0.0,0.0,0.0,0,0,0.0,0.0,0,0,73.0,0.0,183.0,4587.6923076923085,3950.7692307692314,4506.666666666667,4443.589743589744,4249.74358974359,4548.717948717949,4439.48717948718,4417.948717948719,4387.179487179487,4721.025641025642,4343.589743589744,4239.48717948718,4158.974358974359,4523.076923076924
564.87604,0.22746854,0.5997316,0.33333334,0.5522388,0,0.0,0.0,0.0,0.0,0.65186524,0,0,0.0,0.0,0,0,107.0,0.0,522.0,4578.461538461539,3940.5128205128212,4509.2307692307695,4442.051282051282,4248.717948717949,4550.256410256411,4449.743589743591,4423.076923076924,4385.128205128206,4719.48717948718,4341.538461538462,4242.051282051282,4160.512820512821,4516.923076923077
565.1263,0.20034787,0.57231456,0.33333334,0.5522388,0,0.0,0.0,0.0,0.0,0.1341199,0,0,0.0,0.0,0,0,12.0,0.0,62.0,4569.743589743591,3943.589743589744,4506.666666666667,4444.102564102564,4252.307692307693,4550.256410256411,4464.102564102564,4427.179487179487,4393.333333333334,4720.512820512821,4346.666666666667,4240.000000000001,4166.153846153847,4515.8974358974365
565.3765,0.20034787,0.57231456,0.33333334,0.5522388,0,0.0,0.0,0.0,0.0,0.978586,0,0,0.0,0.0,0,1,44.0,0.0,0.0,4582.564102564103,3939.48717948718,4507.179487179488,4431.282051282052,4242.051282051282,4544.615384615385,4447.6923076923085,4418.974358974359,4395.384615384616,4723.589743589744,4343.076923076924,4248.717948717949,4175.8974358974365,4517.435897435898
565.6267,0.19520535,0.5653245,0.33333334,0.5522388,0,0.0,0.0,0.0,0.0,0.7592943,0,0,0.0,0.0,0,1,76.0,0.0,62.0,4669.2307692307695,3939.48717948718,4527.179487179488,4432.820512820514,4244.615384615385,4543.589743589744,4455.8974358974365,4425.128205128206,4393.333333333334,4723.076923076924,4341.025641025642,4269.2307692307695,4184.102564102564,4581.025641025642
565.87695,0.19520535,0.5653245,0.33333334,0.5522388,0,0.0,0.0,0.0,0.0,0.83412707,0,0,0.0,0.0,0,0,107.0,0.0,522.0,4553.333333333334,3925.1282051282055,4506.666666666667,4430.256410256411,4247.6923076923085,4547.6923076923085,4459.48717948718,4429.2307692307695,4397.948717948719,4723.589743589744,4338.461538461539,4241.538461538462,4164.615384615385,4496.923076923077
566.12714,0.19735289,0.63645613,0.33333334,0.5522388,1,0.0,0.0,0.0,0.0,0.6499366,0,0,0.0,0.0,0,0,11.0,0.0,522.0,4569.743589743591,3935.8974358974365,4506.666666666667,4433.333333333334,4242.564102564103,4545.128205128206,4455.384615384616,4426.153846153847,4389.2307692307695,4720.000000000001,4340.000000000001,4234.871794871796,4155.384615384616,4480.000000000001
566.3774,0.19735289,0.63645613,0.33333334,0.5522388,0,0.0,0.0,0.0,0.0,0.6599051,0,0,0.0,0.0,0,0,41.0,0.0,0.0,4700.512820512821,3976.410256410257,4555.8974358974365,4446.153846153847,4234.358974358975,4537.435897435898,4441.025641025642,4413.333333333334,4369.743589743591,4722.051282051282,4346.666666666667,4278.974358974359,4204.615384615385,4617.435897435898
566.62756,0.17351675,0.7813152,0.33333334,0.5522388,0,0.0,0.0,0.0,0.0,0.57274234,0,0,0.0,0.0,0,1,75.0,0.0,522.0,4528.205128205129,3939.48717948718,4498.974358974359,4442.564102564103,4250.256410256411,4547.179487179488,4451.282051282052,4426.666666666667,4390.256410256411,4718.461538461539,4339.48717948718,4223.589743589744,4165.128205128206,4477.948717948719
566.8778,0.17351675,0.7813152,0.33333334,0.5522388,0,0.0,0.0,0.0,0.0,0.0,0,0,0.0,0.0,0,0,107.0,0.0,522.0,4629.743589743591,3969.2307692307695,4528.717948717949,4445.128205128206,4247.179487179487,4548.205128205129,4451.282051282052,4423.589743589744,4390.256410256411,4732.307692307693,4347.179487179487,4259.48717948718,4192.307692307693,4542.051282051282
567.0654,0.1929654,0.9537329,0.33333334,0.5522388,0,0.0,0.0,0.0,0.0,0.0,0,0,0.0,0.0,0,0,2.0,0.0,515.0,4561.538461538462,3948.205128205129,4525.128205128206,4445.128205128206,4258.974358974359,4557.948717948719,4482.051282051282,4461.025641025642,4413.333333333334,4736.410256410257,4346.666666666667,4264.615384615385,4188.717948717949,4482.564102564103
567.2531,0.1929654,0.9537329,0.33333334,0.5522388,0,0.0,0.0,0.0,0.0,1.0,0,0,0.0,0.0,0,0,26.0,0.0,0.0,4537.948717948719,3940.0000000000005,4505.128205128206,4442.564102564103,4254.358974358975,4552.307692307693,4463.076923076924,4443.076923076924,4396.923076923077,4722.564102564103,4343.076923076924,4246.666666666667,4178.461538461539,4123.589743589744
567.59717,0.22644736,1.0,0.33333334,0.5522388,0,0.0,0.0,0.0,0.0,1.0,0,0,0.0,0.0,0,0,70.0,0.0,588.0,4551.282051282052,3928.717948717949,4490.256410256411,4432.820512820514,4246.666666666667,4549.743589743591,4457.948717948719,4426.153846153847,4389.2307692307695,4718.974358974359,4344.615384615385,4236.923076923077,4169.2307692307695,4484.615384615385
567.87866,0.22644736,1.0,0.33333334,0.5522388,0,0.0,0.0,0.0,0.0,0.61626744,0,0,0.0,0.0,0,1,106.0,0.0,557.0,4581.538461538462,3934.358974358975,4514.358974358975,4439.48717948718,4252.820512820514,4547.6923076923085,4463.076923076924,4428.205128205129,4391.282051282052,4722.564102564103,4334.871794871796,4251.794871794872,4175.8974358974365,4488.717948717949
568.12885,0.18834855,1.0,0.33333334,0.5522388,0,0.0,0.0,0.0,0.0,0.64784276,0,0,0.0,0.0,0,0,9.0,0.0,183.0,4572.820512820514,3928.717948717949,4504.615384615385,4441.025641025642,4251.282051282052,4557.435897435898,4457.948717948719,4425.128205128206,4391.282051282052,4723.589743589744,4343.076923076924,4237.948717948719,4174.358974358975,4482.564102564103
568.3791,0.18834855,1.0,0.33333334,0.5522388,0,0.0,0.0,0.0,0.0,0.2811507,0,0,0.0,0.0,0,0,41.0,0.0,0.0,4585.128205128206,3943.076923076924,4504.102564102564,4436.410256410257,4244.615384615385,4547.6923076923085,4457.435897435898,4423.589743589744,4390.769230769231,4720.512820512821,4338.974358974359,4215.384615384616,4149.2307692307695,4472.307692307693
568.53546,0.15367481,1.0,0.33333334,0.5522388,0,0.0,0.0,0.0,0.0,0.0,0,0,0.0,0.0,0,0,61.0,0.0,0.0,4599.48717948718,3945.6410256410263,4518.974358974359,4441.025641025642,4252.820512820514,4550.256410256411,4466.153846153847,4426.153846153847,4390.256410256411,4725.641025641026,4341.025641025642,4229.2307692307695,4150.256410256411,4503.076923076924
568.8795,0.15367481,1.0,0.33333334,0.5522388,0,0.0,0.0,0.0,0.0,0.877486,0,0,0.0,0.0,0,0,92.0,0.0,62.0,4623.589743589744,3951.2820512820517,4523.589743589744,4441.538461538462,4244.102564102564,4540.512820512821,4457.435897435898,4431.794871794872,4393.333333333334,4727.6923076923085,4349.743589743591,4268.205128205129,4197.948717948719,4564.615384615385
569.1297,0.124126405,1.0,0.33333334,0.5522388,0,0.0,0.0,0.0,0.0,0.76957875,0,0,0.0,0.0,0,0,8.0,0.0,503.0,4558.974358974359,3932.820512820513,4507.179487179488,4428.205128205129,4234.358974358975,4533.846153846154,4456.923076923077,4429.743589743591,4390.256410256411,4723.076923076924,4345.641025641026,4246.153846153847,4177.435897435898,4546.666666666667
569.2548,0.124126405,1.0,0.33333334,0.5522388,0,0.0,0.0,0.0,0.0,0.0,0,0,0.0,0.0,0,0,24.0,0.0,0.0,4553.846153846154,3935.3846153846157,4505.128205128206,4428.205128205129,4232.820512820514,4529.2307692307695,4440.000000000001,4409.743589743591,4373.846153846154,4713.846153846154,4341.538461538462,4244.102564102564,4176.923076923077,4528.717948717949
569.5363,0.12881026,0.9966321,0.33333334,0.5522388,0,0.0,0.0,0.0,0.0,0.0,0,0,0.0,0.0,0,0,60.0,0.0,0.0,4551.282051282052,3933.8461538461543,4502.564102564103,4431.282051282052,4244.615384615385,4540.512820512821,4457.948717948719,4428.717948717949,4392.820512820514,4726.153846153847,4345.128205128206,4255.384615384616,4187.6923076923085,4527.6923076923085
569.75525,0.12881026,0.9966321,0.33333334,0.5522388,0,0.0,0.0,0.0,0.0,0.0,0,0,0.0,0.0,0,1,88.0,0.0,62.0,4614.871794871796,3941.0256410256416,4491.794871794872,4430.769230769231,4239.48717948718,4531.282051282052,4437.948717948719,4409.2307692307695,4374.871794871796,4716.923076923077,4340.512820512821,4246.153846153847,4178.974358974359,4558.974358974359
570.13055,0.1267414,0.94444996,0.33333334,0.5522388,0,0.0,0.0,0.0,0.0,1.0,0,0,0.0,0.0,0,0,7.0,0.0,494.0,4566.666666666667,3933.333333333334,4504.615384615385,4430.256410256411,4249.2307692307695,4543.076923076924,4468.205128205129,4430.256410256411,4385.641025641026,4722.564102564103,4340.512820512821,4251.282051282052,4176.923076923077,4523.076923076924
570.3808,0.1267414,0.94444996,0.33333334,0.5522388,0,0.0,0.0,0.0,0.0,1.0,0,0,0.0,0.0,0,0,37.0,0.0,0.0,4596.410256410257,3943.589743589744,4509.2307692307695,4440.512820512821,4246.666666666667,4547.6923076923085,4458.461538461539,4425.128205128206,4392.307692307693,4727.6923076923085,4343.076923076924,4250.256410256411,4194.871794871796,4532.820512820514
570.63104,0.18840234,0.9729902,0.33333334,0.5522388,0,0.0,0.0,0.0,0.0,0.8834004,0,0,0.0,0.0,0,0,71.0,0.0,494.0,4569.2307692307695,3933.333333333334,4494.871794871796,4434.358974358975,4247.6923076923085,4548.205128205129,4467.179487179487,4434.358974358975,4400.512820512821,4728.717948717949,4350.769230769231,4258.461538461539,4227.179487179487,4545.128205128206
570.8812,0.18840234,0.9729902,0.33333334,0.5522388,0,0.0,0.0,0.0,0.0,0.18274215,0,0,0.0,0.0,0,0,103.0,0.0,523.0,4574.358974358975,3911.2820512820517,4505.641025641026,4436.923076923077,4259.48717948718,4557.948717948719,4480.512820512821,4451.282051282052,4412.307692307693,4735.8974358974365,4349.743589743591,4267.179487179487,4219.48717948718,4528.717948717949
571.0376,0.20039366,0.9153411,0.33333334,0.5522388,0,0.0,0.0,0.0,0.0,0.0,0,0,0.0,0.0,0,0,123.0,0.0,523.0,4597.435897435898,3925.6410256410263,4522.564102564103,4438.974358974359,4258.461538461539,4556.923076923077,4470.769230769231,4449.2307692307695,4408.205128205129,4739.48717948718,4346.153846153847,4283.589743589744,4209.2307692307695,4529.2307692307695
571.0376,0.20039366,0.9153411,0.33333334,0.5522388,0,0.0,0.0,0.0,0.0,0.0,0,0,0.0,0.0,0,0,123.0,0.0,523.0,4597.435897435898,3925.6410256410263,4522.564102564103,4438.974358974359,4258.461538461539,4556.923076923077,4470.769230769231,4449.2307692307695,4408.205128205129,4739.48717948718,4346.153846153847,4283.589743589744,4209.2307692307695,4529.2307692307695
571.56934,0.1993438,0.86318624,0.33333334,0.5522388,1,0.0,0.0,0.0,0.0,0.0,0,0,0.0,0.0,0,0,62.0,0.0,0.0,4638.461538461539,3960.0000000000005,4516.410256410257,4459.48717948718,4255.384615384616,4548.717948717949,4451.794871794872,4418.974358974359,4385.641025641026,4728.205128205129,4343.076923076924,4276.923076923077,4171.282051282052,4525.641025641026
571.8821,0.1993438,0.86318624,0.33333334,0.5522388,0,0.0,0.0,0.0,0.0,0.9222907,0,0,0.0,0.0,0,0,102.0,0.0,557.0,4572.307692307693,3941.0256410256416,4499.48717948718,4446.153846153847,4241.025641025642,4544.102564102564,4445.641025641026,4422.051282051282,4390.769230769231,4725.641025641026,4337.435897435898,4244.615384615385,4151.794871794872,4496.410256410257
572.1323,0.24308157,0.82244194,0.33333334,0.5522388,1,0.0,0.0,0.0,0.0,0.65945715,0,0,0.0,0.0,0,0,5.0,0.0,573.0,4585.128205128206,3949.2307692307695,4504.102564102564,4443.076923076924,4237.435897435898,4536.923076923077,4434.871794871796,4415.384615384616,4389.743589743591,4725.641025641026,4336.923076923077,4247.179487179487,4163.589743589744,4502.564102564103
572.3825,0.24308157,0.82244194,0.33333334,0.5522388,0,0.0,0.0,0.0,0.0,0.5577636,0,0,0.0,0.0,0,0,37.0,0.0,0.0,4601.538461538462,3953.8461538461543,4507.6923076923085,4443.589743589744,4248.717948717949,4550.769230769231,4450.256410256411,4427.179487179487,4387.6923076923085,4725.128205128206,4334.871794871796,4253.846153846154,4154.358974358975,4491.282051282052
572.63275,0.21422844,0.79531014,0.33333334,0.5522388,0,0.0,0.0,0.0,0.0,0.0,0,0,0.0,0.0,0,0,66.0,0.0,460.0,4702.564102564103,3969.2307692307695,4529.2307692307695,4441.025641025642,4238.974358974359,4536.923076923077,4444.102564102564,4410.769230769231,4367.179487179487,4718.974358974359,4334.871794871796,4270.256410256411,4160.512820512821,4576.923076923077
572.88293,0.21422844,0.79531014,0.33333334,0.5522388,0,0.0,0.0,0.0,0.0,0.7191329,0,0,0.0,0.0,0,1,99.0,0.0,523.0,4571.282051282052,3927.1794871794878,4489.743589743591,4430.256410256411,4246.153846153847,4550.769230769231,4472.820512820514,4442.564102564103,4399.48717948718,4728.717948717949,4372.820512820514,4259.48717948718,4176.923076923077,4514.871794871796
573.0706,0.19215316,0.82385844,0.33333334,0.5522388,0,0.0,0.0,0.0,0.0,1.0,0,0,0.0,0.0,0,0,125.0,0.0,518.0,4620.512820512821,3949.2307692307695,4505.641025641026,4430.256410256411,4235.384615384616,4540.000000000001,4446.153846153847,4416.410256410257,4374.358974358975,4723.589743589744,4375.384615384616,4266.666666666667,4145.641025641026,4492.307692307693
573.0706,0.19215316,0.82385844,0.33333334,0.5522388,0,0.0,0.0,0.0,0.0,1.0,0,0,0.0,0.0,0,0,125.0,0.0,518.0,4620.512820512821,3949.2307692307695,4505.641025641026,4430.256410256411,4235.384615384616,4540.000000000001,4446.153846153847,4416.410256410257,4374.358974358975,4723.589743589744,4375.384615384616,4266.666666666667,4145.641025641026,4492.307692307693
573.53973,0.17831735,0.8540713,0.33333334,0.5522388,0,0.0,0.0,0.0,0.0,1.0,0,0,0.0,0.0,0,0,56.0,0.0,0.0,4522.564102564103,3913.8461538461543,4473.846153846154,4413.333333333334,4252.307692307693,4559.48717948718,4450.256410256411,4422.564102564103,4415.8974358974365,4730.769230769231,4392.307692307693,4262.564102564103,4214.358974358975,4484.102564102564
573.53973,0.17831735,0.8540713,0.33333334,0.5522388,0,0.0,0.0,0.0,0.0,1.0,0,0,0.0,0.0,0,0,56.0,0.0,0.0,4522.564102564103,3913.8461538461543,4473.846153846154,4413.333333333334,4252.307692307693,4559.48717948718,4450.256410256411,4422.564102564103,4415.8974358974365,4730.769230769231,4392.307692307693,4262.564102564103,4214.358974358975,4484.102564102564
574.0402,0.20189092,0.83484936,0.33333334,0.5522388,0,0.0,0.0,0.0,0.0,1.0,0,0,0.0,0.0,0,0,120.0,0.0,62.0,4538.974358974359,3901.538461538462,4479.48717948718,4410.769230769231,4258.974358974359,4569.2307692307695,4436.410256410257,4421.025641025642,4410.256410256411,4737.435897435898,4381.538461538462,4305.128205128206,4280.512820512821,4499.48717948718
574.0402,0.20189092,0.83484936,0.33333334,0.5522388,0,0.0,0.0,0.0,0.0,1.0,0,0,0.0,0.0,0,0,120.0,0.0,62.0,4538.974358974359,3901.538461538462,4479.48717948718,4410.769230769231,4258.974358974359,4569.2307692307695,4436.410256410257,4421.025641025642,4410.256410256411,4737.435897435898,4381.538461538462,4305.128205128206,4280.512820512821,4499.48717948718
574.54065,0.17981307,0.7956171,0.33333334,0.5522388,0,0.0,0.0,0.0,0.0,0.369493,0,0,0.0,0.0,0,0,55.0,0.0,0.0,4539.48717948718,3925.6410256410263,4489.2307692307695,4416.923076923077,4255.384615384616,4567.179487179488,4453.846153846154,4446.153846153847,4394.871794871796,4737.435897435898,4369.743589743591,4321.025641025642,4284.615384615385,4455.384615384616
574.7596,0.17981307,0.7956171,0.33333334,0.5522388,0,0.0,0.0,0.0,0.0,0.6095608,0,0,0.0,0.0,0,0,83.0,0.0,523.0,4658.974358974359,3943.076923076924,4503.589743589744,4417.435897435898,4238.461538461539,4549.2307692307695,4434.871794871796,4420.000000000001,4370.256410256411,4730.769230769231,4370.256410256411,4337.948717948719,4289.2307692307695,4535.8974358974365
575.0411,0.23752747,0.76157254,0.33333334,0.5522388,0,0.0,0.0,0.0,0.0,1.0,0,0,0.0,0.0,0,0,119.0,0.0,523.0,4569.2307692307695,3917.9487179487182,4489.743589743591,4417.948717948719,4255.384615384616,4560.000000000001,4462.051282051282,4465.128205128206,4400.000000000001,4745.128205128206,4387.6923076923085,4361.538461538462,4312.307692307693,4547.6923076923085
575.26,0.23752747,0.76157254,0.33333334,0.5522388,0,0.0,0.0,0.0,0.0,0.46089205,0,0,0.0,0.0,0,0,18.0,0.0,0.0,4603.589743589744,3925.6410256410263,4502.051282051282,4423.589743589744,4247.6923076923085,4552.307692307693,4465.128205128206,4453.846153846154,4387.6923076923085,4736.923076923077,4390.256410256411,4352.307692307693,4283.076923076924,4555.384615384616
575.5415,0.21287653,0.7271601,0.33333334,0.5522388,0,0.0,0.0,0.0,0.0,0.0,0,0,0.0,0.0,0,0,54.0,0.0,0.0,4630.769230769231,3940.0000000000005,4509.743589743591,4432.307692307693,4246.666666666667,4551.282051282052,4468.717948717949,4462.564102564103,4362.051282051282,4732.307692307693,4387.6923076923085,4332.307692307693,4224.615384615385,4516.410256410257
575.5415,0.21287653,0.7271601,0.33333334,0.5522388,0,0.0,0.0,0.0,0.0,0.0,0,0,0.0,0.0,0,0,54.0,0.0,0.0,4630.769230769231,3940.0000000000005,4509.743589743591,4432.307692307693,4246.666666666667,4551.282051282052,4468.717948717949,4462.564102564103,4362.051282051282,4732.307692307693,4387.6923076923085,4332.307692307693,4224.615384615385,4516.410256410257
576.04193,0.17910007,0.6912574,0.33333334,0.5522388,0,0.0,0.0,0.0,0.0,0.0,0,0,0.0,0.0,0,0,118.0,0.0,557.0,4671.794871794872,3951.7948717948725,4525.128205128206,4428.717948717949,4232.307692307693,4532.820512820514,4438.461538461539,4424.102564102564,4355.8974358974365,4726.153846153847,4390.769230769231,4323.076923076924,4225.128205128206,4567.179487179488
576.26086,0.17910007,0.6912574,0.33333334,0.5522388,0,0.0,0.0,0.0,0.0,0.6543365,0,0,0.0,0.0,0,0,17.0,0.0,0.0,4657.948717948719,3926.666666666667,4521.538461538462,4426.666666666667,4236.923076923077,4541.538461538462,4457.435897435898,4450.256410256411,4374.871794871796,4727.179487179488,4394.871794871796,4325.128205128206,4209.74358974359,4549.2307692307695
576.54236,0.15063193,0.6679704,0.33333334,0.5522388,0,0.0,0.0,0.0,0.0,0.12521556,0,0,0.0,0.0,0,0,53.0,0.0,0.0,4636.410256410257,3931.7948717948725,4505.128205128206,4430.256410256411,4246.153846153847,4542.051282051282,4461.025641025642,4445.641025641026,4381.025641025642,4724.102564102564,4392.820512820514,4291.794871794872,4195.384615384616,4517.948717948719
576.7613,0.15063193,0.6679704,0.33333334,0.5522388,0,0.0,0.0,0.0,0.0,0.155394,0,0,0.0,0.0,0,0,81.0,0.0,518.0,4613.846153846154,3928.717948717949,4493.333333333334,4430.256410256411,4243.589743589744,4540.000000000001,4460.000000000001,4444.102564102564,4382.564102564103,4720.512820512821,4395.384615384616,4291.794871794872,4185.641025641026,4504.102564102564
577.0428,0.21319032,0.6294207,0.33333334,0.5522388,0,0.0,0.0,0.0,0.0,0.7591841,0,0,0.0,0.0,0,0,117.0,0.0,518.0,4609.743589743591,3954.8717948717954,4490.256410256411,4431.282051282052,4231.794871794872,4531.794871794872,4453.333333333334,4421.538461538462,4362.051282051282,4708.205128205129,4376.923076923077,4268.205128205129,4131.794871794872,4469.743589743591
577.2617,0.21319032,0.6294207,0.33333334,0.5522388,0,0.0,0.0,0.0,0.0,1.0,0,0,0.0,0.0,0,0,16.0,0.0,0.0,4622.051282051282,3959.48717948718,4508.205128205129,4437.948717948719,4229.74358974359,4534.871794871796,4445.641025641026,4430.769230769231,4375.8974358974365,4716.410256410257,4379.48717948718,4281.538461538462,4154.358974358975,4525.641025641026
577.5432,0.21672559,0.5981185,0.33333334,0.5522388,0,0.0,0.0,0.0,0.0,1.0,0,0,0.0,0.0,0,0,52.0,0.0,0.0,4591.794871794872,3945.6410256410263,4491.794871794872,4437.435897435898,4243.076923076924,4546.153846153847,4458.461538461539,4443.076923076924,4392.307692307693,4723.589743589744,4384.615384615385,4286.153846153847,4181.025641025642,4545.641025641026
577.76215,0.21672559,0.5981185,0.33333334,0.5522388,1,0.0,0.0,0.0,0.0,0.86435294,0,0,0.0,0.0,0,0,80.0,0.0,62.0,4643.076923076924,3940.5128205128212,4515.384615384616,4438.461538461539,4245.128205128206,4543.589743589744,4461.538461538462,4448.717948717949,4399.48717948718,4732.307692307693,4387.6923076923085,4319.48717948718,4211.282051282052,4564.102564102564
578.04364,0.22464967,0.5735032,0.33333334,0.5522388,0,0.0,0.0,0.0,0.0,0.9902236,0,0,0.0,0.0,0,0,116.0,0.0,62.0,4578.974358974359,3925.6410256410263,4488.205128205129,4427.6923076923085,4247.179487179487,4542.051282051282,4457.435897435898,4443.076923076924,4388.205128205129,4723.589743589744,4377.948717948719,4280.000000000001,4155.8974358974365,4515.384615384616
578.2626,0.22464967,0.5735032,0.33333334,0.5522388,0,0.0,0.0,0.0,0.0,0.18223257,0,0,0.0,0.0,0,0,15.0,0.0,522.0,4588.205128205129,3934.8717948717954,4485.641025641026,4437.435897435898,4253.333333333334,4554.871794871796,4470.256410256411,4434.358974358975,4373.846153846154,4720.000000000001,4374.871794871796,4254.871794871796,4143.589743589744,4503.076923076924
578.54407,0.18942313,0.5737793,0.33333334,0.5522388,1,0.0,0.0,0.0,0.0,0.0,0,0,0.0,0.0,0,0,51.0,0.0,0.0,4598.461538461539,3938.9743589743593,4486.153846153847,4434.871794871796,4243.589743589744,4544.102564102564,4444.615384615385,4417.435897435898,4368.717948717949,4711.282051282052,4366.153846153847,4252.307692307693,4137.948717948719,4471.282051282052
578.763,0.18942313,0.5737793,0.33333334,0.5522388,0,0.0,0.0,0.0,0.0,0.6061486,0,0,0.0,0.0,0,0,79.0,0.0,522.0,4626.666666666667,3948.717948717949,4522.051282051282,4451.794871794872,4264.102564102564,4566.153846153847,4475.8974358974365,4449.743589743591,4405.128205128206,4731.794871794872,4374.358974358975,4302.564102564103,4164.615384615385,4518.461538461539
579.0445,0.2289731,0.61682004,0.33333334,0.5522388,0,0.0,0.0,0.0,0.0,0.90708435,0,0,0.0,0.0,0,0,115.0,0.0,522.0,4636.410256410257,3956.9230769230776,4507.6923076923085,4447.179487179487,4253.333333333334,4553.333333333334,4451.794871794872,4433.333333333334,4387.6923076923085,4724.102564102564,4373.846153846154,4272.307692307693,4157.948717948719,4530.769230769231
579.2634,0.2289731,0.61682004,0.33333334,0.5522388,0,0.0,0.0,0.0,0.0,0.8260945,0,0,0.0,0.0,0,0,14.0,0.0,557.0,4616.923076923077,3947.1794871794878,4503.076923076924,4436.410256410257,4241.538461538462,4544.615384615385,4446.153846153847,4428.205128205129,4380.512820512821,4723.076923076924,4367.6923076923085,4265.128205128206,4158.461538461539,4532.307692307693
579.5449,0.2419204,0.70994455,0.33333334,0.5522388,0,0.0,0.0,0.0,0.0,1.0,0,0,0.0,0.0,0,0,50.0,0.0,0.0,4580.000000000001,3942.0512820512827,4500.512820512821,4428.205128205129,4232.820512820514,4537.435897435898,4444.615384615385,4431.282051282052,4386.153846153847,4717.948717948719,4361.538461538462,4264.615384615385,4148.205128205129,4503.076923076924
579.5449,0.2419204,0.70994455,0.33333334,0.5522388,0,0.0,0.0,0.0,0.0,1.0,0,0,0.0,0.0,0,0,50.0,0.0,0.0,4580.000000000001,3942.0512820512827,4500.512820512821,4428.205128205129,4232.820512820514,4537.435897435898,4444.615384615385,4431.282051282052,4386.153846153847,4717.948717948719,4361.538461538462,4264.615384615385,4148.205128205129,4503.076923076924
580.04535,0.30349937,0.78550184,0.33333334,0.5522388,0,0.0,0.0,0.0,0.0,1.0,0,0,0.0,0.0,0,1,114.0,0.0,557.0,4627.179487179488,3949.2307692307695,4507.179487179488,4439.48717948718,4248.717948717949,4548.717948717949,4470.769230769231,4444.102564102564,4402.564102564103,4729.743589743591,4364.615384615385,4278.974358974359,4173.846153846154,4517.435897435898
580.2017,0.30349937,0.78550184,0.33333334,0.5522388,0,0.0,0.0,0.0,0.0,1.0,0,0,0.0,0.0,0,0,5.0,0.0,573.0,4596.410256410257,3921.0256410256416,4492.820512820514,4423.589743589744,4244.615384615385,4546.153846153847,4472.307692307693,4443.589743589744,4407.6923076923085,4728.205128205129,4358.974358974359,4288.205128205129,4193.846153846154,4520.512820512821
580.5458,0.275699,0.8177611,0.33333334,0.5522388,0,0.0,0.0,0.0,0.0,0.3500442,0,0,0.0,0.0,0,0,49.0,0.0,0.0,4606.666666666667,3923.589743589744,4491.282051282052,4429.743589743591,4247.6923076923085,4555.384615384616,4483.589743589744,4462.564102564103,4418.461538461539,4739.48717948718,4367.6923076923085,4286.153846153847,4219.48717948718,4534.358974358975
580.7647,0.275699,0.8177611,0.33333334,0.5522388,0,0.0,0.0,0.0,0.0,0.1623308,0,0,0.0,0.0,0,0,77.0,0.0,518.0,4620.512820512821,3920.0000000000005,4500.000000000001,4428.205128205129,4241.538461538462,4545.641025641026,4468.717948717949,4447.6923076923085,4415.8974358974365,4741.025641025642,4375.8974358974365,4306.153846153847,4225.128205128206,4528.717948717949
581.0462,0.2733644,0.78618,0.33333334,0.5522388,0,0.0,0.0,0.0,0.0,0.4558833,0,0,0.0,0.0,0,1,113.0,0.0,518.0,4674.871794871796,3937.435897435898,4522.051282051282,4429.2307692307695,4237.948717948719,4538.974358974359,4450.769230769231,4436.410256410257,4398.974358974359,4733.333333333334,4368.717948717949,4336.410256410257,4210.769230769231,4540.000000000001
581.26514,0.2733644,0.78618,0.33333334,0.5522388,0,0.0,0.0,0.0,0.0,0.5936985,0,0,0.0,0.0,0,1,12.0,0.0,62.0,4597.948717948719,3926.1538461538466,4492.820512820514,4430.256410256411,4251.794871794872,4553.846153846154,4461.538461538462,4444.615384615385,4397.435897435898,4726.666666666667,4367.6923076923085,4302.051282051282,4195.384615384616,4473.846153846154
581.54663,0.24706614,0.7565926,0.33333334,0.5522388,0,0.0,0.0,0.0,0.0,0.42561787,0,0,0.0,0.0,0,0,48.0,0.0,0.0,4617.948717948719,3927.692307692308,4505.641025641026,4432.307692307693,4249.2307692307695,4551.282051282052,4465.128205128206,4438.974358974359,4392.820512820514,4727.179487179488,4365.641025641026,4299.48717948718,4185.128205128206,4483.076923076924
581.76556,0.24706614,0.7565926,0.33333334,0.5522388,0,0.0,0.0,0.0,0.0,0.43823096,0,0,0.0,0.0,0,0,76.0,0.0,62.0,4598.974358974359,3927.692307692308,4504.615384615385,4428.205128205129,4247.6923076923085,4549.2307692307695,4463.076923076924,4451.794871794872,4399.48717948718,4730.769230769231,4368.205128205129,4308.205128205129,4190.256410256411,4518.974358974359
582.04706,0.21801499,0.71044475,0.33333334,0.5522388,0,0.0,0.0,0.0,0.0,0.29349542,0,0,0.0,0.0,0,0,112.0,0.0,62.0,4600.000000000001,3940.0000000000005,4505.128205128206,4437.948717948719,4242.564102564103,4545.128205128206,4464.102564102564,4449.2307692307695,4407.6923076923085,4735.8974358974365,4372.307692307693,4301.025641025642,4190.769230769231,4534.871794871796
582.1409,0.21801499,0.71044475,0.33333334,0.5522388,0,0.0,0.0,0.0,0.0,0.0,0,0,0.0,0.0,0,0,124.0,0.0,62.0,4606.666666666667,3941.0256410256416,4504.615384615385,4435.8974358974365,4235.8974358974365,4537.948717948719,4453.846153846154,4435.384615384616,4384.102564102564,4727.179487179488,4363.589743589744,4280.512820512821,4160.000000000001,4518.974358974359
582.5475,0.18010575,0.67542005,0.33333334,0.5522388,1,0.0,0.0,0.0,0.0,0.80722123,0,0,0.0,0.0,0,0,47.0,0.0,0.0,4644.615384615385,3965.1282051282055,4512.307692307693,4442.564102564103,4237.948717948719,4538.974358974359,4435.8974358974365,4416.923076923077,4366.666666666667,4717.435897435898,4355.8974358974365,4267.6923076923085,4115.384615384616,4495.384615384616
582.6726,0.18010575,0.67542005,0.33333334,0.5522388,0,0.0,0.0,0.0,0.0,1.0,0,0,0.0,0.0,0,0,63.0,0.0,0.0,4600.512820512821,3946.1538461538466,4491.282051282052,4430.256410256411,4234.358974358975,4537.435897435898,4434.358974358975,4404.102564102564,4360.512820512821,4708.717948717949,4356.923076923077,4262.564102564103,4124.615384615385,4445.128205128206
583.0401,0.24082844,0.6445149,0.33333334,0.5522388,0,0.0,0.0,0.0,0.0,1.0,0,0,0.0,0.0,0,0,111.0,0.0,525.0,4704.615384615386,3961.0256410256416,4525.128205128206,4446.666666666667,4248.717948717949,4547.179487179488,4453.846153846154,4428.717948717949,4381.538461538462,4720.000000000001,4357.948717948719,4278.461538461539,4157.948717948719,4516.923076923077
583.0401,0.24082844,0.6445149,0.33333334,0.5522388,0,0.0,0.0,0.0,0.0,1.0,0,0,0.0,0.0,0,0,111.0,0.0,525.0,4704.615384615386,3961.0256410256416,4525.128205128206,4446.666666666667,4248.717948717949,4547.179487179488,4453.846153846154,4428.717948717949,4381.538461538462,4720.000000000001,4357.948717948719,4278.461538461539,4157.948717948719,4516.923076923077
583.5405,0.35134274,0.6576865,0.33333334,0.5522388,0,0.0,0.0,0.0,0.0,1.0,0,0,0.0,0.0,0,0,46.0,0.0,0.0,5258.461538461539,3966.666666666667,4551.794871794872,4458.461538461539,4243.589743589744,4545.641025641026,4455.384615384616,4440.000000000001,4398.461538461539,4739.48717948718,4373.333333333334,4325.641025641026,4207.179487179487,4704.102564102564
583.75946,0.35134274,0.6576865,0.33333334,0.5522388,0,0.0,0.0,0.0,0.0,0.94695187,0,0,0.0,0.0,0,0,74.0,0.0,557.0,5062.051282051283,3936.9230769230776,4508.205128205129,4444.615384615385,4246.666666666667,4544.102564102564,4469.743589743591,4453.846153846154,4403.589743589744,4733.846153846154,4372.307692307693,4297.948717948719,4186.153846153847,4566.666666666667
584.1035,0.42829746,0.694427,0.33333334,0.5522388,0,0.0,0.0,0.0,0.0,1.0,0,0,0.0,0.0,0,1,118.0,0.0,557.0,4934.358974358975,3950.2564102564106,4507.179487179488,4445.641025641026,4239.48717948718,4543.076923076924,4443.076923076924,4432.307692307693,4374.871794871796,4723.076923076924,4368.717948717949,4283.076923076924,4199.48717948718,4578.974358974359
584.1035,0.42829746,0.694427,0.33333334,0.5522388,0,0.0,0.0,0.0,0.0,1.0,0,0,0.0,0.0,0,1,118.0,0.0,557.0,4934.358974358975,3950.2564102564106,4507.179487179488,4445.641025641026,4239.48717948718,4543.076923076924,4443.076923076924,4432.307692307693,4374.871794871796,4723.076923076924,4368.717948717949,4283.076923076924,4199.48717948718,4578.974358974359
584.5414,0.4896762,0.7646696,0.33333334,0.5522388,1,0.0,0.0,0.0,0.0,1.0,0,0,0.0,0.0,0,0,45.0,0.0,0.0,4735.8974358974365,3949.2307692307695,4488.717948717949,4440.512820512821,4238.461538461539,4541.538461538462,4455.384615384616,4436.923076923077,4377.435897435898,4720.000000000001,4362.564102564103,4282.051282051282,4174.871794871796,4510.256410256411
584.7603,0.4896762,0.7646696,0.33333334,0.5522388,0,0.0,0.0,0.0,0.0,0.80814594,0,0,0.0,0.0,0,0,73.0,0.0,173.0,4739.48717948718,3946.666666666667,4483.076923076924,4434.358974358975,4241.538461538462,4544.102564102564,4456.410256410257,4449.2307692307695,4391.794871794872,4722.051282051282,4362.051282051282,4281.538461538462,4186.666666666667,4507.6923076923085
585.0418,0.39964756,0.8295595,0.33333334,0.5522388,0,0.0,0.0,0.0,0.0,1.0,0,0,0.0,0.0,0,0,109.0,0.0,518.0,4660.512820512821,3944.1025641025644,4493.846153846154,4438.974358974359,4245.641025641026,4547.6923076923085,4464.102564102564,4439.48717948718,4374.358974358975,4720.000000000001,4361.538461538462,4303.076923076924,4190.256410256411,4516.923076923077
585.2608,0.39964756,0.8295595,0.33333334,0.5522388,0,0.0,0.0,0.0,0.0,0.32739356,0,0,0.0,0.0,0,0,8.0,0.0,503.0,4681.025641025642,3932.820512820513,4520.512820512821,4425.641025641026,4261.538461538462,4560.512820512821,4492.307692307693,4464.615384615385,4401.025641025642,4734.871794871796,4363.589743589744,4344.615384615385,4211.282051282052,4529.743589743591
585.54224,0.4314732,0.8029918,0.33333334,0.5522388,0,0.0,0.0,0.0,0.0,0.1192442,0,0,0.0,0.0,0,0,44.0,0.0,0.0,4648.205128205129,3912.820512820513,4511.282051282052,4419.48717948718,4259.48717948718,4558.974358974359,4466.666666666667,4442.564102564103,4411.794871794872,4726.153846153847,4364.615384615385,4347.179487179487,4222.051282051282,4150.769230769231
585.6361,0.4314732,0.8029918,0.33333334,0.5522388,0,0.0,0.0,0.0,0.0,1.0,0,0,0.0,0.0,0,0,56.0,0.0,0.0,4637.948717948719,3913.333333333334,4493.333333333334,4422.051282051282,4268.717948717949,4565.128205128206,4471.282051282052,4430.256410256411,4407.179487179487,4727.179487179488,4360.000000000001,4320.512820512821,4221.025641025642,4510.256410256411
586.074,0.46454558,0.757254,0.33333334,0.5522388,1,0.0,0.0,0.0,0.0,1.0,0,0,0.0,0.0,0,0,112.0,0.0,62.0,4623.076923076924,3908.717948717949,4489.743589743591,4412.307692307693,4266.153846153847,4568.205128205129,4448.205128205129,4383.076923076924,4367.6923076923085,4716.410256410257,4338.461538461539,4282.051282051282,4195.8974358974365,4509.2307692307695
586.26166,0.46454558,0.757254,0.33333334,0.5522388,0,0.0,0.0,0.0,0.0,0.77272177,0,0,0.0,0.0,0,0,7.0,0.0,496.0,4607.6923076923085,3915.8974358974365,4491.794871794872,4423.076923076924,4277.435897435898,4576.410256410257,4465.128205128206,4415.384615384616,4389.2307692307695,4728.717948717949,4344.615384615385,4284.615384615385,4223.589743589744,4503.076923076924
586.54315,0.46486112,0.7076627,0.33333334,0.5522388,0,0.0,0.0,0.0,0.0,0.5564792,0,0,0.0,0.0,0,0,43.0,0.0,0.0,4565.128205128206,3901.0256410256416,4474.358974358975,4417.948717948719,4270.769230769231,4575.384615384616,4471.282051282052,4422.051282051282,4395.384615384616,4728.717948717949,4355.384615384616,4258.974358974359,4208.717948717949,4489.743589743591
586.7621,0.46486112,0.7076627,0.33333334,0.5522388,1,0.0,0.0,0.0,0.0,1.0,0,0,0.0,0.0,0,0,71.0,0.0,496.0,4624.102564102564,3909.7435897435903,4506.666666666667,4418.461538461539,4265.641025641026,4565.641025641026,4448.205128205129,4406.153846153847,4369.743589743591,4727.6923076923085,4350.769230769231,4271.282051282052,4219.48717948718,4516.410256410257
587.0436,0.46787646,0.68905014,0.33333334,0.5522388,0,0.0,0.0,0.0,0.0,0.73754334,0,0,0.0,0.0,0,0,107.0,0.0,523.0,4569.743589743591,3908.717948717949,4488.205128205129,4425.128205128206,4266.666666666667,4562.564102564103,4472.820512820514,4436.923076923077,4390.769230769231,4729.743589743591,4353.333333333334,4263.076923076924,4218.974358974359,4497.948717948719
587.29376,0.46787646,0.68905014,0.33333334,0.5522388,1,0.0,0.0,0.0,0.0,0.9363168,0,0,0.0,0.0,0,0,10.0,0.0,557.0,4653.846153846154,3932.307692307693,4521.538461538462,4427.6923076923085,4243.589743589744,4544.102564102564,4453.846153846154,4427.179487179487,4386.153846153847,4732.820512820514,4353.846153846154,4296.410256410257,4224.615384615385,4578.974358974359
587.544,0.42766395,0.716997,0.33333334,0.5522388,0,0.0,0.0,0.0,0.0,0.7134739,0,0,0.0,0.0,0,0,42.0,0.0,0.0,4603.076923076924,3918.461538461539,4507.6923076923085,4425.128205128206,4253.333333333334,4554.871794871796,4464.615384615385,4450.769230769231,4404.102564102564,4736.923076923077,4352.820512820514,4264.615384615385,4203.589743589744,4479.48717948718
587.76294,0.42766395,0.716997,0.33333334,0.5522388,0,0.0,0.0,0.0,0.0,0.32216287,0,0,0.0,0.0,0,0,70.0,0.0,588.0,4607.179487179488,3930.7692307692314,4523.589743589744,4439.48717948718,4263.589743589744,4560.000000000001,4480.000000000001,4458.974358974359,4400.000000000001,4741.538461538462,4361.025641025642,4266.666666666667,4211.282051282052,4494.358974358975
588.107,0.38506535,0.8021242,0.33333334,0.5522388,0,0.0,0.0,0.0,0.0,0.7391479,0,0,0.0,0.0,0,0,114.0,0.0,557.0,4609.743589743591,3937.9487179487182,4515.384615384616,4442.051282051282,4255.384615384616,4561.538461538462,4484.615384615385,4458.974358974359,4398.974358974359,4738.974358974359,4361.538461538462,4245.641025641026,4179.48717948718,4451.794871794872
588.26337,0.38506535,0.8021242,0.33333334,0.5522388,0,0.0,0.0,0.0,0.0,0.63632464,0,0,0.0,0.0,0,0,5.0,0.0,573.0,4584.102564102564,3943.076923076924,4512.820512820514,4439.48717948718,4253.333333333334,4555.8974358974365,4464.615384615385,4438.974358974359,4378.974358974359,4728.205128205129,4359.48717948718,4238.974358974359,4183.589743589744,4446.666666666667
588.54486,0.3621589,0.8337173,0.33333334,0.5522388,0,0.0,0.0,0.0,0.0,0.23370305,0,0,0.0,0.0,0,0,41.0,0.0,0.0,4562.051282051282,3932.307692307693,4505.128205128206,4433.846153846154,4235.384615384616,4529.2307692307695,4460.512820512821,4445.641025641026,4380.512820512821,4731.282051282052,4359.48717948718,4250.256410256411,4187.6923076923085,4474.871794871796
588.8576,0.3621589,0.8337173,0.33333334,0.5522388,1,0.0,0.0,0.0,0.0,0.746248,0,0,0.0,0.0,0,0,81.0,0.0,518.0,4604.615384615385,3942.0512820512827,4521.025641025642,4429.2307692307695,4238.974358974359,4531.794871794872,4443.589743589744,4416.410256410257,4361.538461538462,4724.102564102564,4358.974358974359,4230.769230769231,4176.410256410257,4528.717948717949
589.0453,0.34362343,0.86795604,0.33333334,0.5522388,0,0.0,0.0,0.0,0.0,0.6759532,0,0,0.0,0.0,0,0,105.0,0.0,518.0,4537.948717948719,3936.410256410257,4506.666666666667,4430.256410256411,4247.6923076923085,4540.000000000001,4464.102564102564,4458.974358974359,4398.461538461539,4735.384615384616,4360.000000000001,4235.8974358974365,4177.948717948719,4494.871794871796
589.2642,0.34362343,0.86795604,0.33333334,0.5522388,0,0.0,0.0,0.0,0.0,0.70751435,0,0,0.0,0.0,0,0,4.0,0.0,575.0,4528.205128205129,3931.2820512820517,4496.923076923077,4431.794871794872,4248.717948717949,4539.48717948718,4461.025641025642,4443.076923076924,4380.000000000001,4727.179487179488,4357.948717948719,4219.48717948718,4182.051282051282,4498.974358974359
589.5535,0.34999123,0.84410787,0.33333334,0.5522388,0,0.0,0.0,0.0,0.0,1.0,0,0,0.0,0.0,0,0,40.0,0.0,0.0,4555.8974358974365,3933.8461538461543,4503.589743589744,4428.205128205129,4250.769230769231,4545.128205128206,4454.358974358975,4438.974358974359,4387.179487179487,4731.282051282052,4360.000000000001,4235.384615384616,4184.615384615385,4465.641025641026
589.77246,0.34999123,0.84410787,0.33333334,0.5522388,1,0.0,0.0,0.0,0.0,1.0,0,0,0.0,0.0,0,0,68.0,0.0,575.0,4611.282051282052,3940.5128205128212,4521.538461538462,4427.6923076923085,4255.384615384616,4535.384615384616,4447.6923076923085,4429.2307692307695,4373.846153846154,4728.717948717949,4355.8974358974365,4252.820512820514,4171.794871794872,4520.000000000001
590.05396,0.3308613,0.83190966,0.33333334,0.5522388,0,0.0,0.0,0.0,0.0,0.6235881,0,0,0.0,0.0,0,0,104.0,0.0,62.0,4562.564102564103,3927.1794871794878,4508.717948717949,4432.307692307693,4247.6923076923085,4546.666666666667,4458.974358974359,4451.794871794872,4400.512820512821,4731.794871794872,4360.000000000001,4252.820512820514,4188.205128205129,4523.589743589744
590.2729,0.3308613,0.83190966,0.33333334,0.5522388,0,0.0,0.0,0.0,0.0,0.26682472,0,0,0.0,0.0,0,0,3.0,0.0,548.0,4586.666666666667,3935.3846153846157,4510.769230769231,4435.8974358974365,4240.512820512821,4544.615384615385,4454.358974358975,4441.538461538462,4385.641025641026,4725.641025641026,4354.871794871796,4236.923076923077,4145.641025641026,4501.025641025642
590.5544,0.31975645,0.8266069,0.33333334,0.5522388,0,0.0,0.0,0.0,0.0,0.8882976,0,0,0.0,0.0,0,0,39.0,0.0,0.0,4671.282051282052,3943.076923076924,4552.307692307693,4443.076923076924,4242.564102564103,4547.6923076923085,4464.102564102564,4449.2307692307695,4400.000000000001,4741.025641025642,4362.051282051282,4301.538461538462,4223.076923076924,4616.923076923077
590.7733,0.31975645,0.8266069,0.33333334,0.5522388,0,0.0,0.0,0.0,0.0,0.81774557,0,0,0.0,0.0,0,0,67.0,0.0,548.0,4559.48717948718,3927.1794871794878,4516.410256410257,4438.974358974359,4247.6923076923085,4546.153846153847,4480.512820512821,4460.000000000001,4411.794871794872,4740.512820512821,4355.384615384616,4268.205128205129,4210.256410256411,4511.282051282052
591.0548,0.29065555,0.8209554,0.33333334,0.5522388,0,0.0,0.0,0.0,0.0,0.974152,0,0,0.0,0.0,0,0,103.0,0.0,523.0,4569.2307692307695,3918.461538461539,4508.205128205129,4431.282051282052,4247.179487179487,4548.205128205129,4457.948717948719,4445.128205128206,4413.333333333334,4738.461538461539,4353.333333333334,4251.282051282052,4215.8974358974365,4532.307692307693
591.27374,0.29065555,0.8209554,0.33333334,0.5522388,0,0.0,0.0,0.0,0.0,1.0,0,0,0.0,0.0,0,0,2.0,0.0,513.0,4575.384615384616,3925.1282051282055,4508.205128205129,4434.871794871796,4242.051282051282,4544.615384615385,4457.435897435898,4450.769230769231,4406.666666666667,4733.846153846154,4357.435897435898,4258.974358974359,4242.051282051282,4176.410256410257
591.55524,0.23695391,0.81183237,0.33333334,0.5522388,0,0.0,0.0,0.0,0.0,1.0,0,0,0.0,0.0,0,0,38.0,0.0,0.0,4651.282051282052,3940.0000000000005,4521.538461538462,4440.000000000001,4243.076923076924,4543.589743589744,4450.769230769231,4442.051282051282,4394.871794871796,4743.076923076924,4355.384615384616,4267.179487179487,4232.307692307693,4588.205128205129
591.55524,0.23695391,0.81183237,0.33333334,0.5522388,0,0.0,0.0,0.0,0.0,1.0,0,0,0.0,0.0,0,0,38.0,0.0,0.0,4651.282051282052,3940.0000000000005,4521.538461538462,4440.000000000001,4243.076923076924,4543.589743589744,4450.769230769231,4442.051282051282,4394.871794871796,4743.076923076924,4355.384615384616,4267.179487179487,4232.307692307693,4588.205128205129
592.05566,0.21883082,0.7882568,0.33333334,0.5522388,0,0.0,0.0,0.0,0.0,1.0,0,0,0.0,0.0,0,0,102.0,0.0,557.0,4591.282051282052,3927.1794871794878,4494.871794871796,4429.743589743591,4238.461538461539,4539.48717948718,4451.282051282052,4428.717948717949,4377.948717948719,4718.974358974359,4345.128205128206,4234.871794871796,4174.871794871796,4174.358974358975
592.05566,0.21883082,0.7882568,0.33333334,0.5522388,0,0.0,0.0,0.0,0.0,1.0,0,0,0.0,0.0,0,0,102.0,0.0,557.0,4591.282051282052,3927.1794871794878,4494.871794871796,4429.743589743591,4238.461538461539,4539.48717948718,4451.282051282052,4428.717948717949,4377.948717948719,4718.974358974359,4345.128205128206,4234.871794871796,4174.871794871796,4174.358974358975
592.5561,0.20317133,0.7382261,0.33333334,0.5522388,0,0.0,0.0,0.0,0.0,1.0,0,0,0.0,0.0,0,0,37.0,0.0,0.0,4692.307692307693,3951.2820512820517,4533.333333333334,4441.025641025642,4243.589743589744,4540.512820512821,4462.051282051282,4435.384615384616,4381.538461538462,4729.2307692307695,4356.923076923077,4280.512820512821,4205.128205128206,4662.051282051282
592.5561,0.20317133,0.7382261,0.33333334,0.5522388,0,0.0,0.0,0.0,0.0,1.0,0,0,0.0,0.0,0,0,37.0,0.0,0.0,4692.307692307693,3951.2820512820517,4533.333333333334,4441.025641025642,4243.589743589744,4540.512820512821,4462.051282051282,4435.384615384616,4381.538461538462,4729.2307692307695,4356.923076923077,4280.512820512821,4205.128205128206,4662.051282051282
593.06433,0.24050353,0.714947,0.33333334,0.5522388,0,0.0,0.0,0.0,0.0,1.0,0,0,0.0,0.0,0,0,101.0,0.0,518.0,4587.179487179488,3928.205128205129,4505.128205128206,4429.2307692307695,4234.871794871796,4536.923076923077,4452.307692307693,4433.333333333334,4384.102564102564,4730.256410256411,4361.538461538462,4268.717948717949,4211.794871794872,4580.512820512821
593.06433,0.24050353,0.714947,0.33333334,0.5522388,0,0.0,0.0,0.0,0.0,1.0,0,0,0.0,0.0,0,0,101.0,0.0,518.0,4587.179487179488,3928.205128205129,4505.128205128206,4429.2307692307695,4234.871794871796,4536.923076923077,4452.307692307693,4433.333333333334,4384.102564102564,4730.256410256411,4361.538461538462,4268.717948717949,4211.794871794872,4580.512820512821
593.56476,0.23678751,0.67284864,0.33333334,0.5522388,0,0.0,0.0,0.0,0.0,1.0,0,0,0.0,0.0,0,0,36.0,0.0,0.0,4608.717948717949,3948.717948717949,4516.410256410257,4429.2307692307695,4229.74358974359,4528.205128205129,4460.512820512821,4425.641025641026,4365.641025641026,4718.461538461539,4345.641025641026,4228.717948717949,4128.205128205129,4435.8974358974365
593.84625,0.23678751,0.67284864,0.33333334,0.5522388,1,0.0,0.0,0.0,0.0,1.0,0,0,0.0,0.0,0,0,72.0,0.0,503.0,4610.256410256411,3947.1794871794878,4524.102564102564,4440.512820512821,4241.025641025642,4538.974358974359,4473.333333333334,4433.333333333334,4367.179487179487,4724.102564102564,4348.717948717949,4252.820512820514,4133.846153846154,4538.461538461539
594.0652,0.25877568,0.63639134,0.33333334,0.5522388,0,0.0,0.0,0.0,0.0,1.0,0,0,0.0,0.0,0,0,100.0,0.0,62.0,4637.435897435898,3945.1282051282055,4516.923076923077,4434.358974358975,4235.8974358974365,4534.871794871796,4452.307692307693,4423.076923076924,4365.128205128206,4723.076923076924,4345.641025641026,4239.48717948718,4134.871794871796,4553.333333333334
594.2842,0.25877568,0.63639134,0.33333334,0.5522388,0,0.0,0.0,0.0,0.0,0.4910707,0,0,0.0,0.0,0,0,128.0,0.0,62.0,4643.076923076924,3944.1025641025644,4527.6923076923085,4443.076923076924,4253.333333333334,4548.717948717949,4465.641025641026,4437.948717948719,4376.410256410257,4728.717948717949,4349.743589743591,4277.435897435898,4162.051282051282,4574.871794871796
594.5657,0.3111463,0.6091269,0.33333334,0.5522388,0,0.0,0.0,0.0,0.0,0.337865,0,0,0.0,0.0,0,0,35.0,0.0,0.0,4598.974358974359,3933.333333333334,4507.6923076923085,4430.256410256411,4237.948717948719,4531.794871794872,4439.48717948718,4423.589743589744,4367.179487179487,4717.948717948719,4346.666666666667,4246.666666666667,4148.717948717949,4548.205128205129
594.6595,0.3111463,0.6091269,0.33333334,0.5522388,0,0.0,0.0,0.0,0.0,0.0,0,0,0.0,0.0,0,0,47.0,0.0,0.0,4604.102564102564,3929.2307692307695,4524.615384615385,4428.717948717949,4234.871794871796,4527.179487179488,4448.205128205129,4432.820512820514,4374.871794871796,4722.564102564103,4352.307692307693,4262.051282051282,4170.256410256411,4561.538461538462
595.0661,0.2744636,0.580842,0.33333334,0.5522388,0,0.0,0.0,0.0,0.0,0.0,0,0,0.0,0.0,0,0,99.0,0.0,522.0,4637.435897435898,3948.205128205129,4541.538461538462,4444.102564102564,4257.948717948719,4556.923076923077,4474.871794871796,4465.641025641026,4404.102564102564,4728.717948717949,4356.410256410257,4288.717948717949,4195.8974358974365,4534.871794871796
595.0661,0.2744636,0.580842,0.33333334,0.5522388,0,0.0,0.0,0.0,0.0,0.0,0,0,0.0,0.0,0,0,99.0,0.0,522.0,4637.435897435898,3948.205128205129,4541.538461538462,4444.102564102564,4257.948717948719,4556.923076923077,4474.871794871796,4465.641025641026,4404.102564102564,4728.717948717949,4356.410256410257,4288.717948717949,4195.8974358974365,4534.871794871796
595.5665,0.25441134,0.56262255,0.33333334,0.5522388,0,0.0,0.0,0.0,0.0,0.0,0,0,0.0,0.0,0,0,34.0,0.0,0.0,4609.2307692307695,3917.9487179487182,4516.923076923077,4429.2307692307695,4244.615384615385,4547.179487179488,4484.102564102564,4475.8974358974365,4405.128205128206,4743.076923076924,4364.102564102564,4293.846153846154,4233.333333333334,4564.102564102564
595.78546,0.25441134,0.56262255,0.33333334,0.5522388,0,0.0,0.0,0.0,0.0,0.67360586,0,0,0.0,0.0,0,0,62.0,0.0,0.0,4581.025641025642,3915.8974358974365,4510.256410256411,4427.6923076923085,4247.179487179487,4545.641025641026,4469.743589743591,4456.923076923077,4389.743589743591,4742.051282051282,4361.538461538462,4289.2307692307695,4231.282051282052,4562.564102564103
596.06696,0.22877713,0.5453385,0.33333334,0.5522388,0,0.0,0.0,0.0,0.0,1.0,0,0,0.0,0.0,0,0,98.0,0.0,557.0,4576.923076923077,3928.205128205129,4514.871794871796,4430.769230769231,4246.666666666667,4547.179487179488,4474.358974358975,4470.256410256411,4400.000000000001,4742.564102564103,4362.051282051282,4290.256410256411,4222.564102564103,4588.205128205129
596.06696,0.22877713,0.5453385,0.33333334,0.5522388,0,0.0,0.0,0.0,0.0,1.0,0,0,0.0,0.0,0,0,98.0,0.0,557.0,4576.923076923077,3928.205128205129,4514.871794871796,4430.769230769231,4246.666666666667,4547.179487179488,4474.358974358975,4470.256410256411,4400.000000000001,4742.564102564103,4362.051282051282,4290.256410256411,4222.564102564103,4588.205128205129
596.5674,0.23118153,0.52402234,0.33333334,0.5522388,0,0.0,0.0,0.0,0.0,0.116912335,0,0,0.0,0.0,0,0,33.0,0.0,0.0,4581.538461538462,3922.564102564103,4508.205128205129,4426.153846153847,4246.666666666667,4544.615384615385,4457.435897435898,4447.179487179487,4391.282051282052,4733.333333333334,4356.410256410257,4262.051282051282,4191.282051282052,4566.666666666667
596.7863,0.23118153,0.52402234,0.33333334,0.5522388,0,0.0,0.0,0.0,0.0,0.12943473,0,0,0.0,0.0,0,0,61.0,0.0,0.0,4586.153846153847,3927.692307692308,4518.974358974359,4433.333333333334,4249.74358974359,4547.179487179488,4459.48717948718,4430.256410256411,4406.153846153847,4740.512820512821,4357.948717948719,4259.48717948718,4205.128205128206,4573.846153846154
597.0678,0.1695603,0.4999486,0.33333334,0.5522388,0,0.0,0.0,0.0,0.0,0.0,0,0,0.0,0.0,0,0,97.0,0.0,518.0,4581.538461538462,3937.9487179487182,4507.179487179488,4435.384615384616,4246.666666666667,4546.153846153847,4457.948717948719,4428.205128205129,4387.6923076923085,4732.307692307693,4357.948717948719,4252.307692307693,4196.923076923077,4565.641025641026
597.0678,0.1695603,0.4999486,0.33333334,0.5522388,0,0.0,0.0,0.0,0.0,0.0,0,0,0.0,0.0,0,0,97.0,0.0,518.0,4581.538461538462,3937.9487179487182,4507.179487179488,4435.384615384616,4246.666666666667,4546.153846153847,4457.948717948719,4428.205128205129,4387.6923076923085,4732.307692307693,4357.948717948719,4252.307692307693,4196.923076923077,4565.641025641026
597.5995,0.22681609,0.47893968,0.33333334,0.5522388,0,0.0,0.0,0.0,0.0,0.0,0,0,0.0,0.0,0,0,36.0,0.0,0.0,4595.384615384616,3940.5128205128212,4522.051282051282,4441.538461538462,4254.358974358975,4552.820512820514,4470.769230769231,4448.205128205129,4399.48717948718,4738.974358974359,4357.435897435898,4265.128205128206,4194.358974358975,4551.282051282052
597.7872,0.22681609,0.47893968,0.33333334,0.5522388,0,0.0,0.0,0.0,0.0,0.6838549,0,0,0.0,0.0,0,0,60.0,0.0,0.0,4542.564102564103,3928.717948717949,4497.948717948719,4431.794871794872,4241.025641025642,4535.384615384616,4450.256410256411,4432.307692307693,4371.794871794872,4724.615384615386,4349.743589743591,4232.307692307693,4168.717948717949,4527.179487179488
598.06866,0.25901344,0.46367913,0.33333334,0.5522388,0,0.0,0.0,0.0,0.0,0.27172962,0,0,0.0,0.0,0,0,96.0,0.0,62.0,4572.307692307693,3932.307692307693,4506.153846153847,4434.871794871796,4245.128205128206,4548.205128205129,4463.589743589744,4434.358974358975,4380.000000000001,4726.153846153847,4349.2307692307695,4258.461538461539,4178.461538461539,4537.948717948719
598.31885,0.25901344,0.46367913,0.33333334,0.5522388,1,0.0,0.0,0.0,0.0,0.0,0,0,0.0,0.0,0,0,128.0,0.0,62.0,4604.615384615385,3943.589743589744,4520.000000000001,4441.538461538462,4247.6923076923085,4549.743589743591,4451.794871794872,4436.410256410257,4375.8974358974365,4730.769230769231,4350.769230769231,4260.512820512821,4178.974358974359,4554.871794871796
598.5691,0.22480023,0.49491554,0.33333334,0.5522388,0,0.0,0.0,0.0,0.0,0.8302921,0,0,0.0,0.0,0,0,31.0,0.0,0.0,4570.256410256411,3925.6410256410263,4508.205128205129,4431.282051282052,4246.153846153847,4544.102564102564,4463.076923076924,4444.615384615385,4392.820512820514,4732.307692307693,4355.8974358974365,4254.871794871796,4183.076923076924,4535.384615384616
598.6629,0.22480023,0.49491554,0.33333334,0.5522388,0,0.0,0.0,0.0,0.0,1.0,0,0,0.0,0.0,0,0,43.0,0.0,0.0,4564.102564102564,3930.2564102564106,4506.153846153847,4430.256410256411,4244.102564102564,4544.102564102564,4453.333333333334,4422.564102564103,4372.820512820514,4725.128205128206,4360.512820512821,4250.769230769231,4175.8974358974365,4528.717948717949
599.0695,0.20490687,0.50669634,0.33333334,0.5522388,0,0.0,0.0,0.0,0.0,1.0,0,0,0.0,0.0,0,0,95.0,0.0,521.0,4581.538461538462,3924.615384615385,4508.205128205129,4429.743589743591,4242.564102564103,4546.666666666667,4461.538461538462,4425.641025641026,4378.974358974359,4724.102564102564,4357.435897435898,4244.102564102564,4157.948717948719,4516.410256410257
599.28845,0.20490687,0.50669634,0.33333334,0.5522388,0,0.0,0.0,0.0,0.0,0.17380802,0,0,0.0,0.0,0,0,123.0,0.0,521.0,4580.000000000001,3938.461538461539,4518.461538461539,4439.48717948718,4249.2307692307695,4549.743589743591,4463.589743589744,4440.512820512821,4399.48717948718,4732.307692307693,4357.948717948719,4245.641025641026,4189.2307692307695,4530.769230769231
599.56995,0.22725204,0.48683593,0.33333334,0.5522388,0,0.0,0.0,0.0,0.0,0.0,0,0,0.0,0.0,0,0,30.0,0.0,0.0,4580.512820512821,3924.615384615385,4502.564102564103,4426.666666666667,4230.769230769231,4533.846153846154,4444.102564102564,4423.076923076924,4375.384615384616,4724.102564102564,4350.256410256411,4236.923076923077,4175.8974358974365,4515.8974358974365
599.8202,0.22725204,0.48683593,0.33333334,0.5522388,1,0.0,0.0,0.0,0.0,0.0,0,0,0.0,0.0,0,0,62.0,0.0,0.0,4630.769230769231,3937.435897435898,4526.666666666667,4428.205128205129,4238.461538461539,4537.948717948719,4438.974358974359,4406.666666666667,4373.846153846154,4726.153846153847,4353.846153846154,4261.025641025642,4201.025641025642,4545.128205128206
600.0704,0.2225614,0.4780875,0.33333334,0.5522388,0,0.0,0.0,0.0,0.0,0.0,0,0,0.0,0.0,0,0,94.0,0.0,557.0,4535.384615384616,3908.205128205129,4474.871794871796,4415.384615384616,4245.128205128206,4548.717948717949,4423.076923076924,4392.307692307693,4376.410256410257,4721.538461538462,4340.512820512821,4189.74358974359,4209.74358974359,4457.948717948719
600.2893,0.2225614,0.4780875,0.33333334,0.5522388,0,0.0,0.0,0.0,0.0,0.9708569,0,0,0.0,0.0,0,0,122.0,0.0,557.0,4542.564102564103,3908.205128205129,4471.282051282052,4429.2307692307695,4258.461538461539,4557.435897435898,4427.179487179487,4396.923076923077,4393.846153846154,4727.179487179488,4331.282051282052,4178.461538461539,4250.769230769231,4459.48717948718
600.5708,0.27534392,0.45805135,0.33333334,0.5522388,0,0.0,0.0,0.0,0.0,0.0,0,0,0.0,0.0,0,0,29.0,0.0,0.0,4504.102564102564,3902.0512820512827,4458.974358974359,4421.025641025642,4258.461538461539,4559.48717948718,4410.769230769231,4385.128205128206,4379.48717948718,4720.000000000001,4325.641025641026,4149.74358974359,4262.564102564103,4434.358974358975
600.82104,0.27534392,0.45805135,0.33333334,0.5522388,0,0.0,0.0,0.0,0.0,0.0,0,0,0.0,0.0,0,1,61.0,0.0,0.0,4588.205128205129,3927.692307692308,4477.435897435898,4429.2307692307695,4254.358974358975,4553.846153846154,4396.410256410257,4376.923076923077,4362.564102564103,4724.615384615386,4326.666666666667,4177.948717948719,4292.307692307693,4514.871794871796
601.0712,0.29804704,0.45395613,0.33333334,0.5522388,0,0.0,0.0,0.0,0.0,0.0,0,0,0.0,0.0,0,1,93.0,0.0,518.0,4530.256410256411,3909.2307692307695,4468.205128205129,4428.717948717949,4259.48717948718,4558.974358974359,4423.076923076924,4410.256410256411,4373.333333333334,4721.025641025642,4316.410256410257,4171.282051282052,4262.564102564103,4425.128205128206
601.29016,0.29804704,0.45395613,0.33333334,0.5522388,0,0.0,0.0,0.0,0.0,0.23125105,0,0,0.0,0.0,0,0,121.0,0.0,518.0,4550.769230769231,3911.2820512820517,4465.128205128206,4429.2307692307695,4255.8974358974365,4562.564102564103,4432.820512820514,4408.205128205129,4373.846153846154,4727.179487179488,4321.538461538462,4182.051282051282,4249.2307692307695,4436.410256410257
601.57166,0.31892204,0.5186028,0.33333334,0.5522388,0,0.0,0.0,0.0,0.0,1.0,0,0,0.0,0.0,0,1,28.0,0.0,0.0,4530.769230769231,3915.8974358974365,4472.820512820514,4429.743589743591,4252.820512820514,4551.282051282052,4453.846153846154,4430.769230769231,4375.8974358974365,4723.589743589744,4322.051282051282,4199.48717948718,4204.102564102564,4408.205128205129
601.7906,0.31892204,0.5186028,0.33333334,0.5522388,0,0.0,0.0,0.0,0.0,0.5392969,0,0,0.0,0.0,0,0,56.0,0.0,0.0,4586.666666666667,3937.9487179487182,4478.461538461539,4430.256410256411,4245.128205128206,4548.717948717949,4450.256410256411,4406.153846153847,4358.461538461539,4725.128205128206,4328.717948717949,4229.2307692307695,4218.461538461539,4435.8974358974365
602.0721,0.2616401,0.55728376,0.33333334,0.5522388,0,0.0,0.0,0.0,0.0,0.8493891,0,0,0.0,0.0,0,0,92.0,0.0,62.0,4728.205128205129,4086.1538461538466,4473.846153846154,4461.025641025642,4206.153846153847,4520.512820512821,4403.076923076924,4388.717948717949,4307.179487179487,4702.564102564103,4340.512820512821,4240.512820512821,4141.025641025642,4401.538461538462
602.291,0.2616401,0.55728376,0.33333334,0.5522388,0,0.0,0.0,0.0,0.0,0.59443694,1,0,0.0,0.0,0,0,120.0,0.0,62.0,4710.769230769231,4018.9743589743593,4482.564102564103,4451.794871794872,4223.076923076924,4524.102564102564,4416.923076923077,4420.512820512821,4333.333333333334,4699.48717948718,4335.8974358974365,4277.948717948719,4070.2564102564106,4376.923076923077
602.5725,0.36118644,0.6309323,0.33333334,0.5522388,0,0.0,0.0,0.0,0.0,0.8504933,0,0,0.0,0.0,0,0,27.0,0.0,0.0,4809.2307692307695,4014.8717948717954,4489.743589743591,4456.923076923077,4203.589743589744,4517.948717948719,4396.923076923077,4406.153846153847,4332.307692307693,4694.358974358975,4337.435897435898,4356.410256410257,4074.8717948717954,4257.435897435898
602.6664,0.36118644,0.6309323,0.33333334,0.5522388,0,0.0,0.0,0.0,0.0,1.0,0,0,0.0,0.0,0,0,39.0,0.0,0.0,4815.8974358974365,3992.307692307693,4464.615384615385,4453.846153846154,4227.6923076923085,4532.307692307693,4432.307692307693,4434.358974358975,4344.102564102564,4700.512820512821,4340.000000000001,4380.000000000001,4079.48717948718,4305.128205128206
603.07294,0.32822123,0.6609479,0.33333334,0.5522388,0,0.0,0.0,0.0,0.0,1.0,0,0,0.0,0.0,0,0,91.0,0.0,522.0,4578.461538461539,3996.410256410257,4458.974358974359,4447.6923076923085,4207.6923076923085,4504.615384615385,4410.769230769231,4393.846153846154,4308.205128205129,4687.6923076923085,4328.717948717949,4370.769230769231,4045.6410256410263,4536.923076923077
603.2919,0.32822123,0.6609479,0.33333334,0.5522388,1,0.0,0.0,0.0,0.0,0.6720265,0,0,0.0,0.0,0,0,119.0,0.0,522.0,4639.48717948718,3975.3846153846157,4473.333333333334,4448.205128205129,4213.846153846154,4514.871794871796,4440.512820512821,4422.564102564103,4353.846153846154,4705.641025641026,4343.076923076924,4358.461538461539,4142.051282051282,4607.6923076923085
603.57336,0.36085173,0.70070773,0.33333334,0.5522388,0,0.0,0.0,0.0,0.0,0.6632045,0,0,0.0,0.0,0,0,26.0,0.0,0.0,4701.025641025642,3977.435897435898,4498.461538461539,4448.717948717949,4218.461538461539,4516.410256410257,4468.717948717949,4447.6923076923085,4378.974358974359,4726.153846153847,4336.410256410257,4366.153846153847,4177.435897435898,4677.435897435898
603.85486,0.36085173,0.70070773,0.33333334,0.5522388,0,0.0,0.0,0.0,0.0,0.9226348,0,0,0.0,0.0,0,0,62.0,0.0,0.0,4616.410256410257,3946.666666666667,4456.923076923077,4443.076923076924,4223.589743589744,4522.564102564103,4454.871794871796,4431.282051282052,4367.6923076923085,4714.871794871796,4340.000000000001,4322.051282051282,4175.384615384616,4619.48717948718
604.0738,0.34489277,0.76311785,0.33333334,0.5522388,0,0.0,0.0,0.0,0.0,0.57061785,0,0,0.0,0.0,0,0,90.0,0.0,557.0,4738.974358974359,3957.435897435898,4509.2307692307695,4441.025641025642,4225.641025641026,4525.641025641026,4446.153846153847,4417.435897435898,4351.794871794872,4713.333333333334,4340.512820512821,4346.153846153847,4184.615384615385,4698.461538461539
604.2927,0.34489277,0.76311785,0.33333334,0.5522388,0,0.0,0.0,0.0,0.0,0.7679907,0,0,0.0,0.0,0,1,118.0,0.0,557.0,4602.564102564103,3930.2564102564106,4461.538461538462,4431.282051282052,4240.000000000001,4534.358974358975,4464.615384615385,4443.076923076924,4391.794871794872,4714.871794871796,4339.48717948718,4296.410256410257,4160.512820512821,4571.282051282052
604.5508,0.30876362,0.83101,0.33333334,0.5522388,0,0.0,0.0,0.0,0.0,0.8953365,0,0,0.0,0.0,0,0,25.0,0.0,0.0,4619.48717948718,3924.1025641025644,4475.8974358974365,4430.256410256411,4242.051282051282,4540.512820512821,4466.666666666667,4429.2307692307695,4372.820512820514,4714.358974358975,4339.48717948718,4296.923076923077,4171.282051282052,4539.48717948718
604.8636,0.30876362,0.83101,0.33333334,0.5522388,0,0.0,0.0,0.0,0.0,0.87250996,0,0,0.0,0.0,0,0,65.0,0.0,460.0,4635.8974358974365,3925.1282051282055,4490.256410256411,4443.076923076924,4258.461538461539,4556.410256410257,4478.974358974359,4460.000000000001,4412.820512820514,4725.128205128206,4340.000000000001,4301.538461538462,4187.179487179487,4532.307692307693
605.0512,0.3088815,0.93285626,0.33333334,0.5522388,0,0.0,0.0,0.0,0.0,0.8762446,0,0,0.0,0.0,0,0,89.0,0.0,518.0,4605.128205128206,3920.0000000000005,4467.6923076923085,4433.846153846154,4253.846153846154,4554.358974358975,4446.666666666667,4422.051282051282,4381.025641025642,4709.2307692307695,4334.358974358975,4255.8974358974365,4161.025641025642,4498.461538461539
605.27014,0.3088815,0.93285626,0.33333334,0.5522388,0,0.0,0.0,0.0,0.0,0.32278362,0,0,0.0,0.0,0,0,117.0,0.0,518.0,4589.2307692307695,3932.307692307693,4464.102564102564,4436.923076923077,4258.461538461539,4557.435897435898,4443.589743589744,4379.48717948718,4335.8974358974365,4690.769230769231,4325.641025641026,4212.307692307693,4099.48717948718,4450.256410256411
605.55164,0.37038678,0.9970975,0.33333334,0.5522388,0,0.0,0.0,0.0,0.0,0.7837693,0,0,0.0,0.0,0,0,24.0,0.0,0.0,4601.538461538462,3899.48717948718,4474.871794871796,4428.717948717949,4272.820512820514,4570.769230769231,4460.512820512821,4394.871794871796,4359.48717948718,4701.538461538462,4327.6923076923085,4257.435897435898,4173.333333333334,4502.564102564103
605.77057,0.37038678,0.9970975,0.33333334,0.5522388,0,0.0,0.0,0.0,0.0,0.87502134,0,0,0.0,0.0,0,0,52.0,0.0,0.0,4585.641025641026,3874.358974358975,4475.8974358974365,4416.923076923077,4278.974358974359,4576.410256410257,4471.794871794872,4398.974358974359,4366.666666666667,4698.974358974359,4323.589743589744,4232.820512820514,4173.846153846154,4465.128205128206
606.05206,0.35110572,1.0,0.33333334,0.5522388,0,0.0,0.0,0.0,0.0,0.40377274,0,0,0.0,0.0,0,0,88.0,0.0,62.0,4590.256410256411,3886.666666666667,4489.743589743591,4425.128205128206,4284.102564102564,4578.461538461539,4470.769230769231,4412.307692307693,4399.48717948718,4715.384615384616,4332.820512820514,4249.2307692307695,4210.769230769231,4521.025641025642
606.271,0.35110572,1.0,0.33333334,0.5522388,0,0.0,0.0,0.0,0.0,0.2229389,0,0,0.0,0.0,0,0,116.0,0.0,62.0,4580.000000000001,3890.7692307692314,4474.358974358975,4421.025641025642,4271.794871794872,4570.769230769231,4458.461538461539,4407.6923076923085,4402.564102564103,4715.384615384616,4327.179487179487,4235.8974358974365,4216.923076923077,4483.076923076924
606.5525,0.32089633,1.0,0.33333334,0.5522388,0,0.0,0.0,0.0,0.0,0.0,0,0,0.0,0.0,0,0,23.0,0.0,0.0,4570.256410256411,3892.820512820513,4480.512820512821,4427.179487179487,4272.307692307693,4570.256410256411,4464.102564102564,4435.8974358974365,4417.948717948719,4723.589743589744,4318.461538461539,4225.641025641026,4228.717948717949,4498.974358974359
606.7714,0.32089633,1.0,0.33333334,0.5522388,1,0.0,0.0,0.0,0.0,0.0,0,0,0.0,0.0,0,0,51.0,0.0,0.0,4639.48717948718,3919.48717948718,4522.564102564103,4438.461538461539,4274.871794871796,4572.820512820514,4468.717948717949,4458.461538461539,4431.282051282052,4742.051282051282,4330.256410256411,4256.410256410257,4279.48717948718,4597.948717948719
607.0529,0.38941184,0.9530156,0.33333334,0.5522388,0,0.0,0.0,0.0,0.0,0.6333362,0,0,0.0,0.0,0,0,87.0,0.0,522.0,4571.794871794872,3897.435897435898,4488.205128205129,4424.615384615385,4257.435897435898,4557.435897435898,4465.128205128206,4452.820512820514,4418.974358974359,4735.8974358974365,4333.333333333334,4227.6923076923085,4273.846153846154,4566.153846153847
607.27185,0.38941184,0.9530156,0.33333334,0.5522388,0,0.0,0.0,0.0,0.0,0.22714517,0,0,0.0,0.0,0,0,115.0,0.0,522.0,4572.820512820514,3919.48717948718,4489.2307692307695,4430.256410256411,4263.589743589744,4560.000000000001,4467.6923076923085,4453.333333333334,4421.025641025642,4737.948717948719,4324.615384615385,4224.615384615385,4268.717948717949,4541.538461538462
607.58466,0.44758394,0.8943559,0.33333334,0.5522388,1,0.0,0.0,0.0,0.0,0.0,0,0,0.0,0.0,0,0,26.0,0.0,0.0,4631.794871794872,3933.333333333334,4527.6923076923085,4440.512820512821,4252.307692307693,4549.2307692307695,4467.179487179487,4452.820512820514,4411.794871794872,4744.615384615386,4336.923076923077,4263.076923076924,4285.128205128206,4562.051282051282
607.7723,0.44758394,0.8943559,0.33333334,0.5522388,0,0.0,0.0,0.0,0.0,0.86458784,0,0,0.0,0.0,0,0,50.0,0.0,0.0,4584.615384615385,3933.333333333334,4522.051282051282,4439.48717948718,4253.846153846154,4549.2307692307695,4480.000000000001,4468.205128205129,4422.564102564103,4747.6923076923085,4337.435897435898,4265.128205128206,4270.769230769231,4547.179487179488
608.0538,0.49074587,0.84869784,0.33333334,0.5522388,0,0.0,0.0,0.0,0.0,0.6556681,0,0,0.0,0.0,0,0,86.0,0.0,557.0,4577.435897435898,3930.7692307692314,4518.974358974359,4427.6923076923085,4237.435897435898,4537.948717948719,4468.717948717949,4463.076923076924,4403.076923076924,4739.48717948718,4339.48717948718,4251.794871794872,4237.435897435898,4504.102564102564
608.27277,0.49074587,0.84869784,0.33333334,0.5522388,0,0.0,0.0,0.0,0.0,0.5582029,0,0,0.0,0.0,0,0,114.0,0.0,557.0,4592.820512820514,3942.0512820512827,4525.641025641026,4437.948717948719,4232.820512820514,4526.666666666667,4465.128205128206,4449.2307692307695,4394.871794871796,4736.923076923077,4343.076923076924,4253.333333333334,4223.589743589744,4513.846153846154
608.5542,0.45059696,0.81082594,0.33333334,0.5522388,0,0.0,0.0,0.0,0.0,0.3274047,0,0,0.0,0.0,0,0,21.0,0.0,0.0,4572.307692307693,3915.8974358974365,4507.179487179488,4428.717948717949,4247.6923076923085,4542.051282051282,4463.076923076924,4446.666666666667,4400.512820512821,4732.820512820514,4337.948717948719,4228.205128205129,4216.923076923077,4501.538461538462
608.7732,0.45059696,0.81082594,0.33333334,0.5522388,0,0.0,0.0,0.0,0.0,0.46310475,0,0,0.0,0.0,0,0,49.0,0.0,0.0,4572.307692307693,3927.692307692308,4507.6923076923085,4432.307692307693,4262.051282051282,4558.461538461539,4463.076923076924,4447.6923076923085,4413.846153846154,4737.435897435898,4324.615384615385,4172.820512820514,4211.282051282052,4466.153846153847
609.0547,0.43569311,0.7593558,0.33333334,0.5522388,0,0.0,0.0,0.0,0.0,1.0,0,0,0.0,0.0,0,0,85.0,0.0,518.0,4568.205128205129,3914.358974358975,4489.2307692307695,4427.6923076923085,4266.153846153847,4564.615384615385,4477.435897435898,4477.435897435898,4424.615384615385,4747.179487179488,4323.589743589744,4176.410256410257,4279.48717948718,4222.564102564103
609.0547,0.43569311,0.7593558,0.33333334,0.5522388,0,0.0,0.0,0.0,0.0,1.0,0,0,0.0,0.0,0,0,85.0,0.0,518.0,4568.205128205129,3914.358974358975,4489.2307692307695,4427.6923076923085,4266.153846153847,4564.615384615385,4477.435897435898,4477.435897435898,4424.615384615385,4747.179487179488,4323.589743589744,4176.410256410257,4279.48717948718,4222.564102564103
609.5551,0.50656676,0.7154111,0.33333334,0.5522388,0,0.0,0.0,0.0,0.0,0.82272726,0,0,0.0,0.0,0,0,20.0,0.0,0.0,4625.641025641026,3910.7692307692314,4538.974358974359,4435.8974358974365,4254.871794871796,4550.256410256411,4480.512820512821,4502.564102564103,4369.743589743591,4761.538461538462,4332.307692307693,4253.846153846154,4358.461538461539,4618.461538461539
609.6489,0.50656676,0.7154111,0.33333334,0.5522388,0,0.0,0.0,0.0,0.0,1.0,0,0,0.0,0.0,0,0,32.0,0.0,0.0,4643.589743589744,3918.9743589743593,4542.051282051282,4437.948717948719,4251.282051282052,4550.769230769231,4466.666666666667,4496.923076923077,4337.435897435898,4751.794871794872,4334.871794871796,4276.923076923077,4353.333333333334,4663.076923076924
610.05554,0.43741366,0.67705214,0.33333334,0.5522388,0,0.0,0.0,0.0,0.0,0.9360315,0,0,0.0,0.0,0,0,84.0,0.0,62.0,4692.820512820514,3933.8461538461543,4537.948717948719,4443.589743589744,4228.717948717949,4526.153846153847,4477.948717948719,4511.794871794872,4286.153846153847,4743.589743589744,4345.641025641026,4311.282051282052,4320.000000000001,4635.384615384616
610.14935,0.43741366,0.67705214,0.33333334,0.5522388,0,0.0,0.0,0.0,0.0,1.0,0,0,0.0,0.0,0,0,96.0,0.0,62.0,4822.051282051282,3937.9487179487182,4572.820512820514,4447.6923076923085,4230.769230769231,4525.641025641026,4473.333333333334,4520.512820512821,4277.948717948719,4750.256410256411,4364.102564102564,4374.871794871796,4366.153846153847,4770.256410256411
610.55597,0.5618834,0.6479331,0.33333334,0.5522388,0,0.0,0.0,0.0,0.0,1.0,0,0,0.0,0.0,0,0,19.0,0.0,0.0,4692.820512820514,3926.1538461538466,4519.48717948718,4441.025641025642,4223.076923076924,4515.8974358974365,4459.48717948718,4481.538461538462,4274.871794871796,4726.153846153847,4367.6923076923085,4331.282051282052,4250.256410256411,4595.8974358974365
610.7749,0.5618834,0.6479331,0.33333334,0.5522388,0,0.0,0.0,0.0,0.0,0.52352834,0,0,0.0,0.0,0,0,47.0,0.0,0.0,4682.051282051282,3928.205128205129,4493.846153846154,4441.538461538462,4232.820512820514,4526.153846153847,4452.820512820514,4493.846153846154,4301.025641025642,4728.717948717949,4373.846153846154,4317.948717948719,4236.923076923077,4561.025641025642
611.0564,0.57558316,0.6220588,0.33333334,0.5522388,0,0.0,0.0,0.0,0.0,0.3385532,0,0,0.0,0.0,0,0,83.0,0.0,519.0,4821.025641025642,3958.9743589743593,4539.48717948718,4451.282051282052,4224.102564102564,4523.076923076924,4442.051282051282,4468.717948717949,4307.6923076923085,4729.2307692307695,4384.615384615385,4360.000000000001,4255.384615384616,4682.051282051282
611.2753,0.57558316,0.6220588,0.33333334,0.5522388,0,0.0,0.0,0.0,0.0,0.58103025,0,0,0.0,0.0,0,0,111.0,0.0,519.0,4674.871794871796,3967.692307692308,4503.589743589744,4468.717948717949,4264.615384615385,4559.48717948718,4468.717948717949,4482.564102564103,4344.102564102564,4731.282051282052,4387.6923076923085,4323.076923076924,4222.564102564103,4562.564102564103
611.5568,0.51765335,0.6128521,0.33333334,0.5522388,0,0.0,0.0,0.0,0.0,0.8474442,0,0,0.0,0.0,0,0,18.0,0.0,0.0,4664.102564102564,3956.9230769230776,4488.717948717949,4453.333333333334,4243.076923076924,4542.051282051282,4450.256410256411,4459.48717948718,4347.6923076923085,4725.641025641026,4389.2307692307695,4301.538461538462,4182.564102564103,4526.666666666667
611.77576,0.51765335,0.6128521,0.33333334,0.5522388,0,0.0,0.0,0.0,0.0,0.16345242,0,0,0.0,0.0,0,0,46.0,0.0,0.0,4661.538461538462,3961.538461538462,4477.948717948719,4448.205128205129,4235.8974358974365,4536.923076923077,4436.410256410257,4437.435897435898,4345.128205128206,4718.974358974359,4388.717948717949,4283.589743589744,4175.384615384616,4548.205128205129
612.05725,0.5790016,0.59323406,0.33333334,0.5522388,0,0.0,0.0,0.0,0.0,0.0,0,0,0.0,0.0,0,0,82.0,0.0,557.0,4649.2307692307695,3958.9743589743593,4476.410256410257,4445.641025641026,4239.48717948718,4540.000000000001,4438.461538461539,4433.333333333334,4351.794871794872,4715.8974358974365,4394.358974358975,4271.282051282052,4171.794871794872,4508.717948717949
612.05725,0.5790016,0.59323406,0.33333334,0.5522388,0,0.0,0.0,0.0,0.0,0.0,0,0,0.0,0.0,0,0,82.0,0.0,557.0,4649.2307692307695,3958.9743589743593,4476.410256410257,4445.641025641026,4239.48717948718,4540.000000000001,4438.461538461539,4433.333333333334,4351.794871794872,4715.8974358974365,4394.358974358975,4271.282051282052,4171.794871794872,4508.717948717949
612.5577,0.59344006,0.55717844,0.33333334,0.5522388,0,0.0,0.0,0.0,0.0,0.0,0,0,0.0,0.0,0,0,17.0,0.0,0.0,4648.205128205129,3945.1282051282055,4477.435897435898,4442.051282051282,4241.538461538462,4546.153846153847,4453.333333333334,4441.025641025642,4371.794871794872,4716.410256410257,4398.461538461539,4258.461538461539,4159.48717948718,4499.48717948718
612.7766,0.59344006,0.55717844,0.33333334,0.5522388,0,0.0,0.0,0.0,0.0,0.43358886,0,0,0.0,0.0,0,0,45.0,0.0,0.0,4636.923076923077,3945.1282051282055,4473.846153846154,4442.051282051282,4243.076923076924,4547.179487179488,4454.871794871796,4444.102564102564,4391.282051282052,4717.948717948719,4395.8974358974365,4260.512820512821,4171.282051282052,4503.076923076924
613.0581,0.52212423,0.52696145,0.33333334,0.5522388,0,0.0,0.0,0.0,0.0,0.33172458,0,0,0.0,0.0,0,0,81.0,0.0,518.0,4642.564102564103,3976.9230769230776,4492.820512820514,4455.8974358974365,4253.333333333334,4549.743589743591,4456.410256410257,4431.794871794872,4375.384615384616,4709.743589743591,4390.256410256411,4229.2307692307695,4119.48717948718,4453.846153846154
613.27704,0.52212423,0.52696145,0.33333334,0.5522388,0,0.0,0.0,0.0,0.0,0.49697617,0,0,0.0,0.0,0,0,109.0,0.0,518.0,4625.641025641026,3962.564102564103,4471.794871794872,4443.589743589744,4250.256410256411,4546.666666666667,4443.076923076924,4417.435897435898,4390.769230769231,4710.769230769231,4390.256410256411,4208.717948717949,4127.6923076923085,4461.538461538462
613.55853,0.5736536,0.49511942,0.33333334,0.5522388,0,0.0,0.0,0.0,0.0,0.21276589,0,0,0.0,0.0,0,0,16.0,0.0,0.0,4621.025641025642,3971.7948717948725,4505.641025641026,4454.358974358975,4256.410256410257,4556.923076923077,4463.076923076924,4436.923076923077,4394.358974358975,4712.307692307693,4389.743589743591,4227.6923076923085,4138.974358974359,4459.48717948718
613.65234,0.5736536,0.49511942,0.33333334,0.5522388,0,0.0,0.0,0.0,0.0,0.0,0,0,0.0,0.0,0,0,28.0,0.0,0.0,4631.282051282052,3961.538461538462,4504.615384615385,4450.256410256411,4256.410256410257,4556.410256410257,4450.769230769231,4431.794871794872,4400.512820512821,4712.307692307693,4390.256410256411,4232.820512820514,4148.205128205129,4472.820512820514
614.05896,0.49660197,0.4671696,0.33333334,0.5522388,0,0.0,0.0,0.0,0.0,0.0,0,0,0.0,0.0,0,0,80.0,0.0,62.0,4621.025641025642,3952.820512820513,4498.974358974359,4444.102564102564,4253.846153846154,4552.820512820514,4457.948717948719,4436.923076923077,4397.948717948719,4717.435897435898,4386.153846153847,4229.2307692307695,4155.384615384616,4506.153846153847
614.05896,0.49660197,0.4671696,0.33333334,0.5522388,0,0.0,0.0,0.0,0.0,0.0,0,0,0.0,0.0,0,0,80.0,0.0,62.0,4621.025641025642,3952.820512820513,4498.974358974359,4444.102564102564,4253.846153846154,4552.820512820514,4457.948717948719,4436.923076923077,4397.948717948719,4717.435897435898,4386.153846153847,4229.2307692307695,4155.384615384616,4506.153846153847
614.5594,0.4292186,0.44937104,0.33333334,0.5522388,1,0.0,0.0,0.0,0.0,0.0,0,0,0.0,0.0,0,0,15.0,0.0,520.0,4635.384615384616,3943.076923076924,4521.025641025642,4442.564102564103,4253.333333333334,4554.358974358975,4458.461538461539,4447.6923076923085,4426.153846153847,4726.153846153847,4387.6923076923085,4264.615384615385,4186.153846153847,4541.538461538462
614.6532,0.4292186,0.44937104,0.33333334,0.5522388,0,0.0,0.0,0.0,0.0,0.0,0,0,0.0,0.0,0,0,27.0,0.0,0.0,4618.974358974359,3944.615384615385,4508.717948717949,4442.051282051282,4254.871794871796,4555.8974358974365,4458.461538461539,4432.820512820514,4416.410256410257,4727.179487179488,4382.051282051282,4247.6923076923085,4184.615384615385,4540.000000000001
615.0598,0.3758474,0.42864043,0.33333334,0.5522388,0,0.0,0.0,0.0,0.0,0.2862756,0,0,0.0,0.0,0,0,79.0,0.0,520.0,4620.000000000001,3943.589743589744,4514.871794871796,4444.102564102564,4267.179487179487,4564.615384615385,4471.794871794872,4453.333333333334,4432.307692307693,4727.6923076923085,4384.102564102564,4255.384615384616,4191.794871794872,4529.2307692307695
615.27875,0.3758474,0.42864043,0.33333334,0.5522388,1,0.0,0.0,0.0,0.0,1.0,0,0,0.0,0.0,0,0,107.0,0.0,520.0,4635.8974358974365,3956.410256410257,4519.48717948718,4450.256410256411,4273.333333333334,4573.333333333334,4470.769230769231,4433.846153846154,4410.769230769231,4725.128205128206,4373.333333333334,4234.358974358975,4137.435897435898,4521.538461538462
615.56024,0.3725317,0.43519536,0.33333334,0.5522388,0,0.0,0.0,0.0,0.0,0.86115855,0,0,0.0,0.0,0,0,14.0,0.0,557.0,4584.615384615385,3941.0256410256416,4506.153846153847,4440.512820512821,4264.615384615385,4562.051282051282,4472.820512820514,4452.307692307693,4420.512820512821,4726.666666666667,4377.435897435898,4238.974358974359,4151.794871794872,4492.307692307693
615.7792,0.3725317,0.43519536,0.33333334,0.5522388,0,0.0,0.0,0.0,0.0,0.5800796,0,0,0.0,0.0,0,0,42.0,0.0,0.0,4582.051282051282,3934.8717948717954,4489.743589743591,4429.2307692307695,4246.666666666667,4545.128205128206,4446.153846153847,4422.564102564103,4390.256410256411,4715.8974358974365,4364.615384615385,4205.128205128206,4135.384615384616,4464.102564102564
616.06067,0.40510085,0.4525669,0.33333334,0.5522388,0,0.0,0.0,0.0,0.0,0.93296087,0,0,0.0,0.0,0,0,78.0,0.0,557.0,4642.051282051282,3940.0000000000005,4521.538461538462,4427.6923076923085,4244.102564102564,4542.051282051282,4447.179487179487,4434.358974358975,4399.48717948718,4721.538461538462,4365.128205128206,4237.948717948719,4160.512820512821,4514.871794871796
616.2796,0.40510085,0.4525669,0.33333334,0.5522388,0,0.0,0.0,0.0,0.0,0.6537811,0,0,0.0,0.0,0,0,106.0,0.0,557.0,4591.794871794872,3933.8461538461543,4510.769230769231,4431.282051282052,4252.307692307693,4552.820512820514,4467.6923076923085,4451.282051282052,4413.333333333334,4726.153846153847,4366.153846153847,4238.974358974359,4138.974358974359,4505.128205128206
616.5611,0.32600182,0.45527866,0.33333334,0.5522388,0,0.0,0.0,0.0,0.0,0.29951167,0,0,0.0,0.0,0,0,13.0,0.0,518.0,4585.128205128206,3929.2307692307695,4502.564102564103,4430.769230769231,4250.256410256411,4552.820512820514,4471.794871794872,4463.076923076924,4428.205128205129,4734.871794871796,4367.6923076923085,4237.948717948719,4181.025641025642,4524.615384615385
616.78,0.32600182,0.45527866,0.33333334,0.5522388,0,0.0,0.0,0.0,0.0,0.0827447,0,0,0.0,0.0,0,0,41.0,0.0,0.0,4605.641025641026,3935.3846153846157,4515.384615384616,4435.384615384616,4251.794871794872,4555.384615384616,4476.410256410257,4455.8974358974365,4421.538461538462,4732.820512820514,4365.641025641026,4239.48717948718,4192.307692307693,4534.871794871796
617.0615,0.3404185,0.46151167,0.33333334,0.5522388,0,0.0,0.0,0.0,0.0,0.811666,0,0,0.0,0.0,0,0,77.0,0.0,518.0,4618.461538461539,3934.358974358975,4527.6923076923085,4441.025641025642,4255.384615384616,4556.923076923077,4480.512820512821,4461.025641025642,4419.48717948718,4735.384615384616,4374.358974358975,4250.256410256411,4194.871794871796,4528.205128205129
617.1554,0.3404185,0.46151167,0.33333334,0.5522388,0,0.0,0.0,0.0,0.0,1.0,0,0,0.0,0.0,0,0,89.0,0.0,518.0,4629.743589743591,3944.1025641025644,4545.641025641026,4442.564102564103,4262.051282051282,4558.974358974359,4491.794871794872,4478.974358974359,4439.48717948718,4748.205128205129,4374.871794871796,4279.48717948718,4215.8974358974365,4563.589743589744
617.56195,0.35476157,0.43928522,0.33333334,0.5522388,0,0.0,0.0,0.0,0.0,0.08262543,0,0,0.0,0.0,0,0,12.0,0.0,62.0,4618.461538461539,3933.8461538461543,4535.384615384616,4428.205128205129,4250.256410256411,4548.205128205129,4468.717948717949,4451.794871794872,4416.923076923077,4744.615384615386,4376.410256410257,4273.846153846154,4200.512820512821,4545.641025641026
617.87476,0.35476157,0.43928522,0.33333334,0.5522388,0,0.0,0.0,0.0,0.0,1.0,0,0,0.0,0.0,0,0,52.0,0.0,0.0,4602.051282051282,3941.0256410256416,4538.974358974359,4444.102564102564,4250.256410256411,4553.846153846154,4476.410256410257,4446.666666666667,4397.948717948719,4731.794871794872,4364.615384615385,4252.307692307693,4146.666666666667,4509.743589743591
618.0624,0.40935907,0.4236333,0.33333334,0.5522388,0,0.0,0.0,0.0,0.0,1.0,0,0,0.0,0.0,0,0,76.0,0.0,62.0,4616.410256410257,3932.820512820513,4538.461538461539,4439.48717948718,4243.589743589744,4547.6923076923085,4465.641025641026,4439.48717948718,4393.333333333334,4730.256410256411,4371.794871794872,4254.871794871796,4161.538461538462,4544.615384615385
618.2813,0.40935907,0.4236333,0.33333334,0.5522388,0,0.0,0.0,0.0,0.0,0.5362456,0,0,0.0,0.0,0,0,104.0,0.0,62.0,4647.179487179488,3944.615384615385,4559.48717948718,4445.128205128206,4258.461538461539,4555.384615384616,4482.564102564103,4472.820512820514,4438.974358974359,4754.358974358975,4377.435897435898,4310.769230769231,4239.48717948718,4629.2307692307695
618.5628,0.4363791,0.41300887,0.33333334,0.5522388,0,0.0,0.0,0.0,0.0,0.0,0,0,0.0,0.0,0,0,11.0,0.0,520.0,4616.410256410257,3952.820512820513,4554.358974358975,4460.000000000001,4262.564102564103,4564.102564102564,4496.410256410257,4482.051282051282,4437.948717948719,4754.358974358975,4382.564102564103,4300.000000000001,4226.153846153847,4600.000000000001
618.5628,0.4363791,0.41300887,0.33333334,0.5522388,0,0.0,0.0,0.0,0.0,0.0,0,0,0.0,0.0,0,0,11.0,0.0,520.0,4616.410256410257,3952.820512820513,4554.358974358975,4460.000000000001,4262.564102564103,4564.102564102564,4496.410256410257,4482.051282051282,4437.948717948719,4754.358974358975,4382.564102564103,4300.000000000001,4226.153846153847,4600.000000000001
619.06323,0.44387585,0.4201887,0.33333334,0.5522388,0,0.0,0.0,0.0,0.0,0.868071,0,0,0.0,0.0,0,0,75.0,0.0,520.0,4609.2307692307695,3940.5128205128212,4523.076923076924,4429.743589743591,4229.2307692307695,4534.358974358975,4448.717948717949,4449.2307692307695,4391.282051282052,4727.179487179488,4365.641025641026,4249.2307692307695,4145.128205128206,4506.666666666667
619.2822,0.44387585,0.4201887,0.33333334,0.5522388,0,0.0,0.0,0.0,0.0,0.538299,0,0,0.0,0.0,0,0,103.0,0.0,520.0,4626.153846153847,3945.6410256410263,4540.000000000001,4441.538461538462,4240.512820512821,4544.615384615385,4465.128205128206,4453.846153846154,4384.615384615385,4728.717948717949,4368.717948717949,4256.923076923077,4150.256410256411,4519.48717948718
619.5637,0.44514552,0.42668322,0.33333334,0.5522388,0,0.0,0.0,0.0,0.0,0.59204656,0,0,0.0,0.0,0,0,10.0,0.0,560.0,4757.435897435898,3971.2820512820517,4567.179487179488,4441.025641025642,4228.205128205129,4529.743589743591,4449.743589743591,4434.871794871796,4360.000000000001,4727.179487179488,4365.128205128206,4272.820512820514,4161.025641025642,4614.871794871796
619.8139,0.44514552,0.42668322,0.33333334,0.5522388,0,0.0,0.0,0.0,0.0,0.8450447,0,0,0.0,0.0,0,0,42.0,0.0,0.0,4613.333333333334,3944.1025641025644,4538.974358974359,4433.333333333334,4247.6923076923085,4546.153846153847,4466.666666666667,4455.8974358974365,4380.512820512821,4721.538461538462,4360.512820512821,4245.128205128206,4145.128205128206,4475.8974358974365
620.06415,0.3701416,0.43226606,0.33333334,0.5522388,0,0.0,0.0,0.0,0.0,0.7413323,0,0,0.0,0.0,0,0,74.0,0.0,560.0,4580.512820512821,3935.3846153846157,4513.333333333334,4431.794871794872,4248.205128205129,4552.307692307693,4452.307692307693,4425.641025641026,4360.000000000001,4708.717948717949,4353.333333333334,4212.820512820514,4131.282051282052,4448.205128205129
620.2831,0.3701416,0.43226606,0.33333334,0.5522388,0,0.0,0.0,0.0,0.0,0.29928374,0,0,0.0,0.0,0,0,102.0,0.0,560.0,4597.435897435898,3938.9743589743593,4523.589743589744,4433.846153846154,4249.2307692307695,4551.282051282052,4458.461538461539,4440.512820512821,4393.333333333334,4722.564102564103,4358.974358974359,4228.205128205129,4192.820512820514,4517.948717948719
620.5646,0.3021335,0.4297994,0.33333334,0.5522388,0,0.0,0.0,0.0,0.0,0.2509962,0,0,0.0,0.0,0,0,9.0,0.0,167.0,4571.282051282052,3912.820512820513,4516.410256410257,4426.153846153847,4247.179487179487,4550.769230769231,4468.205128205129,4440.000000000001,4401.538461538462,4729.2307692307695,4356.923076923077,4229.2307692307695,4204.102564102564,4517.948717948719
620.7835,0.3021335,0.4297994,0.33333334,0.5522388,0,0.0,0.0,0.0,0.0,0.32169908,0,0,0.0,0.0,0,0,37.0,0.0,0.0,4585.128205128206,3914.8717948717954,4516.410256410257,4429.743589743591,4258.461538461539,4560.000000000001,4464.102564102564,4429.743589743591,4391.794871794872,4727.6923076923085,4346.666666666667,4212.307692307693,4217.948717948719,4518.461538461539
621.065,0.3438868,0.41816095,0.33333334,0.5522388,0,0.0,0.0,0.0,0.0,0.250942,0,0,0.0,0.0,0,0,73.0,0.0,167.0,4571.794871794872,3912.307692307693,4503.076923076924,4428.205128205129,4258.974358974359,4558.974358974359,4458.461538461539,4426.153846153847,4383.076923076924,4724.615384615386,4356.410256410257,4208.717948717949,4210.769230769231,4489.2307692307695
621.1588,0.3438868,0.41816095,0.33333334,0.5522388,0,0.0,0.0,0.0,0.0,1.0,0,0,0.0,0.0,0,0,85.0,0.0,518.0,4586.153846153847,3912.820512820513,4509.2307692307695,4431.282051282052,4256.410256410257,4562.564102564103,4455.384615384616,4424.102564102564,4397.435897435898,4727.179487179488,4357.435897435898,4214.358974358975,4216.410256410257,4490.256410256411
621.5654,0.30673903,0.41315064,0.33333334,0.5522388,0,0.0,0.0,0.0,0.0,1.0,0,0,0.0,0.0,0,0,8.0,0.0,503.0,4597.435897435898,3923.076923076924,4515.8974358974365,4426.666666666667,4243.076923076924,4546.666666666667,4448.205128205129,4419.48717948718,4360.000000000001,4714.358974358975,4350.256410256411,4213.333333333334,4175.384615384616,4533.846153846154
621.78436,0.30673903,0.41315064,0.33333334,0.5522388,0,0.0,0.0,0.0,0.0,0.0,0,0,0.0,0.0,0,0,36.0,0.0,0.0,4637.435897435898,3941.538461538462,4540.000000000001,4432.307692307693,4243.076923076924,4545.641025641026,4456.410256410257,4428.717948717949,4359.48717948718,4718.974358974359,4346.666666666667,4248.717948717949,4196.410256410257,4558.461538461539
622.06586,0.33110484,0.39935887,0.33333334,0.5522388,0,0.0,0.0,0.0,0.0,0.0,0,0,0.0,0.0,0,0,72.0,0.0,503.0,4610.256410256411,3937.9487179487182,4530.256410256411,4433.333333333334,4242.564102564103,4545.128205128206,4470.256410256411,4446.666666666667,4375.384615384616,4720.000000000001,4354.358974358975,4244.102564102564,4181.025641025642,4537.948717948719
622.06586,0.33110484,0.39935887,0.33333334,0.5522388,0,0.0,0.0,0.0,0.0,0.0,0,0,0.0,0.0,0,0,72.0,0.0,503.0,4610.256410256411,3937.9487179487182,4530.256410256411,4433.333333333334,4242.564102564103,4545.128205128206,4470.256410256411,4446.666666666667,4375.384615384616,4720.000000000001,4354.358974358975,4244.102564102564,4181.025641025642,4537.948717948719
622.59753,0.29958114,0.38795456,0.33333334,0.5522388,1,0.0,0.0,0.0,0.0,0.0,0,0,0.0,0.0,0,0,11.0,0.0,520.0,4665.128205128206,3946.666666666667,4544.102564102564,4441.025641025642,4239.48717948718,4540.000000000001,4455.8974358974365,4436.410256410257,4375.384615384616,4723.589743589744,4356.410256410257,4269.2307692307695,4184.615384615385,4558.461538461539
622.7852,0.29958114,0.38795456,0.33333334,0.5522388,0,0.0,0.0,0.0,0.0,0.7947842,0,0,0.0,0.0,0,0,35.0,0.0,0.0,4608.717948717949,3936.9230769230776,4535.384615384616,4438.974358974359,4244.102564102564,4545.641025641026,4467.179487179487,4457.948717948719,4410.769230769231,4727.6923076923085,4358.974358974359,4277.435897435898,4190.769230769231,4517.435897435898
623.0667,0.26085415,0.38579616,0.33333334,0.5522388,0,0.0,0.0,0.0,0.0,0.6486049,0,0,0.0,0.0,0,0,71.0,0.0,496.0,4602.564102564103,3938.9743589743593,4525.641025641026,4440.512820512821,4245.641025641026,4546.153846153847,4468.717948717949,4452.307692307693,4405.641025641026,4733.333333333334,4357.435897435898,4262.051282051282,4177.435897435898,4545.128205128206
623.28564,0.26085415,0.38579616,0.33333334,0.5522388,0,0.0,0.0,0.0,0.0,0.33836964,0,0,0.0,0.0,0,0,99.0,0.0,520.0,4621.538461538462,3958.9743589743593,4538.461538461539,4446.666666666667,4245.128205128206,4547.6923076923085,4466.666666666667,4446.666666666667,4401.538461538462,4727.179487179488,4358.461538461539,4273.846153846154,4194.358974358975,4565.128205128206
623.56714,0.21826573,0.38444752,0.33333334,0.5522388,0,0.0,0.0,0.0,0.0,0.21090181,0,0,0.0,0.0,0,0,6.0,0.0,588.0,4604.615384615385,3946.1538461538466,4530.256410256411,4441.025641025642,4240.000000000001,4537.435897435898,4464.615384615385,4437.948717948719,4389.743589743591,4726.153846153847,4355.384615384616,4267.6923076923085,4170.769230769231,4541.025641025642
623.7861,0.21826573,0.38444752,0.33333334,0.5522388,0,0.0,0.0,0.0,0.0,0.30938596,0,0,0.0,0.0,0,0,34.0,0.0,0.0,4598.461538461539,3937.9487179487182,4523.589743589744,4436.923076923077,4236.410256410257,4538.974358974359,4465.641025641026,4434.358974358975,4387.179487179487,4724.615384615386,4354.871794871796,4262.564102564103,4160.512820512821,4518.974358974359
624.06757,0.19300243,0.3844153,0.33333334,0.5522388,1,0.0,0.0,0.0,0.0,0.0,0,0,0.0,0.0,0,0,70.0,0.0,588.0,4703.076923076924,3953.333333333334,4541.025641025642,4443.076923076924,4228.205128205129,4533.333333333334,4439.48717948718,4413.333333333334,4372.307692307693,4724.615384615386,4359.48717948718,4271.794871794872,4191.282051282052,4562.051282051282
624.2865,0.19300243,0.3844153,0.33333334,0.5522388,0,0.0,0.0,0.0,0.0,0.78520954,0,0,0.0,0.0,0,0,98.0,0.0,560.0,4640.000000000001,3936.9230769230776,4524.102564102564,4440.000000000001,4241.538461538462,4548.205128205129,4470.256410256411,4439.48717948718,4393.333333333334,4729.743589743591,4359.48717948718,4266.666666666667,4176.923076923077,4507.179487179488
624.568,0.1697576,0.37953714,0.33333334,0.5522388,0,0.0,0.0,0.0,0.0,0.2336181,0,0,0.0,0.0,0,0,5.0,0.0,573.0,4642.564102564103,3936.410256410257,4525.128205128206,4434.871794871796,4244.615384615385,4543.076923076924,4465.641025641026,4443.076923076924,4389.743589743591,4726.153846153847,4359.48717948718,4260.512820512821,4165.641025641026,4496.410256410257
624.7869,0.1697576,0.37953714,0.33333334,0.5522388,0,0.0,0.0,0.0,0.0,0.21317537,0,0,0.0,0.0,0,0,33.0,0.0,0.0,4625.128205128206,3922.0512820512827,4507.6923076923085,4430.256410256411,4242.051282051282,4535.384615384616,4454.871794871796,4433.333333333334,4384.102564102564,4721.538461538462,4347.6923076923085,4236.410256410257,4155.8974358974365,4518.974358974359
625.0684,0.15262316,0.37062344,0.33333334,0.5522388,0,0.0,0.0,0.0,0.0,1.0,0,0,0.0,0.0,0,0,69.0,0.0,573.0,4662.051282051282,3935.8974358974365,4534.871794871796,4445.128205128206,4253.333333333334,4550.256410256411,4486.666666666667,4460.000000000001,4413.846153846154,4729.743589743591,4359.48717948718,4290.769230769231,4193.846153846154,4335.8974358974365
625.0684,0.15262316,0.37062344,0.33333334,0.5522388,0,0.0,0.0,0.0,0.0,1.0,0,0,0.0,0.0,0,0,69.0,0.0,573.0,4662.051282051282,3935.8974358974365,4534.871794871796,4445.128205128206,4253.333333333334,4550.256410256411,4486.666666666667,4460.000000000001,4413.846153846154,4729.743589743591,4359.48717948718,4290.769230769231,4193.846153846154,4335.8974358974365
625.56885,0.11829316,0.3879541,0.33333334,0.5522388,0,0.0,0.0,0.0,0.0,1.0,0,0,0.0,0.0,0,0,4.0,0.0,575.0,4612.307692307693,3929.2307692307695,4504.102564102564,4431.794871794872,4234.358974358975,4533.846153846154,4464.615384615385,4439.48717948718,4388.717948717949,4728.205128205129,4357.948717948719,4249.2307692307695,4173.333333333334,4536.923076923077
625.7878,0.11829316,0.3879541,0.33333334,0.5522388,0,0.0,0.0,0.0,0.0,0.7474461,0,0,0.0,0.0,0,0,32.0,0.0,0.0,4603.076923076924,3923.076923076924,4502.564102564103,4427.6923076923085,4234.358974358975,4533.333333333334,4451.794871794872,4435.384615384616,4390.769230769231,4725.641025641026,4353.333333333334,4243.076923076924,4160.000000000001,4508.205128205129
626.0693,0.07550614,0.3919498,0.33333334,0.5522388,0,0.0,0.0,0.0,0.0,0.0,0,0,0.0,0.0,0,0,68.0,0.0,575.0,4623.076923076924,3922.0512820512827,4520.000000000001,4428.205128205129,4230.769230769231,4535.384615384616,4459.48717948718,4440.000000000001,4386.666666666667,4726.666666666667,4358.461538461539,4254.358974358975,4165.641025641026,4524.102564102564
626.35077,0.07550614,0.3919498,0.33333334,0.5522388,1,0.0,0.0,0.0,0.0,0.0,0,0,0.0,0.0,0,0,104.0,0.0,62.0,4649.2307692307695,3936.410256410257,4525.641025641026,4431.794871794872,4238.461538461539,4535.384615384616,4455.384615384616,4430.256410256411,4383.589743589744,4728.717948717949,4359.48717948718,4274.358974358975,4192.307692307693,4563.076923076924
