timestamp,excitement,frustration,meditation,engagementBoredom,blink,clench,laugh,smile,eyebrow,furrowBrow,lookLeft,lookRight,smirkLeft,smirkRight,winkLeft,winkRight,eeg0,eeg1,eeg2,eeg3,eeg4,eeg5,eeg6,eeg7,eeg8,eeg9,eeg10,eeg11,eeg12,eeg13,eeg14,eeg15,eeg16
322.71484,0.7955364,1.0,0.3480653,0.65853673,1,0.0,0.0,0.0,0.0,0.67733204,0,0,0.0,0.0,0,0,128.0,0.0,429.0,4611.794871794872,4212.307692307693,4460.000000000001,4505.641025641026,4215.8974358974365,4483.589743589744,4359.48717948718,4347.179487179487,4226.666666666667,4593.846153846154,4214.358974358975,4118.461538461539,4089.7435897435903,4432.820512820514
322.9025,0.8149116,1.0,0.34658208,0.64783597,0,0.0,0.0,0.0,0.0,0.9078515,0,0,0.0,0.0,0,0,23.0,0.0,0.0,4488.205128205129,4165.641025641026,4442.051282051282,4478.461538461539,4218.461538461539,4493.333333333334,4348.717948717949,4322.051282051282,4238.974358974359,4585.128205128206,4207.6923076923085,4104.102564102564,4089.23076923077,4442.051282051282
323.02762,0.8149116,1.0,0.34658208,0.64783597,0,0.0,0.0,0.0,0.0,1.0,0,0,0.0,0.0,0,0,39.0,0.0,0.0,4524.615384615385,4141.025641025642,4459.48717948718,4474.871794871796,4218.461538461539,4493.846153846154,4390.256410256411,4390.769230769231,4278.974358974359,4631.282051282052,4237.948717948719,4143.076923076924,4126.153846153847,4541.025641025642
323.40292,0.8669164,1.0,0.34524754,0.6382122,0,0.0,0.0,0.0,0.0,1.0,0,0,0.0,0.0,0,0,87.0,0.0,520.0,4685.128205128206,4071.2820512820517,4429.2307692307695,4461.538461538462,4222.564102564103,4500.000000000001,4381.025641025642,4356.923076923077,4279.48717948718,4578.461538461539,4252.307692307693,4157.435897435898,4182.564102564103,3404.1025641025644
323.65314,0.8669164,1.0,0.34524754,0.6382122,0,0.0,0.0,0.0,0.0,1.0,0,0,0.0,0.0,0,0,119.0,0.0,520.0,5035.8974358974365,4051.2820512820517,4481.025641025642,4460.000000000001,4206.153846153847,4487.179487179488,4450.256410256411,4428.717948717949,4276.923076923077,4643.076923076924,4283.076923076924,4202.564102564103,4237.435897435898,4875.384615384616
323.90335,0.898758,1.0,0.3440528,0.6295975,0,0.0,0.0,0.0,0.0,1.0,0,0,0.0,0.0,0,0,22.0,0.0,0.0,6014.3589743589755,4036.410256410257,4475.384615384616,4485.128205128206,4187.6923076923085,4475.384615384616,4480.000000000001,4489.743589743591,4282.051282051282,4694.871794871796,4336.923076923077,4255.8974358974365,4285.128205128206,4944.102564102564
323.90335,0.898758,1.0,0.3440528,0.6295975,0,0.0,0.0,0.0,0.0,1.0,0,0,0.0,0.0,0,0,22.0,0.0,0.0,6014.3589743589755,4036.410256410257,4475.384615384616,4485.128205128206,4187.6923076923085,4475.384615384616,4480.000000000001,4489.743589743591,4282.051282051282,4694.871794871796,4336.923076923077,4255.8974358974365,4285.128205128206,4944.102564102564
324.40378,1.0,1.0,0.3429784,0.62184876,0,0.0,0.0,0.0,0.0,0.8351876,0,0,0.0,0.0,0,0,86.0,0.0,557.0,5991.282051282052,3975.3846153846157,4485.641025641026,4462.051282051282,4194.358974358975,4491.794871794872,4472.820512820514,4507.179487179488,4254.358974358975,4669.743589743591,4379.48717948718,4330.256410256411,4262.051282051282,4939.48717948718
324.654,1.0,1.0,0.3429784,0.62184876,0,0.0,0.0,0.0,0.0,1.0,0,0,0.0,0.0,0,0,118.0,0.0,557.0,5651.282051282052,3976.410256410257,4492.307692307693,4445.641025641026,4185.641025641026,4490.256410256411,4476.923076923077,4516.410256410257,4238.974358974359,4626.153846153847,4393.846153846154,4349.743589743591,4188.717948717949,4874.358974358975
324.7791,1.0,1.0,0.34200734,0.61484843,0,0.0,0.0,0.0,0.0,1.0,0,0,0.0,0.0,0,0,5.0,0.0,569.0,5558.461538461539,3983.589743589744,4509.743589743591,4446.666666666667,4186.153846153847,4498.461538461539,4461.538461538462,4504.615384615385,4236.923076923077,4616.923076923077,4423.589743589744,4382.564102564103,4187.6923076923085,4868.205128205129
325.15442,1.0,1.0,0.34200734,0.61484843,0,0.0,0.0,0.0,0.0,0.16214444,0,0,0.0,0.0,0,0,53.0,0.0,0.0,5511.794871794872,4004.1025641025644,4509.743589743591,4442.051282051282,4200.000000000001,4496.923076923077,4422.051282051282,4465.128205128206,4222.564102564103,4569.2307692307695,4387.6923076923085,4411.282051282052,4133.846153846154,4830.769230769231
325.27954,1.0,1.0,0.34113365,0.6085507,0,0.0,0.0,0.0,0.0,1.0,0,0,0.0,0.0,0,0,69.0,0.0,569.0,5261.538461538462,3987.1794871794878,4467.179487179487,4427.6923076923085,4219.48717948718,4509.2307692307695,4439.48717948718,4475.384615384616,4249.74358974359,4550.256410256411,4339.48717948718,4347.6923076923085,4083.589743589744,4705.641025641026
325.27954,1.0,1.0,0.34113365,0.6085507,0,0.0,0.0,0.0,0.0,1.0,0,0,0.0,0.0,0,0,69.0,0.0,569.0,5261.538461538462,3987.1794871794878,4467.179487179487,4427.6923076923085,4219.48717948718,4509.2307692307695,4439.48717948718,4475.384615384616,4249.74358974359,4550.256410256411,4339.48717948718,4347.6923076923085,4083.589743589744,4705.641025641026
325.77997,0.9517893,1.0,0.3403468,0.60288113,0,0.0,0.0,0.0,0.0,1.0,0,0,0.0,0.0,0,0,4.0,0.0,571.0,4993.846153846154,3987.692307692308,4490.256410256411,4453.333333333334,4262.051282051282,4560.512820512821,4492.307692307693,4536.410256410257,4376.410256410257,4661.025641025642,4387.179487179487,4378.461538461539,4150.256410256411,4579.48717948718
326.1553,0.9517893,1.0,0.3403468,0.60288113,0,0.0,0.0,0.0,0.0,0.6172019,0,0,0.0,0.0,0,0,52.0,0.0,0.0,4870.256410256411,3994.358974358975,4471.794871794872,4430.256410256411,4263.076923076924,4569.743589743591,4453.846153846154,4507.179487179488,4384.615384615385,4670.256410256411,4390.769230769231,4330.769230769231,4154.871794871796,4558.974358974359
326.40552,0.8972166,1.0,0.33963877,0.5977799,0,0.0,0.0,0.0,0.0,1.0,0,0,0.0,0.0,0,0,84.0,0.0,429.0,4716.923076923077,4038.9743589743593,4468.205128205129,4429.743589743591,4273.333333333334,4576.923076923077,4411.794871794872,4450.256410256411,4357.435897435898,4647.6923076923085,4385.128205128206,4290.256410256411,4140.000000000001,4586.153846153847
326.40552,0.8972166,1.0,0.33963877,0.5977799,0,0.0,0.0,0.0,0.0,1.0,0,0,0.0,0.0,0,0,84.0,0.0,429.0,4716.923076923077,4038.9743589743593,4468.205128205129,4429.743589743591,4273.333333333334,4576.923076923077,4411.794871794872,4450.256410256411,4357.435897435898,4647.6923076923085,4385.128205128206,4290.256410256411,4140.000000000001,4586.153846153847
326.90594,0.9995506,1.0,0.33900222,0.59319293,0,0.0,0.0,0.0,0.0,0.8908867,0,0,0.0,0.0,0,0,19.0,0.0,0.0,4742.564102564103,3972.820512820513,4427.6923076923085,4400.512820512821,4255.384615384616,4553.333333333334,4426.153846153847,4427.6923076923085,4354.358974358975,4663.076923076924,4492.820512820514,4242.564102564103,4171.794871794872,4520.000000000001
327.15616,0.9995506,1.0,0.33900222,0.59319293,0,0.0,0.0,0.0,0.0,0.70492715,0,0,0.0,0.0,0,0,51.0,0.0,0.0,4709.2307692307695,3966.1538461538466,4467.179487179487,4400.000000000001,4225.641025641026,4529.743589743591,4455.8974358974365,4472.820512820514,4359.48717948718,4715.8974358974365,4483.589743589744,4287.6923076923085,4244.615384615385,4544.615384615385
327.40637,0.91125405,1.0,0.33967054,0.59050673,0,0.0,0.0,0.0,0.0,0.10275074,0,0,0.0,0.0,0,0,83.0,0.0,517.0,4684.102564102564,3947.692307692308,4477.435897435898,4406.153846153847,4223.589743589744,4535.384615384616,4482.051282051282,4526.153846153847,4326.153846153847,4661.538461538462,4437.435897435898,4326.153846153847,4216.410256410257,4493.333333333334
327.6566,0.91125405,1.0,0.33967054,0.59050673,0,0.0,0.08553599,0.0,0.0,0.0,0,0,0.0,0.0,0,0,115.0,0.0,517.0,4642.051282051282,3922.0512820512827,4466.153846153847,4398.461538461539,4208.205128205129,4512.820512820514,4469.743589743591,4528.205128205129,4314.871794871796,4649.743589743591,4453.846153846154,4332.307692307693,4207.179487179487,4475.8974358974365
327.9068,0.9882823,1.0,0.3438819,0.5904731,0,0.0,0.066820815,0.0,0.0,0.0,0,0,0.0,0.0,0,0,18.0,0.0,0.0,4566.666666666667,3896.9230769230776,4472.820512820514,4384.102564102564,4173.846153846154,4482.051282051282,4467.179487179487,4542.051282051282,4345.128205128206,4662.564102564103,4447.6923076923085,4332.307692307693,4186.153846153847,4448.205128205129
328.157,0.9882823,1.0,0.3438819,0.5904731,0,0.0,0.19141094,0.0,0.0,0.0,0,0,0.0,0.0,0,0,50.0,0.0,0.0,4497.435897435898,3902.564102564103,4473.333333333334,4391.794871794872,4181.538461538462,4486.666666666667,4465.128205128206,4517.948717948719,4338.974358974359,4634.358974358975,4409.2307692307695,4322.051282051282,4156.410256410257,4417.435897435898
328.40723,1.0,1.0,0.35161117,0.5904409,0,0.0,0.0,0.0,0.0,1.0,0,0,0.0,0.0,0,0,82.0,0.0,557.0,4513.846153846154,3903.589743589744,4471.282051282052,4403.589743589744,4192.820512820514,4493.846153846154,4465.641025641026,4521.538461538462,4344.102564102564,4612.820512820514,4380.000000000001,4328.205128205129,4149.74358974359,4462.564102564103
328.65744,1.0,1.0,0.35161117,0.5904409,0,0.0,0.0,0.0,1.0,0.0,0,0,0.0,0.0,0,0,114.0,0.0,557.0,4732.820512820514,3863.589743589744,4456.410256410257,4388.205128205129,4184.615384615385,4483.076923076924,4452.820512820514,4494.358974358975,4400.512820512821,4656.410256410257,4354.358974358975,4344.615384615385,4174.871794871796,4565.128205128206
328.90765,1.0,1.0,0.35858288,0.5904294,0,0.0,0.0,0.0,0.0,1.0,0,0,0.0,0.0,0,0,17.0,0.0,0.0,4851.282051282052,3858.9743589743593,4440.000000000001,4395.8974358974365,4199.48717948718,4501.025641025642,4437.435897435898,4521.538461538462,4463.589743589744,4680.512820512821,4329.743589743591,4328.205128205129,4157.435897435898,4562.564102564103
329.15787,1.0,1.0,0.35858288,0.5904294,0,0.0,0.0,0.0,0.0,0.47971377,0,0,0.0,0.0,0,0,49.0,0.0,0.0,4809.2307692307695,3894.358974358975,4430.769230769231,4395.384615384616,4190.256410256411,4491.794871794872,4395.8974358974365,4418.974358974359,4375.8974358974365,4586.153846153847,4215.384615384616,4226.666666666667,4025.6410256410263,4440.000000000001
329.40808,1.0,1.0,0.36089435,0.58802396,0,0.0,0.0,0.0,0.0,1.0,0,0,0.0,0.0,0,0,81.0,0.0,518.0,4686.666666666667,3893.333333333334,4425.641025641026,4391.282051282052,4197.435897435898,4498.461538461539,4376.410256410257,4404.615384615385,4422.051282051282,4608.205128205129,4220.000000000001,4216.923076923077,4054.8717948717954,4444.615384615385
329.40808,1.0,1.0,0.36089435,0.58802396,0,0.0,0.0,0.0,0.0,1.0,0,0,0.0,0.0,0,0,81.0,0.0,518.0,4686.666666666667,3893.333333333334,4425.641025641026,4391.282051282052,4197.435897435898,4498.461538461539,4376.410256410257,4404.615384615385,4422.051282051282,4608.205128205129,4220.000000000001,4216.923076923077,4054.8717948717954,4444.615384615385
329.78342,1.0,1.0,0.3593609,0.5844278,0,0.0,0.0,0.0,0.0,1.0,0,0,0.0,0.0,0,0,0.0,0.0,507.0,4425.641025641026,3910.7692307692314,4469.743589743591,4410.256410256411,4231.794871794872,4527.6923076923085,4421.538461538462,4470.769230769231,4459.48717948718,4665.641025641026,4281.025641025642,4257.948717948719,4106.666666666667,4490.769230769231
330.15872,1.0,1.0,0.3593609,0.5844278,0,0.0,0.0,0.0,0.0,0.56981075,0,0,0.0,0.0,0,0,48.0,0.0,0.0,4484.615384615385,3923.589743589744,4545.641025641026,4443.589743589744,4265.641025641026,4570.769230769231,4498.974358974359,4554.358974358975,4509.743589743591,4776.410256410257,4380.000000000001,4367.6923076923085,4284.102564102564,4606.666666666667
330.40894,1.0,1.0,0.35675645,0.5812041,0,0.0,0.0,0.0,0.0,0.3852865,0,0,0.0,0.0,0,0,80.0,0.0,427.0,4574.358974358975,3932.820512820513,4575.8974358974365,4447.6923076923085,4244.615384615385,4542.051282051282,4497.948717948719,4531.282051282052,4414.871794871796,4731.282051282052,4369.743589743591,4363.076923076924,4262.051282051282,4681.538461538462
330.53406,1.0,1.0,0.35675645,0.5812041,0,0.0,0.0,0.0,0.0,1.0,0,0,0.0,0.0,0,0,96.0,0.0,427.0,4658.461538461539,3938.461538461539,4578.461538461539,4458.974358974359,4243.589743589744,4538.974358974359,4511.282051282052,4562.051282051282,4372.820512820514,4707.179487179488,4348.205128205129,4355.384615384616,4244.102564102564,4688.205128205129
330.78427,0.90454334,1.0,0.35439864,0.5782901,0,0.0,0.0,0.0,0.0,1.0,0,0,0.0,0.0,0,0,128.0,0.0,427.0,4895.8974358974365,3924.615384615385,4551.282051282052,4441.025641025642,4214.358974358975,4495.384615384616,4496.410256410257,4554.871794871796,4234.871794871796,4596.410256410257,4294.871794871796,4312.307692307693,4157.435897435898,4611.794871794872
330.78427,0.90454334,1.0,0.35439864,0.5782901,0,0.0,0.0,0.0,0.0,1.0,0,0,0.0,0.0,0,0,128.0,0.0,427.0,4895.8974358974365,3924.615384615385,4551.282051282052,4441.025641025642,4214.358974358975,4495.384615384616,4496.410256410257,4554.871794871796,4234.871794871796,4596.410256410257,4294.871794871796,4312.307692307693,4157.435897435898,4611.794871794872
331.41763,1.0,1.0,0.35227525,0.5756696,0,0.0,0.0,0.0,0.0,0.7174855,0,0,0.0,0.0,0,0,79.0,0.0,519.0,4807.6923076923085,3866.666666666667,4449.2307692307695,4327.6923076923085,4096.923076923077,4376.410256410257,4356.923076923077,4360.512820512821,4010.2564102564106,4412.307692307693,4121.025641025642,4256.923076923077,4009.23076923077,4537.435897435898
331.66785,1.0,1.0,0.35227525,0.5756696,0,0.0,0.0,0.0,0.99497086,0.0,0,0,0.0,0.0,0,1,111.0,0.0,519.0,4860.000000000001,3865.1282051282055,4435.384615384616,4346.153846153847,4093.333333333334,4398.974358974359,4417.948717948719,4421.538461538462,4080.5128205128212,4478.974358974359,4134.358974358975,4259.48717948718,4133.846153846154,4706.153846153847
331.91806,1.0,1.0,0.35037583,0.5733218,0,0.0,0.0,0.0,0.0,1.0,0,0,0.0,0.0,0,0,14.0,0.0,557.0,5806.153846153847,3942.564102564103,4401.025641025642,4397.948717948719,4157.948717948719,4444.102564102564,4374.358974358975,4369.743589743591,4113.333333333334,4476.923076923077,4144.102564102564,4249.74358974359,4142.564102564103,5487.179487179488
331.91806,1.0,1.0,0.35037583,0.5733218,0,0.0,0.0,0.0,0.0,1.0,0,0,0.0,0.0,0,0,14.0,0.0,557.0,5806.153846153847,3942.564102564103,4401.025641025642,4397.948717948719,4157.948717948719,4444.102564102564,4374.358974358975,4369.743589743591,4113.333333333334,4476.923076923077,4144.102564102564,4249.74358974359,4142.564102564103,5487.179487179488
332.29337,1.0,1.0,0.34865773,0.57120097,0,0.0,0.0,0.0,0.0,1.0,0,0,0.0,0.0,0,0,62.0,0.0,0.0,5948.717948717949,3926.1538461538466,4474.871794871796,4429.2307692307695,4202.564102564103,4506.153846153847,4446.153846153847,4387.179487179487,4209.2307692307695,4560.512820512821,4257.948717948719,4304.102564102564,4222.564102564103,5726.153846153847
332.29337,1.0,1.0,0.34865773,0.57120097,0,0.0,0.0,0.0,0.0,1.0,0,0,0.0,0.0,0,0,62.0,0.0,0.0,5948.717948717949,3926.1538461538466,4474.871794871796,4429.2307692307695,4202.564102564103,4506.153846153847,4446.153846153847,4387.179487179487,4209.2307692307695,4560.512820512821,4257.948717948719,4304.102564102564,4222.564102564103,5726.153846153847
332.79382,1.0,1.0,0.3471131,0.5692937,0,0.0,0.0,0.0,0.0,1.0,0,0,0.0,0.0,0,0,126.0,0.0,556.0,5285.641025641026,4036.9230769230776,4472.307692307693,4426.153846153847,4233.333333333334,4538.974358974359,4422.564102564103,4409.743589743591,4233.846153846154,4556.923076923077,4238.974358974359,4302.051282051282,4185.128205128206,5282.051282051283
332.79382,1.0,1.0,0.3471131,0.5692937,0,0.0,0.0,0.0,0.0,1.0,0,0,0.0,0.0,0,0,126.0,0.0,556.0,5285.641025641026,4036.9230769230776,4472.307692307693,4426.153846153847,4233.333333333334,4538.974358974359,4422.564102564103,4409.743589743591,4233.846153846154,4556.923076923077,4238.974358974359,4302.051282051282,4185.128205128206,5282.051282051283
333.29425,1.0,1.0,0.34572327,0.5675775,0,0.0,0.0,0.0,0.0,1.0,0,0,0.0,0.0,0,0,61.0,0.0,0.0,4815.384615384616,3991.7948717948725,4490.769230769231,4431.282051282052,4241.538461538462,4551.794871794872,4440.000000000001,4417.435897435898,4265.128205128206,4585.641025641026,4285.641025641026,4337.948717948719,4204.615384615385,4974.871794871796
333.66956,1.0,1.0,0.34572327,0.5675775,0,0.0,0.0,0.0,0.0,1.0,0,0,0.0,0.0,0,0,109.0,0.0,518.0,4492.820512820514,3976.410256410257,4490.769230769231,4438.461538461539,4246.666666666667,4551.282051282052,4438.461538461539,4402.051282051282,4293.846153846154,4596.410256410257,4275.384615384616,4280.000000000001,4188.717948717949,4894.871794871796
333.82596,0.97215974,1.0,0.34447986,0.5660396,0,0.0,0.0,0.0,1.0,0.0,0,0,0.0,0.0,0,0,0.0,0.0,507.0,4332.820512820514,3973.333333333334,4489.2307692307695,4445.128205128206,4255.8974358974365,4558.461538461539,4444.615384615385,4421.025641025642,4309.743589743591,4603.589743589744,4271.794871794872,4256.923076923077,4179.48717948718,4851.794871794872
334.0449,0.97215974,1.0,0.34447986,0.5660396,0,0.0,0.0,0.0,0.0,1.0,0,0,0.0,0.0,0,0,28.0,0.0,0.0,4182.564102564103,3955.3846153846157,4490.769230769231,4444.102564102564,4253.846153846154,4562.051282051282,4447.6923076923085,4427.179487179487,4328.717948717949,4622.564102564103,4284.615384615385,4255.384615384616,4205.641025641026,4787.6923076923085
334.4202,0.9940435,1.0,0.34336272,0.5646573,1,0.0,0.0,0.0,0.0,1.0,0,0,0.0,0.0,0,0,76.0,0.0,430.0,4005.6410256410263,3965.6410256410263,4505.128205128206,4463.076923076924,4269.2307692307695,4564.102564102564,4438.461538461539,4421.538461538462,4343.076923076924,4637.948717948719,4275.384615384616,4245.641025641026,4194.871794871796,4724.102564102564
334.5766,0.9940435,1.0,0.34336272,0.5646573,0,0.0,0.0,0.0,0.0,1.0,0,0,0.0,0.0,0,0,96.0,0.0,430.0,3909.7435897435903,3955.8974358974365,4502.051282051282,4471.794871794872,4279.48717948718,4572.820512820514,4450.256410256411,4433.846153846154,4349.2307692307695,4645.128205128206,4281.025641025642,4231.282051282052,4186.153846153847,4651.282051282052
334.92062,1.0,1.0,0.34235898,0.56341475,0,0.0,0.0,0.0,0.0,0.85669136,0,0,0.0,0.0,0,0,11.0,0.0,508.0,3894.358974358975,3930.2564102564106,4491.282051282052,4456.923076923077,4271.794871794872,4568.205128205129,4455.384615384616,4415.384615384616,4351.282051282052,4647.179487179488,4285.128205128206,4213.333333333334,4179.48717948718,4581.538461538462
335.17084,1.0,1.0,0.34235898,0.56341475,0,0.0,0.0,0.0,0.0,1.0,0,0,0.0,0.0,0,0,43.0,0.0,0.0,3950.2564102564106,3932.307692307693,4506.153846153847,4463.076923076924,4280.512820512821,4583.589743589744,4478.974358974359,4442.051282051282,4389.2307692307695,4678.974358974359,4286.153846153847,4207.179487179487,4191.282051282052,4560.512820512821
335.42108,1.0,1.0,0.34145114,0.5622924,0,0.0,0.0,0.0,0.0,0.63954735,0,0,0.0,0.0,0,0,75.0,0.0,511.0,3974.8717948717954,3931.2820512820517,4524.102564102564,4458.461538461539,4281.538461538462,4586.666666666667,4473.846153846154,4441.025641025642,4399.48717948718,4691.794871794872,4292.307692307693,4216.410256410257,4182.051282051282,4544.615384615385
335.6713,1.0,1.0,0.34145114,0.5622924,1,0.0,0.0,0.0,0.0,0.6425386,0,0,0.0,0.0,0,0,107.0,0.0,511.0,4051.2820512820517,3913.8461538461543,4517.435897435898,4441.025641025642,4268.205128205129,4570.256410256411,4455.384615384616,4420.512820512821,4387.6923076923085,4690.256410256411,4296.923076923077,4203.589743589744,4172.307692307693,4527.179487179488
335.9215,0.9402034,1.0,0.34063357,0.5612818,0,0.0,0.0,0.0,0.0,0.6594606,0,0,0.0,0.0,0,0,10.0,0.0,556.0,4060.0000000000005,3918.9743589743593,4523.589743589744,4441.538461538462,4274.358974358975,4569.743589743591,4468.205128205129,4424.615384615385,4395.8974358974365,4706.153846153847,4290.256410256411,4220.000000000001,4182.051282051282,4502.051282051282
336.17172,0.9402034,1.0,0.34063357,0.5612818,0,0.0,0.0,0.0,0.0,0.85111374,0,0,0.0,0.0,0,0,42.0,0.0,0.0,4154.871794871796,3919.48717948718,4529.2307692307695,4442.564102564103,4274.358974358975,4571.282051282052,4485.641025641026,4436.923076923077,4418.974358974359,4726.666666666667,4304.102564102564,4235.8974358974365,4194.871794871796,4506.153846153847
336.45322,1.0,1.0,0.3398973,0.5603719,0,0.0,0.0,0.0,0.0,1.0,0,0,0.0,0.0,0,0,78.0,0.0,556.0,4262.051282051282,3918.461538461539,4541.025641025642,4437.948717948719,4268.205128205129,4560.000000000001,4492.820512820514,4442.564102564103,4420.512820512821,4740.512820512821,4316.923076923077,4250.769230769231,4211.282051282052,4509.2307692307695
336.45322,1.0,1.0,0.3398973,0.5603719,0,0.0,0.0,0.0,0.0,1.0,0,0,0.0,0.0,0,0,78.0,0.0,556.0,4262.051282051282,3918.461538461539,4541.025641025642,4437.948717948719,4268.205128205129,4560.000000000001,4492.820512820514,4442.564102564103,4420.512820512821,4740.512820512821,4316.923076923077,4250.769230769231,4211.282051282052,4509.2307692307695
336.92236,0.95847905,1.0,0.33923477,0.559553,0,0.0,0.0,0.0,0.0,0.23028456,0,0,0.0,0.0,0,0,9.0,0.0,500.0,4337.948717948719,3926.666666666667,4571.282051282052,4444.615384615385,4263.589743589744,4557.435897435898,4501.538461538462,4472.307692307693,4426.153846153847,4760.512820512821,4342.051282051282,4286.153846153847,4238.461538461539,4536.410256410257
337.17258,0.95847905,1.0,0.33923477,0.559553,0,0.0,0.0,0.0,0.0,0.7584263,0,0,0.0,0.0,0,0,41.0,0.0,0.0,4364.102564102564,3932.820512820513,4572.820512820514,4446.666666666667,4276.410256410257,4572.307692307693,4516.923076923077,4491.794871794872,4449.743589743591,4772.820512820514,4342.564102564103,4296.410256410257,4220.512820512821,4530.769230769231
337.4228,0.9287038,1.0,0.3386391,0.5588166,0,0.0,0.0,0.0,0.0,0.18107457,0,0,0.0,0.0,0,0,73.0,0.0,500.0,4333.846153846154,3942.564102564103,4571.794871794872,4448.205128205129,4269.74358974359,4568.205128205129,4507.6923076923085,4472.307692307693,4434.358974358975,4759.48717948718,4353.333333333334,4289.74358974359,4228.717948717949,4544.615384615385
337.673,0.9287038,1.0,0.3386391,0.5588166,0,0.0,0.0,0.0,0.0,0.7198632,0,0,0.0,0.0,0,0,105.0,0.0,518.0,4297.435897435898,3927.1794871794878,4564.615384615385,4443.589743589744,4273.333333333334,4571.282051282052,4517.948717948719,4486.666666666667,4443.589743589744,4757.948717948719,4348.205128205129,4271.794871794872,4215.8974358974365,4493.333333333334
337.92322,1.0,0.98029286,0.3381027,0.56223524,0,0.0,0.0,0.0,0.0,0.59821546,0,0,0.0,0.0,0,0,8.0,0.0,507.0,4313.333333333334,3940.5128205128212,4553.846153846154,4446.666666666667,4272.307692307693,4570.769230769231,4504.615384615385,4472.820512820514,4443.589743589744,4758.461538461539,4336.923076923077,4260.000000000001,4203.076923076924,4565.128205128206
338.17343,1.0,0.98029286,0.3381027,0.56223524,0,0.0,0.0,0.0,0.0,1.0,0,0,0.0,0.0,0,0,40.0,0.0,0.0,4300.512820512821,3921.538461538462,4546.153846153847,4442.564102564103,4263.076923076924,4562.564102564103,4493.846153846154,4453.333333333334,4408.717948717949,4724.102564102564,4311.794871794872,4230.256410256411,4164.102564102564,4527.179487179488
338.3298,1.0,0.92155683,0.33762428,0.56531924,0,0.0,0.0,0.0,1.0,0.0,0,0,0.0,0.0,0,0,60.0,0.0,0.0,4418.974358974359,3948.717948717949,4573.333333333334,4446.153846153847,4254.358974358975,4558.461538461539,4496.923076923077,4450.256410256411,4417.948717948719,4736.923076923077,4327.6923076923085,4265.641025641026,4191.794871794872,4628.205128205129
338.67386,1.0,0.92155683,0.33762428,0.56531924,0,0.0,0.0,0.0,0.0,0.90038204,0,0,0.0,0.0,0,0,104.0,0.0,431.0,4328.717948717949,3925.6410256410263,4537.948717948719,4444.615384615385,4260.512820512821,4563.076923076924,4487.179487179488,4443.589743589744,4413.333333333334,4722.564102564103,4315.384615384616,4249.2307692307695,4157.435897435898,4552.307692307693
338.92407,1.0,0.87436366,0.3371952,0.5680948,0,0.0,0.0,0.0,0.0,0.7973429,0,0,0.0,0.0,0,0,7.0,0.0,489.0,4534.358974358975,3952.820512820513,4570.256410256411,4444.102564102564,4248.205128205129,4549.743589743591,4457.435897435898,4415.8974358974365,4393.333333333334,4703.076923076924,4342.564102564103,4280.000000000001,4189.2307692307695,4695.8974358974365
339.1743,1.0,0.87436366,0.3371952,0.5680948,0,0.0,0.0,0.0,0.0,0.66263646,0,0,0.0,0.0,0,0,39.0,0.0,0.0,4376.923076923077,3930.7692307692314,4520.000000000001,4445.641025641026,4265.128205128206,4567.6923076923085,4490.769230769231,4456.923076923077,4433.846153846154,4720.000000000001,4330.769230769231,4235.8974358974365,4171.794871794872,4524.102564102564
339.4245,0.88368994,0.85425055,0.33680677,0.5705841,0,0.0,0.0,0.0,0.0,0.45366174,0,0,0.0,0.0,0,0,71.0,0.0,489.0,4355.8974358974365,3915.3846153846157,4511.282051282052,4440.000000000001,4254.358974358975,4555.8974358974365,4478.974358974359,4454.871794871796,4429.743589743591,4724.102564102564,4342.051282051282,4237.435897435898,4167.179487179487,4532.307692307693
339.6747,0.88368994,0.85425055,0.33680677,0.5705841,0,0.0,0.0,0.0,0.0,0.20607129,0,0,0.0,0.0,0,0,103.0,0.0,517.0,4369.2307692307695,3936.410256410257,4521.538461538462,4450.256410256411,4264.102564102564,4564.615384615385,4490.769230769231,4456.923076923077,4430.769230769231,4732.307692307693,4342.564102564103,4237.948717948719,4163.076923076924,4512.820512820514
339.92493,0.7478069,0.85379976,0.33645698,0.5687409,0,0.0,0.0,0.0,0.0,0.2340942,0,0,0.0,0.0,0,0,6.0,0.0,585.0,4382.051282051282,3926.666666666667,4520.000000000001,4445.128205128206,4263.589743589744,4560.000000000001,4480.000000000001,4444.102564102564,4422.564102564103,4727.6923076923085,4341.025641025642,4233.333333333334,4153.846153846154,4504.102564102564
340.17514,0.7478069,0.85379976,0.33645698,0.5687409,0,0.0,0.0,0.0,0.0,0.4210563,0,0,0.0,0.0,0,0,38.0,0.0,0.0,4477.948717948719,3992.307692307693,4570.769230769231,4507.6923076923085,4323.076923076924,4620.000000000001,4529.743589743591,4488.205128205129,4487.6923076923085,4799.48717948718,4391.794871794872,4296.923076923077,4224.102564102564,4576.923076923077
340.42535,0.8680701,0.8552639,0.33614197,0.5670813,0,0.0,0.0,0.0,0.0,0.3854976,0,0,0.0,0.0,0,0,70.0,0.0,585.0,4465.128205128206,3929.7435897435903,4510.769230769231,4445.641025641026,4264.615384615385,4561.538461538462,4473.333333333334,4436.923076923077,4434.358974358975,4744.615384615386,4358.461538461539,4238.974358974359,4177.435897435898,4535.384615384616
340.67557,0.8680701,0.8552639,0.33614197,0.5670813,0,0.0,0.0,0.0,0.0,0.0,0,0,0.0,0.0,0,0,102.0,0.0,556.0,4458.974358974359,3927.1794871794878,4506.666666666667,4441.538461538462,4256.410256410257,4557.435897435898,4470.256410256411,4427.179487179487,4418.974358974359,4741.025641025642,4345.641025641026,4232.820512820514,4160.512820512821,4522.564102564103
340.8007,0.9739017,0.8324879,0.33585826,0.5655869,0,0.0,0.0,0.0,0.0,0.0,0,0,0.0,0.0,0,0,118.0,0.0,556.0,4469.2307692307695,3940.0000000000005,4508.205128205129,4442.564102564103,4254.358974358975,4552.307692307693,4456.410256410257,4425.128205128206,4426.666666666667,4742.051282051282,4344.102564102564,4223.589743589744,4158.974358974359,4518.974358974359
340.8007,0.9739017,0.8324879,0.33585826,0.5655869,0,0.0,0.0,0.0,0.0,0.0,0,0,0.0,0.0,0,0,118.0,0.0,556.0,4469.2307692307695,3940.0000000000005,4508.205128205129,4442.564102564103,4254.358974358975,4552.307692307693,4456.410256410257,4425.128205128206,4426.666666666667,4742.051282051282,4344.102564102564,4223.589743589744,4158.974358974359,4518.974358974359
341.48877,0.92241454,0.79082626,0.3356028,0.564243,0,0.0,0.0,0.0,0.0,1.0,0,0,0.0,0.0,0,0,77.0,0.0,518.0,4460.512820512821,3944.1025641025644,4505.641025641026,4438.974358974359,4251.794871794872,4551.794871794872,4460.000000000001,4429.2307692307695,4430.769230769231,4745.128205128206,4343.589743589744,4227.6923076923085,4144.615384615385,4503.589743589744
341.48877,0.92241454,0.79082626,0.3356028,0.564243,0,0.0,0.0,0.0,0.0,1.0,0,0,0.0,0.0,0,0,77.0,0.0,518.0,4460.512820512821,3944.1025641025644,4505.641025641026,4438.974358974359,4251.794871794872,4551.794871794872,4460.000000000001,4429.2307692307695,4430.769230769231,4745.128205128206,4343.589743589744,4227.6923076923085,4144.615384615385,4503.589743589744
341.92667,0.865384,0.75953674,0.33537424,0.56304073,0,0.0,0.0,0.0,0.0,0.25486058,0,0,0.0,0.0,0,0,4.0,0.0,571.0,4430.256410256411,3930.2564102564106,4494.358974358975,4442.051282051282,4261.025641025642,4557.948717948719,4461.538461538462,4428.205128205129,4430.256410256411,4751.282051282052,4365.128205128206,4216.410256410257,4158.974358974359,4477.948717948719
342.17688,0.865384,0.75953674,0.33537424,0.56304073,0,0.0,0.0,0.0,0.0,0.0,0,0,0.0,0.0,0,0,36.0,0.0,0.0,4471.282051282052,3949.7435897435903,4508.205128205129,4445.128205128206,4258.461538461539,4563.076923076924,4464.102564102564,4429.2307692307695,4431.282051282052,4752.820512820514,4365.128205128206,4231.794871794872,4164.615384615385,4510.769230769231
342.4271,0.8466508,0.7168602,0.3351678,0.561956,0,0.0,0.0,0.0,0.0,0.0,0,0,0.0,0.0,0,0,68.0,0.0,571.0,4456.410256410257,3941.0256410256416,4522.051282051282,4437.948717948719,4249.2307692307695,4552.820512820514,4469.2307692307695,4437.948717948719,4444.615384615385,4773.846153846154,4381.025641025642,4246.153846153847,4178.974358974359,4626.666666666667
342.5522,0.8466508,0.7168602,0.3351678,0.561956,0,0.0,0.0,0.0,1.0,0.0,0,0,0.0,0.0,0,0,84.0,0.0,431.0,4465.128205128206,3947.692307692308,4517.948717948719,4444.615384615385,4260.000000000001,4556.410256410257,4460.512820512821,4433.846153846154,4446.153846153847,4779.48717948718,4388.205128205129,4251.282051282052,4176.410256410257,4653.846153846154
342.92752,0.80123115,0.6831176,0.33498362,0.56098384,0,0.0,0.0,0.0,0.28664935,0.0,0,0,0.0,0.0,0,0,3.0,0.0,547.0,4473.333333333334,3959.48717948718,4528.205128205129,4458.974358974359,4274.358974358975,4573.846153846154,4481.025641025642,4446.666666666667,4445.128205128206,4785.128205128206,4385.128205128206,4258.974358974359,4194.358974358975,4620.512820512821
343.17773,0.80123115,0.6831176,0.33498362,0.56098384,0,0.0,0.0,0.0,0.0,0.0,0,0,0.0,0.0,0,0,35.0,0.0,0.0,4470.769230769231,3954.8717948717954,4508.717948717949,4445.641025641026,4251.282051282052,4552.820512820514,4456.410256410257,4421.025641025642,4430.256410256411,4758.974358974359,4369.2307692307695,4238.974358974359,4178.461538461539,4609.2307692307695
343.30283,0.7879534,0.6451796,0.3348174,0.5601056,0,0.0,0.0,0.0,0.0,0.0,0,0,0.0,0.0,0,0,51.0,0.0,0.0,4475.384615384616,3954.358974358975,4523.076923076924,4447.6923076923085,4262.051282051282,4558.974358974359,4479.48717948718,4454.358974358975,4450.256410256411,4786.153846153847,4380.000000000001,4261.538461538462,4188.717948717949,4615.384615384616
343.30283,0.7879534,0.6451796,0.3348174,0.5601056,0,0.0,0.0,0.0,0.0,0.0,0,0,0.0,0.0,0,0,51.0,0.0,0.0,4475.384615384616,3954.358974358975,4523.076923076924,4447.6923076923085,4262.051282051282,4558.974358974359,4479.48717948718,4454.358974358975,4450.256410256411,4786.153846153847,4380.000000000001,4261.538461538462,4188.717948717949,4615.384615384616
343.92838,0.6813352,0.62778205,0.33466786,0.5593149,1,0.0,0.0,0.0,0.0,0.75685674,0,0,0.0,0.0,0,0,2.0,0.0,524.0,4548.717948717949,3956.9230769230776,4504.615384615385,4441.538461538462,4254.871794871796,4555.384615384616,4449.2307692307695,4427.179487179487,4431.794871794872,4758.974358974359,4358.461538461539,4221.538461538462,4165.641025641026,4557.948717948719
344.1786,0.6813352,0.62778205,0.33466786,0.5593149,0,0.0,0.0,0.0,0.0,0.7905143,0,0,0.0,0.0,0,0,34.0,0.0,0.0,4498.974358974359,3943.589743589744,4505.128205128206,4443.076923076924,4260.512820512821,4565.128205128206,4456.923076923077,4440.512820512821,4446.153846153847,4771.282051282052,4366.153846153847,4226.153846153847,4177.948717948719,4551.282051282052
344.4288,0.612976,0.64087975,0.33453327,0.5586029,0,0.0,0.0,0.0,0.0,0.11468463,0,0,0.0,0.0,0,0,66.0,0.0,524.0,4509.2307692307695,3945.1282051282055,4507.179487179488,4443.076923076924,4262.051282051282,4563.589743589744,4475.384615384616,4449.743589743591,4442.564102564103,4770.769230769231,4381.025641025642,4236.923076923077,4176.923076923077,4556.410256410257
344.77286,0.612976,0.64087975,0.33453327,0.5586029,0,0.0,0.0,0.0,0.0,0.779636,0,0,0.0,0.0,0,0,110.0,0.0,556.0,4508.717948717949,3944.615384615385,4493.846153846154,4444.102564102564,4263.589743589744,4562.564102564103,4461.538461538462,4452.307692307693,4453.333333333334,4776.410256410257,4375.8974358974365,4218.974358974359,4187.6923076923085,4544.615384615385
344.92923,0.5498863,0.6741899,0.33441207,0.55796224,0,0.0,0.0,0.0,0.0,0.6323237,0,0,0.0,0.0,0,0,1.0,0.0,477.0,4511.282051282052,3947.692307692308,4500.512820512821,4447.6923076923085,4266.153846153847,4565.641025641026,4476.923076923077,4465.128205128206,4462.564102564103,4790.256410256411,4382.051282051282,4228.205128205129,4181.538461538462,4544.102564102564
345.17944,0.5498863,0.6741899,0.33441207,0.55796224,0,0.0,0.0,0.0,0.0,0.27126557,0,0,0.0,0.0,0,0,33.0,0.0,0.0,4557.948717948719,3961.538461538462,4515.384615384616,4452.820512820514,4263.589743589744,4566.153846153847,4481.538461538462,4476.923076923077,4457.435897435898,4786.153846153847,4374.358974358975,4231.282051282052,4166.666666666667,4532.307692307693
345.42966,0.47818336,0.70832753,0.33430302,0.55738604,0,0.0,0.0,0.0,0.0,0.33931446,0,0,0.0,0.0,0,0,65.0,0.0,477.0,4589.743589743591,3960.5128205128212,4507.179487179488,4452.820512820514,4260.512820512821,4566.666666666667,4465.641025641026,4466.666666666667,4438.461538461539,4775.384615384616,4379.48717948718,4239.48717948718,4189.74358974359,4541.025641025642
345.67987,0.47818336,0.70832753,0.33430302,0.55738604,1,0.0,0.0,0.0,0.0,0.6113574,0,0,0.0,0.0,0,0,97.0,0.0,518.0,4584.615384615385,3969.7435897435903,4513.846153846154,4446.666666666667,4258.461538461539,4565.641025641026,4451.794871794872,4447.179487179487,4438.461538461539,4769.743589743591,4384.615384615385,4241.025641025642,4182.051282051282,4547.6923076923085
345.93008,0.39649406,0.857291,0.334205,0.5696695,0,0.0,0.0,0.0,0.0,0.7086146,0,0,0.0,0.0,0,0,0.0,0.0,506.0,4555.8974358974365,3950.2564102564106,4501.538461538462,4444.102564102564,4250.256410256411,4563.076923076924,4457.435897435898,4449.743589743591,4448.205128205129,4773.333333333334,4377.948717948719,4222.051282051282,4176.410256410257,4532.820512820514
346.1803,0.39649406,0.857291,0.334205,0.5696695,0,0.0,0.0,0.0,0.0,0.22625114,0,0,0.0,0.0,0,0,32.0,0.0,0.0,4567.6923076923085,3954.358974358975,4497.948717948719,4443.589743589744,4254.358974358975,4562.051282051282,4467.179487179487,4474.358974358975,4455.8974358974365,4780.000000000001,4378.461538461539,4214.871794871796,4175.8974358974365,4515.8974358974365
346.43054,0.30781254,0.8971901,0.33419383,0.59568745,0,0.0,0.0,0.0,0.0,0.24746437,0,0,0.0,0.0,0,0,64.0,0.0,506.0,4566.153846153847,3899.48717948718,4488.205128205129,4441.025641025642,4239.48717948718,4546.153846153847,4447.179487179487,4421.025641025642,4407.179487179487,4741.025641025642,4356.410256410257,4188.717948717949,4149.74358974359,4512.307692307693
346.68076,0.30781254,0.8971901,0.33419383,0.59568745,0,0.0,0.0,0.0,0.0,0.13202372,0,0,0.0,0.0,0,0,96.0,0.0,431.0,4570.256410256411,3895.3846153846157,4494.358974358975,4446.153846153847,4242.051282051282,4548.205128205129,4442.564102564103,4426.666666666667,4409.743589743591,4740.512820512821,4349.743589743591,4202.564102564103,4133.333333333334,4505.641025641026
346.93097,0.42496923,0.88076895,0.3371281,0.6198068,0,0.0,0.0,0.0,0.0,0.3078406,0,0,0.0,0.0,0,0,128.0,0.0,431.0,4651.794871794872,3908.717948717949,4496.923076923077,4457.435897435898,4234.871794871796,4541.025641025642,4423.589743589744,4403.076923076924,4386.153846153847,4732.820512820514,4340.000000000001,4206.153846153847,4136.410256410257,4568.205128205129
347.21246,0.42496923,0.88076895,0.3371281,0.6198068,0,0.0,0.0,0.0,0.0,0.59169906,0,0,0.0,0.0,0,0,35.0,0.0,0.0,4570.769230769231,3895.3846153846157,4491.794871794872,4455.8974358974365,4248.717948717949,4546.153846153847,4443.589743589744,4420.512820512821,4404.102564102564,4735.8974358974365,4328.717948717949,4209.74358974359,4141.025641025642,4553.333333333334
347.4314,0.38788798,0.9020377,0.33976874,0.6415002,0,0.0,0.0,0.0,0.0,1.0,0,0,0.0,0.0,0,0,63.0,0.0,0.0,4649.2307692307695,3914.8717948717954,4507.6923076923085,4455.384615384616,4237.948717948719,4536.923076923077,4434.871794871796,4422.564102564103,4399.48717948718,4742.051282051282,4335.8974358974365,4227.179487179487,4154.871794871796,4599.48717948718
347.5565,0.38788798,0.9020377,0.33976874,0.6415002,0,0.0,0.0,0.0,1.0,0.0,0,0,0.0,0.0,0,0,79.0,0.0,521.0,4555.8974358974365,3904.615384615385,4488.205128205129,4447.179487179487,4249.2307692307695,4552.307692307693,4458.974358974359,4453.846153846154,4428.205128205129,4751.794871794872,4336.410256410257,4212.820512820514,4150.769230769231,4549.2307692307695
347.93182,0.46194556,0.8802714,0.34215048,0.6591654,0,0.0,0.0,0.0,0.15543032,0.0,0,0,0.0,0.0,0,0,127.0,0.0,521.0,4556.923076923077,3905.1282051282055,4487.6923076923085,4434.358974358975,4247.6923076923085,4547.179487179488,4439.48717948718,4415.8974358974365,4406.666666666667,4739.48717948718,4343.589743589744,4217.948717948719,4146.153846153847,4553.846153846154
348.18204,0.46194556,0.8802714,0.34215048,0.6591654,0,0.0,0.0,0.0,0.0,0.18837336,0,0,0.0,0.0,0,0,30.0,0.0,0.0,4588.717948717949,3910.2564102564106,4496.410256410257,4440.512820512821,4245.128205128206,4547.6923076923085,4446.666666666667,4430.769230769231,4424.615384615385,4756.923076923077,4350.769230769231,4235.384615384616,4153.846153846154,4565.128205128206
348.30713,0.43827498,0.85551274,0.34421095,0.67425793,0,0.0,0.0,0.0,0.0,0.0,0,0,0.0,0.0,0,0,46.0,0.0,0.0,4593.333333333334,3918.9743589743593,4495.8974358974365,4435.8974358974365,4248.205128205129,4552.820512820514,4451.282051282052,4438.461538461539,4422.051282051282,4756.410256410257,4347.179487179487,4218.974358974359,4146.666666666667,4548.717948717949
348.30713,0.43827498,0.85551274,0.34421095,0.67425793,0,0.0,0.0,0.0,0.0,0.0,0,0,0.0,0.0,0,0,46.0,0.0,0.0,4593.333333333334,3918.9743589743593,4495.8974358974365,4435.8974358974365,4248.205128205129,4552.820512820514,4451.282051282052,4438.461538461539,4422.051282051282,4756.410256410257,4347.179487179487,4218.974358974359,4146.666666666667,4548.717948717949
348.93268,0.376536,0.82849437,0.34311634,0.6750197,0,0.0,0.0,0.0,0.0,0.0729552,0,0,0.0,0.0,0,0,126.0,0.0,556.0,4557.948717948719,3930.2564102564106,4497.948717948719,4430.256410256411,4231.282051282052,4538.974358974359,4435.384615384616,4417.435897435898,4409.743589743591,4743.076923076924,4340.000000000001,4208.717948717949,4152.307692307693,4536.923076923077
349.1829,0.376536,0.82849437,0.34311634,0.6750197,0,0.0,0.0,0.0,0.0,0.301083,0,0,0.0,0.0,0,0,29.0,0.0,0.0,4556.410256410257,3927.692307692308,4490.769230769231,4429.2307692307695,4231.282051282052,4535.8974358974365,4431.794871794872,4424.615384615385,4418.974358974359,4750.256410256411,4349.2307692307695,4215.384615384616,4153.333333333334,4531.282051282052
349.4331,0.28022224,0.7717278,0.34213057,0.66265696,0,0.0,0.0,0.0,0.0,0.3414373,0,0,0.0,0.0,0,0,61.0,0.0,0.0,4608.717948717949,3933.8461538461543,4477.948717948719,4428.205128205129,4231.794871794872,4536.923076923077,4434.871794871796,4428.717948717949,4417.948717948719,4748.717948717949,4361.538461538462,4205.128205128206,4156.410256410257,4506.153846153847
349.55823,0.28022224,0.7717278,0.34213057,0.66265696,0,0.0,0.0,0.0,0.0,1.0,0,0,0.0,0.0,0,0,77.0,0.0,518.0,4603.076923076924,3937.435897435898,4488.205128205129,4432.820512820514,4235.384615384616,4537.948717948719,4433.846153846154,4421.538461538462,4412.307692307693,4747.179487179488,4355.8974358974365,4209.74358974359,4149.74358974359,4513.333333333334
349.9961,0.22407277,0.7210224,0.34124213,0.6515332,1,0.0,0.0,0.0,0.0,0.6264471,0,0,0.0,0.0,0,0,4.0,0.0,571.0,4579.48717948718,3937.9487179487182,4474.871794871796,4429.2307692307695,4229.74358974359,4531.794871794872,4424.615384615385,4405.128205128206,4388.717948717949,4734.871794871796,4365.641025641026,4214.871794871796,4152.820512820514,4520.000000000001
350.18375,0.22407277,0.7210224,0.34124213,0.6515332,0,0.0,0.0,0.0,0.0,0.69163877,0,0,0.0,0.0,0,0,28.0,0.0,0.0,4535.384615384616,3928.205128205129,4464.615384615385,4431.282051282052,4235.8974358974365,4537.948717948719,4429.2307692307695,4409.2307692307695,4393.333333333334,4725.128205128206,4331.794871794872,4179.48717948718,4127.6923076923085,4486.153846153847
350.43396,0.19223833,0.6830029,0.3404421,0.64152277,0,0.0,0.0,0.0,0.0,0.42184055,0,0,0.0,0.0,0,0,60.0,0.0,0.0,4548.205128205129,3925.6410256410263,4474.358974358975,4434.358974358975,4239.48717948718,4539.48717948718,4438.974358974359,4432.820512820514,4416.923076923077,4746.666666666667,4333.333333333334,4195.384615384616,4149.74358974359,4496.410256410257
350.68417,0.19223833,0.6830029,0.3404421,0.64152277,0,0.0,0.0,0.0,0.0,0.0,0,0,0.0,0.0,0,0,92.0,0.0,431.0,4557.948717948719,3941.538461538462,4494.871794871796,4442.564102564103,4242.564102564103,4537.948717948719,4444.102564102564,4425.128205128206,4402.564102564103,4742.051282051282,4345.128205128206,4215.8974358974365,4161.025641025642,4523.589743589744
350.8093,0.17865768,0.6531833,0.33769196,0.6336955,0,0.0,0.0,0.0,0.0,0.0,0,0,0.0,0.0,0,0,108.0,0.0,431.0,4522.564102564103,3940.0000000000005,4472.820512820514,4442.051282051282,4243.589743589744,4539.48717948718,4433.333333333334,4414.871794871796,4408.717948717949,4743.076923076924,4345.641025641026,4191.282051282052,4154.871794871796,4497.948717948719
350.8093,0.17865768,0.6531833,0.33769196,0.6336955,0,0.0,0.0,0.0,0.0,0.0,0,0,0.0,0.0,0,0,108.0,0.0,431.0,4522.564102564103,3940.0000000000005,4472.820512820514,4442.051282051282,4243.589743589744,4539.48717948718,4433.333333333334,4414.871794871796,4408.717948717949,4743.076923076924,4345.641025641026,4191.282051282052,4154.871794871796,4497.948717948719
351.30972,0.17922981,0.6266172,0.33521727,0.6266497,0,0.0,0.0,0.0,0.0,0.0,0,0,0.0,0.0,0,0,43.0,0.0,0.0,4558.974358974359,3945.6410256410263,4488.205128205129,4441.025641025642,4248.205128205129,4541.538461538462,4433.846153846154,4416.923076923077,4407.179487179487,4739.48717948718,4360.000000000001,4206.666666666667,4159.48717948718,4507.179487179488
351.59122,0.17922981,0.6266172,0.33521727,0.6266497,0,0.0,0.0,0.0,0.0,0.0,0,0,0.0,0.0,0,1,79.0,0.0,521.0,4556.410256410257,3958.9743589743593,4494.358974358975,4443.589743589744,4257.948717948719,4555.8974358974365,4439.48717948718,4422.564102564103,4423.076923076924,4752.820512820514,4372.307692307693,4223.076923076924,4158.974358974359,4508.205128205129
351.93527,0.1440473,0.60492057,0.33109885,0.6373226,0,0.0,0.0,0.0,0.0,0.6203038,0,0,0.0,0.0,0,0,123.0,0.0,521.0,4537.948717948719,3956.410256410257,4484.615384615385,4442.564102564103,4255.384615384616,4550.769230769231,4449.743589743591,4421.538461538462,4429.743589743591,4750.256410256411,4352.820512820514,4200.512820512821,4151.794871794872,4492.820512820514
352.21674,0.1440473,0.60492057,0.33109885,0.6373226,1,0.0,0.0,0.0,0.0,0.0,0,0,0.0,0.0,0,0,30.0,0.0,0.0,4582.564102564103,3967.692307692308,4502.564102564103,4443.076923076924,4260.000000000001,4551.282051282052,4431.794871794872,4406.666666666667,4406.153846153847,4742.564102564103,4359.48717948718,4230.256410256411,4155.8974358974365,4548.717948717949
352.4357,0.117884435,0.5998313,0.32574683,0.6625171,0,0.0,0.0,0.0,0.0,0.8529076,0,0,0.0,0.0,0,0,58.0,0.0,0.0,4507.179487179488,3931.7948717948725,4474.871794871796,4428.205128205129,4244.102564102564,4538.461538461539,4442.564102564103,4418.974358974359,4415.384615384616,4726.153846153847,4342.564102564103,4177.948717948719,4123.076923076924,4267.179487179487
352.6859,0.117884435,0.5998313,0.32574683,0.6625171,0,0.0,0.0,0.0,0.0,1.0,0,0,0.0,0.0,0,1,90.0,0.0,556.0,4540.512820512821,3952.307692307693,4489.743589743591,4434.871794871796,4243.076923076924,4541.025641025642,4422.051282051282,4387.179487179487,4387.179487179487,4666.666666666667,4357.435897435898,4189.2307692307695,4092.307692307693,2498.9743589743593
352.90485,0.10836796,0.6924136,0.32257038,0.66940755,0,0.0,0.0,0.0,0.0,1.0,0,0,0.0,0.0,0,0,118.0,0.0,556.0,4536.923076923077,3943.589743589744,4501.025641025642,4430.256410256411,4247.6923076923085,4551.282051282052,4452.820512820514,4417.948717948719,4416.923076923077,4751.794871794872,4354.358974358975,4208.205128205129,4145.128205128206,4641.025641025642
353.18634,0.10836796,0.6924136,0.32257038,0.66940755,0,0.0,0.0,0.0,0.0,1.0,0,0,0.0,0.0,0,0,25.0,0.0,0.0,4551.282051282052,3937.435897435898,4478.974358974359,4432.820512820514,4249.74358974359,4548.717948717949,4433.846153846154,4407.6923076923085,4421.025641025642,4745.128205128206,4344.615384615385,4189.2307692307695,4143.076923076924,4626.666666666667
353.43655,0.10835603,0.7823486,0.32175016,0.65883946,0,0.0,0.0,0.0,0.0,0.092521526,0,0,0.0,0.0,0,0,57.0,0.0,0.0,4566.666666666667,3940.0000000000005,4491.282051282052,4430.769230769231,4240.512820512821,4538.974358974359,4436.923076923077,4411.794871794872,4413.333333333334,4749.743589743591,4367.6923076923085,4213.846153846154,4162.051282051282,4633.846153846154
353.68677,0.10835603,0.7823486,0.32175016,0.65883946,0,0.0,0.0,0.0,0.0,0.0,0,0,0.0,0.0,0,0,89.0,0.0,518.0,4528.205128205129,3929.7435897435903,4474.358974358975,4427.179487179487,4249.2307692307695,4543.076923076924,4443.589743589744,4415.384615384616,4428.205128205129,4759.48717948718,4380.512820512821,4210.769230769231,4160.000000000001,4612.307692307693
353.81186,0.061958034,0.78476906,0.322915,0.64811724,0,0.0,0.0,0.0,0.0,0.0,0,0,0.0,0.0,0,0,105.0,0.0,518.0,4670.256410256411,3968.205128205129,4521.025641025642,4433.333333333334,4233.333333333334,4536.923076923077,4427.179487179487,4397.435897435898,4390.256410256411,4737.948717948719,4360.000000000001,4234.871794871796,4151.282051282052,4701.025641025642
354.1872,0.061958034,0.78476906,0.322915,0.64811724,0,0.0,0.0,0.0,0.0,0.8375696,0,0,0.0,0.0,0,0,24.0,0.0,0.0,4542.564102564103,3948.717948717949,4496.923076923077,4432.307692307693,4248.717948717949,4550.256410256411,4444.615384615385,4411.794871794872,4417.948717948719,4744.615384615386,4368.205128205129,4208.717948717949,4151.794871794872,4566.666666666667
354.4374,0.076382846,0.78978705,0.3239633,0.63847226,1,0.0,0.0,0.0,0.0,0.56463915,0,0,0.0,0.0,0,0,56.0,0.0,0.0,4536.923076923077,3930.7692307692314,4489.743589743591,4426.153846153847,4241.025641025642,4540.512820512821,4424.102564102564,4388.717948717949,4412.820512820514,4744.615384615386,4374.358974358975,4204.615384615385,4173.333333333334,4587.179487179488
354.7189,0.076382846,0.78978705,0.3239633,0.63847226,1,0.0,0.0,0.0,0.0,0.8807457,0,0,0.0,0.0,0,0,92.0,0.0,431.0,4551.794871794872,3932.307692307693,4494.358974358975,4427.6923076923085,4241.538461538462,4541.538461538462,4436.923076923077,4415.8974358974365,4425.128205128206,4758.974358974359,4379.48717948718,4213.333333333334,4181.538461538462,4562.564102564103
354.93784,0.093390346,0.8499041,0.3249074,0.6297915,0,0.0,0.0,0.0,0.0,0.78135896,0,0,0.0,0.0,0,0,120.0,0.0,431.0,4525.128205128206,3926.1538461538466,4487.6923076923085,4427.179487179487,4245.128205128206,4546.153846153847,4441.025641025642,4423.589743589744,4422.051282051282,4758.461538461539,4358.974358974359,4213.846153846154,4175.384615384616,4535.384615384616
355.21933,0.093390346,0.8499041,0.3249074,0.6297915,1,0.0,0.0,0.0,0.0,0.596418,0,0,0.0,0.0,0,0,27.0,0.0,0.0,4593.846153846154,3941.0256410256416,4493.846153846154,4427.179487179487,4234.871794871796,4537.435897435898,4424.102564102564,4406.153846153847,4406.153846153847,4744.102564102564,4362.564102564103,4223.076923076924,4180.512820512821,4581.538461538462
355.43826,0.0757957,1.0,0.32575822,0.6219779,0,0.0,0.0,0.0,0.0,0.6466461,0,0,0.0,0.0,0,0,55.0,0.0,0.0,4530.769230769231,3922.564102564103,4463.076923076924,4421.538461538462,4234.358974358975,4534.871794871796,4427.6923076923085,4395.8974358974365,4408.205128205129,4730.769230769231,4344.102564102564,4192.307692307693,4160.000000000001,4499.48717948718
355.68848,0.0757957,1.0,0.32575822,0.6219779,0,0.0,0.0,0.0,0.0,0.45831615,0,0,0.0,0.0,0,0,87.0,0.0,515.0,4567.179487179488,3938.9743589743593,4473.846153846154,4426.153846153847,4234.871794871796,4537.435897435898,4424.102564102564,4393.333333333334,4414.871794871796,4740.512820512821,4356.410256410257,4197.948717948719,4163.589743589744,4507.179487179488
355.9387,0.083172865,1.0,0.32652378,0.6149528,1,0.0,0.0,0.0,0.0,0.8693568,0,0,0.0,0.0,0,0,119.0,0.0,515.0,4534.358974358975,3922.564102564103,4473.333333333334,4414.871794871796,4230.769230769231,4538.461538461539,4433.846153846154,4406.666666666667,4410.769230769231,4737.948717948719,4348.717948717949,4182.051282051282,4158.974358974359,4481.538461538462
356.1889,0.083172865,1.0,0.32652378,0.6149528,0,0.0,0.0,0.0,0.0,0.59904724,0,0,0.0,0.0,0,0,22.0,0.0,0.0,4555.8974358974365,3927.692307692308,4471.794871794872,4425.641025641026,4241.025641025642,4543.589743589744,4441.025641025642,4414.871794871796,4427.179487179487,4753.846153846154,4356.923076923077,4192.307692307693,4161.538461538462,4479.48717948718
356.43912,0.020970576,1.0,0.32721195,0.6219793,0,0.0,0.0,0.0,0.0,0.3165904,0,0,0.0,0.0,0,0,54.0,0.0,0.0,4580.000000000001,3936.9230769230776,4472.820512820514,4421.538461538462,4234.871794871796,4542.051282051282,4440.512820512821,4423.589743589744,4427.179487179487,4758.974358974359,4338.461538461539,4183.076923076924,4135.8974358974365,4471.794871794872
356.68933,0.020970576,1.0,0.32721195,0.6219793,0,0.0,0.0,0.0,0.0,0.0,0,0,0.0,0.0,0,0,86.0,0.0,556.0,4554.358974358975,3924.1025641025644,4469.2307692307695,4412.820512820514,4222.564102564103,4527.179487179488,4428.205128205129,4408.205128205129,4408.205128205129,4729.2307692307695,4325.128205128206,4185.128205128206,4126.153846153847,4475.8974358974365
356.81445,0.0,1.0,0.32504594,0.63890797,0,0.0,0.0,0.0,0.0,0.0,0,0,0.0,0.0,0,0,102.0,0.0,556.0,4559.48717948718,3930.7692307692314,4472.307692307693,4429.2307692307695,4233.846153846154,4539.48717948718,4429.743589743591,4389.2307692307695,4383.589743589744,4709.2307692307695,4315.384615384616,4177.435897435898,4108.205128205129,4460.000000000001
356.81445,0.0,1.0,0.32504594,0.63890797,0,0.0,0.0,0.0,0.0,0.0,0,0,0.0,0.0,0,0,102.0,0.0,556.0,4559.48717948718,3930.7692307692314,4472.307692307693,4429.2307692307695,4233.846153846154,4539.48717948718,4429.743589743591,4389.2307692307695,4383.589743589744,4709.2307692307695,4315.384615384616,4177.435897435898,4108.205128205129,4460.000000000001
357.31488,0.003397632,1.0,0.32062274,0.65412784,0,0.0,0.0,0.0,0.0,0.0,0,0,0.0,0.0,0,0,37.0,0.0,0.0,4558.974358974359,3933.8461538461543,4476.410256410257,4427.179487179487,4239.48717948718,4538.974358974359,4435.384615384616,4395.384615384616,4408.205128205129,4741.538461538462,4355.8974358974365,4199.48717948718,4162.564102564103,4493.333333333334
357.69022,0.003397632,1.0,0.32062274,0.65412784,0,0.0,0.0,0.0,0.0,0.33015898,0,0,0.0,0.0,0,0,85.0,0.0,518.0,4581.538461538462,3927.1794871794878,4475.8974358974365,4427.6923076923085,4227.6923076923085,4524.615384615385,4413.333333333334,4377.435897435898,4395.384615384616,4723.589743589744,4341.538461538462,4197.948717948719,4145.128205128206,4480.000000000001
357.94043,0.0,1.0,0.31664267,0.67232376,0,0.0,0.0,0.0,0.0,0.13258334,0,0,0.0,0.0,0,0,117.0,0.0,518.0,4584.102564102564,3933.8461538461543,4478.461538461539,4429.2307692307695,4232.820512820514,4531.794871794872,4417.435897435898,4388.717948717949,4394.358974358975,4720.000000000001,4347.6923076923085,4200.000000000001,4146.153846153847,4490.769230769231
358.19064,0.0,1.0,0.31664267,0.67232376,1,0.0,0.0,0.0,0.0,1.0,0,0,0.0,0.0,0,0,20.0,0.0,0.0,4575.8974358974365,3926.1538461538466,4478.461538461539,4426.666666666667,4233.846153846154,4527.6923076923085,4417.948717948719,4390.769230769231,4393.846153846154,4687.6923076923085,4354.871794871796,4210.256410256411,4128.205128205129,3078.461538461539
358.44086,0.009842498,0.94985414,0.31306162,0.6886698,0,0.0,0.0,0.0,0.0,1.0,0,0,0.0,0.0,0,0,52.0,0.0,0.0,4559.48717948718,3927.692307692308,4476.923076923077,4428.205128205129,4244.102564102564,4540.512820512821,4434.358974358975,4402.051282051282,4405.641025641026,4736.410256410257,4356.923076923077,4200.512820512821,4148.717948717949,4531.794871794872
358.44086,0.009842498,0.94985414,0.31306162,0.6886698,0,0.0,0.0,0.0,0.0,1.0,0,0,0.0,0.0,0,0,52.0,0.0,0.0,4559.48717948718,3927.692307692308,4476.923076923077,4428.205128205129,4244.102564102564,4540.512820512821,4434.358974358975,4402.051282051282,4405.641025641026,4736.410256410257,4356.923076923077,4200.512820512821,4148.717948717949,4531.794871794872
358.94128,0.08640944,0.895109,0.31141403,0.7007426,0,0.0,0.0,0.0,0.0,0.15397653,0,0,0.0,0.0,0,0,116.0,0.0,431.0,4553.846153846154,3933.8461538461543,4483.076923076924,4422.564102564103,4240.512820512821,4538.461538461539,4434.358974358975,4402.051282051282,4412.307692307693,4738.461538461539,4355.8974358974365,4203.076923076924,4149.74358974359,4537.948717948719
359.1915,0.08640944,0.895109,0.31141403,0.7007426,0,0.0,0.0,0.0,0.0,0.18447986,0,0,0.0,0.0,0,0,19.0,0.0,0.0,4572.820512820514,3944.1025641025644,4487.179487179488,4430.256410256411,4250.769230769231,4553.846153846154,4444.615384615385,4408.205128205129,4424.102564102564,4749.2307692307695,4383.076923076924,4221.025641025642,4170.769230769231,4527.179487179488
359.4417,0.11321974,0.8552774,0.31237286,0.7032162,0,0.0,0.0,0.0,0.0,0.2989021,0,0,0.0,0.0,0,0,51.0,0.0,0.0,4578.974358974359,3953.8461538461543,4474.871794871796,4428.205128205129,4247.179487179487,4541.025641025642,4441.025641025642,4412.820512820514,4416.923076923077,4742.051282051282,4372.820512820514,4211.282051282052,4155.8974358974365,4502.564102564103
359.69193,0.11321974,0.8552774,0.31237286,0.7032162,1,0.0,0.0,0.0,0.0,0.6044583,0,0,0.0,0.0,0,0,83.0,0.0,523.0,4558.974358974359,3942.0512820512827,4472.307692307693,4427.179487179487,4246.153846153847,4544.615384615385,4436.410256410257,4418.461538461539,4434.358974358975,4751.282051282052,4378.974358974359,4210.769230769231,4167.179487179487,4492.820512820514
359.94214,0.090275906,0.83879185,0.31443548,0.69485486,0,0.0,0.0,0.0,0.0,0.68965834,0,0,0.0,0.0,0,0,115.0,0.0,523.0,4560.000000000001,3951.2820512820517,4489.743589743591,4426.666666666667,4243.076923076924,4542.564102564103,4442.051282051282,4411.282051282052,4417.435897435898,4741.538461538462,4369.743589743591,4214.871794871796,4151.282051282052,4504.615384615385
360.19235,0.090275906,0.83879185,0.31443548,0.69485486,0,0.0,0.0,0.0,0.0,0.2783087,0,0,0.0,0.0,0,0,18.0,0.0,0.0,4558.461538461539,3942.0512820512827,4471.282051282052,4425.641025641026,4246.666666666667,4540.000000000001,4439.48717948718,4412.820512820514,4410.769230769231,4733.846153846154,4349.2307692307695,4204.102564102564,4145.128205128206,4502.051282051282
360.44257,0.11528928,0.81495184,0.3163369,0.6804855,0,0.0,0.0,0.0,0.0,0.17547926,0,0,0.0,0.0,0,0,50.0,0.0,0.0,4552.820512820514,3936.410256410257,4488.717948717949,4423.589743589744,4245.128205128206,4544.615384615385,4445.641025641026,4417.435897435898,4425.641025641026,4745.128205128206,4362.051282051282,4215.8974358974365,4165.641025641026,4520.512820512821
360.69278,0.11528928,0.81495184,0.3163369,0.6804855,1,0.0,0.0,0.0,0.0,0.6357613,0,0,0.0,0.0,0,0,82.0,0.0,556.0,4554.358974358975,3940.0000000000005,4477.948717948719,4423.589743589744,4249.74358974359,4548.717948717949,4443.076923076924,4421.025641025642,4431.282051282052,4749.2307692307695,4368.717948717949,4204.102564102564,4175.384615384616,4507.179487179488
360.943,0.053595074,0.82722557,0.31805167,0.6675458,0,0.0,0.0,0.0,0.0,1.0,0,0,0.0,0.0,0,0,114.0,0.0,556.0,4525.641025641026,3942.0512820512827,4468.205128205129,4425.641025641026,4247.179487179487,4552.307692307693,4436.410256410257,4406.666666666667,4435.384615384616,4747.6923076923085,4357.948717948719,4196.923076923077,4164.102564102564,4396.923076923077
361.1932,0.053595074,0.82722557,0.31805167,0.6675458,0,0.0,0.0,0.0,1.0,0.0,0,0,0.0,0.0,0,0,17.0,0.0,0.0,4554.358974358975,3942.0512820512827,4473.333333333334,4414.871794871796,4231.282051282052,4536.923076923077,4430.769230769231,4401.025641025642,4403.589743589744,4731.282051282052,4343.076923076924,4190.769230769231,4133.333333333334,4544.102564102564
361.44342,0.0893223,0.83627784,0.31958744,0.65597314,0,0.0,0.0,0.0,0.0,0.8790418,0,0,0.0,0.0,0,0,49.0,0.0,0.0,4546.666666666667,3943.589743589744,4471.794871794872,4420.512820512821,4246.666666666667,4546.666666666667,4438.974358974359,4409.743589743591,4426.153846153847,4755.8974358974365,4364.615384615385,4200.512820512821,4184.102564102564,4586.666666666667
361.69363,0.0893223,0.83627784,0.31958744,0.65597314,0,0.0,0.0,0.0,0.0,0.2455153,0,0,0.0,0.0,0,0,81.0,0.0,518.0,4575.8974358974365,3943.076923076924,4485.128205128206,4411.794871794872,4237.948717948719,4536.923076923077,4451.282051282052,4420.000000000001,4436.410256410257,4764.102564102564,4380.512820512821,4224.615384615385,4184.615384615385,4608.205128205129
361.94385,0.12704654,0.79494685,0.32097477,0.64551234,0,0.0,0.0,0.0,0.0,0.0,0,0,0.0,0.0,0,0,113.0,0.0,518.0,4604.615384615385,3941.538461538462,4504.102564102564,4416.923076923077,4240.512820512821,4545.641025641026,4473.846153846154,4448.205128205129,4454.871794871796,4782.564102564103,4370.769230769231,4245.641025641026,4200.512820512821,4615.8974358974365
362.22534,0.12704654,0.79494685,0.32097477,0.64551234,0,0.0,0.0,0.0,0.0,0.0,0,0,0.0,0.0,0,0,20.0,0.0,0.0,4586.666666666667,3950.2564102564106,4507.179487179488,4427.6923076923085,4246.666666666667,4554.871794871796,4468.205128205129,4444.615384615385,4451.794871794872,4775.384615384616,4365.641025641026,4241.025641025642,4177.435897435898,4587.6923076923085
362.31918,0.12699857,0.76829845,0.32222095,0.6361155,0,0.0,0.0,0.0,0.0,1.0,0,0,0.0,0.0,0,0,32.0,0.0,0.0,4578.461538461539,3951.2820512820517,4490.256410256411,4428.205128205129,4251.282051282052,4556.923076923077,4477.435897435898,4452.307692307693,4456.410256410257,4785.128205128206,4374.358974358975,4238.974358974359,4185.641025641026,4576.923076923077
362.69452,0.12699857,0.76829845,0.32222095,0.6361155,0,0.0,0.0,0.0,0.0,0.38190284,0,0,0.0,0.0,0,0,80.0,0.0,431.0,4683.589743589744,3971.7948717948725,4530.769230769231,4443.076923076924,4251.794871794872,4558.461538461539,4472.820512820514,4443.076923076924,4437.435897435898,4784.615384615386,4386.153846153847,4272.820512820514,4207.179487179487,4670.769230769231
362.97598,0.06753788,0.7361898,0.3233412,0.627669,0,0.0,0.0,0.0,0.0,0.7340644,0,0,0.0,0.0,0,0,116.0,0.0,431.0,4567.6923076923085,3957.435897435898,4493.846153846154,4442.564102564103,4260.000000000001,4563.589743589744,4450.769230769231,4425.128205128206,4434.358974358975,4761.025641025642,4348.205128205129,4210.769230769231,4166.666666666667,4535.384615384616
363.19495,0.06753788,0.7361898,0.3233412,0.627669,0,0.0,0.0,0.0,0.0,0.6757149,0,0,0.0,0.0,0,0,15.0,0.0,518.0,4556.923076923077,3952.307692307693,4492.307692307693,4435.384615384616,4255.384615384616,4560.000000000001,4453.333333333334,4431.794871794872,4435.384615384616,4759.48717948718,4343.076923076924,4214.871794871796,4165.128205128206,4537.435897435898
363.44516,0.045453895,0.71656007,0.32434922,0.62007034,0,0.0,0.0,0.0,0.0,0.3439249,0,0,0.0,0.0,0,0,47.0,0.0,0.0,4553.846153846154,3939.48717948718,4492.820512820514,4428.205128205129,4246.666666666667,4551.794871794872,4457.435897435898,4446.666666666667,4442.564102564103,4774.871794871796,4384.615384615385,4232.820512820514,4199.48717948718,4554.871794871796
363.69537,0.045453895,0.71656007,0.32434922,0.62007034,0,0.0,0.0,0.0,0.0,0.28529283,0,0,0.0,0.0,0,0,79.0,0.0,518.0,4553.846153846154,3942.564102564103,4497.435897435898,4436.923076923077,4248.205128205129,4553.333333333334,4457.948717948719,4433.846153846154,4428.717948717949,4761.025641025642,4358.974358974359,4210.256410256411,4164.102564102564,4521.025641025642
363.9456,0.080564745,0.696376,0.3252556,0.6132383,0,0.0,0.0,0.0,0.0,0.41468495,0,0,0.0,0.0,0,0,111.0,0.0,518.0,4586.153846153847,3957.9487179487182,4503.076923076924,4442.564102564103,4247.6923076923085,4555.8974358974365,4450.769230769231,4427.6923076923085,4424.615384615385,4752.820512820514,4344.102564102564,4197.435897435898,4152.820512820514,4510.256410256411
364.1958,0.080564745,0.696376,0.3252556,0.6132383,0,0.0,0.0,0.0,0.0,0.18963972,0,0,0.0,0.0,0,0,14.0,0.0,556.0,4624.102564102564,3967.1794871794878,4545.128205128206,4430.769230769231,4261.538461538462,4568.205128205129,4511.794871794872,4481.538461538462,4487.6923076923085,4816.410256410257,4403.589743589744,4266.666666666667,4217.435897435898,4570.769230769231
364.446,0.13803607,0.6655491,0.3250373,0.6255824,0,0.0,0.0,0.0,0.0,1.0,0,0,0.0,0.0,0,0,46.0,0.0,0.0,4597.948717948719,3947.1794871794878,4537.948717948719,4429.743589743591,4250.256410256411,4563.076923076924,4501.538461538462,4481.025641025642,4483.076923076924,4820.000000000001,4414.871794871796,4282.051282051282,4240.000000000001,4549.2307692307695
364.446,0.13803607,0.6655491,0.3250373,0.6255824,0,0.0,0.0,0.0,0.0,1.0,0,0,0.0,0.0,0,0,46.0,0.0,0.0,4597.948717948719,3947.1794871794878,4537.948717948719,4429.743589743591,4250.256410256411,4563.076923076924,4501.538461538462,4481.025641025642,4483.076923076924,4820.000000000001,4414.871794871796,4282.051282051282,4240.000000000001,4549.2307692307695
365.009,0.2964842,0.6241609,0.324834,0.6367454,0,0.0,0.0,0.0,0.0,1.0,0,0,0.0,0.0,0,0,118.0,0.0,556.0,4566.666666666667,3950.2564102564106,4525.128205128206,4434.358974358975,4247.6923076923085,4558.974358974359,4480.000000000001,4457.948717948719,4465.128205128206,4804.102564102564,4403.589743589744,4255.8974358974365,4224.102564102564,4641.025641025642
365.009,0.2964842,0.6241609,0.324834,0.6367454,0,0.0,0.0,0.0,0.0,1.0,0,0,0.0,0.0,0,0,118.0,0.0,556.0,4566.666666666667,3950.2564102564106,4525.128205128206,4434.358974358975,4247.6923076923085,4558.974358974359,4480.000000000001,4457.948717948719,4465.128205128206,4804.102564102564,4403.589743589744,4255.8974358974365,4224.102564102564,4641.025641025642
365.44687,0.26371607,0.5905203,0.324651,0.6467921,0,0.0,0.0,0.0,0.0,0.0,0,0,0.0,0.0,0,0,45.0,0.0,0.0,4652.820512820514,3958.9743589743593,4521.538461538462,4430.256410256411,4242.051282051282,4550.256410256411,4449.2307692307695,4428.205128205129,4436.410256410257,4771.794871794872,4396.410256410257,4263.589743589744,4230.769230769231,4714.871794871796
365.69708,0.26371607,0.5905203,0.324651,0.6467921,0,0.0,0.0,0.0,0.0,0.61837095,0,0,0.0,0.0,0,0,77.0,0.0,518.0,4518.461538461539,3929.7435897435903,4485.128205128206,4428.205128205129,4247.179487179487,4554.871794871796,4465.641025641026,4437.948717948719,4437.435897435898,4754.871794871796,4376.923076923077,4224.615384615385,4194.358974358975,4577.948717948719
365.9473,0.2313662,0.56991345,0.32449174,0.65576506,0,0.0,0.0,0.0,0.0,0.72899127,0,0,0.0,0.0,0,0,109.0,0.0,518.0,4539.48717948718,3942.564102564103,4503.589743589744,4433.846153846154,4252.820512820514,4557.435897435898,4456.923076923077,4430.769230769231,4426.153846153847,4746.153846153847,4378.974358974359,4217.435897435898,4176.410256410257,4578.461538461539
366.1975,0.2313662,0.56991345,0.32449174,0.65576506,0,0.0,0.0,0.0,0.0,0.0,0,0,0.0,0.0,0,0,12.0,0.0,431.0,4512.820512820514,3920.0000000000005,4478.974358974359,4427.179487179487,4250.256410256411,4554.358974358975,4457.435897435898,4436.410256410257,4424.102564102564,4749.2307692307695,4366.666666666667,4221.025641025642,4171.794871794872,4575.8974358974365
366.479,0.24361062,0.55090284,0.32538125,0.6453495,0,0.0,0.0,0.0,0.0,0.71256346,0,0,0.0,0.0,0,1,48.0,0.0,0.0,4573.333333333334,3941.0256410256416,4486.666666666667,4428.205128205129,4247.179487179487,4552.820512820514,4441.025641025642,4428.205128205129,4419.48717948718,4741.538461538462,4339.48717948718,4206.153846153847,4157.948717948719,4577.948717948719
366.69794,0.24361062,0.55090284,0.32538125,0.6453495,0,0.0,0.0,0.0,0.0,0.7948567,0,0,0.0,0.0,0,1,76.0,0.0,431.0,4533.333333333334,3943.589743589744,4475.8974358974365,4434.358974358975,4249.74358974359,4553.333333333334,4441.025641025642,4421.025641025642,4423.076923076924,4742.564102564103,4337.435897435898,4198.974358974359,4166.153846153847,4542.051282051282
366.94815,0.20122993,0.55058044,0.32618234,0.6359759,0,0.0,0.0,0.0,0.0,0.72864306,0,0,0.0,0.0,0,0,108.0,0.0,431.0,4526.666666666667,3938.9743589743593,4474.358974358975,4437.948717948719,4250.256410256411,4551.282051282052,4445.641025641026,4431.282051282052,4432.820512820514,4746.153846153847,4345.128205128206,4201.025641025642,4159.48717948718,4513.846153846154
367.19836,0.20122993,0.55058044,0.32618234,0.6359759,0,0.0,0.0,0.0,0.0,0.30014732,0,0,0.0,0.0,0,0,11.0,0.0,514.0,4520.512820512821,3927.692307692308,4472.307692307693,4431.282051282052,4250.769230769231,4551.794871794872,4438.974358974359,4422.564102564103,4434.871794871796,4742.564102564103,4332.307692307693,4197.948717948719,4166.153846153847,4496.923076923077
367.44858,0.19515845,0.55531454,0.3269037,0.6275391,0,0.0,0.0,0.0,0.0,0.14173527,0,0,0.0,0.0,0,0,43.0,0.0,0.0,4520.512820512821,3931.2820512820517,4486.153846153847,4432.820512820514,4250.256410256411,4552.820512820514,4441.025641025642,4414.358974358975,4425.128205128206,4740.512820512821,4340.000000000001,4201.025641025642,4174.358974358975,4512.820512820514
367.76135,0.19515845,0.55531454,0.3269037,0.6275391,0,0.0,0.0,0.0,0.0,0.7363485,0,0,0.0,0.0,0,0,83.0,0.0,514.0,4537.435897435898,3934.8717948717954,4490.256410256411,4436.410256410257,4251.794871794872,4555.8974358974365,4448.205128205129,4418.974358974359,4433.333333333334,4743.076923076924,4342.051282051282,4207.179487179487,4165.641025641026,4509.743589743591
367.94904,0.17287299,0.5612434,0.32755232,0.61995393,0,0.0,0.0,0.0,0.0,0.6768614,0,0,0.0,0.0,0,0,107.0,0.0,514.0,4557.948717948719,3936.9230769230776,4491.282051282052,4441.025641025642,4255.384615384616,4558.974358974359,4448.717948717949,4430.769230769231,4434.871794871796,4751.794871794872,4352.820512820514,4218.461538461539,4181.025641025642,4506.153846153847
368.2305,0.17287299,0.5612434,0.32755232,0.61995393,1,0.0,0.0,0.0,0.0,0.51369315,0,0,0.0,0.0,0,0,14.0,0.0,556.0,4582.051282051282,3949.7435897435903,4509.2307692307695,4440.512820512821,4253.333333333334,4554.871794871796,4434.871794871796,4398.461538461539,4413.333333333334,4732.820512820514,4341.025641025642,4206.666666666667,4175.384615384616,4520.512820512821
368.44946,0.1236798,0.74413383,0.32648847,0.6144807,0,0.0,0.0,0.0,0.0,0.53936225,0,0,0.0,0.0,0,0,42.0,0.0,0.0,4507.6923076923085,3940.5128205128212,4492.307692307693,4444.102564102564,4256.410256410257,4564.615384615385,4460.000000000001,4423.589743589744,4429.2307692307695,4740.000000000001,4332.307692307693,4192.307692307693,4161.025641025642,4478.974358974359
368.69968,0.1236798,0.74413383,0.32648847,0.6144807,0,0.0,0.0,0.0,0.0,0.22200269,0,0,0.0,0.0,0,0,74.0,0.0,556.0,4554.358974358975,3946.666666666667,4504.102564102564,4443.589743589744,4260.000000000001,4562.051282051282,4451.794871794872,4426.666666666667,4436.410256410257,4756.410256410257,4354.871794871796,4223.589743589744,4178.461538461539,4505.641025641026
368.9499,0.111407615,0.7403457,0.32478648,0.6095529,1,0.0,0.0,0.0,0.0,1.0,0,0,0.0,0.0,0,0,106.0,0.0,556.0,4524.102564102564,3937.435897435898,4483.589743589744,4440.512820512821,4251.282051282052,4555.384615384616,4441.025641025642,4413.333333333334,4423.589743589744,4742.051282051282,4341.538461538462,4199.48717948718,4163.076923076924,4374.358974358975
369.07498,0.111407615,0.7403457,0.32478648,0.6095529,0,0.0,0.0,0.0,0.0,1.0,0,0,0.0,0.0,0,0,122.0,0.0,556.0,4524.102564102564,3944.1025641025644,4521.025641025642,4443.076923076924,4248.205128205129,4552.820512820514,4454.871794871796,4435.8974358974365,4440.000000000001,4756.410256410257,4342.051282051282,4229.74358974359,4166.153846153847,4552.307692307693
369.45032,0.12683721,0.88880974,0.32324913,0.6051584,0,0.0,0.0,0.0,0.2950757,0.0,0,0,0.0,0.0,0,0,41.0,0.0,0.0,4523.589743589744,3943.076923076924,4498.461538461539,4433.846153846154,4238.461538461539,4547.179487179488,4458.974358974359,4419.48717948718,4423.589743589744,4750.256410256411,4355.384615384616,4224.615384615385,4182.564102564103,4579.48717948718
369.5754,0.12683721,0.88880974,0.32324913,0.6051584,0,0.0,0.0,0.0,0.0,0.0,0,0,0.0,0.0,0,0,57.0,0.0,0.0,4521.538461538462,3938.461538461539,4493.846153846154,4431.282051282052,4237.948717948719,4548.205128205129,4450.256410256411,4414.358974358975,4424.102564102564,4752.307692307693,4352.307692307693,4217.435897435898,4177.435897435898,4564.615384615385
369.82562,0.13903888,0.95394504,0.3218724,0.60117906,0,0.0,0.0,0.0,0.0,0.0,0,0,0.0,0.0,0,0,89.0,0.0,518.0,4510.769230769231,3943.589743589744,4491.794871794872,4437.435897435898,4240.512820512821,4546.666666666667,4451.282051282052,4427.6923076923085,4433.333333333334,4744.615384615386,4354.358974358975,4210.769230769231,4173.846153846154,4552.820512820514
370.26352,0.13903888,0.95394504,0.3218724,0.60117906,1,0.0,0.0,0.0,0.0,0.0,0,0,0.0,0.0,0,0,16.0,0.0,0.0,4576.923076923077,3950.2564102564106,4494.871794871796,4441.025641025642,4246.153846153847,4548.205128205129,4443.589743589744,4417.435897435898,4426.153846153847,4735.384615384616,4342.564102564103,4213.846153846154,4160.512820512821,4544.102564102564
370.45117,0.096087635,0.9937797,0.32228172,0.59626144,0,0.0,0.0,0.0,0.0,0.98865294,0,0,0.0,0.0,0,0,40.0,0.0,0.0,4561.025641025642,3954.358974358975,4491.282051282052,4440.000000000001,4249.74358974359,4552.307692307693,4443.589743589744,4409.2307692307695,4424.615384615385,4736.923076923077,4341.025641025642,4206.666666666667,4166.153846153847,4524.102564102564
370.7014,0.096087635,0.9937797,0.32228172,0.59626144,0,0.0,0.0,0.0,0.0,0.52989566,0,0,0.0,0.0,0,0,72.0,0.0,506.0,4567.179487179488,3955.8974358974365,4497.435897435898,4442.051282051282,4248.717948717949,4545.128205128206,4433.846153846154,4407.6923076923085,4424.102564102564,4741.025641025642,4361.538461538462,4222.564102564103,4178.974358974359,4535.384615384616
370.9516,0.12097485,1.0,0.32339355,0.5918341,0,0.0,0.0,0.0,0.0,0.1545551,0,0,0.0,0.0,0,0,104.0,0.0,431.0,4583.589743589744,3950.7692307692314,4488.717948717949,4440.000000000001,4248.717948717949,4546.666666666667,4431.794871794872,4402.051282051282,4410.769230769231,4732.307692307693,4349.743589743591,4203.589743589744,4171.794871794872,4513.846153846154
371.26437,0.12097485,1.0,0.32339355,0.5918341,0,0.0,0.0,0.0,0.0,0.519675,0,0,0.0,0.0,1,0,15.0,0.0,519.0,4617.435897435898,3960.5128205128212,4494.871794871796,4445.641025641026,4257.435897435898,4556.410256410257,4428.717948717949,4405.128205128206,4428.205128205129,4747.6923076923085,4364.615384615385,4222.564102564103,4198.974358974359,4551.282051282052
371.45203,0.11499186,1.0,0.32439476,0.5878481,0,0.0,0.0,0.0,0.0,0.62712914,0,0,0.0,0.0,1,0,39.0,0.0,0.0,4573.333333333334,3948.205128205129,4490.256410256411,4445.128205128206,4255.384615384616,4557.948717948719,4432.307692307693,4405.641025641026,4432.307692307693,4749.743589743591,4361.025641025642,4207.179487179487,4205.128205128206,4513.846153846154
371.70224,0.11499186,1.0,0.32439476,0.5878481,0,0.0,0.0,0.0,0.0,0.5606347,0,0,0.0,0.0,0,0,71.0,0.0,492.0,4581.025641025642,3939.48717948718,4489.2307692307695,4435.384615384616,4247.6923076923085,4548.717948717949,4416.410256410257,4403.076923076924,4430.256410256411,4742.051282051282,4356.410256410257,4190.769230769231,4198.974358974359,4504.102564102564
372.015,0.10779377,0.9675073,0.3252964,0.5842635,0,0.0,0.0,0.0,0.0,0.7697427,0,0,0.0,0.0,0,0,111.0,0.0,519.0,4570.256410256411,3944.615384615385,4497.948717948719,4444.102564102564,4250.256410256411,4551.794871794872,4434.358974358975,4412.307692307693,4441.025641025642,4751.282051282052,4347.179487179487,4205.641025641026,4190.769230769231,4507.6923076923085
372.20267,0.10779377,0.9675073,0.3252964,0.5842635,0,0.0,0.0,0.0,0.0,0.62260073,0,0,0.0,0.0,0,0,6.0,0.0,585.0,4577.948717948719,3942.564102564103,4494.871794871796,4436.923076923077,4248.205128205129,4546.666666666667,4428.205128205129,4420.512820512821,4437.435897435898,4752.307692307693,4347.6923076923085,4216.923076923077,4180.512820512821,4510.256410256411
372.45288,0.10588095,0.9255607,0.32610834,0.58510387,1,0.0,0.0,0.0,0.0,0.6203506,0,0,0.0,0.0,0,0,38.0,0.0,0.0,4588.205128205129,3943.589743589744,4505.128205128206,4444.102564102564,4251.794871794872,4552.820512820514,4423.589743589744,4396.410256410257,4420.000000000001,4737.948717948719,4337.435897435898,4208.717948717949,4182.564102564103,4506.153846153847
372.7031,0.10588095,0.9255607,0.32610834,0.58510387,0,0.0,0.0,0.0,0.0,0.58994037,0,0,0.0,0.0,0,0,70.0,0.0,585.0,4554.871794871796,3941.0256410256416,4493.846153846154,4441.025641025642,4256.410256410257,4553.333333333334,4440.000000000001,4421.025641025642,4438.974358974359,4750.769230769231,4336.923076923077,4196.410256410257,4176.923076923077,4483.076923076924
372.9533,0.054772913,0.99923307,0.32683954,0.5933244,0,0.0,0.0,0.0,0.0,0.21722859,0,0,0.0,0.0,0,0,102.0,0.0,556.0,4597.435897435898,3944.615384615385,4499.48717948718,4445.128205128206,4253.333333333334,4555.384615384616,4428.205128205129,4416.923076923077,4422.564102564103,4747.179487179488,4319.48717948718,4206.153846153847,4151.282051282052,4494.871794871796
373.20352,0.054772913,0.99923307,0.32683954,0.5933244,0,0.0,0.0,0.0,0.0,0.0,0,0,0.0,0.0,0,0,5.0,0.0,569.0,4607.179487179488,3948.205128205129,4490.256410256411,4441.538461538462,4262.051282051282,4555.384615384616,4445.128205128206,4425.128205128206,4429.743589743591,4738.461538461539,4318.974358974359,4205.641025641026,4156.923076923077,4481.538461538462
373.32864,0.040998418,0.9540843,0.32750884,0.60737646,0,0.0,0.0,0.0,0.0,0.0,0,0,0.0,0.0,0,0,21.0,0.0,0.0,4604.102564102564,3935.8974358974365,4491.282051282052,4439.48717948718,4254.358974358975,4553.333333333334,4443.076923076924,4415.384615384616,4425.641025641026,4730.256410256411,4321.025641025642,4201.538461538462,4155.384615384616,4480.512820512821
373.70398,0.040998418,0.9540843,0.32750884,0.60737646,0,0.0,0.0,0.0,0.0,1.0,0,0,0.0,0.0,0,0,69.0,0.0,569.0,4598.461538461539,3946.666666666667,4491.282051282052,4448.205128205129,4274.871794871796,4571.794871794872,4462.564102564103,4423.589743589744,4431.794871794872,4753.333333333334,4341.538461538462,4209.2307692307695,4180.512820512821,4419.48717948718
373.86035,0.03900293,0.8986198,0.32810563,0.6200532,0,0.0,0.0,0.0,0.0,1.0,0,0,0.0,0.0,0,0,89.0,0.0,518.0,4763.076923076924,3957.9487179487182,4521.025641025642,4445.641025641026,4242.051282051282,4536.410256410257,4432.307692307693,4408.717948717949,4418.974358974359,4791.282051282052,4357.435897435898,4260.000000000001,4206.153846153847,4728.717948717949
374.2044,0.03900293,0.8986198,0.32810563,0.6200532,0,0.0,0.0,0.0,0.0,0.62240726,0,0,0.0,0.0,0,0,4.0,0.0,571.0,4625.128205128206,3953.333333333334,4490.256410256411,4443.589743589744,4254.358974358975,4563.076923076924,4456.923076923077,4426.153846153847,4434.358974358975,4753.333333333334,4357.435897435898,4234.871794871796,4182.564102564103,4595.384615384616
374.45462,0.042075824,0.87472916,0.32864276,0.6280592,0,0.0,0.0,0.0,0.0,0.09402651,0,0,0.0,0.0,0,0,36.0,0.0,0.0,4600.000000000001,3938.9743589743593,4474.871794871796,4441.538461538462,4245.128205128206,4535.384615384616,4427.179487179487,4395.384615384616,4393.333333333334,4745.641025641026,4325.641025641026,4202.051282051282,4141.538461538462,4562.051282051282
374.5797,0.042075824,0.87472916,0.32864276,0.6280592,0,0.0,0.0,0.0,0.0,0.0,0,0,0.0,0.0,0,0,52.0,0.0,0.0,4606.153846153847,3938.461538461539,4458.461538461539,4430.769230769231,4230.256410256411,4534.358974358975,4427.6923076923085,4403.076923076924,4393.846153846154,4718.461538461539,4316.410256410257,4178.974358974359,4127.179487179487,4537.948717948719
374.82993,0.039899677,0.8387023,0.32912868,0.6244997,0,0.0,0.0,0.0,0.0,0.0,0,0,0.0,0.0,0,0,84.0,0.0,431.0,4620.000000000001,3929.2307692307695,4456.410256410257,4436.410256410257,4236.923076923077,4542.564102564103,4453.846153846154,4436.410256410257,4416.410256410257,4741.538461538462,4329.2307692307695,4206.153846153847,4172.820512820514,4551.282051282052
375.26782,0.039899677,0.8387023,0.32912868,0.6244997,1,0.0,0.0,0.0,0.0,0.0,0,0,0.0,0.0,0,0,11.0,0.0,515.0,4636.410256410257,3931.2820512820517,4440.512820512821,4416.410256410257,4242.051282051282,4530.256410256411,4416.410256410257,4400.512820512821,4387.179487179487,4675.8974358974365,4297.435897435898,4188.717948717949,4136.410256410257,4538.974358974359
375.4242,0.05102373,0.831434,0.3295519,0.6172361,0,0.0,0.0,0.0,0.0,0.0,0,0,0.0,0.0,0,0,31.0,0.0,0.0,4588.205128205129,3941.0256410256416,4442.564102564103,4432.307692307693,4262.564102564103,4553.846153846154,4428.205128205129,4411.282051282052,4397.948717948719,4664.102564102564,4310.769230769231,4183.076923076924,4151.282051282052,4516.923076923077
375.7057,0.05102373,0.831434,0.3295519,0.6172361,0,0.0,0.0,0.0,0.0,1.0,0,0,0.0,0.0,0,0,67.0,0.0,547.0,4555.384615384616,3917.435897435898,4442.051282051282,4425.128205128206,4255.8974358974365,4539.48717948718,4416.923076923077,4396.410256410257,4375.8974358974365,4663.589743589744,4276.410256410257,4170.769230769231,4124.102564102564,4489.2307692307695
375.9559,0.109815694,0.8261379,0.32993305,0.61069745,0,0.0,0.0,0.0,0.0,0.0,0,0,0.0,0.0,0,0,99.0,0.0,515.0,4554.871794871796,3919.48717948718,4474.871794871796,4427.6923076923085,4260.512820512821,4542.564102564103,4428.717948717949,4415.384615384616,4390.769230769231,4698.974358974359,4284.102564102564,4196.923076923077,4133.846153846154,4484.615384615385
375.9559,0.109815694,0.8261379,0.32993305,0.61069745,0,0.0,0.0,0.0,0.0,0.0,0,0,0.0,0.0,0,0,99.0,0.0,515.0,4554.871794871796,3919.48717948718,4474.871794871796,4427.6923076923085,4260.512820512821,4542.564102564103,4428.717948717949,4415.384615384616,4390.769230769231,4698.974358974359,4284.102564102564,4196.923076923077,4133.846153846154,4484.615384615385
376.33124,0.15626217,0.78317547,0.33027625,0.6048112,0,0.0,0.0,0.0,0.0,0.0,0,0,0.0,0.0,0,0,18.0,0.0,0.0,4559.48717948718,3947.692307692308,4467.179487179487,4433.846153846154,4251.794871794872,4538.974358974359,4395.384615384616,4372.307692307693,4356.923076923077,4669.2307692307695,4264.102564102564,4144.615384615385,4088.205128205129,4456.923076923077
376.70654,0.15626217,0.78317547,0.33027625,0.6048112,0,0.0,0.0,0.0,0.0,0.24140216,0,0,0.0,0.0,0,0,66.0,0.0,519.0,4518.461538461539,3929.7435897435903,4474.871794871796,4426.666666666667,4250.256410256411,4538.974358974359,4417.435897435898,4384.102564102564,4369.743589743591,4689.2307692307695,4273.333333333334,4151.794871794872,4105.641025641026,4444.615384615385
376.95676,0.20064357,0.74080676,0.33058506,0.5995181,0,0.0,0.0,0.0,0.0,0.32544604,0,0,0.0,0.0,0,0,98.0,0.0,556.0,4517.435897435898,3939.48717948718,4484.615384615385,4431.282051282052,4246.666666666667,4546.153846153847,4411.794871794872,4383.589743589744,4376.410256410257,4697.948717948719,4286.153846153847,4169.2307692307695,4120.000000000001,4522.051282051282
377.20697,0.20064357,0.74080676,0.33058506,0.5995181,0,0.0,0.0,0.0,0.0,1.0,0,0,0.0,0.0,0,0,1.0,0.0,477.0,4556.410256410257,3944.1025641025644,4495.384615384616,4441.025641025642,4254.358974358975,4549.2307692307695,4406.153846153847,4392.820512820514,4401.025641025642,4717.948717948719,4316.923076923077,4203.589743589744,4158.974358974359,4526.666666666667
377.36337,0.24031687,0.704532,0.3308612,0.5947832,0,0.0,0.0,0.0,1.0,0.0,0,0,0.0,0.0,0,0,21.0,0.0,0.0,4517.435897435898,3930.2564102564106,4482.564102564103,4434.358974358975,4256.410256410257,4552.820512820514,4425.128205128206,4396.410256410257,4389.743589743591,4709.743589743591,4309.743589743591,4177.948717948719,4149.2307692307695,4514.358974358975
377.7074,0.24031687,0.704532,0.3308612,0.5947832,0,0.0,0.0,0.0,0.0,0.20662078,0,0,0.0,0.0,0,0,65.0,0.0,477.0,4495.8974358974365,3930.2564102564106,4488.717948717949,4437.948717948719,4257.948717948719,4553.333333333334,4437.435897435898,4421.538461538462,4410.256410256411,4726.666666666667,4326.153846153847,4200.512820512821,4157.435897435898,4525.641025641026
377.9576,0.25402492,0.6821579,0.331109,0.5905287,0,0.0,0.0,0.0,0.0,0.8891652,0,0,0.0,0.0,0,0,97.0,0.0,518.0,4642.051282051282,3941.538461538462,4511.794871794872,4428.205128205129,4242.564102564103,4537.435897435898,4423.589743589744,4389.2307692307695,4357.435897435898,4705.128205128206,4322.051282051282,4216.923076923077,4161.538461538462,4646.666666666667
378.20782,0.25402492,0.6821579,0.331109,0.5905287,0,0.0,0.0,0.0,0.0,0.8965585,0,0,0.0,0.0,0,0,0.0,0.0,506.0,4485.128205128206,3914.358974358975,4474.871794871796,4423.076923076924,4247.6923076923085,4542.051282051282,4436.923076923077,4408.717948717949,4399.48717948718,4717.948717948719,4328.717948717949,4189.74358974359,4169.2307692307695,4505.641025641026
378.45804,0.21877138,0.68172455,0.3313326,0.5866837,0,0.0,0.0,0.0,0.0,0.70183295,0,0,0.0,0.0,0,0,32.0,0.0,0.0,4648.205128205129,3943.076923076924,4511.794871794872,4426.153846153847,4245.128205128206,4536.923076923077,4423.076923076924,4393.846153846154,4378.974358974359,4719.48717948718,4341.025641025642,4224.102564102564,4186.666666666667,4630.769230769231
378.70825,0.21877138,0.68172455,0.3313326,0.5866837,0,0.0,0.0,0.0,0.0,0.76803994,0,0,0.0,0.0,0,0,64.0,0.0,506.0,4477.435897435898,3917.435897435898,4475.8974358974365,4421.025641025642,4247.6923076923085,4546.153846153847,4441.538461538462,4410.769230769231,4390.769230769231,4714.358974358975,4331.282051282052,4197.435897435898,4153.333333333334,4491.794871794872
378.9585,0.19829462,0.78280693,0.331534,0.5832234,0,0.0,0.0,0.0,0.0,0.7619498,0,0,0.0,0.0,0,0,96.0,0.0,431.0,4524.615384615385,3929.2307692307695,4494.358974358975,4423.076923076924,4236.923076923077,4537.435897435898,4423.589743589744,4410.769230769231,4401.025641025642,4722.051282051282,4329.2307692307695,4206.153846153847,4149.74358974359,4508.205128205129
379.2087,0.19829462,0.78280693,0.331534,0.5832234,0,0.0,0.0,0.0,0.0,0.1558226,0,0,0.0,0.0,0,0,128.0,0.0,431.0,4496.410256410257,3928.205128205129,4480.000000000001,4417.948717948719,4235.384615384616,4537.435897435898,4417.435897435898,4389.2307692307695,4378.974358974359,4698.974358974359,4316.923076923077,4184.102564102564,4145.641025641026,4485.128205128206
379.3338,0.22083576,0.7763935,0.33171523,0.5801079,0,0.0,0.0,0.0,0.0,0.0,0,0,0.0,0.0,0,0,15.0,0.0,519.0,4512.307692307693,3928.205128205129,4470.769230769231,4416.923076923077,4236.923076923077,4538.461538461539,4422.564102564103,4395.384615384616,4390.769230769231,4715.384615384616,4327.6923076923085,4204.102564102564,4163.076923076924,4506.153846153847
379.3338,0.22083576,0.7763935,0.33171523,0.5801079,0,0.0,0.0,0.0,0.0,0.0,0,0,0.0,0.0,0,0,15.0,0.0,519.0,4512.307692307693,3928.205128205129,4470.769230769231,4416.923076923077,4236.923076923077,4538.461538461539,4422.564102564103,4395.384615384616,4390.769230769231,4715.384615384616,4327.6923076923085,4204.102564102564,4163.076923076924,4506.153846153847
379.83423,0.32291862,0.769802,0.33187854,0.57730293,0,0.0,0.0,0.0,0.0,0.0,0,0,0.0,0.0,0,0,79.0,0.0,519.0,4497.948717948719,3924.615384615385,4479.48717948718,4412.307692307693,4238.974358974359,4535.8974358974365,4427.179487179487,4405.641025641026,4401.025641025642,4713.333333333334,4336.923076923077,4188.205128205129,4151.794871794872,4476.923076923077
380.20956,0.32291862,0.769802,0.33187854,0.57730293,0,0.0,0.0,0.0,0.0,0.14090495,0,0,0.0,0.0,0,0,127.0,0.0,519.0,4506.153846153847,3921.0256410256416,4475.8974358974365,4426.666666666667,4250.256410256411,4545.128205128206,4433.333333333334,4414.358974358975,4406.153846153847,4720.000000000001,4343.076923076924,4187.179487179487,4164.615384615385,4497.948717948719
380.45978,0.31907845,0.7459464,0.3320255,0.5747803,1,0.0,0.0,0.0,0.0,0.7722476,0,0,0.0,0.0,0,0,30.0,0.0,0.0,4535.384615384616,3934.8717948717954,4493.333333333334,4430.256410256411,4245.641025641026,4547.6923076923085,4437.435897435898,4426.153846153847,4404.102564102564,4727.179487179488,4349.2307692307695,4211.282051282052,4162.564102564103,4496.923076923077
380.71,0.31907845,0.7459464,0.3320255,0.5747803,0,0.0,0.0,0.0,0.0,0.76406807,0,0,0.0,0.0,0,0,62.0,0.0,0.0,4519.48717948718,3931.2820512820517,4477.948717948719,4429.743589743591,4250.256410256411,4549.2307692307695,4446.666666666667,4424.615384615385,4406.153846153847,4731.794871794872,4354.358974358975,4205.641025641026,4167.179487179487,4490.256410256411
380.9602,0.26058382,0.72081995,0.33215758,0.57747984,0,0.0,0.0,0.0,0.0,0.16026846,0,0,0.0,0.0,0,0,94.0,0.0,556.0,4553.333333333334,3952.307692307693,4508.717948717949,4448.717948717949,4262.564102564103,4566.153846153847,4454.358974358975,4452.307692307693,4440.000000000001,4760.000000000001,4376.923076923077,4236.410256410257,4196.923076923077,4520.000000000001
381.21042,0.26058382,0.72081995,0.33215758,0.57747984,0,0.0,0.0,0.0,0.0,0.19257703,0,0,0.0,0.0,0,0,126.0,0.0,556.0,4536.923076923077,3926.1538461538466,4491.282051282052,4437.435897435898,4249.74358974359,4548.717948717949,4448.205128205129,4437.435897435898,4417.435897435898,4758.461538461539,4347.6923076923085,4220.000000000001,4173.333333333334,4466.666666666667
381.3355,0.28045586,0.6944484,0.33227655,0.5875558,0,0.0,0.0,0.0,0.0,1.0,0,0,0.0,0.0,0,0,13.0,0.0,518.0,4555.384615384616,3927.1794871794878,4494.871794871796,4434.358974358975,4246.153846153847,4542.564102564103,4437.948717948719,4433.333333333334,4410.256410256411,4712.307692307693,4351.282051282052,4225.641025641026,4151.282051282052,2997.9487179487182
381.58575,0.28045586,0.6944484,0.33227655,0.5875558,0,0.0,0.0,0.0,0.0,1.0,0,0,0.0,0.0,0,0,45.0,0.0,0.0,4555.384615384616,3944.615384615385,4493.846153846154,4443.589743589744,4258.461538461539,4559.48717948718,4449.2307692307695,4445.641025641026,4441.025641025642,4774.871794871796,4350.769230769231,4230.769230769231,4196.410256410257,4546.666666666667
381.96106,0.3684087,0.67074,0.33238262,0.59664273,0,0.0,0.0,0.0,0.0,0.17925687,0,0,0.0,0.0,0,0,93.0,0.0,518.0,4554.358974358975,3941.538461538462,4503.589743589744,4444.615384615385,4262.564102564103,4562.051282051282,4436.410256410257,4409.2307692307695,4424.102564102564,4752.820512820514,4330.256410256411,4202.564102564103,4191.794871794872,4550.256410256411
382.21127,0.3684087,0.67074,0.33238262,0.59664273,0,0.0,0.0,0.0,0.0,0.3065112,0,0,0.0,0.0,0,0,125.0,0.0,518.0,4590.769230769231,3932.307692307693,4522.051282051282,4444.615384615385,4267.6923076923085,4570.256410256411,4454.358974358975,4447.179487179487,4448.205128205129,4778.974358974359,4333.846153846154,4212.307692307693,4233.333333333334,4573.846153846154
382.4615,0.47266147,0.65916836,0.3324782,0.604795,0,0.0,0.0,0.0,0.0,0.133475,0,0,0.0,0.0,0,0,28.0,0.0,0.0,4626.666666666667,3927.1794871794878,4534.358974358975,4443.076923076924,4258.974358974359,4565.128205128206,4484.102564102564,4483.589743589744,4455.8974358974365,4795.384615384616,4335.8974358974365,4211.794871794872,4274.871794871796,4563.589743589744
382.64914,0.47266147,0.65916836,0.3324782,0.604795,0,0.0,0.0,0.0,0.0,1.0,0,0,0.0,0.0,0,1,52.0,0.0,0.0,4770.769230769231,3950.2564102564106,4568.717948717949,4444.102564102564,4253.333333333334,4554.358974358975,4481.025641025642,4481.538461538462,4431.794871794872,4795.384615384616,4331.282051282052,4222.564102564103,4299.48717948718,4579.48717948718
382.9932,0.5991072,0.6587271,0.3325642,0.60448325,0,0.0,0.0,0.0,0.0,1.0,0,0,0.0,0.0,0,0,96.0,0.0,431.0,4745.641025641026,4065.6410256410263,4503.076923076924,4446.666666666667,4225.128205128206,4520.000000000001,4426.153846153847,4431.794871794872,4354.871794871796,4720.512820512821,4268.717948717949,4134.358974358975,4235.384615384616,4464.102564102564
383.21213,0.5991072,0.6587271,0.3325642,0.60448325,0,0.0,0.0,0.0,0.0,0.38606444,0,0,0.0,0.0,0,0,124.0,0.0,431.0,4715.8974358974365,4079.48717948718,4489.743589743591,4456.923076923077,4228.205128205129,4523.076923076924,4429.743589743591,4421.538461538462,4327.6923076923085,4696.923076923077,4245.641025641026,4138.974358974359,4195.384615384616,4450.256410256411
383.46234,0.7372144,0.657971,0.3326417,0.5992338,0,0.0,0.0,0.0,0.0,0.031245736,0,0,0.0,0.0,0,0,27.0,0.0,0.0,4747.6923076923085,4002.0512820512827,4508.205128205129,4444.102564102564,4230.769230769231,4520.000000000001,4467.6923076923085,4471.794871794872,4361.538461538462,4728.205128205129,4284.615384615385,4181.538461538462,4221.538461538462,4470.256410256411
383.71255,0.7372144,0.657971,0.3326417,0.5992338,0,0.0,0.0,0.0,0.0,0.08452077,0,0,0.0,0.0,0,0,59.0,0.0,0.0,4740.000000000001,3971.2820512820517,4507.179487179488,4438.974358974359,4231.794871794872,4524.102564102564,4467.6923076923085,4469.743589743591,4370.769230769231,4728.205128205129,4315.8974358974365,4220.512820512821,4220.000000000001,4481.025641025642
383.96277,0.7431463,0.65833,0.3327115,0.5945079,0,0.0,0.0,0.0,0.0,0.08598521,0,0,0.0,0.0,0,0,91.0,0.0,519.0,4724.615384615386,3949.2307692307695,4504.102564102564,4437.948717948719,4233.846153846154,4524.102564102564,4471.282051282052,4471.282051282052,4376.410256410257,4718.974358974359,4318.974358974359,4211.282051282052,4203.589743589744,4470.256410256411
384.21298,0.7431463,0.65833,0.3327115,0.5945079,0,0.0,0.0,0.0,0.0,0.1833514,0,0,0.0,0.0,0,0,123.0,0.0,519.0,4820.000000000001,3943.589743589744,4524.615384615385,4436.923076923077,4234.358974358975,4524.102564102564,4477.948717948719,4494.871794871796,4378.974358974359,4740.000000000001,4363.076923076924,4286.153846153847,4233.846153846154,4536.410256410257
384.49448,0.7869803,0.6663113,0.33277434,0.59025306,0,0.0,0.0,0.0,0.0,0.8757235,0,0,0.0,0.0,0,0,30.0,0.0,0.0,4752.307692307693,3930.7692307692314,4509.743589743591,4439.48717948718,4230.769230769231,4522.051282051282,4476.923076923077,4477.435897435898,4363.589743589744,4723.589743589744,4354.871794871796,4265.128205128206,4207.179487179487,4447.6923076923085
384.71344,0.7869803,0.6663113,0.33277434,0.59025306,0,0.0,0.0,0.0,0.0,0.6568442,0,0,0.0,0.0,0,0,58.0,0.0,0.0,4747.179487179488,3927.692307692308,4489.743589743591,4438.974358974359,4232.820512820514,4522.564102564103,4473.333333333334,4477.435897435898,4358.974358974359,4717.435897435898,4361.538461538462,4275.8974358974365,4221.025641025642,4465.128205128206
384.96365,0.8175103,0.6417529,0.3328309,0.60636765,0,0.0,0.0,0.0,0.0,0.19246587,0,0,0.0,0.0,0,0,90.0,0.0,556.0,4779.48717948718,3925.6410256410263,4496.410256410257,4443.589743589744,4241.025641025642,4533.846153846154,4488.205128205129,4502.564102564103,4405.641025641026,4753.846153846154,4393.846153846154,4315.8974358974365,4266.153846153847,4500.512820512821
385.21387,0.8175103,0.6417529,0.3328309,0.60636765,0,0.0,0.0,0.0,0.0,0.18057671,0,0,0.0,0.0,0,0,122.0,0.0,556.0,4733.333333333334,3934.8717948717954,4504.102564102564,4447.179487179487,4249.74358974359,4542.051282051282,4488.205128205129,4495.8974358974365,4396.923076923077,4750.256410256411,4408.205128205129,4325.128205128206,4262.051282051282,4498.974358974359
385.46408,0.86025757,0.6238665,0.33288172,0.6343468,0,0.0,0.0,0.0,0.0,0.32350993,0,0,0.0,0.0,0,0,25.0,0.0,0.0,4723.589743589744,3938.461538461539,4505.641025641026,4445.128205128206,4254.871794871796,4549.743589743591,4483.589743589744,4484.102564102564,4407.179487179487,4750.769230769231,4399.48717948718,4320.000000000001,4257.948717948719,4482.564102564103
385.7143,0.86025757,0.6238665,0.33288172,0.6343468,1,0.0,0.0,0.0,0.0,0.3351793,0,0,0.0,0.0,0,0,57.0,0.0,0.0,4658.974358974359,3927.1794871794878,4480.512820512821,4440.000000000001,4242.564102564103,4536.923076923077,4445.128205128206,4440.000000000001,4366.666666666667,4704.615384615386,4362.564102564103,4287.6923076923085,4204.102564102564,4433.333333333334
385.87067,0.8539328,0.624955,0.3319105,0.6595067,0,0.0,0.0,0.0,0.0,1.0,0,0,0.0,0.0,0,0,77.0,0.0,518.0,4615.8974358974365,3941.0256410256416,4492.820512820514,4457.435897435898,4265.128205128206,4560.512820512821,4463.589743589744,4448.717948717949,4384.615384615385,4710.769230769231,4351.282051282052,4282.564102564103,4207.6923076923085,4384.615384615385
386.0896,0.8539328,0.624955,0.3319105,0.6595067,0,0.0,0.0,0.0,0.0,1.0,0,0,0.0,0.0,0,0,105.0,0.0,518.0,4580.000000000001,3910.2564102564106,4474.871794871796,4432.820512820514,4246.666666666667,4543.589743589744,4445.128205128206,4431.282051282052,4354.358974358975,4683.589743589744,4334.358974358975,4264.615384615385,4187.179487179487,4426.153846153847
386.46494,0.88003945,0.60039693,0.33103487,0.68221945,0,0.0,0.0,0.0,0.0,0.44912365,0,0,0.0,0.0,0,0,24.0,0.0,0.0,4552.307692307693,3910.7692307692314,4475.384615384616,4432.307692307693,4248.205128205129,4541.538461538462,4436.923076923077,4435.384615384616,4371.794871794872,4699.48717948718,4346.153846153847,4276.923076923077,4192.820512820514,4460.512820512821
386.59003,0.88003945,0.60039693,0.33103487,0.68221945,0,0.0,0.0,0.0,0.0,0.0,0,0,0.0,0.0,0,0,40.0,0.0,0.0,4588.205128205129,3913.8461538461543,4488.717948717949,4436.410256410257,4247.6923076923085,4545.641025641026,4449.743589743591,4446.666666666667,4372.820512820514,4710.256410256411,4354.358974358975,4266.666666666667,4206.666666666667,4453.846153846154
386.84024,0.91039485,0.58099794,0.3302486,0.68818384,0,0.0,0.0,0.0,0.0,0.0,0,0,0.0,0.0,0,0,72.0,0.0,506.0,4616.410256410257,3922.0512820512827,4510.256410256411,4433.846153846154,4243.589743589744,4537.435897435898,4463.076923076924,4455.384615384616,4366.153846153847,4710.769230769231,4346.666666666667,4265.641025641026,4202.564102564103,4472.307692307693
386.84024,0.91039485,0.58099794,0.3302486,0.68818384,0,0.0,0.0,0.0,0.0,0.0,0,0,0.0,0.0,0,0,72.0,0.0,506.0,4616.410256410257,3922.0512820512827,4510.256410256411,4433.846153846154,4243.589743589744,4537.435897435898,4463.076923076924,4455.384615384616,4366.153846153847,4710.769230769231,4346.666666666667,4265.641025641026,4202.564102564103,4472.307692307693
387.4658,0.8591222,0.58980066,0.32954097,0.6800742,0,0.0,0.0,0.0,0.0,0.7289798,0,0,0.0,0.0,0,0,23.0,0.0,0.0,4674.358974358975,3910.2564102564106,4521.538461538462,4430.769230769231,4234.871794871796,4526.153846153847,4444.615384615385,4436.410256410257,4334.871794871796,4697.435897435898,4346.153846153847,4282.051282051282,4196.410256410257,4497.435897435898
387.716,0.8591222,0.58980066,0.32954097,0.6800742,0,0.0,0.0,0.0,0.0,0.07249227,0,0,0.0,0.0,0,0,55.0,0.0,0.0,4791.794871794872,4285.128205128206,4423.589743589744,4476.410256410257,4193.333333333334,4482.564102564103,4298.974358974359,4269.2307692307695,4178.974358974359,4553.333333333334,4202.564102564103,4118.461538461539,4025.1282051282055,4354.358974358975
387.96622,0.9660276,0.59779,0.3299224,0.6672052,0,0.0,0.0,0.0,0.0,0.7465744,0,0,0.0,0.0,0,0,87.0,0.0,525.0,5074.871794871796,3947.692307692308,4504.615384615385,4445.128205128206,4238.461538461539,4531.282051282052,4428.205128205129,4422.564102564103,4325.641025641026,4691.282051282052,4327.179487179487,4264.102564102564,4176.410256410257,4496.923076923077
388.21643,0.9660276,0.59779,0.3299224,0.6672052,1,0.0,0.0,0.0,0.0,0.9624713,0,0,0.0,0.0,0,0,119.0,0.0,525.0,5005.128205128206,3969.7435897435903,4508.717948717949,4451.794871794872,4240.512820512821,4530.769230769231,4433.846153846154,4433.333333333334,4326.666666666667,4695.8974358974365,4336.410256410257,4272.820512820514,4177.435897435898,4490.256410256411
388.46664,1.0,0.6049804,0.33026412,0.65569293,0,0.0,0.0,0.0,0.0,0.82563007,0,0,0.0,0.0,0,0,22.0,0.0,0.0,4901.025641025642,3957.9487179487182,4505.128205128206,4453.333333333334,4244.615384615385,4534.358974358975,4450.256410256411,4446.666666666667,4315.384615384616,4690.256410256411,4325.128205128206,4263.589743589744,4165.128205128206,4452.820512820514
388.71686,1.0,0.6049804,0.33026412,0.65569293,0,0.0,0.0,0.0,0.0,0.80564225,0,0,0.0,0.0,0,0,54.0,0.0,0.0,4844.615384615386,3932.307692307693,4492.307692307693,4449.743589743591,4248.205128205129,4537.948717948719,4446.153846153847,4435.8974358974365,4310.256410256411,4676.410256410257,4322.564102564103,4264.615384615385,4140.512820512821,4438.461538461539
388.84198,0.9787345,0.61145175,0.33057326,0.6452756,0,0.0,0.0,0.0,0.0,1.0,0,0,0.0,0.0,0,0,70.0,0.0,585.0,4815.384615384616,3926.666666666667,4505.128205128206,4450.256410256411,4244.102564102564,4533.333333333334,4430.769230769231,4434.358974358975,4314.871794871796,4679.48717948718,4338.974358974359,4274.358974358975,4152.820512820514,4442.051282051282
389.2173,0.9787345,0.61145175,0.33057326,0.6452756,0,0.0,0.0,0.0,0.0,0.6960157,0,0,0.0,0.0,0,0,118.0,0.0,556.0,4835.8974358974365,3937.9487179487182,4505.641025641026,4454.871794871796,4236.923076923077,4534.358974358975,4417.435897435898,4402.564102564103,4298.974358974359,4659.48717948718,4316.410256410257,4256.410256410257,4141.538461538462,4485.641025641026
389.3424,0.9502724,0.61727595,0.33085123,0.6359109,0,0.0,0.0,0.0,0.0,1.0,0,0,0.0,0.0,0,0,5.0,0.0,569.0,4750.769230769231,3924.615384615385,4490.256410256411,4448.717948717949,4241.025641025642,4531.282051282052,4414.358974358975,4403.076923076924,4302.051282051282,4657.435897435898,4310.769230769231,4248.717948717949,4139.48717948718,4376.923076923077
389.3424,0.9502724,0.61727595,0.33085123,0.6359109,0,0.0,0.0,0.0,0.0,1.0,0,0,0.0,0.0,0,0,5.0,0.0,569.0,4750.769230769231,3924.615384615385,4490.256410256411,4448.717948717949,4241.025641025642,4531.282051282052,4414.358974358975,4403.076923076924,4302.051282051282,4657.435897435898,4310.769230769231,4248.717948717949,4139.48717948718,4376.923076923077
389.96796,0.90103745,0.6499162,0.33110005,0.6275283,0,0.0,0.0,0.0,0.0,0.1932815,0,0,0.0,0.0,0,0,85.0,0.0,518.0,4668.717948717949,3911.7948717948725,4491.282051282052,4438.974358974359,4247.179487179487,4538.461538461539,4427.179487179487,4426.666666666667,4333.846153846154,4684.615384615386,4331.282051282052,4234.871794871796,4164.615384615385,4443.076923076924
390.21817,0.90103745,0.6499162,0.33110005,0.6275283,0,0.0,0.0,0.0,0.0,1.0,0,0,0.0,0.0,0,0,117.0,0.0,518.0,4654.871794871796,3911.2820512820517,4505.641025641026,4443.076923076924,4246.153846153847,4537.948717948719,4429.743589743591,4421.025641025642,4343.076923076924,4698.461538461539,4342.051282051282,4240.000000000001,4175.384615384616,4447.6923076923085
390.46838,0.9069196,0.6135878,0.33132383,0.619988,0,0.0,0.0,0.0,1.0,0.0,0,0,0.0,0.0,0,0,20.0,0.0,0.0,4668.205128205129,3916.9230769230776,4475.384615384616,4445.128205128206,4250.256410256411,4546.153846153847,4450.256410256411,4441.025641025642,4360.512820512821,4711.794871794872,4337.948717948719,4218.461538461539,4194.358974358975,4492.307692307693
390.7186,0.9069196,0.6135878,0.33132383,0.619988,0,0.0,0.0,0.0,0.11428329,0.0,0,0,0.0,0.0,0,0,52.0,0.0,0.0,4671.282051282052,3917.9487179487182,4476.923076923077,4444.615384615385,4267.6923076923085,4555.8974358974365,4459.48717948718,4455.384615384616,4382.051282051282,4721.538461538462,4344.102564102564,4227.6923076923085,4176.923076923077,4486.666666666667
390.9688,0.9083978,0.5849614,0.33152494,0.6132094,0,0.0,0.0,0.0,0.0,0.0,0,0,0.0,0.0,0,0,84.0,0.0,430.0,4642.564102564103,3910.2564102564106,4488.717948717949,4432.820512820514,4237.435897435898,4538.461538461539,4442.051282051282,4446.666666666667,4371.282051282052,4714.358974358975,4358.461538461539,4233.846153846154,4184.615384615385,4480.512820512821
390.9688,0.9083978,0.5849614,0.33152494,0.6132094,0,0.0,0.0,0.0,0.0,0.0,0,0,0.0,0.0,0,0,84.0,0.0,430.0,4642.564102564103,3910.2564102564106,4488.717948717949,4432.820512820514,4237.435897435898,4538.461538461539,4442.051282051282,4446.666666666667,4371.282051282052,4714.358974358975,4358.461538461539,4233.846153846154,4184.615384615385,4480.512820512821
391.46924,0.8993529,0.5592401,0.3317067,0.60708535,0,0.0,0.0,0.0,0.0,0.22435527,1,0,0.0,0.0,0,0,19.0,0.0,0.0,4818.974358974359,3831.2820512820517,4525.641025641026,4426.666666666667,4220.000000000001,4547.6923076923085,4472.307692307693,4450.769230769231,4395.384615384616,4725.641025641026,4358.974358974359,4273.846153846154,4145.641025641026,4554.358974358975
391.71945,0.8993529,0.5592401,0.3317067,0.60708535,0,0.0,0.0,0.0,0.0,0.13601738,0,0,0.0,0.0,0,0,51.0,0.0,0.0,4873.333333333334,3942.0512820512827,4492.820512820514,4426.153846153847,4247.6923076923085,4540.512820512821,4441.025641025642,4427.6923076923085,4394.871794871796,4812.820512820514,4341.538461538462,4216.410256410257,4730.769230769231,4630.769230769231
391.96967,1.0,0.5360909,0.33186957,0.6015959,0,0.0,0.0,0.0,0.0,0.0337884,0,0,0.0,0.0,0,0,83.0,0.0,519.0,4832.820512820514,4053.333333333334,4475.384615384616,4463.076923076924,4257.948717948719,4545.128205128206,4412.307692307693,4413.333333333334,4406.666666666667,4916.923076923077,4335.8974358974365,4202.564102564103,5397.435897435898,4689.743589743591
392.21988,1.0,0.5360909,0.33186957,0.6015959,0,0.0,0.0,0.0,0.0,0.08376944,0,0,0.0,0.0,0,0,115.0,0.0,519.0,4761.025641025642,4134.871794871796,4441.025641025642,4474.358974358975,4234.358974358975,4515.8974358974365,4360.512820512821,4349.743589743591,4363.076923076924,4903.589743589744,4283.076923076924,4163.076923076924,5604.615384615386,4611.282051282052
392.4701,1.0,0.5152566,0.33201614,0.5966554,0,0.0,0.0,0.0,0.0,0.63330966,0,0,0.0,0.0,0,0,18.0,0.0,0.0,4673.846153846154,4169.2307692307695,4431.794871794872,4463.076923076924,4204.102564102564,4485.128205128206,4326.666666666667,4301.538461538462,4323.589743589744,4869.743589743591,4238.974358974359,4128.205128205129,5663.076923076924,4520.512820512821
392.7203,1.0,0.5152566,0.33201614,0.5966554,0,0.0,0.0,0.0,0.0,0.69173217,1,0,0.0,0.0,0,0,50.0,0.0,0.0,4727.6923076923085,4201.538461538462,4412.820512820514,4461.538461538462,4200.000000000001,4476.923076923077,4306.153846153847,4292.307692307693,4308.717948717949,4832.307692307693,4214.358974358975,4094.8717948717954,5504.102564102564,4429.743589743591
392.97052,1.0,0.49650577,0.33214796,0.59221137,0,0.0,0.0,0.0,0.0,0.07586975,1,0,0.0,0.0,0,0,82.0,0.0,510.0,4677.435897435898,4109.74358974359,4453.846153846154,4444.615384615385,4201.538461538462,4488.717948717949,4380.000000000001,4383.589743589744,4350.256410256411,4837.948717948719,4257.435897435898,4131.282051282052,5331.794871794872,4473.846153846154
393.22073,1.0,0.49650577,0.33214796,0.59221137,0,0.0,0.0,0.0,0.0,0.047527812,1,0,0.0,0.0,0,0,114.0,0.0,510.0,4763.076923076924,4048.205128205129,4511.282051282052,4434.871794871796,4203.076923076924,4492.307692307693,4426.666666666667,4440.512820512821,4365.641025641026,4841.538461538462,4309.2307692307695,4191.282051282052,5144.102564102564,4494.871794871796
393.47095,0.9744734,0.47963,0.3322671,0.5881976,0,0.0,0.0,0.0,0.0,0.07542635,0,0,0.0,0.0,0,0,17.0,0.0,0.0,4816.410256410257,4007.1794871794878,4551.794871794872,4444.615384615385,4207.6923076923085,4502.564102564103,4467.6923076923085,4485.641025641026,4377.435897435898,4840.512820512821,4337.948717948719,4243.076923076924,4971.794871794872,4513.333333333334
393.72116,0.9744734,0.47963,0.3322671,0.5881976,0,0.0,0.0,0.0,0.0,0.27620044,0,0,0.0,0.0,0,0,49.0,0.0,0.0,4906.153846153847,4057.435897435898,4565.128205128206,4459.48717948718,4199.48717948718,4489.2307692307695,4469.2307692307695,4472.820512820514,4315.8974358974365,4777.435897435898,4310.769230769231,4218.461538461539,4721.538461538462,4441.538461538462
393.97137,0.8791036,0.5334499,0.3323744,0.5845839,0,0.0,0.0,0.0,0.0,0.660752,0,0,0.0,0.0,0,0,81.0,0.0,518.0,5268.205128205129,4183.076923076924,4622.564102564103,4495.384615384616,4208.717948717949,4479.48717948718,4385.128205128206,4417.948717948719,4250.256410256411,4723.589743589744,4305.128205128206,4337.435897435898,4097.435897435898,5240.512820512821
394.0965,0.8791036,0.5334499,0.3323744,0.5845839,0,0.0,0.0,0.0,0.0,1.0,0,0,0.0,0.0,0,0,97.0,0.0,518.0,5614.871794871796,4201.538461538462,4623.076923076924,4524.102564102564,4200.000000000001,4461.025641025642,4352.820512820514,4377.435897435898,4230.256410256411,4761.538461538462,4296.410256410257,4368.717948717949,4341.025641025642,5927.6923076923085
394.378,0.9003443,0.5819408,0.33247054,0.5813434,0,0.0,0.0,0.0,1.0,0.0,0,0,0.0,0.0,0,0,4.0,0.0,571.0,5487.179487179488,4167.179487179487,4583.589743589744,4521.025641025642,4179.48717948718,4458.461538461539,4372.307692307693,4398.461538461539,4300.512820512821,4864.615384615386,4357.948717948719,4337.948717948719,4967.6923076923085,6208.205128205129
394.72202,0.9003443,0.5819408,0.33247054,0.5813434,0,0.0,0.0,0.0,0.8559693,0.0,0,0,0.0,0.0,0,0,48.0,0.0,0.0,5766.153846153847,4026.666666666667,4536.923076923077,4490.256410256411,4166.666666666667,4483.076923076924,4467.179487179487,4483.076923076924,4366.666666666667,4847.179487179488,4277.948717948719,4281.025641025642,4711.794871794872,5461.538461538462
394.97223,0.80298525,0.62558264,0.332557,0.5784286,0,0.0,0.0,0.0,0.16207878,0.0,0,0,0.0,0.0,0,0,80.0,0.0,429.0,5604.102564102564,3944.615384615385,4584.102564102564,4460.512820512821,4204.102564102564,4503.076923076924,4508.205128205129,4516.923076923077,4331.282051282052,4755.384615384616,4321.538461538462,4328.205128205129,4174.358974358975,5335.8974358974365
395.22247,0.80298525,0.62558264,0.332557,0.5784286,0,0.0,0.0,0.0,0.0,0.60794955,0,0,0.0,0.0,0,0,112.0,0.0,429.0,5365.128205128206,3934.8717948717954,4595.384615384616,4447.179487179487,4185.128205128206,4491.794871794872,4517.435897435898,4538.974358974359,4312.820512820514,4727.179487179488,4351.794871794872,4364.615384615385,4127.179487179487,5067.6923076923085
395.4727,0.7532745,0.6648603,0.3326347,0.5758082,0,0.0,0.0,0.0,0.0,1.0,0,0,0.0,0.0,0,0,15.0,0.0,499.0,5017.948717948719,3975.8974358974365,4554.871794871796,4448.717948717949,4202.051282051282,4494.871794871796,4523.589743589744,4565.128205128206,4253.333333333334,4646.153846153847,4353.846153846154,4398.461538461539,3911.2820512820517,4795.8974358974365
395.4727,0.7532745,0.6648603,0.3326347,0.5758082,0,0.0,0.0,0.0,0.0,1.0,0,0,0.0,0.0,0,0,15.0,0.0,499.0,5017.948717948719,3975.8974358974365,4554.871794871796,4448.717948717949,4202.051282051282,4494.871794871796,4523.589743589744,4565.128205128206,4253.333333333334,4646.153846153847,4353.846153846154,4398.461538461539,3911.2820512820517,4795.8974358974365
395.87927,0.87288165,0.7002102,0.33270454,0.5734513,0,0.0,0.0,0.0,0.0,1.0,0,0,0.0,0.0,0,0,67.0,0.0,546.0,4654.358974358975,3968.717948717949,4511.282051282052,4474.871794871796,4202.051282051282,4488.205128205129,4452.307692307693,4506.666666666667,4178.461538461539,4531.282051282052,4320.000000000001,4365.128205128206,3651.2820512820517,4588.205128205129
396.22333,0.87288165,0.7002102,0.33270454,0.5734513,0,0.0,0.0,0.0,0.0,0.7171475,0,0,0.0,0.0,0,0,111.0,0.0,507.0,4575.8974358974365,3955.8974358974365,4492.307692307693,4453.846153846154,4198.974358974359,4492.307692307693,4451.794871794872,4494.358974358975,4203.076923076924,4553.333333333334,4356.410256410257,4407.179487179487,3687.1794871794878,4468.717948717949
396.44226,0.78749985,0.73202515,0.33276743,0.57133,1,0.0,0.0,0.0,0.0,1.0,0,0,0.0,0.0,0,0,10.0,0.0,545.0,4421.538461538462,3926.666666666667,4488.717948717949,4449.743589743591,4217.948717948719,4508.717948717949,4456.923076923077,4496.410256410257,4223.589743589744,4583.589743589744,4414.358974358975,4420.000000000001,3744.615384615385,4407.179487179487
396.59863,0.78749985,0.73202515,0.33276743,0.57133,0,0.0,0.0,0.0,0.0,1.0,0,0,0.0,0.0,0,0,30.0,0.0,0.0,4573.846153846154,3829.7435897435903,4499.48717948718,4425.128205128206,4225.641025641026,4523.076923076924,4476.410256410257,4497.948717948719,4251.794871794872,4575.8974358974365,4421.025641025642,4435.8974358974365,3576.9230769230776,4473.846153846154
396.9114,0.8679708,0.76065856,0.33282402,0.56942093,0,0.0,0.0,0.0,1.0,0.0,0,0,0.0,0.0,0,0,70.0,0.0,586.0,4919.48717948718,3780.512820512821,4473.846153846154,4395.384615384616,4204.615384615385,4523.076923076924,4453.333333333334,4448.717948717949,4270.256410256411,4583.076923076924,4394.358974358975,4392.307692307693,3508.205128205129,5915.8974358974365
397.09906,0.8679708,0.76065856,0.33282402,0.56942093,0,0.0,0.0,0.0,0.0,1.0,0,0,0.0,0.0,0,0,94.0,0.0,549.0,5528.717948717949,3754.8717948717954,4520.000000000001,4384.102564102564,4169.74358974359,4474.871794871796,4408.717948717949,4415.8974358974365,4218.461538461539,4546.153846153847,4371.282051282052,4406.666666666667,3524.1025641025644,5625.128205128206
397.38055,0.9738144,0.78642863,0.33287495,0.5677027,0,0.0,0.0,0.0,0.0,1.0,0,0,0.0,0.0,0,0,1.0,0.0,476.0,5521.025641025642,3743.589743589744,4514.871794871796,4388.205128205129,4193.333333333334,4497.435897435898,4457.948717948719,4494.871794871796,4293.846153846154,4564.615384615385,4354.358974358975,4364.615384615385,3571.794871794872,5121.025641025642
397.7246,0.9738144,0.78642863,0.33287495,0.5677027,0,0.0,0.0,0.0,0.0,1.0,0,0,0.0,0.0,0,0,45.0,0.0,0.0,5050.769230769231,3775.3846153846157,4559.48717948718,4377.948717948719,4210.256410256411,4515.384615384616,4484.102564102564,4522.051282051282,4289.2307692307695,4536.923076923077,4357.948717948719,4383.589743589744,3572.820512820513,4850.256410256411
397.88098,1.0,0.8096217,0.3329208,0.5661563,0,0.0,0.0,0.0,0.0,1.0,0,0,0.0,0.0,0,0,65.0,0.0,476.0,4623.589743589744,3754.8717948717954,4525.128205128206,4373.846153846154,4212.307692307693,4512.307692307693,4493.333333333334,4521.538461538462,4298.461538461539,4516.410256410257,4331.282051282052,4332.820512820514,3532.307692307693,4569.2307692307695
398.22504,1.0,0.8096217,0.3329208,0.5661563,0,0.0,0.0,0.0,0.0,1.0,0,0,0.0,0.0,0,0,109.0,0.0,517.0,4611.282051282052,3812.307692307693,4560.512820512821,4418.974358974359,4243.589743589744,4547.6923076923085,4523.076923076924,4516.923076923077,4308.205128205129,4531.282051282052,4340.000000000001,4340.512820512821,3588.717948717949,4516.923076923077
398.3814,1.0,0.8304955,0.33296204,0.56476456,0,0.0,0.0,0.0,0.0,1.0,0,0,0.0,0.0,0,0,0.0,0.0,506.0,4465.128205128206,3831.2820512820517,4586.666666666667,4443.589743589744,4261.538461538462,4564.102564102564,4538.974358974359,4507.179487179488,4328.205128205129,4547.179487179488,4354.358974358975,4348.717948717949,3622.564102564103,4473.846153846154
398.3814,1.0,0.8304955,0.33296204,0.56476456,0,0.0,0.0,0.0,0.0,1.0,0,0,0.0,0.0,0,0,0.0,0.0,506.0,4465.128205128206,3831.2820512820517,4586.666666666667,4443.589743589744,4261.538461538462,4564.102564102564,4538.974358974359,4507.179487179488,4328.205128205129,4547.179487179488,4354.358974358975,4348.717948717949,3622.564102564103,4473.846153846154
399.00696,1.0,1.0,0.33299917,0.56351197,0,0.0,0.0,0.0,0.0,0.56049913,0,0,0.0,0.0,0,0,80.0,0.0,415.0,4202.564102564103,3831.2820512820517,4602.564102564103,4405.641025641026,4258.974358974359,4567.6923076923085,4569.2307692307695,4521.025641025642,4398.974358974359,4617.948717948719,4373.333333333334,4361.025641025642,3792.307692307693,4352.820512820514
399.2259,1.0,1.0,0.33299917,0.56351197,0,0.0,0.0,0.0,0.0,1.0,0,0,0.0,0.0,0,0,108.0,0.0,415.0,4213.846153846154,3855.8974358974365,4614.358974358975,4411.794871794872,4265.128205128206,4578.974358974359,4568.717948717949,4521.538461538462,4413.333333333334,4633.846153846154,4367.6923076923085,4359.48717948718,3824.615384615385,4345.128205128206
399.4761,1.0,0.9545569,0.33303276,0.56238025,0,0.0,0.0,0.0,0.0,0.24601643,0,0,0.0,0.0,0,0,11.0,0.0,523.0,4306.153846153847,3896.410256410257,4672.307692307693,4425.641025641026,4258.974358974359,4570.256410256411,4542.051282051282,4485.128205128206,4398.461538461539,4641.538461538462,4380.512820512821,4401.538461538462,3872.820512820513,4508.717948717949
399.72632,1.0,0.9545569,0.33303276,0.56238025,0,0.0,0.0,0.0,0.0,0.5165724,0,0,0.0,0.0,0,0,43.0,0.0,0.0,4180.512820512821,3861.0256410256416,4594.358974358975,4413.846153846154,4260.000000000001,4568.205128205129,4536.410256410257,4476.410256410257,4407.6923076923085,4633.333333333334,4348.717948717949,4307.6923076923085,3884.615384615385,4303.589743589744
399.85144,0.98299193,0.92819256,0.333063,0.56136125,0,0.0,0.0,0.0,0.0,1.0,0,0,0.0,0.0,0,0,59.0,0.0,0.0,4191.282051282052,3863.076923076924,4602.564102564103,4415.384615384616,4260.512820512821,4568.205128205129,4513.333333333334,4464.615384615385,4402.564102564103,4622.051282051282,4335.384615384616,4308.717948717949,3852.307692307693,4318.461538461539
400.22675,0.98299193,0.92819256,0.333063,0.56136125,1,0.0,0.0,0.0,0.0,0.4193507,0,0,0.0,0.0,0,0,107.0,0.0,523.0,4245.128205128206,3888.717948717949,4596.410256410257,4425.641025641026,4252.820512820514,4554.358974358975,4484.102564102564,4432.307692307693,4392.820512820514,4626.666666666667,4346.153846153847,4307.179487179487,3900.5128205128212,4368.205128205129
400.47696,0.9354962,0.97816586,0.33309025,0.56044376,0,0.0,0.0,0.0,0.0,0.675515,0,0,0.0,0.0,0,0,10.0,0.0,549.0,4245.128205128206,3878.9743589743593,4570.769230769231,4428.717948717949,4253.333333333334,4562.051282051282,4498.461538461539,4446.666666666667,4413.846153846154,4649.2307692307695,4338.461538461539,4290.769230769231,3928.205128205129,4324.102564102564
400.7272,0.9354962,0.97816586,0.33309025,0.56044376,0,0.0,0.0,0.0,0.0,0.3157249,0,0,0.0,0.0,0,0,42.0,0.0,0.0,4271.282051282052,3871.7948717948725,4570.256410256411,4430.769230769231,4262.051282051282,4566.666666666667,4504.102564102564,4463.076923076924,4439.48717948718,4667.6923076923085,4334.871794871796,4271.794871794872,3955.3846153846157,4301.538461538462
400.97742,0.93553185,0.98141706,0.33311477,0.5596181,0,0.0,0.0,0.0,0.0,1.0,0,0,0.0,0.0,0,0,74.0,0.0,549.0,4323.589743589744,3882.564102564103,4593.846153846154,4434.871794871796,4252.307692307693,4555.8974358974365,4531.282051282052,4511.794871794872,4428.717948717949,4676.410256410257,4373.333333333334,4301.538461538462,4015.8974358974365,3363.589743589744
401.22763,0.93553185,0.98141706,0.33311477,0.5596181,0,0.0,0.0,0.0,0.0,1.0,0,0,0.0,0.0,0,0,106.0,0.0,549.0,4347.179487179487,3877.435897435898,4650.256410256411,4437.948717948719,4246.666666666667,4547.6923076923085,4587.6923076923085,4570.256410256411,4427.179487179487,4729.2307692307695,4394.358974358975,4384.615384615385,4074.358974358975,4390.769230769231
401.384,1.0,0.9732094,0.33313674,0.5588785,0,0.0,0.0,0.0,0.0,1.0,0,0,0.0,0.0,0,0,126.0,0.0,549.0,4432.307692307693,3882.0512820512827,4686.666666666667,4440.000000000001,4234.358974358975,4531.282051282052,4616.410256410257,4606.153846153847,4419.48717948718,4744.102564102564,4438.461538461539,4470.256410256411,4139.48717948718,4496.923076923077
401.72806,1.0,0.9732094,0.33313674,0.5588785,0,0.0,0.0,0.0,0.0,0.8173831,0,0,0.0,0.0,0,0,41.0,0.0,0.0,4415.8974358974365,3886.666666666667,4674.871794871796,4441.025641025642,4223.589743589744,4511.794871794872,4624.615384615385,4598.974358974359,4364.615384615385,4689.743589743591,4359.48717948718,4495.8974358974365,4130.769230769231,4548.717948717949
401.97827,1.0,0.95658875,0.33315656,0.5582112,0,0.0,0.0,0.0,0.0,0.41505322,0,0,0.0,0.0,0,0,73.0,0.0,481.0,4410.256410256411,3877.9487179487182,4662.564102564103,4434.358974358975,4233.333333333334,4516.923076923077,4626.666666666667,4632.820512820514,4363.589743589744,4693.846153846154,4352.307692307693,4539.48717948718,4161.025641025642,4557.948717948719
402.2285,1.0,0.95658875,0.33315656,0.5582112,0,0.0,0.0,0.0,0.0,0.48234025,0,0,0.0,0.0,0,0,105.0,0.0,514.0,4436.923076923077,3898.9743589743593,4617.435897435898,4430.256410256411,4222.051282051282,4515.384615384616,4594.358974358975,4609.743589743591,4323.589743589744,4658.461538461539,4279.48717948718,4504.615384615385,4125.128205128206,4511.282051282052
402.4787,0.9740386,0.92292637,0.33317438,0.55761117,0,0.0,0.0,0.0,0.0,0.47694072,0,0,0.0,0.0,0,0,8.0,0.0,508.0,4461.025641025642,3905.6410256410263,4592.307692307693,4442.564102564103,4233.846153846154,4521.025641025642,4568.205128205129,4578.461538461539,4306.153846153847,4624.615384615385,4235.8974358974365,4487.6923076923085,4128.717948717949,4497.948717948719
402.7289,0.9740386,0.92292637,0.33317438,0.55761117,0,0.0,0.0,0.0,0.0,0.18195911,0,0,0.0,0.0,0,0,40.0,0.0,0.0,4470.256410256411,3897.9487179487182,4588.205128205129,4435.384615384616,4229.2307692307695,4520.512820512821,4560.512820512821,4564.615384615385,4320.512820512821,4623.589743589744,4133.333333333334,4490.769230769231,4149.74358974359,4500.512820512821
402.97913,0.90991277,0.8905129,0.33319038,0.5570711,0,0.0,0.0,0.0,0.0,0.2984195,0,0,0.0,0.0,0,0,72.0,0.0,508.0,4637.435897435898,3938.461538461539,4609.2307692307695,4447.179487179487,4235.384615384616,4526.153846153847,4528.717948717949,4530.769230769231,4316.410256410257,4625.641025641026,4142.564102564103,4488.205128205129,4181.025641025642,4633.333333333334
403.22934,0.90991277,0.8905129,0.33319038,0.5570711,0,0.0,0.0,0.0,0.0,0.5701941,0,0,0.0,0.0,0,0,104.0,0.0,420.0,4461.025641025642,3897.435897435898,4551.282051282052,4442.051282051282,4234.871794871796,4535.384615384616,4501.538461538462,4488.205128205129,4319.48717948718,4590.256410256411,4126.666666666667,4385.128205128206,4134.358974358975,4438.974358974359
403.35446,0.927696,0.90262216,0.3332048,0.5565854,0,0.0,0.0,0.0,0.0,1.0,0,0,0.0,0.0,0,0,120.0,0.0,420.0,4509.2307692307695,3897.9487179487182,4555.8974358974365,4442.564102564103,4248.205128205129,4540.512820512821,4514.871794871796,4496.923076923077,4334.871794871796,4600.000000000001,4127.6923076923085,4382.051282051282,4138.974358974359,4442.051282051282
403.72977,0.927696,0.90262216,0.3332048,0.5565854,0,0.0,0.0,0.0,0.0,0.2126178,0,0,0.0,0.0,0,0,39.0,0.0,0.0,4464.615384615385,3902.564102564103,4556.923076923077,4445.128205128206,4245.641025641026,4538.461538461539,4487.179487179488,4478.974358974359,4362.051282051282,4618.461538461539,4107.179487179487,4339.48717948718,4146.666666666667,4406.153846153847
403.97998,0.9526992,0.90180075,0.33321777,0.556148,0,0.0,0.0,0.0,0.0,0.16840878,0,0,0.0,0.0,0,0,71.0,0.0,488.0,4415.8974358974365,3903.589743589744,4553.333333333334,4438.974358974359,4241.025641025642,4538.461538461539,4458.974358974359,4450.769230769231,4357.948717948719,4608.717948717949,4126.153846153847,4370.256410256411,4151.794871794872,4402.051282051282
404.2302,0.9526992,0.90180075,0.33321777,0.556148,0,0.0,0.0,0.0,0.0,0.05834128,0,0,0.0,0.0,0,0,103.0,0.0,524.0,4389.2307692307695,3912.307692307693,4548.205128205129,4437.435897435898,4242.564102564103,4539.48717948718,4430.256410256411,4413.846153846154,4343.076923076924,4593.846153846154,4125.128205128206,4313.333333333334,4118.461538461539,4368.717948717949
404.4804,1.0,0.8743413,0.33265737,0.5712487,0,0.0,0.0,0.0,0.0,0.0,0,0,0.0,0.0,0,0,6.0,0.0,582.0,4383.076923076924,3908.717948717949,4537.948717948719,4433.846153846154,4215.384615384616,4510.256410256411,4428.717948717949,4408.205128205129,4353.333333333334,4605.641025641026,4131.794871794872,4298.461538461539,4123.589743589744,4360.512820512821
404.73062,1.0,0.8743413,0.33265737,0.5712487,0,0.0,0.0,0.0,0.0,0.0,0,0,0.0,0.0,0,1,38.0,0.0,0.0,4398.461538461539,3917.9487179487182,4532.820512820514,4440.000000000001,4218.974358974359,4505.641025641026,4420.000000000001,4390.769230769231,4342.051282051282,4606.666666666667,4140.512820512821,4277.948717948719,4122.051282051282,4382.051282051282
404.85574,0.94674885,0.86645436,0.3299941,0.584838,0,0.0,0.0,0.0,0.0,0.0,0,0,0.0,0.0,0,1,54.0,0.0,0.0,4326.153846153847,3911.2820512820517,4522.051282051282,4441.025641025642,4232.307692307693,4523.589743589744,4431.282051282052,4414.358974358975,4361.025641025642,4614.871794871796,4158.974358974359,4265.641025641026,4131.794871794872,4354.358974358975
405.23105,0.94674885,0.86645436,0.3299941,0.584838,0,0.0,0.0,0.0,0.0,0.39350834,0,0,0.0,0.0,0,0,102.0,0.0,550.0,4313.846153846154,3908.717948717949,4528.717948717949,4438.974358974359,4242.051282051282,4534.871794871796,4460.512820512821,4456.410256410257,4400.512820512821,4672.820512820514,4188.205128205129,4267.179487179487,4167.179487179487,4390.256410256411
405.35617,1.0,0.8200946,0.32710823,0.5970655,0,0.0,0.0,0.0,0.0,0.0,0,0,0.0,0.0,0,0,118.0,0.0,550.0,4301.025641025642,3914.358974358975,4517.948717948719,4437.948717948719,4248.717948717949,4543.076923076924,4449.743589743591,4437.435897435898,4393.333333333334,4662.564102564103,4179.48717948718,4241.538461538462,4157.435897435898,4377.435897435898
405.35617,1.0,0.8200946,0.32710823,0.5970655,0,0.0,0.0,0.0,0.0,0.0,0,0,0.0,0.0,0,0,118.0,0.0,550.0,4301.025641025642,3914.358974358975,4517.948717948719,4437.948717948719,4248.717948717949,4543.076923076924,4449.743589743591,4437.435897435898,4393.333333333334,4662.564102564103,4179.48717948718,4241.538461538462,4157.435897435898,4377.435897435898
406.01297,1.0,0.78168386,0.3245113,0.6104915,0,0.0,0.0,0.0,0.0,0.8212796,0,0,0.0,0.0,0,0,73.0,0.0,481.0,4406.153846153847,3929.7435897435903,4541.538461538462,4441.538461538462,4262.051282051282,4562.564102564103,4462.564102564103,4455.384615384616,4428.717948717949,4700.000000000001,4234.358974358975,4246.153846153847,4190.256410256411,4438.461538461539
