timestamp,excitement,frustration,meditation,engagementBoredom,blink,clench,laugh,smile,eyebrow,furrowBrow,lookLeft,lookRight,smirkLeft,smirkRight,winkLeft,winkRight,eeg0,eeg1,eeg2,eeg3,eeg4,eeg5,eeg6,eeg7,eeg8,eeg9,eeg10,eeg11,eeg12,eeg13,eeg14,eeg15,eeg16
244.8354,0.99659806,0.499565,0.33333334,0.5522388,0,0.0,0.0,0.0,0.0,0.83976716,0,0,0.0,0.0,0,0,74.0,0.0,556.0,4620.512820512821,3927.1794871794878,4630.256410256411,4442.051282051282,4251.794871794872,4546.666666666667,4546.666666666667,4533.846153846154,4389.2307692307695,4780.000000000001,4467.179487179487,4392.820512820514,4245.128205128206,4608.205128205129
245.08562,0.99659806,0.499565,0.33333334,0.5522388,0,0.0,0.0,0.0,0.0,0.40505588,0,0,0.0,0.0,0,0,106.0,0.0,556.0,4611.282051282052,3930.7692307692314,4626.153846153847,4442.051282051282,4258.461538461539,4547.6923076923085,4557.948717948719,4541.025641025642,4388.205128205129,4783.076923076924,4460.000000000001,4366.153846153847,4241.025641025642,4567.6923076923085
245.33583,1.0,0.58210284,0.33333334,0.5522388,0,0.0,0.0,0.0,0.0,0.19888343,0,0,0.0,0.0,0,0,9.0,0.0,248.0,4598.974358974359,3935.3846153846157,4613.846153846154,4443.589743589744,4256.923076923077,4551.282051282052,4554.358974358975,4535.384615384616,4388.717948717949,4777.948717948719,4454.358974358975,4349.743589743591,4239.48717948718,4575.384615384616
245.58604,1.0,0.58210284,0.33333334,0.5522388,0,0.0,0.0,0.0,0.0,0.2142434,0,0,0.0,0.0,0,0,41.0,0.0,0.0,4633.333333333334,3951.7948717948725,4633.333333333334,4457.948717948719,4256.923076923077,4547.6923076923085,4573.846153846154,4556.923076923077,4418.974358974359,4794.871794871796,4453.333333333334,4395.384615384616,4266.153846153847,4580.000000000001
245.86754,0.95646775,0.58069617,0.33333334,0.5522388,1,0.0,0.0,0.0,0.0,0.0,0,0,0.0,0.0,0,0,77.0,0.0,513.0,4646.666666666667,3947.692307692308,4628.717948717949,4447.179487179487,4256.410256410257,4547.179487179488,4535.384615384616,4526.153846153847,4387.6923076923085,4780.512820512821,4441.025641025642,4358.461538461539,4236.923076923077,4545.128205128206
246.08649,0.95646775,0.58069617,0.33333334,0.5522388,0,0.0,0.0,0.0,0.0,0.52384365,0,0,0.0,0.0,0,0,105.0,0.0,513.0,4602.051282051282,3915.8974358974365,4584.615384615385,4432.820512820514,4253.333333333334,4554.358974358975,4527.179487179488,4520.512820512821,4387.6923076923085,4768.205128205129,4428.205128205129,4324.102564102564,4243.076923076924,4519.48717948718
246.3367,0.9156818,0.5768774,0.33333334,0.5522388,0,0.0,0.0,0.0,0.0,0.32335082,0,0,0.0,0.0,0,0,8.0,0.0,507.0,4590.256410256411,3893.8461538461543,4593.333333333334,4430.769230769231,4254.871794871796,4559.48717948718,4566.666666666667,4576.923076923077,4390.256410256411,4796.923076923077,4455.384615384616,4387.179487179487,4416.410256410257,4590.256410256411
246.58691,0.9156818,0.5768774,0.33333334,0.5522388,1,0.0,0.0,0.0,0.0,1.0,0,0,0.0,0.0,0,0,40.0,0.0,0.0,4713.846153846154,3953.8461538461543,4660.512820512821,4455.8974358974365,4247.6923076923085,4551.794871794872,4560.000000000001,4573.846153846154,4338.461538461539,4785.128205128206,4448.205128205129,4418.974358974359,4368.205128205129,4647.179487179488
246.83713,0.9822935,0.5652061,0.33333334,0.5522388,0,0.0,0.0,0.0,0.0,0.5175122,0,0,0.0,0.0,0,0,72.0,0.0,507.0,4612.307692307693,3945.6410256410263,4624.615384615385,4444.102564102564,4228.205128205129,4529.743589743591,4550.256410256411,4593.333333333334,4296.923076923077,4766.153846153847,4441.538461538462,4391.282051282052,4335.384615384616,4554.871794871796
247.08734,0.9822935,0.5652061,0.33333334,0.5522388,0,0.0,0.0,0.0,0.0,0.19312395,0,0,0.0,0.0,0,0,104.0,0.0,155.0,4623.589743589744,3973.8461538461543,4667.179487179488,4457.435897435898,4225.128205128206,4520.512820512821,4570.769230769231,4632.820512820514,4298.461538461539,4780.512820512821,4464.102564102564,4436.923076923077,4365.128205128206,4614.871794871796
247.33755,0.98422056,0.565811,0.33333334,0.5522388,0,0.0,0.0,0.0,0.0,0.20593277,0,0,0.0,0.0,0,0,7.0,0.0,489.0,4658.974358974359,3986.1538461538466,4702.051282051282,4460.000000000001,4203.076923076924,4496.410256410257,4587.6923076923085,4664.615384615386,4274.358974358975,4774.871794871796,4476.410256410257,4470.256410256411,4390.256410256411,4662.051282051282
247.58777,0.98422056,0.565811,0.33333334,0.5522388,0,0.0,0.0,0.0,0.0,0.15829645,0,0,0.0,0.0,0,0,39.0,0.0,0.0,4690.769230769231,3996.9230769230776,4718.974358974359,4468.717948717949,4210.769230769231,4500.512820512821,4647.6923076923085,4698.461538461539,4245.641025641026,4776.923076923077,4487.179487179488,4512.307692307693,4398.461538461539,4671.282051282052
247.83798,1.0,0.57060814,0.33333334,0.5522388,0,0.0,0.0,0.0,0.0,0.08623393,0,0,0.0,0.0,0,0,71.0,0.0,486.0,4714.358974358975,3968.205128205129,4746.153846153847,4458.461538461539,4205.641025641026,4497.948717948719,4665.128205128206,4711.794871794872,4195.8974358974365,4766.153846153847,4504.615384615385,4548.205128205129,4407.179487179487,4703.589743589744
248.0882,1.0,0.57060814,0.33333334,0.5522388,0,0.0,0.0,0.0,0.0,0.12783623,0,0,0.0,0.0,0,0,103.0,0.0,514.0,4707.179487179488,3960.5128205128212,4732.820512820514,4458.461538461539,4207.179487179487,4498.461538461539,4688.717948717949,4712.307692307693,4227.6923076923085,4768.717948717949,4525.641025641026,4549.743589743591,4392.820512820514,4664.615384615386
248.33841,1.0,0.55686057,0.33333334,0.5522388,0,0.0,0.0,0.0,0.0,0.26268688,0,0,0.0,0.0,0,0,6.0,0.0,582.0,4718.461538461539,3970.7692307692314,4713.846153846154,4462.564102564103,4205.641025641026,4497.435897435898,4656.410256410257,4672.820512820514,4240.512820512821,4755.8974358974365,4518.461538461539,4536.410256410257,4365.128205128206,4632.307692307693
248.58864,1.0,0.55686057,0.33333334,0.5522388,0,0.0,0.0,0.0,0.0,0.053843517,0,0,0.0,0.0,0,0,38.0,0.0,0.0,4705.128205128206,3977.9487179487182,4705.128205128206,4463.076923076924,4205.128205128206,4494.871794871796,4629.2307692307695,4632.820512820514,4238.974358974359,4739.48717948718,4498.461538461539,4500.000000000001,4318.974358974359,4611.282051282052
248.83885,1.0,0.5174889,0.33333334,0.5522388,0,0.0,0.0,0.0,0.0,0.06325216,0,0,0.0,0.0,0,0,70.0,0.0,582.0,4634.871794871796,3969.7435897435903,4680.000000000001,4458.974358974359,4211.282051282052,4501.538461538462,4580.512820512821,4584.615384615385,4235.8974358974365,4726.153846153847,4500.512820512821,4467.6923076923085,4309.2307692307695,4593.333333333334
249.08907,1.0,0.5174889,0.33333334,0.5522388,0,0.0,0.0,0.0,0.0,0.62937194,0,0,0.0,0.0,0,0,102.0,0.0,555.0,4863.076923076924,4010.7692307692314,4737.435897435898,4468.717948717949,4191.282051282052,4481.538461538462,4588.205128205129,4588.717948717949,4226.153846153847,4736.923076923077,4509.2307692307695,4528.717948717949,4371.794871794872,4756.923076923077
249.33928,0.94123805,0.4900059,0.33333334,0.5522388,0,0.0,0.0,0.0,0.0,0.6203507,0,0,0.0,0.0,0,0,5.0,0.0,572.0,4663.076923076924,3981.538461538462,4701.025641025642,4466.666666666667,4206.666666666667,4500.000000000001,4620.000000000001,4616.410256410257,4237.948717948719,4726.666666666667,4502.051282051282,4467.6923076923085,4315.8974358974365,4569.2307692307695
249.5895,0.94123805,0.4900059,0.33333334,0.5522388,0,0.0,0.0,0.0,0.0,0.33882383,0,0,0.0,0.0,0,0,37.0,0.0,0.0,4707.6923076923085,3967.1794871794878,4711.282051282052,4469.743589743591,4206.153846153847,4494.358974358975,4636.923076923077,4625.641025641026,4254.358974358975,4738.461538461539,4514.358974358975,4496.410256410257,4344.102564102564,4613.333333333334
249.8397,0.86180115,0.4562143,0.33333334,0.5522388,0,0.0,0.0,0.0,0.0,0.9893916,0,0,0.0,0.0,0,0,69.0,0.0,572.0,4919.48717948718,4007.692307692308,4783.589743589744,4476.923076923077,4182.051282051282,4472.307692307693,4602.051282051282,4613.333333333334,4233.846153846154,4721.538461538462,4514.358974358975,4530.256410256411,4337.435897435898,4728.717948717949
250.08992,0.86180115,0.4562143,0.33333334,0.5522388,0,0.0,0.0,0.0,0.0,0.9350171,0,0,0.0,0.0,0,0,101.0,0.0,512.0,4690.769230769231,3966.1538461538466,4642.564102564103,4457.435897435898,4188.717948717949,4475.8974358974365,4601.025641025642,4595.8974358974365,4228.717948717949,4698.461538461539,4494.358974358975,4447.6923076923085,4274.358974358975,4562.051282051282
250.34013,0.9432233,0.47016102,0.33333334,0.5522388,0,0.0,0.0,0.0,0.0,0.7920154,0,0,0.0,0.0,0,0,4.0,0.0,574.0,4723.589743589744,3951.2820512820517,4623.076923076924,4445.128205128206,4195.384615384616,4485.641025641026,4562.564102564103,4547.6923076923085,4205.128205128206,4674.358974358975,4472.307692307693,4410.256410256411,4215.8974358974365,4502.564102564103
250.59035,0.9432233,0.47016102,0.33333334,0.5522388,0,0.0,0.0,0.0,0.0,0.3169103,0,0,0.0,0.0,0,0,36.0,0.0,0.0,4876.410256410257,3967.1794871794878,4646.666666666667,4442.051282051282,4189.74358974359,4476.923076923077,4525.128205128206,4490.769230769231,4188.717948717949,4659.48717948718,4460.000000000001,4408.717948717949,4207.179487179487,4581.025641025642
250.84056,0.9106994,0.523958,0.33333334,0.5522388,1,0.0,0.0,0.0,0.0,0.29625016,0,0,0.0,0.0,0,0,68.0,0.0,574.0,4713.333333333334,3943.589743589744,4626.666666666667,4437.948717948719,4213.846153846154,4502.051282051282,4521.025641025642,4493.846153846154,4219.48717948718,4652.307692307693,4435.8974358974365,4356.923076923077,4193.846153846154,4463.589743589744
251.09079,0.9106994,0.523958,0.33333334,0.5522388,0,0.0,0.0,0.0,0.0,1.0,0,0,0.0,0.0,0,0,100.0,0.0,153.0,4708.717948717949,3941.0256410256416,4593.333333333334,4440.000000000001,4230.769230769231,4526.666666666667,4508.717948717949,4480.512820512821,4262.564102564103,4654.358974358975,4423.076923076924,4331.794871794872,4188.717948717949,4451.282051282052
251.341,0.8985164,0.53773457,0.33333334,0.5522388,1,0.0,0.0,0.0,0.0,0.36644366,0,0,0.0,0.0,0,0,3.0,0.0,547.0,4804.615384615386,3970.2564102564106,4600.512820512821,4451.794871794872,4241.025641025642,4538.461538461539,4492.307692307693,4468.205128205129,4293.333333333334,4671.794871794872,4406.666666666667,4378.461538461539,4229.74358974359,4529.2307692307695
251.59122,0.8985164,0.53773457,0.33333334,0.5522388,0,0.0,0.0,0.0,0.0,0.61815035,0,0,0.0,0.0,0,0,35.0,0.0,0.0,4708.717948717949,3951.2820512820517,4576.923076923077,4444.615384615385,4250.769230769231,4550.769230769231,4512.307692307693,4483.589743589744,4337.435897435898,4670.769230769231,4397.435897435898,4341.025641025642,4234.871794871796,4500.512820512821
251.84143,0.8810443,0.58724725,0.33333334,0.5522388,1,0.0,0.0,0.0,0.0,0.59878206,0,0,0.0,0.0,0,0,67.0,0.0,547.0,4651.794871794872,3952.307692307693,4564.102564102564,4446.666666666667,4255.384615384616,4556.410256410257,4513.333333333334,4470.769230769231,4356.923076923077,4668.717948717949,4393.846153846154,4323.076923076924,4212.820512820514,4445.128205128206
252.09164,0.8810443,0.58724725,0.33333334,0.5522388,0,0.0,0.0,0.0,0.0,0.75349814,0,0,0.0,0.0,0,0,99.0,0.0,516.0,4625.641025641026,3940.5128205128212,4546.153846153847,4444.615384615385,4253.846153846154,4561.025641025642,4498.974358974359,4468.717948717949,4380.512820512821,4668.205128205129,4360.512820512821,4297.435897435898,4215.8974358974365,4470.256410256411
252.34186,0.83036506,0.62106687,0.33333334,0.5522388,1,0.0,0.0,0.0,0.0,0.7187314,0,0,0.0,0.0,0,0,2.0,0.0,516.0,4608.717948717949,3931.7948717948725,4554.871794871796,4448.717948717949,4260.512820512821,4565.128205128206,4503.076923076924,4464.102564102564,4385.641025641026,4676.923076923077,4369.2307692307695,4194.358974358975,4237.948717948719,4502.051282051282
252.59207,0.83036506,0.62106687,0.33333334,0.5522388,0,0.0,0.0,0.0,0.0,0.8177394,0,0,0.0,0.0,0,0,34.0,0.0,0.0,4506.153846153847,3917.9487179487182,4525.128205128206,4443.076923076924,4273.846153846154,4565.128205128206,4488.717948717949,4463.589743589744,4406.666666666667,4688.717948717949,4342.051282051282,4154.871794871796,4180.512820512821,4446.153846153847
252.84229,0.87780076,0.64239883,0.33333334,0.5522388,0,0.0,0.0,0.0,0.0,0.13018756,0,0,0.0,0.0,0,0,66.0,0.0,516.0,4538.974358974359,3911.7948717948725,4518.974358974359,4436.410256410257,4272.820512820514,4563.589743589744,4461.538461538462,4420.000000000001,4364.615384615385,4668.205128205129,4330.256410256411,4152.307692307693,4179.48717948718,4451.794871794872
253.0925,0.87780076,0.64239883,0.33333334,0.5522388,0,0.0,0.0,0.0,0.0,0.11966179,0,0,0.0,0.0,0,0,98.0,0.0,555.0,4548.717948717949,3934.8717948717954,4534.358974358975,4445.641025641026,4274.871794871796,4572.820512820514,4450.769230769231,4415.384615384616,4411.282051282052,4653.333333333334,4331.794871794872,4155.8974358974365,4211.282051282052,4460.000000000001
253.34271,0.8480158,0.68117404,0.33333334,0.5522388,0,0.0,0.0,0.0,0.0,0.073737495,0,0,0.0,0.0,0,0,1.0,0.0,464.0,4547.6923076923085,3918.461538461539,4503.589743589744,4430.256410256411,4267.179487179487,4561.025641025642,4426.153846153847,4395.8974358974365,4380.000000000001,4638.974358974359,4316.923076923077,4135.8974358974365,4174.358974358975,4434.358974358975
253.59293,0.8480158,0.68117404,0.33333334,0.5522388,0,0.0,0.0,0.0,0.0,0.0,0,0,0.0,0.0,0,0,33.0,0.0,0.0,4531.282051282052,3900.5128205128212,4478.461538461539,4428.205128205129,4256.923076923077,4557.948717948719,4431.282051282052,4392.307692307693,4373.846153846154,4671.794871794872,4305.641025641026,4124.102564102564,4151.282051282052,4402.564102564103
253.84315,0.8888496,0.65448743,0.33333334,0.5522388,0,0.0,0.0,0.0,0.0,0.1431883,0,0,0.0,0.0,0,0,65.0,0.0,464.0,4550.256410256411,3911.2820512820517,4490.256410256411,4430.769230769231,4249.74358974359,4552.820512820514,4428.205128205129,4390.256410256411,4384.102564102564,4693.333333333334,4296.923076923077,4126.153846153847,4159.48717948718,4436.923076923077
254.09337,0.8888496,0.65448743,0.33333334,0.5522388,0,0.0,0.0,0.0,0.0,0.09047095,0,0,0.0,0.0,0,0,97.0,0.0,515.0,4547.179487179488,3913.333333333334,4473.333333333334,4422.564102564103,4241.538461538462,4543.589743589744,4409.2307692307695,4398.461538461539,4387.6923076923085,4692.820512820514,4295.384615384616,4141.025641025642,4155.384615384616,4456.410256410257
254.34358,0.87991786,0.6194722,0.33333334,0.5522388,0,0.0,0.0,0.0,0.0,0.79222804,0,0,0.0,0.0,0,1,0.0,0.0,504.0,4550.769230769231,3908.205128205129,4488.717948717949,4428.205128205129,4255.384615384616,4554.358974358975,4440.512820512821,4420.512820512821,4394.871794871796,4687.6923076923085,4297.948717948719,4177.948717948719,4169.74358974359,4501.538461538462
254.5938,0.87991786,0.6194722,0.33333334,0.5522388,0,0.0,0.0,0.0,0.0,0.5143939,0,0,0.0,0.0,0,0,32.0,0.0,0.0,4522.564102564103,3921.0256410256416,4454.871794871796,4438.974358974359,4267.6923076923085,4562.564102564103,4432.307692307693,4402.051282051282,4390.769230769231,4693.846153846154,4291.794871794872,4152.820512820514,4164.615384615385,4494.871794871796
254.84401,0.803074,0.59114885,0.33333334,0.5522388,0,0.0,0.0,0.0,0.0,0.24044152,0,0,0.0,0.0,0,0,64.0,0.0,508.0,4536.410256410257,3916.410256410257,4399.48717948718,4432.820512820514,4267.6923076923085,4563.076923076924,4430.256410256411,4406.666666666667,4409.2307692307695,4697.948717948719,4303.589743589744,4165.641025641026,4158.974358974359,4478.461538461539
255.09422,0.803074,0.59114885,0.33333334,0.5522388,0,0.0,0.0,0.0,0.0,0.0,0,0,0.0,0.0,0,0,96.0,0.0,153.0,4558.974358974359,3924.615384615385,4402.564102564103,4431.282051282052,4261.538461538462,4559.48717948718,4436.923076923077,4417.435897435898,4437.435897435898,4705.641025641026,4304.615384615385,4176.923076923077,4181.538461538462,4471.282051282052
255.25061,0.8649438,0.5632841,0.33333334,0.5522388,0,0.0,0.0,0.0,0.0,0.0,0,0,0.0,0.0,0,0,116.0,0.0,153.0,4603.076923076924,3930.2564102564106,4389.2307692307695,4426.153846153847,4257.948717948719,4560.000000000001,4436.923076923077,4409.2307692307695,4420.512820512821,4697.948717948719,4294.871794871796,4158.974358974359,4171.794871794872,4487.179487179488
255.59465,0.8649438,0.5632841,0.33333334,0.5522388,0,0.0,0.0,0.0,0.0,0.83281,0,0,0.0,0.0,0,0,31.0,0.0,0.0,4585.128205128206,3919.48717948718,4410.769230769231,4426.153846153847,4251.282051282052,4554.871794871796,4470.256410256411,4424.615384615385,4404.615384615385,4691.794871794872,4297.435897435898,4147.6923076923085,4190.256410256411,4390.256410256411
255.84486,0.80444914,0.59728336,0.33333334,0.5522388,0,0.0,0.0,0.0,0.0,0.28183576,0,0,0.0,0.0,0,0,63.0,0.0,0.0,4584.615384615385,3922.0512820512827,4456.410256410257,4428.205128205129,4237.948717948719,4543.076923076924,4489.2307692307695,4452.307692307693,4378.461538461539,4701.538461538462,4301.538461538462,4177.435897435898,4205.128205128206,4427.179487179487
256.0951,0.80444914,0.59728336,0.33333334,0.5522388,0,0.0,0.0,0.0,0.0,0.37686527,0,0,0.0,0.0,0,0,95.0,0.0,522.0,4556.923076923077,3919.48717948718,4459.48717948718,4426.666666666667,4220.000000000001,4513.846153846154,4496.410256410257,4477.948717948719,4378.974358974359,4711.794871794872,4320.000000000001,4214.358974358975,4242.564102564103,4464.102564102564
256.3453,0.7654072,0.5692601,0.33333334,0.5522388,0,0.0,0.0,0.0,0.0,0.43515065,0,0,0.0,0.0,0,0,127.0,0.0,522.0,4555.8974358974365,3917.9487179487182,4475.8974358974365,4424.615384615385,4211.282051282052,4512.307692307693,4489.743589743591,4463.076923076924,4345.128205128206,4695.384615384616,4329.2307692307695,4226.153846153847,4221.025641025642,4472.307692307693
256.4704,0.7654072,0.5692601,0.33333334,0.5522388,0,0.0,0.0,0.0,0.0,0.0,0,0,0.0,0.0,0,0,14.0,0.0,555.0,4550.256410256411,3928.717948717949,4476.410256410257,4428.717948717949,4216.410256410257,4513.846153846154,4473.333333333334,4458.974358974359,4333.846153846154,4696.410256410257,4328.717948717949,4239.48717948718,4209.2307692307695,4481.538461538462
256.7519,0.69774646,0.5346381,0.33333334,0.5522388,0,0.0,0.0,0.0,0.0,0.0,0,0,0.0,0.0,0,0,50.0,0.0,0.0,4573.333333333334,3949.2307692307695,4492.820512820514,4441.025641025642,4210.769230769231,4509.2307692307695,4470.769230769231,4467.6923076923085,4331.794871794872,4700.000000000001,4313.846153846154,4286.666666666667,4202.564102564103,4513.333333333334
256.7519,0.69774646,0.5346381,0.33333334,0.5522388,0,0.0,0.0,0.0,0.0,0.0,0,0,0.0,0.0,0,0,50.0,0.0,0.0,4573.333333333334,3949.2307692307695,4492.820512820514,4441.025641025642,4210.769230769231,4509.2307692307695,4470.769230769231,4467.6923076923085,4331.794871794872,4700.000000000001,4313.846153846154,4286.666666666667,4202.564102564103,4513.333333333334
257.25232,0.66688055,0.5056644,0.33333334,0.5522388,0,0.0,0.0,0.0,0.0,0.0,0,0,0.0,0.0,0,0,114.0,0.0,555.0,4642.051282051282,3992.820512820513,4456.410256410257,4443.589743589744,4223.589743589744,4516.923076923077,4441.538461538462,4429.2307692307695,4310.769230769231,4685.641025641026,4338.461538461539,4307.6923076923085,4172.307692307693,4521.538461538462
257.25232,0.66688055,0.5056644,0.33333334,0.5522388,0,0.0,0.0,0.0,0.0,0.0,0,0,0.0,0.0,0,0,114.0,0.0,555.0,4642.051282051282,3992.820512820513,4456.410256410257,4443.589743589744,4223.589743589744,4516.923076923077,4441.538461538462,4429.2307692307695,4310.769230769231,4685.641025641026,4338.461538461539,4307.6923076923085,4172.307692307693,4521.538461538462
257.75275,0.65896904,0.46792582,0.33333334,0.5522388,0,0.0,0.0,0.0,0.0,0.0,0,0,0.0,0.0,0,0,49.0,0.0,0.0,4675.384615384616,3976.410256410257,4455.384615384616,4444.615384615385,4243.589743589744,4540.512820512821,4440.000000000001,4417.948717948719,4333.333333333334,4694.358974358975,4336.410256410257,4287.6923076923085,4160.000000000001,4493.333333333334
257.75275,0.65896904,0.46792582,0.33333334,0.5522388,0,0.0,0.0,0.0,0.0,0.0,0,0,0.0,0.0,0,0,49.0,0.0,0.0,4675.384615384616,3976.410256410257,4455.384615384616,4444.615384615385,4243.589743589744,4540.512820512821,4440.000000000001,4417.948717948719,4333.333333333334,4694.358974358975,4336.410256410257,4287.6923076923085,4160.000000000001,4493.333333333334
258.25317,0.6725503,0.43810338,0.33333334,0.5522388,0,0.0,0.0,0.0,0.0,0.0,0,0,0.0,0.0,0,0,113.0,0.0,515.0,4683.589743589744,3958.461538461539,4505.128205128206,4444.615384615385,4251.794871794872,4555.384615384616,4478.461538461539,4452.820512820514,4337.948717948719,4704.102564102564,4343.076923076924,4275.8974358974365,4228.717948717949,4540.000000000001
258.25317,0.6725503,0.43810338,0.33333334,0.5522388,0,0.0,0.0,0.0,0.0,0.0,0,0,0.0,0.0,0,0,113.0,0.0,515.0,4683.589743589744,3958.461538461539,4505.128205128206,4444.615384615385,4251.794871794872,4555.384615384616,4478.461538461539,4452.820512820514,4337.948717948719,4704.102564102564,4343.076923076924,4275.8974358974365,4228.717948717949,4540.000000000001
258.75363,0.74280125,0.41153863,0.33333334,0.5522388,0,0.0,0.0,0.0,0.0,0.0,0,0,0.0,0.0,0,0,48.0,0.0,0.0,4812.307692307693,3963.589743589744,4627.179487179488,4445.128205128206,4212.307692307693,4510.256410256411,4543.589743589744,4547.6923076923085,4235.384615384616,4686.153846153847,4367.6923076923085,4429.743589743591,4278.461538461539,4589.2307692307695
258.75363,0.74280125,0.41153863,0.33333334,0.5522388,0,0.0,0.0,0.0,0.0,0.0,0,0,0.0,0.0,0,0,48.0,0.0,0.0,4812.307692307693,3963.589743589744,4627.179487179488,4445.128205128206,4212.307692307693,4510.256410256411,4543.589743589744,4547.6923076923085,4235.384615384616,4686.153846153847,4367.6923076923085,4429.743589743591,4278.461538461539,4589.2307692307695
259.25406,0.86366504,0.3823872,0.33333334,0.5522388,0,0.0,0.0,0.0,0.0,0.0,0,0,0.0,0.0,0,0,112.0,0.0,153.0,4908.205128205129,3993.333333333334,4672.820512820514,4466.666666666667,4196.410256410257,4493.333333333334,4605.128205128206,4626.153846153847,4198.461538461539,4674.358974358975,4418.974358974359,4550.769230769231,4309.743589743591,4674.871794871796
259.59808,0.86366504,0.3823872,0.33333334,0.5522388,0,0.0,0.0,0.0,0.0,0.18940873,0,0,0.0,0.0,0,0,27.0,0.0,0.0,4917.435897435898,4003.076923076924,4690.769230769231,4475.384615384616,4194.358974358975,4481.025641025642,4605.641025641026,4616.410256410257,4205.641025641026,4671.794871794872,4450.256410256411,4607.6923076923085,4272.307692307693,4697.435897435898
259.8483,0.93338954,0.35703555,0.33333334,0.5522388,0,0.0,0.0,0.0,0.0,0.09075201,0,0,0.0,0.0,0,0,59.0,0.0,0.0,4862.564102564103,3985.1282051282055,4663.076923076924,4470.769230769231,4188.717948717949,4477.435897435898,4554.358974358975,4567.6923076923085,4211.282051282052,4652.307692307693,4457.948717948719,4587.6923076923085,4233.333333333334,4690.769230769231
260.0985,0.93338954,0.35703555,0.33333334,0.5522388,0,0.0,0.0,0.0,0.0,0.06923954,0,0,0.0,0.0,0,0,91.0,0.0,518.0,4876.410256410257,3972.307692307693,4645.641025641026,4459.48717948718,4197.435897435898,4481.025641025642,4535.384615384616,4533.333333333334,4227.179487179487,4644.102564102564,4455.384615384616,4560.000000000001,4188.205128205129,4663.076923076924
260.2549,1.0,0.3369574,0.33333334,0.5522388,0,0.0,0.0,0.0,0.0,0.0,0,0,0.0,0.0,0,0,111.0,0.0,518.0,4835.384615384616,3982.564102564103,4622.564102564103,4469.743589743591,4198.974358974359,4488.205128205129,4497.435897435898,4507.179487179488,4246.153846153847,4661.538461538462,4448.717948717949,4511.282051282052,4174.871794871796,4645.128205128206
260.59897,1.0,0.3369574,0.33333334,0.5522388,0,0.0,0.0,0.0,0.0,0.2656612,0,0,0.0,0.0,1,0,26.0,0.0,0.0,4767.179487179488,3957.435897435898,4549.743589743591,4451.794871794872,4208.717948717949,4496.923076923077,4449.743589743591,4452.307692307693,4270.256410256411,4636.410256410257,4434.871794871796,4420.000000000001,4117.435897435898,4572.820512820514
260.84918,1.0,0.33003983,0.33333334,0.5522388,0,0.0,0.0,0.0,0.0,1.0,0,0,0.0,0.0,0,0,58.0,0.0,0.0,4759.48717948718,3957.9487179487182,4553.846153846154,4456.923076923077,4225.128205128206,4521.025641025642,4467.6923076923085,4452.307692307693,4299.48717948718,4632.820512820514,4426.153846153847,4620.512820512821,4149.2307692307695,4500.512820512821
261.0994,1.0,0.33003983,0.33333334,0.5522388,0,0.0,0.0,0.0,0.0,0.42962453,0,0,0.0,0.0,0,0,90.0,0.0,555.0,4780.512820512821,3947.1794871794878,4563.589743589744,4456.923076923077,4231.282051282052,4521.538461538462,4512.820512820514,4513.846153846154,4338.974358974359,4686.153846153847,4440.000000000001,4506.153846153847,4220.000000000001,4620.000000000001
261.3496,0.9546325,0.31377226,0.33333334,0.5522388,1,0.0,0.0,0.0,0.0,0.8829389,0,0,0.0,0.0,0,0,122.0,0.0,555.0,4773.846153846154,3963.076923076924,4578.974358974359,4460.512820512821,4221.025641025642,4520.512820512821,4544.615384615385,4527.6923076923085,4328.205128205129,4672.820512820514,4445.641025641026,4519.48717948718,4256.410256410257,4646.666666666667
261.59982,0.9546325,0.31377226,0.33333334,0.5522388,0,0.0,0.0,0.0,0.0,0.18764642,0,0,0.0,0.0,0,0,25.0,0.0,0.0,4814.358974358975,3977.435897435898,4608.717948717949,4459.48717948718,4215.384615384616,4511.794871794872,4572.820512820514,4553.333333333334,4307.179487179487,4663.589743589744,4453.333333333334,4541.025641025642,4268.205128205129,4663.076923076924
261.85004,0.872437,0.3463155,0.33333334,0.5522388,0,0.0,0.0,0.0,0.0,0.1499177,0,0,0.0,0.0,0,0,57.0,0.0,0.0,4800.512820512821,3969.2307692307695,4595.8974358974365,4469.743589743591,4223.076923076924,4522.564102564103,4579.48717948718,4571.794871794872,4327.179487179487,4674.358974358975,4455.384615384616,4518.974358974359,4227.179487179487,4639.48717948718
262.10025,0.872437,0.3463155,0.33333334,0.5522388,0,0.0,0.0,0.0,0.0,0.0,0,0,0.0,0.0,0,0,89.0,0.0,510.0,4761.025641025642,3983.076923076924,4572.820512820514,4466.666666666667,4221.538461538462,4517.948717948719,4560.000000000001,4540.000000000001,4310.769230769231,4656.410256410257,4434.358974358975,4467.6923076923085,4183.589743589744,4617.435897435898
262.25662,0.8584761,0.3578222,0.33333334,0.5522388,0,0.0,0.0,0.0,0.0,0.0,0,0,0.0,0.0,0,0,109.0,0.0,510.0,4769.743589743591,3977.435897435898,4554.871794871796,4469.2307692307695,4224.102564102564,4520.512820512821,4552.307692307693,4534.358974358975,4322.564102564103,4653.846153846154,4435.8974358974365,4451.794871794872,4177.435897435898,4590.769230769231
262.25662,0.8584761,0.3578222,0.33333334,0.5522388,0,0.0,0.0,0.0,0.0,0.0,0,0,0.0,0.0,0,0,109.0,0.0,510.0,4769.743589743591,3977.435897435898,4554.871794871796,4469.2307692307695,4224.102564102564,4520.512820512821,4552.307692307693,4534.358974358975,4322.564102564103,4653.846153846154,4435.8974358974365,4451.794871794872,4177.435897435898,4590.769230769231
262.8509,0.83528084,0.3366295,0.33333334,0.5522388,0,0.0,0.0,0.0,0.0,0.29061255,0,0,0.0,0.0,0,0,56.0,0.0,0.0,4637.435897435898,3910.7692307692314,4426.153846153847,4419.48717948718,4202.051282051282,4497.435897435898,4453.846153846154,4419.48717948718,4310.256410256411,4621.538461538462,4402.564102564103,4292.307692307693,4129.74358974359,4523.589743589744
263.1011,0.83528084,0.3366295,0.33333334,0.5522388,0,0.0,0.0,0.0,0.0,0.15309373,0,0,0.0,0.0,0,0,88.0,0.0,152.0,4638.461538461539,3885.6410256410263,4368.717948717949,4398.974358974359,4192.307692307693,4490.256410256411,4413.846153846154,4393.333333333334,4327.6923076923085,4614.871794871796,4383.589743589744,4269.74358974359,4122.051282051282,4504.102564102564
263.35132,0.9450472,0.3126588,0.33333334,0.5522388,0,0.0,0.0,0.0,0.0,0.1518484,0,0,0.0,0.0,0,0,120.0,0.0,152.0,4578.461538461539,3876.9230769230776,4360.000000000001,4393.846153846154,4201.025641025642,4499.48717948718,4409.743589743591,4373.333333333334,4332.307692307693,4609.2307692307695,4376.923076923077,4222.564102564103,4097.435897435898,4471.282051282052
263.60153,0.9450472,0.3126588,0.33333334,0.5522388,0,0.0,0.0,0.0,0.0,0.3870217,0,0,0.0,0.0,1,0,23.0,0.0,0.0,4711.794871794872,3908.717948717949,4373.846153846154,4395.8974358974365,4199.48717948718,4494.871794871796,4360.512820512821,4322.051282051282,4311.794871794872,4604.102564102564,4344.102564102564,4204.615384615385,4094.358974358975,4573.846153846154
263.85175,0.9785076,0.29191867,0.33333334,0.5522388,0,0.0,0.0,0.0,0.0,0.49282047,0,0,0.0,0.0,1,0,55.0,0.0,0.0,4706.666666666667,3908.205128205129,4393.333333333334,4396.410256410257,4211.794871794872,4512.820512820514,4380.512820512821,4338.974358974359,4357.435897435898,4626.153846153847,4344.102564102564,4204.102564102564,4125.641025641026,4563.076923076924
264.10196,0.9785076,0.29191867,0.33333334,0.5522388,0,0.0,0.0,0.0,0.0,0.12669583,0,0,0.0,0.0,0,0,87.0,0.0,518.0,4730.769230769231,3920.0000000000005,4433.846153846154,4408.205128205129,4212.820512820514,4510.256410256411,4401.538461538462,4366.666666666667,4373.333333333334,4634.871794871796,4346.153846153847,4230.769230769231,4153.333333333334,4574.871794871796
264.35217,1.0,0.3062435,0.33333334,0.5522388,0,0.0,0.0,0.0,0.0,0.12066787,0,0,0.0,0.0,0,0,119.0,0.0,518.0,4670.769230769231,3921.0256410256416,4434.871794871796,4412.307692307693,4217.948717948719,4516.410256410257,4428.717948717949,4411.794871794872,4400.512820512821,4641.025641025642,4346.153846153847,4212.820512820514,4158.974358974359,4543.589743589744
264.4773,1.0,0.3062435,0.33333334,0.5522388,0,0.0,0.0,0.0,0.0,0.0,0,0,0.0,0.0,0,0,6.0,0.0,585.0,4630.769230769231,3925.1282051282055,4416.923076923077,4414.358974358975,4221.025641025642,4515.8974358974365,4430.256410256411,4407.179487179487,4398.974358974359,4637.948717948719,4333.333333333334,4204.102564102564,4136.923076923077,4493.333333333334
264.7588,0.90052277,0.319742,0.33333334,0.5522388,0,0.0,0.0,0.0,0.0,0.0,0,0,0.0,0.0,0,0,42.0,0.0,0.0,4600.512820512821,3934.8717948717954,4431.794871794872,4421.025641025642,4222.564102564103,4523.076923076924,4429.743589743591,4404.615384615385,4416.923076923077,4644.102564102564,4323.589743589744,4211.794871794872,4131.794871794872,4470.769230769231
264.7588,0.90052277,0.319742,0.33333334,0.5522388,0,0.0,0.0,0.0,0.0,0.0,0,0,0.0,0.0,0,0,42.0,0.0,0.0,4600.512820512821,3934.8717948717954,4431.794871794872,4421.025641025642,4222.564102564103,4523.076923076924,4429.743589743591,4404.615384615385,4416.923076923077,4644.102564102564,4323.589743589744,4211.794871794872,4131.794871794872,4470.769230769231
265.25922,0.9288138,0.32548064,0.33333334,0.5522388,0,0.0,0.0,0.0,0.0,0.0,0,0,0.0,0.0,0,0,106.0,0.0,555.0,4507.179487179488,3933.8461538461543,4439.48717948718,4428.717948717949,4236.410256410257,4536.410256410257,4434.358974358975,4423.589743589744,4435.384615384616,4653.333333333334,4318.974358974359,4225.128205128206,4158.461538461539,4495.384615384616
265.25922,0.9288138,0.32548064,0.33333334,0.5522388,0,0.0,0.0,0.0,0.0,0.0,0,0,0.0,0.0,0,0,106.0,0.0,555.0,4507.179487179488,3933.8461538461543,4439.48717948718,4428.717948717949,4236.410256410257,4536.410256410257,4434.358974358975,4423.589743589744,4435.384615384616,4653.333333333334,4318.974358974359,4225.128205128206,4158.461538461539,4495.384615384616
265.75964,0.9063029,0.30628824,0.33333334,0.5522388,0,0.0,0.0,0.0,0.0,0.0,0,0,0.0,0.0,0,0,41.0,0.0,0.0,4503.076923076924,3943.589743589744,4440.000000000001,4428.205128205129,4244.615384615385,4543.076923076924,4420.512820512821,4422.051282051282,4443.589743589744,4659.48717948718,4293.846153846154,4202.564102564103,4126.666666666667,4465.128205128206
265.75964,0.9063029,0.30628824,0.33333334,0.5522388,0,0.0,0.0,0.0,0.0,0.0,0,0,0.0,0.0,0,0,41.0,0.0,0.0,4503.076923076924,3943.589743589744,4440.000000000001,4428.205128205129,4244.615384615385,4543.076923076924,4420.512820512821,4422.051282051282,4443.589743589744,4659.48717948718,4293.846153846154,4202.564102564103,4126.666666666667,4465.128205128206
266.26007,0.8709908,0.28373256,0.33333334,0.5522388,0,0.0,0.0,0.0,0.0,0.0,0,0,0.0,0.0,0,0,105.0,0.0,514.0,4492.820512820514,3924.615384615385,4457.435897435898,4427.6923076923085,4257.435897435898,4561.025641025642,4404.615384615385,4403.589743589744,4457.435897435898,4681.538461538462,4298.974358974359,4208.205128205129,4183.589743589744,4471.282051282052
266.26007,0.8709908,0.28373256,0.33333334,0.5522388,0,0.0,0.0,0.0,0.0,0.0,0,0,0.0,0.0,0,0,105.0,0.0,514.0,4492.820512820514,3924.615384615385,4457.435897435898,4427.6923076923085,4257.435897435898,4561.025641025642,4404.615384615385,4403.589743589744,4457.435897435898,4681.538461538462,4298.974358974359,4208.205128205129,4183.589743589744,4471.282051282052
266.7605,0.8887866,0.26647127,0.33333334,0.5522388,0,0.0,0.0,0.0,0.0,0.0,0,0,0.0,0.0,0,0,40.0,0.0,0.0,4557.435897435898,3905.1282051282055,4545.641025641026,4427.6923076923085,4240.000000000001,4543.589743589744,4520.000000000001,4552.307692307693,4445.641025641026,4701.025641025642,4318.974358974359,4294.871794871796,4330.769230769231,4580.512820512821
266.7605,0.8887866,0.26647127,0.33333334,0.5522388,0,0.0,0.0,0.0,0.0,0.0,0,0,0.0,0.0,0,0,40.0,0.0,0.0,4557.435897435898,3905.1282051282055,4545.641025641026,4427.6923076923085,4240.000000000001,4543.589743589744,4520.000000000001,4552.307692307693,4445.641025641026,4701.025641025642,4318.974358974359,4294.871794871796,4330.769230769231,4580.512820512821
267.35477,0.9921322,0.26325715,0.33333334,0.5522388,0,0.0,0.0,0.0,0.0,0.27391744,0,0,0.0,0.0,0,0,116.0,0.0,152.0,4722.051282051282,3935.3846153846157,4677.948717948719,4448.717948717949,4214.871794871796,4508.717948717949,4584.102564102564,4648.717948717949,4317.948717948719,4673.333333333334,4351.282051282052,4498.974358974359,4341.538461538462,4718.974358974359
267.60498,0.9921322,0.26325715,0.33333334,0.5522388,0,0.0,0.0,0.0,0.0,0.123494975,0,0,0.0,0.0,0,0,19.0,0.0,0.0,4718.974358974359,3946.666666666667,4684.615384615386,4456.410256410257,4209.2307692307695,4496.410256410257,4593.333333333334,4642.564102564103,4273.333333333334,4649.2307692307695,4361.538461538462,4516.410256410257,4279.48717948718,4702.051282051282
267.8552,0.9657876,0.25795215,0.33333334,0.5522388,0,0.0,0.0,0.0,0.0,0.09516755,0,0,0.0,0.0,0,0,51.0,0.0,0.0,4744.102564102564,3946.1538461538466,4671.282051282052,4458.974358974359,4208.717948717949,4499.48717948718,4586.153846153847,4609.2307692307695,4251.282051282052,4630.256410256411,4347.179487179487,4525.641025641026,4250.256410256411,4677.948717948719
267.9803,0.9657876,0.25795215,0.33333334,0.5522388,0,0.0,0.0,0.0,0.0,0.0,0,0,0.0,0.0,0,0,67.0,0.0,547.0,4749.2307692307695,3950.2564102564106,4681.025641025642,4457.948717948719,4205.641025641026,4492.820512820514,4578.461538461539,4611.794871794872,4255.384615384616,4625.128205128206,4363.589743589744,4548.205128205129,4243.589743589744,4674.871794871796
268.26178,0.94409865,0.26536548,0.33333334,0.5522388,0,0.0,0.0,0.0,0.0,0.0,0,0,0.0,0.0,0,0,103.0,0.0,518.0,4743.076923076924,3951.2820512820517,4666.666666666667,4458.974358974359,4215.8974358974365,4506.666666666667,4540.512820512821,4519.48717948718,4223.076923076924,4602.051282051282,4370.769230769231,4512.307692307693,4237.435897435898,4657.435897435898
268.60583,0.94409865,0.26536548,0.33333334,0.5522388,0,0.0,0.0,0.0,0.0,0.0,0,0,0.0,0.0,0,0,18.0,0.0,0.0,4681.025641025642,3940.0000000000005,4617.948717948719,4454.358974358975,4228.717948717949,4517.948717948719,4511.282051282052,4528.205128205129,4274.358974358975,4589.2307692307695,4346.666666666667,4440.512820512821,4189.2307692307695,4541.538461538462
268.85605,0.97278786,0.27876922,0.33333334,0.5522388,0,0.0,0.0,0.0,0.0,0.9682113,0,0,0.0,0.0,0,0,50.0,0.0,0.0,4612.820512820514,3929.2307692307695,4576.410256410257,4447.179487179487,4233.333333333334,4529.743589743591,4500.512820512821,4504.615384615385,4300.512820512821,4583.589743589744,4326.666666666667,4378.974358974359,4155.384615384616,4485.128205128206
269.10626,0.97278786,0.27876922,0.33333334,0.5522388,0,0.0,0.0,0.0,0.0,0.16573559,0,0,0.0,0.0,0,0,82.0,0.0,555.0,4604.102564102564,3935.8974358974365,4572.307692307693,4448.717948717949,4240.000000000001,4532.307692307693,4482.051282051282,4463.589743589744,4315.8974358974365,4589.2307692307695,4310.256410256411,4345.128205128206,4166.666666666667,4504.615384615385
269.35648,0.91336256,0.27891254,0.33333334,0.5522388,1,0.0,0.0,0.0,0.0,0.23752496,0,0,0.0,0.0,0,0,114.0,0.0,555.0,4590.769230769231,3921.0256410256416,4561.538461538462,4436.923076923077,4230.769230769231,4528.205128205129,4453.333333333334,4428.205128205129,4316.923076923077,4582.564102564103,4290.256410256411,4322.051282051282,4137.948717948719,4465.128205128206
269.6067,0.91336256,0.27891254,0.33333334,0.5522388,0,0.0,0.0,0.0,0.0,1.0,0,0,0.0,0.0,0,0,17.0,0.0,0.0,4537.948717948719,3927.692307692308,4523.076923076924,4431.282051282052,4226.153846153847,4522.051282051282,4425.128205128206,4399.48717948718,4352.307692307693,4595.384615384616,4292.307692307693,4277.435897435898,4142.564102564103,4452.307692307693
269.8569,0.969952,0.28419143,0.33333334,0.5522388,0,0.0,0.0,0.0,0.0,0.18179536,0,0,0.0,0.0,0,0,49.0,0.0,0.0,4495.384615384616,3921.0256410256416,4503.589743589744,4427.6923076923085,4231.794871794872,4532.307692307693,4430.769230769231,4386.666666666667,4355.8974358974365,4592.820512820514,4250.256410256411,4225.128205128206,4109.74358974359,4412.307692307693
269.98203,0.969952,0.28419143,0.33333334,0.5522388,0,0.0,0.0,0.0,0.0,0.0,0,0,0.0,0.0,0,0,65.0,0.0,464.0,4486.666666666667,3926.1538461538466,4487.6923076923085,4433.333333333334,4247.6923076923085,4554.871794871796,4422.051282051282,4395.8974358974365,4401.538461538462,4608.717948717949,4237.435897435898,4206.666666666667,4128.717948717949,4412.307692307693
270.26352,0.94425243,0.25811064,0.33333334,0.5522388,0,0.0,0.0,0.0,0.0,0.0,0,0,0.0,0.0,0,0,101.0,0.0,517.0,4533.333333333334,3919.48717948718,4509.2307692307695,4430.256410256411,4249.2307692307695,4553.333333333334,4451.282051282052,4406.666666666667,4405.128205128206,4623.076923076924,4241.538461538462,4220.512820512821,4164.102564102564,4437.948717948719
270.26352,0.94425243,0.25811064,0.33333334,0.5522388,0,0.0,0.0,0.0,0.0,0.0,0,0,0.0,0.0,0,0,101.0,0.0,517.0,4533.333333333334,3919.48717948718,4509.2307692307695,4430.256410256411,4249.2307692307695,4553.333333333334,4451.282051282052,4406.666666666667,4405.128205128206,4623.076923076924,4241.538461538462,4220.512820512821,4164.102564102564,4437.948717948719
270.76395,0.949905,0.23465396,0.33333334,0.5522388,0,0.0,0.0,0.0,0.0,0.0,0,0,0.0,0.0,0,0,36.0,0.0,0.0,4585.641025641026,3917.9487179487182,4554.871794871796,4435.384615384616,4230.769230769231,4529.743589743591,4482.051282051282,4470.256410256411,4392.307692307693,4632.820512820514,4252.307692307693,4270.769230769231,4195.8974358974365,4506.666666666667
271.10797,0.949905,0.23465396,0.33333334,0.5522388,1,0.0,0.0,0.0,0.0,1.0,0,0,0.0,0.0,0,0,80.0,0.0,152.0,4609.743589743591,3910.2564102564106,4565.641025641026,4444.615384615385,4237.435897435898,4529.743589743591,4480.512820512821,4477.435897435898,4374.871794871796,4628.717948717949,4261.538461538462,4285.128205128206,4185.641025641026,4515.384615384616
271.3582,0.8746062,0.22784238,0.33333334,0.5522388,0,0.0,0.0,0.0,0.0,0.7568341,0,0,0.0,0.0,0,0,112.0,0.0,152.0,4584.615384615385,3912.820512820513,4541.025641025642,4444.102564102564,4266.666666666667,4515.8974358974365,4446.153846153847,4452.307692307693,4354.871794871796,4613.333333333334,4254.358974358975,4283.076923076924,4151.794871794872,4493.333333333334
271.60843,0.8746062,0.22784238,0.33333334,0.5522388,0,0.0,0.0,0.0,0.0,0.03125479,0,0,0.0,0.0,0,0,15.0,0.0,521.0,4579.48717948718,3908.205128205129,4524.102564102564,4444.102564102564,4274.358974358975,4508.205128205129,4424.102564102564,4425.128205128206,4337.435897435898,4604.102564102564,4248.205128205129,4257.435897435898,4124.615384615385,4486.666666666667
271.85864,0.83145094,0.21667221,0.33333334,0.5522388,0,0.0,0.0,0.0,0.0,0.1182405,0,0,0.0,0.0,0,0,47.0,0.0,0.0,4614.358974358975,3909.7435897435903,4536.410256410257,4442.051282051282,4268.205128205129,4526.153846153847,4429.2307692307695,4431.282051282052,4363.589743589744,4616.410256410257,4262.051282051282,4275.384615384616,4149.2307692307695,4518.461538461539
272.10886,0.83145094,0.21667221,0.33333334,0.5522388,0,0.0,0.0,0.0,0.0,0.0,0,0,0.0,0.0,0,0,79.0,0.0,521.0,4583.076923076924,3908.717948717949,4503.076923076924,4444.102564102564,4261.025641025642,4550.769230769231,4431.794871794872,4436.410256410257,4387.179487179487,4631.794871794872,4264.102564102564,4256.410256410257,4181.538461538462,4517.435897435898
272.26523,0.7927284,0.21315339,0.33333334,0.5522388,0,0.0,0.0,0.0,0.0,0.0,0,0,0.0,0.0,0,0,99.0,0.0,521.0,4575.384615384616,3906.1538461538466,4503.076923076924,4444.102564102564,4253.846153846154,4551.282051282052,4440.000000000001,4437.948717948719,4391.794871794872,4636.410256410257,4272.307692307693,4262.564102564103,4189.2307692307695,4533.846153846154
272.60928,0.7927284,0.21315339,0.33333334,0.5522388,0,0.0,0.0,0.0,0.0,0.19028743,0,0,0.0,0.0,0,0,124.0,0.0,152.0,4594.871794871796,3910.7692307692314,4507.179487179488,4444.615384615385,4253.333333333334,4554.871794871796,4448.717948717949,4433.846153846154,4393.333333333334,4640.000000000001,4274.358974358975,4275.8974358974365,4177.435897435898,4507.179487179488
272.8595,0.7018976,0.20599034,0.33333334,0.5522388,0,0.0,0.0,0.0,0.0,0.0,0,0,0.0,0.0,0,0,46.0,0.0,0.0,4564.615384615385,3900.5128205128212,4506.666666666667,4429.2307692307695,4230.769230769231,4558.461538461539,4450.256410256411,4419.48717948718,4403.589743589744,4652.307692307693,4275.384615384616,4250.769230769231,4169.74358974359,4488.205128205129
272.8595,0.7018976,0.20599034,0.33333334,0.5522388,0,0.0,0.0,0.0,0.0,0.0,0,0,0.0,0.0,0,0,46.0,0.0,0.0,4564.615384615385,3900.5128205128212,4506.666666666667,4429.2307692307695,4230.769230769231,4558.461538461539,4450.256410256411,4419.48717948718,4403.589743589744,4652.307692307693,4275.384615384616,4250.769230769231,4169.74358974359,4488.205128205129
273.26608,0.6227309,0.18635204,0.33333334,0.5522388,0,0.0,0.0,0.0,0.0,0.0,0,0,0.0,0.0,0,0,98.0,0.0,555.0,4564.615384615385,3908.717948717949,4501.025641025642,4428.717948717949,4240.000000000001,4566.666666666667,4448.717948717949,4387.179487179487,4419.48717948718,4660.512820512821,4265.641025641026,4234.358974358975,4180.000000000001,4486.153846153847
273.26608,0.6227309,0.18635204,0.33333334,0.5522388,0,0.0,0.0,0.0,0.0,0.0,0,0,0.0,0.0,0,0,98.0,0.0,555.0,4564.615384615385,3908.717948717949,4501.025641025642,4428.717948717949,4240.000000000001,4566.666666666667,4448.717948717949,4387.179487179487,4419.48717948718,4660.512820512821,4265.641025641026,4234.358974358975,4180.000000000001,4486.153846153847
273.7665,0.5834162,0.16844696,0.33333334,0.5522388,0,0.0,0.0,0.0,0.0,0.0,0,0,0.0,0.0,0,0,33.0,0.0,0.0,4575.384615384616,3911.7948717948725,4509.743589743591,4428.205128205129,4244.102564102564,4561.538461538462,4444.102564102564,4364.102564102564,4408.205128205129,4663.076923076924,4265.128205128206,4216.923076923077,4149.74358974359,4484.615384615385
273.7665,0.5834162,0.16844696,0.33333334,0.5522388,0,0.0,0.0,0.0,0.0,0.0,0,0,0.0,0.0,0,0,33.0,0.0,0.0,4575.384615384616,3911.7948717948725,4509.743589743591,4428.205128205129,4244.102564102564,4561.538461538462,4444.102564102564,4364.102564102564,4408.205128205129,4663.076923076924,4265.128205128206,4216.923076923077,4149.74358974359,4484.615384615385
274.26694,0.56307214,0.15087818,0.33333334,0.5522388,0,0.0,0.0,0.0,0.0,0.0,0,0,0.0,0.0,0,0,97.0,0.0,517.0,4553.333333333334,3921.0256410256416,4518.974358974359,4429.2307692307695,4250.256410256411,4561.538461538462,4426.666666666667,4369.743589743591,4437.435897435898,4685.641025641026,4289.74358974359,4216.923076923077,4169.74358974359,4472.820512820514
274.26694,0.56307214,0.15087818,0.33333334,0.5522388,0,0.0,0.0,0.0,0.0,0.0,0,0,0.0,0.0,0,0,97.0,0.0,517.0,4553.333333333334,3921.0256410256416,4518.974358974359,4429.2307692307695,4250.256410256411,4561.538461538462,4426.666666666667,4369.743589743591,4437.435897435898,4685.641025641026,4289.74358974359,4216.923076923077,4169.74358974359,4472.820512820514
274.76736,0.5808058,0.13617949,0.33333334,0.5522388,0,0.0,0.0,0.0,0.0,0.0,0,0,0.0,0.0,0,0,32.0,0.0,0.0,4503.076923076924,3906.666666666667,4470.769230769231,4420.512820512821,4243.076923076924,4558.461538461539,4393.333333333334,4361.025641025642,4432.307692307693,4687.179487179488,4267.179487179487,4149.74358974359,4144.615384615385,4419.48717948718
274.76736,0.5808058,0.13617949,0.33333334,0.5522388,0,0.0,0.0,0.0,0.0,0.0,0,0,0.0,0.0,0,0,32.0,0.0,0.0,4503.076923076924,3906.666666666667,4470.769230769231,4420.512820512821,4243.076923076924,4558.461538461539,4393.333333333334,4361.025641025642,4432.307692307693,4687.179487179488,4267.179487179487,4149.74358974359,4144.615384615385,4419.48717948718
275.26782,0.524588,0.12504771,0.33333334,0.5522388,0,0.0,0.0,0.0,0.0,0.0,0,0,0.0,0.0,0,0,96.0,0.0,152.0,4470.256410256411,3898.461538461539,4466.666666666667,4420.512820512821,4250.769230769231,4562.564102564103,4389.2307692307695,4364.615384615385,4443.076923076924,4700.512820512821,4269.2307692307695,4130.256410256411,4157.435897435898,4412.307692307693
275.26782,0.524588,0.12504771,0.33333334,0.5522388,0,0.0,0.0,0.0,0.0,0.0,0,0,0.0,0.0,0,0,96.0,0.0,152.0,4470.256410256411,3898.461538461539,4466.666666666667,4420.512820512821,4250.769230769231,4562.564102564103,4389.2307692307695,4364.615384615385,4443.076923076924,4700.512820512821,4269.2307692307695,4130.256410256411,4157.435897435898,4412.307692307693
275.86206,0.5354536,0.120532244,0.33333334,0.5522388,0,0.0,0.0,0.0,0.0,0.2237209,0,0,0.0,0.0,0,0,43.0,0.0,0.0,4705.128205128206,3926.666666666667,4595.384615384616,4427.6923076923085,4237.948717948719,4548.717948717949,4415.8974358974365,4428.717948717949,4441.025641025642,4725.641025641026,4272.307692307693,4243.076923076924,4277.948717948719,4586.153846153847
276.11227,0.5354536,0.120532244,0.33333334,0.5522388,0,0.0,0.0,0.0,0.0,0.0,0,0,0.0,0.0,0,0,75.0,0.0,521.0,4687.6923076923085,3922.564102564103,4627.6923076923085,4428.717948717949,4229.2307692307695,4536.410256410257,4496.923076923077,4503.076923076924,4422.051282051282,4723.076923076924,4268.205128205129,4289.2307692307695,4294.358974358975,4589.2307692307695
276.26868,0.6380717,0.1367422,0.33333334,0.5522388,0,0.0,0.0,0.0,0.0,0.0,0,0,0.0,0.0,0,0,95.0,0.0,521.0,4680.000000000001,3920.5128205128212,4632.307692307693,4445.128205128206,4228.205128205129,4534.358974358975,4550.256410256411,4550.769230769231,4413.333333333334,4717.948717948719,4270.769230769231,4326.666666666667,4296.410256410257,4603.589743589744
276.26868,0.6380717,0.1367422,0.33333334,0.5522388,0,0.0,0.0,0.0,0.0,0.0,0,0,0.0,0.0,0,0,95.0,0.0,521.0,4680.000000000001,3920.5128205128212,4632.307692307693,4445.128205128206,4228.205128205129,4534.358974358975,4550.256410256411,4550.769230769231,4413.333333333334,4717.948717948719,4270.769230769231,4326.666666666667,4296.410256410257,4603.589743589744
276.7691,0.77150315,0.17724405,0.33333334,0.5522388,0,0.0,0.0,0.0,0.0,0.0,0,0,0.0,0.0,0,0,30.0,0.0,0.0,4712.307692307693,3915.3846153846157,4648.205128205129,4450.769230769231,4218.461538461539,4515.8974358974365,4614.358974358975,4651.794871794872,4403.589743589744,4728.205128205129,4310.256410256411,4460.000000000001,4294.871794871796,4646.153846153847
277.11316,0.77150315,0.17724405,0.33333334,0.5522388,0,0.0,0.0,0.0,0.0,0.043117274,0,0,0.0,0.0,0,0,74.0,0.0,555.0,4743.589743589744,3939.48717948718,4649.2307692307695,4460.000000000001,4217.435897435898,4511.794871794872,4603.076923076924,4596.923076923077,4329.743589743591,4684.615384615386,4326.153846153847,4465.128205128206,4221.025641025642,4642.564102564103
277.36337,0.8809135,0.2226587,0.33333334,0.5522388,0,0.0,0.0,0.0,0.0,0.08256822,0,0,0.0,0.0,0,0,106.0,0.0,555.0,4729.743589743591,3934.8717948717954,4637.435897435898,4466.153846153847,4222.564102564103,4521.538461538462,4600.000000000001,4615.384615384616,4348.717948717949,4689.2307692307695,4343.076923076924,4482.051282051282,4195.384615384616,4623.076923076924
277.6136,0.8809135,0.2226587,0.33333334,0.5522388,0,0.0,0.0,0.0,0.0,0.07000466,0,0,0.0,0.0,0,0,9.0,0.0,243.0,4734.871794871796,3941.0256410256416,4647.6923076923085,4463.589743589744,4214.871794871796,4515.384615384616,4565.128205128206,4580.512820512821,4318.974358974359,4672.820512820514,4363.076923076924,4497.435897435898,4198.974358974359,4633.846153846154
277.76996,0.9454078,0.25702667,0.33333334,0.5522388,0,0.0,0.0,0.0,0.0,0.0,0,0,0.0,0.0,0,0,29.0,0.0,0.0,4728.205128205129,3925.6410256410263,4633.846153846154,4462.564102564103,4226.666666666667,4518.974358974359,4618.974358974359,4613.333333333334,4320.000000000001,4662.564102564103,4362.051282051282,4485.641025641026,4170.256410256411,4623.076923076924
277.76996,0.9454078,0.25702667,0.33333334,0.5522388,0,0.0,0.0,0.0,0.0,0.0,0,0,0.0,0.0,0,0,29.0,0.0,0.0,4728.205128205129,3925.6410256410263,4633.846153846154,4462.564102564103,4226.666666666667,4518.974358974359,4618.974358974359,4613.333333333334,4320.000000000001,4662.564102564103,4362.051282051282,4485.641025641026,4170.256410256411,4623.076923076924
278.2704,0.94159013,0.2994673,0.33333334,0.5522388,0,0.0,0.0,0.0,0.0,0.0,0,0,0.0,0.0,0,0,93.0,0.0,510.0,4761.025641025642,3939.48717948718,4632.820512820514,4475.384615384616,4221.538461538462,4517.948717948719,4610.256410256411,4617.948717948719,4318.974358974359,4642.564102564103,4381.538461538462,4547.6923076923085,4133.846153846154,4612.820512820514
278.2704,0.94159013,0.2994673,0.33333334,0.5522388,0,0.0,0.0,0.0,0.0,0.0,0,0,0.0,0.0,0,0,93.0,0.0,510.0,4761.025641025642,3939.48717948718,4632.820512820514,4475.384615384616,4221.538461538462,4517.948717948719,4610.256410256411,4617.948717948719,4318.974358974359,4642.564102564103,4381.538461538462,4547.6923076923085,4133.846153846154,4612.820512820514
278.7708,1.0,0.33582383,0.33333334,0.5522388,0,0.0,0.0,0.0,0.0,0.0,0,0,0.0,0.0,0,0,28.0,0.0,0.0,4759.48717948718,3951.7948717948725,4607.179487179488,4474.871794871796,4214.358974358975,4509.743589743591,4563.589743589744,4524.615384615385,4282.564102564103,4577.948717948719,4352.307692307693,4516.410256410257,4027.692307692308,4553.333333333334
278.7708,1.0,0.33582383,0.33333334,0.5522388,0,0.0,0.0,0.0,0.0,0.0,0,0,0.0,0.0,0,0,28.0,0.0,0.0,4759.48717948718,3951.7948717948725,4607.179487179488,4474.871794871796,4214.358974358975,4509.743589743591,4563.589743589744,4524.615384615385,4282.564102564103,4577.948717948719,4352.307692307693,4516.410256410257,4027.692307692308,4553.333333333334
279.27124,1.0,0.38194367,0.33333334,0.5522388,0,0.0,0.0,0.0,0.0,0.0,0,0,0.0,0.0,0,0,92.0,0.0,152.0,4708.717948717949,3943.076923076924,4538.974358974359,4462.051282051282,4226.666666666667,4521.538461538462,4482.564102564103,4433.846153846154,4297.948717948719,4553.333333333334,4330.256410256411,4419.48717948718,3996.410256410257,4505.128205128206
279.27124,1.0,0.38194367,0.33333334,0.5522388,0,0.0,0.0,0.0,0.0,0.0,0,0,0.0,0.0,0,0,92.0,0.0,152.0,4708.717948717949,3943.076923076924,4538.974358974359,4462.051282051282,4226.666666666667,4521.538461538462,4482.564102564103,4433.846153846154,4297.948717948719,4553.333333333334,4330.256410256411,4419.48717948718,3996.410256410257,4505.128205128206
279.77167,0.96934515,0.42515695,0.33333334,0.5522388,0,0.0,0.0,0.0,0.0,0.0,0,0,0.0,0.0,0,0,27.0,0.0,0.0,4647.6923076923085,3938.461538461539,4498.974358974359,4456.923076923077,4242.564102564103,4535.8974358974365,4457.948717948719,4438.461538461539,4318.461538461539,4541.025641025642,4296.923076923077,4311.282051282052,3985.6410256410263,4434.871794871796
279.77167,0.96934515,0.42515695,0.33333334,0.5522388,0,0.0,0.0,0.0,0.0,0.0,0,0,0.0,0.0,0,0,27.0,0.0,0.0,4647.6923076923085,3938.461538461539,4498.974358974359,4456.923076923077,4242.564102564103,4535.8974358974365,4457.948717948719,4438.461538461539,4318.461538461539,4541.025641025642,4296.923076923077,4311.282051282052,3985.6410256410263,4434.871794871796
280.27213,0.93355775,0.42704746,0.33333334,0.5522388,0,0.0,0.0,0.0,0.0,0.0,0,0,0.0,0.0,0,0,91.0,0.0,521.0,4616.923076923077,3940.0000000000005,4504.102564102564,4457.948717948719,4247.179487179487,4548.205128205129,4408.205128205129,4381.025641025642,4316.410256410257,4545.128205128206,4278.974358974359,4274.871794871796,4053.333333333334,4438.974358974359
280.27213,0.93355775,0.42704746,0.33333334,0.5522388,0,0.0,0.0,0.0,0.0,0.0,0,0,0.0,0.0,0,0,91.0,0.0,521.0,4616.923076923077,3940.0000000000005,4504.102564102564,4457.948717948719,4247.179487179487,4548.205128205129,4408.205128205129,4381.025641025642,4316.410256410257,4545.128205128206,4278.974358974359,4274.871794871796,4053.333333333334,4438.974358974359
280.77255,0.8979236,0.41481298,0.33333334,0.5522388,0,0.0,0.0,0.0,0.0,0.0,0,0,0.0,0.0,0,0,26.0,0.0,0.0,4515.8974358974365,3917.9487179487182,4434.871794871796,4444.102564102564,4272.820512820514,4568.205128205129,4432.820512820514,4377.948717948719,4373.846153846154,4574.871794871796,4256.923076923077,4171.282051282052,4061.538461538462,4378.974358974359
280.77255,0.8979236,0.41481298,0.33333334,0.5522388,0,0.0,0.0,0.0,0.0,0.0,0,0,0.0,0.0,0,0,26.0,0.0,0.0,4515.8974358974365,3917.9487179487182,4434.871794871796,4444.102564102564,4272.820512820514,4568.205128205129,4432.820512820514,4377.948717948719,4373.846153846154,4574.871794871796,4256.923076923077,4171.282051282052,4061.538461538462,4378.974358974359
281.27298,0.9228162,0.41284928,0.33333334,0.5522388,0,0.0,0.0,0.0,0.0,0.0,0,0,0.0,0.0,0,0,90.0,0.0,555.0,4572.307692307693,3928.205128205129,4469.2307692307695,4443.589743589744,4272.307692307693,4574.871794871796,4393.846153846154,4381.025641025642,4416.410256410257,4617.948717948719,4251.282051282052,4202.051282051282,4135.384615384616,4409.2307692307695
281.27298,0.9228162,0.41284928,0.33333334,0.5522388,0,0.0,0.0,0.0,0.0,0.0,0,0,0.0,0.0,0,0,90.0,0.0,555.0,4572.307692307693,3928.205128205129,4469.2307692307695,4443.589743589744,4272.307692307693,4574.871794871796,4393.846153846154,4381.025641025642,4416.410256410257,4617.948717948719,4251.282051282052,4202.051282051282,4135.384615384616,4409.2307692307695
281.7734,1.0,0.40507895,0.33333334,0.5522388,0,0.0,0.0,0.0,0.0,0.0,0,0,0.0,0.0,0,0,25.0,0.0,0.0,4611.282051282052,3918.9743589743593,4494.358974358975,4436.923076923077,4274.871794871796,4577.435897435898,4448.205128205129,4392.820512820514,4415.8974358974365,4629.2307692307695,4229.2307692307695,4198.974358974359,4162.051282051282,4446.153846153847
281.7734,1.0,0.40507895,0.33333334,0.5522388,0,0.0,0.0,0.0,0.0,0.0,0,0,0.0,0.0,0,0,25.0,0.0,0.0,4611.282051282052,3918.9743589743593,4494.358974358975,4436.923076923077,4274.871794871796,4577.435897435898,4448.205128205129,4392.820512820514,4415.8974358974365,4629.2307692307695,4229.2307692307695,4198.974358974359,4162.051282051282,4446.153846153847
282.3364,0.9877435,0.41019353,0.33333334,0.5522388,0,0.0,0.0,0.0,0.0,0.0,0,0,0.0,0.0,0,0,97.0,0.0,516.0,4714.358974358975,3908.717948717949,4545.128205128206,4441.538461538462,4248.205128205129,4550.256410256411,4524.615384615385,4529.2307692307695,4456.410256410257,4678.974358974359,4256.923076923077,4316.410256410257,4229.74358974359,4559.48717948718
282.3364,0.9877435,0.41019353,0.33333334,0.5522388,0,0.0,0.0,0.0,0.0,0.0,0,0,0.0,0.0,0,0,97.0,0.0,516.0,4714.358974358975,3908.717948717949,4545.128205128206,4441.538461538462,4248.205128205129,4550.256410256411,4524.615384615385,4529.2307692307695,4456.410256410257,4678.974358974359,4256.923076923077,4316.410256410257,4229.74358974359,4559.48717948718
282.77426,1.0,0.44594875,0.33333334,0.5522388,0,0.0,0.0,0.0,0.0,0.0,0,0,0.0,0.0,0,0,24.0,0.0,0.0,4744.102564102564,3908.717948717949,4521.025641025642,4441.025641025642,4244.615384615385,4544.102564102564,4539.48717948718,4545.128205128206,4453.846153846154,4693.333333333334,4275.8974358974365,4354.871794871796,4239.48717948718,4580.512820512821
282.77426,1.0,0.44594875,0.33333334,0.5522388,0,0.0,0.0,0.0,0.0,0.0,0,0,0.0,0.0,0,0,24.0,0.0,0.0,4744.102564102564,3908.717948717949,4521.025641025642,4441.025641025642,4244.615384615385,4544.102564102564,4539.48717948718,4545.128205128206,4453.846153846154,4693.333333333334,4275.8974358974365,4354.871794871796,4239.48717948718,4580.512820512821
283.2747,1.0,0.478817,0.33333334,0.5522388,0,0.0,0.0,0.0,0.0,0.0,0,0,0.0,0.0,0,0,88.0,0.0,152.0,4716.923076923077,3924.615384615385,4529.2307692307695,4446.666666666667,4243.589743589744,4538.461538461539,4486.153846153847,4494.871794871796,4410.769230769231,4680.512820512821,4283.589743589744,4343.076923076924,4198.461538461539,4550.256410256411
283.2747,1.0,0.478817,0.33333334,0.5522388,0,0.0,0.0,0.0,0.0,0.0,0,0,0.0,0.0,0,0,88.0,0.0,152.0,4716.923076923077,3924.615384615385,4529.2307692307695,4446.666666666667,4243.589743589744,4538.461538461539,4486.153846153847,4494.871794871796,4410.769230769231,4680.512820512821,4283.589743589744,4343.076923076924,4198.461538461539,4550.256410256411
283.77512,0.96257305,0.49670902,0.33333334,0.5522388,0,0.0,0.0,0.0,0.0,0.0,0,0,0.0,0.0,0,0,23.0,0.0,0.0,4662.051282051282,3925.6410256410263,4501.538461538462,4443.589743589744,4243.076923076924,4539.48717948718,4435.8974358974365,4413.846153846154,4371.794871794872,4648.205128205129,4266.153846153847,4275.384615384616,4157.948717948719,4517.948717948719
283.77512,0.96257305,0.49670902,0.33333334,0.5522388,0,0.0,0.0,0.0,0.0,0.0,0,0,0.0,0.0,0,0,23.0,0.0,0.0,4662.051282051282,3925.6410256410263,4501.538461538462,4443.589743589744,4243.076923076924,4539.48717948718,4435.8974358974365,4413.846153846154,4371.794871794872,4648.205128205129,4266.153846153847,4275.384615384616,4157.948717948719,4517.948717948719
284.27554,0.9476992,0.4965585,0.33333334,0.5522388,0,0.0,0.0,0.0,0.0,0.0,0,0,0.0,0.0,0,0,87.0,0.0,521.0,4632.307692307693,3927.692307692308,4480.512820512821,4441.538461538462,4260.000000000001,4562.564102564103,4424.102564102564,4422.051282051282,4421.538461538462,4676.410256410257,4259.48717948718,4256.410256410257,4180.000000000001,4485.641025641026
284.27554,0.9476992,0.4965585,0.33333334,0.5522388,0,0.0,0.0,0.0,0.0,0.0,0,0,0.0,0.0,0,0,87.0,0.0,521.0,4632.307692307693,3927.692307692308,4480.512820512821,4441.538461538462,4260.000000000001,4562.564102564103,4424.102564102564,4422.051282051282,4421.538461538462,4676.410256410257,4259.48717948718,4256.410256410257,4180.000000000001,4485.641025641026
284.77597,0.9083531,0.4708865,0.33333334,0.5522388,0,0.0,0.0,0.0,0.0,0.0,0,0,0.0,0.0,0,0,22.0,0.0,0.0,4635.8974358974365,3952.820512820513,4503.076923076924,4447.179487179487,4258.974358974359,4562.564102564103,4364.615384615385,4353.846153846154,4402.051282051282,4666.666666666667,4262.564102564103,4242.564102564103,4198.974358974359,4476.410256410257
284.77597,0.9083531,0.4708865,0.33333334,0.5522388,0,0.0,0.0,0.0,0.0,0.0,0,0,0.0,0.0,0,0,22.0,0.0,0.0,4635.8974358974365,3952.820512820513,4503.076923076924,4447.179487179487,4258.974358974359,4562.564102564103,4364.615384615385,4353.846153846154,4402.051282051282,4666.666666666667,4262.564102564103,4242.564102564103,4198.974358974359,4476.410256410257
285.37024,0.8944247,0.44813794,0.33333334,0.5522388,0,0.0,0.0,0.0,0.0,0.04353047,0,0,0.0,0.0,0,0,97.0,0.0,516.0,4553.846153846154,3932.820512820513,4458.974358974359,4443.589743589744,4269.2307692307695,4568.717948717949,4343.589743589744,4317.948717948719,4418.974358974359,4676.410256410257,4249.74358974359,4138.974358974359,4158.974358974359,4399.48717948718
285.49536,0.8944247,0.44813794,0.33333334,0.5522388,0,0.0,0.0,0.0,0.0,0.03792944,0,0,0.0,0.0,0,0,114.0,0.0,555.0,4553.846153846154,3930.2564102564106,4449.2307692307695,4442.564102564103,4271.794871794872,4569.2307692307695,4372.307692307693,4349.743589743591,4440.512820512821,4684.615384615386,4247.179487179487,4138.461538461539,4165.128205128206,4397.435897435898
285.77686,0.8755446,0.42958063,0.33333334,0.5522388,0,0.0,0.0,0.0,0.0,0.0,0,0,0.0,0.0,0,0,21.0,0.0,0.0,4558.461538461539,3938.461538461539,4462.051282051282,4443.076923076924,4274.358974358975,4579.48717948718,4382.051282051282,4333.333333333334,4438.461538461539,4694.871794871796,4257.435897435898,4152.820512820514,4174.358974358975,4404.102564102564
285.77686,0.8755446,0.42958063,0.33333334,0.5522388,0,0.0,0.0,0.0,0.0,0.0,0,0,0.0,0.0,0,0,21.0,0.0,0.0,4558.461538461539,3938.461538461539,4462.051282051282,4443.076923076924,4274.358974358975,4579.48717948718,4382.051282051282,4333.333333333334,4438.461538461539,4694.871794871796,4257.435897435898,4152.820512820514,4174.358974358975,4404.102564102564
286.27728,0.8646552,0.41172767,0.33333334,0.5522388,0,0.0,0.0,0.0,0.0,0.0,0,0,0.0,0.0,0,0,85.0,0.0,516.0,4521.025641025642,3938.9743589743593,4457.948717948719,4440.000000000001,4267.179487179487,4567.6923076923085,4376.923076923077,4373.333333333334,4472.307692307693,4713.333333333334,4258.974358974359,4135.8974358974365,4176.923076923077,4401.538461538462
286.27728,0.8646552,0.41172767,0.33333334,0.5522388,0,0.0,0.0,0.0,0.0,0.0,0,0,0.0,0.0,0,0,85.0,0.0,516.0,4521.025641025642,3938.9743589743593,4457.948717948719,4440.000000000001,4267.179487179487,4567.6923076923085,4376.923076923077,4373.333333333334,4472.307692307693,4713.333333333334,4258.974358974359,4135.8974358974365,4176.923076923077,4401.538461538462
286.7777,0.82480687,0.40754792,0.33333334,0.5522388,0,0.0,0.0,0.0,0.0,0.0,0,0,0.0,0.0,0,0,20.0,0.0,0.0,4502.051282051282,3930.2564102564106,4453.333333333334,4433.846153846154,4274.358974358975,4573.846153846154,4403.589743589744,4362.564102564103,4454.358974358975,4715.384615384616,4259.48717948718,4121.538461538462,4160.512820512821,4375.8974358974365
286.7777,0.82480687,0.40754792,0.33333334,0.5522388,0,0.0,0.0,0.0,0.0,0.0,0,0,0.0,0.0,0,0,20.0,0.0,0.0,4502.051282051282,3930.2564102564106,4453.333333333334,4433.846153846154,4274.358974358975,4573.846153846154,4403.589743589744,4362.564102564103,4454.358974358975,4715.384615384616,4259.48717948718,4121.538461538462,4160.512820512821,4375.8974358974365
287.27814,0.8180363,0.39418036,0.33333334,0.5522388,0,0.0,0.0,0.0,0.0,0.0,0,0,0.0,0.0,0,0,84.0,0.0,152.0,4495.8974358974365,3933.333333333334,4458.461538461539,4435.8974358974365,4269.2307692307695,4568.205128205129,4361.025641025642,4315.384615384616,4433.333333333334,4721.025641025642,4280.512820512821,4129.2307692307695,4171.282051282052,4393.333333333334
287.27814,0.8180363,0.39418036,0.33333334,0.5522388,0,0.0,0.0,0.0,0.0,0.0,0,0,0.0,0.0,0,0,84.0,0.0,152.0,4495.8974358974365,3933.333333333334,4458.461538461539,4435.8974358974365,4269.2307692307695,4568.205128205129,4361.025641025642,4315.384615384616,4433.333333333334,4721.025641025642,4280.512820512821,4129.2307692307695,4171.282051282052,4393.333333333334
287.77856,0.73556596,0.3885093,0.33333334,0.5522388,0,0.0,0.0,0.0,0.0,0.0,0,0,0.0,0.0,0,0,19.0,0.0,0.0,4474.358974358975,3924.615384615385,4488.717948717949,4440.512820512821,4274.358974358975,4573.846153846154,4389.2307692307695,4367.6923076923085,4471.282051282052,4745.128205128206,4291.794871794872,4118.974358974359,4173.846153846154,4403.076923076924
287.77856,0.73556596,0.3885093,0.33333334,0.5522388,0,0.0,0.0,0.0,0.0,0.0,0,0,0.0,0.0,0,0,19.0,0.0,0.0,4474.358974358975,3924.615384615385,4488.717948717949,4440.512820512821,4274.358974358975,4573.846153846154,4389.2307692307695,4367.6923076923085,4471.282051282052,4745.128205128206,4291.794871794872,4118.974358974359,4173.846153846154,4403.076923076924
288.279,0.71489596,0.3907225,0.33333334,0.5522388,0,0.0,0.0,0.0,0.0,0.0,0,0,0.0,0.0,0,0,83.0,0.0,522.0,4484.102564102564,3920.5128205128212,4486.153846153847,4433.846153846154,4271.794871794872,4568.717948717949,4437.948717948719,4374.871794871796,4459.48717948718,4748.717948717949,4300.000000000001,4117.948717948719,4160.000000000001,4401.025641025642
288.279,0.71489596,0.3907225,0.33333334,0.5522388,0,0.0,0.0,0.0,0.0,0.0,0,0,0.0,0.0,0,0,83.0,0.0,522.0,4484.102564102564,3920.5128205128212,4486.153846153847,4433.846153846154,4271.794871794872,4568.717948717949,4437.948717948719,4374.871794871796,4459.48717948718,4748.717948717949,4300.000000000001,4117.948717948719,4160.000000000001,4401.025641025642
288.77942,0.64320934,0.41195288,0.33333334,0.5522388,0,0.0,0.0,0.0,0.0,0.0,0,0,0.0,0.0,0,0,18.0,0.0,0.0,4522.564102564103,3922.0512820512827,4506.666666666667,4442.051282051282,4266.153846153847,4569.743589743591,4430.256410256411,4406.666666666667,4460.512820512821,4758.974358974359,4326.153846153847,4165.128205128206,4211.282051282052,4441.025641025642
288.77942,0.64320934,0.41195288,0.33333334,0.5522388,0,0.0,0.0,0.0,0.0,0.0,0,0,0.0,0.0,0,0,18.0,0.0,0.0,4522.564102564103,3922.0512820512827,4506.666666666667,4442.051282051282,4266.153846153847,4569.743589743591,4430.256410256411,4406.666666666667,4460.512820512821,4758.974358974359,4326.153846153847,4165.128205128206,4211.282051282052,4441.025641025642
289.27985,0.6505481,0.43063572,0.33333334,0.5522388,0,0.0,0.0,0.0,0.0,0.0,0,0,0.0,0.0,0,0,82.0,0.0,557.0,4590.769230769231,3924.1025641025644,4570.769230769231,4445.641025641026,4257.948717948719,4555.384615384616,4469.743589743591,4451.794871794872,4427.6923076923085,4752.307692307693,4325.641025641026,4235.8974358974365,4256.410256410257,4526.153846153847
289.27985,0.6505481,0.43063572,0.33333334,0.5522388,0,0.0,0.0,0.0,0.0,0.0,0,0,0.0,0.0,0,0,82.0,0.0,557.0,4590.769230769231,3924.1025641025644,4570.769230769231,4445.641025641026,4257.948717948719,4555.384615384616,4469.743589743591,4451.794871794872,4427.6923076923085,4752.307692307693,4325.641025641026,4235.8974358974365,4256.410256410257,4526.153846153847
289.78027,0.7269541,0.44938776,0.33333334,0.5522388,0,0.0,0.0,0.0,0.0,0.0,0,0,0.0,0.0,0,0,17.0,0.0,0.0,4678.974358974359,3944.615384615385,4605.128205128206,4446.153846153847,4230.769230769231,4535.384615384616,4482.564102564103,4468.205128205129,4355.384615384616,4722.564102564103,4336.410256410257,4317.948717948719,4246.666666666667,4558.461538461539
289.78027,0.7269541,0.44938776,0.33333334,0.5522388,0,0.0,0.0,0.0,0.0,0.0,0,0,0.0,0.0,0,0,17.0,0.0,0.0,4678.974358974359,3944.615384615385,4605.128205128206,4446.153846153847,4230.769230769231,4535.384615384616,4482.564102564103,4468.205128205129,4355.384615384616,4722.564102564103,4336.410256410257,4317.948717948719,4246.666666666667,4558.461538461539
290.2807,0.77010506,0.46609554,0.33333334,0.5522388,0,0.0,0.0,0.0,0.0,0.0,0,0,0.0,0.0,0,0,81.0,0.0,516.0,4620.000000000001,3921.0256410256416,4564.615384615385,4443.076923076924,4246.153846153847,4546.153846153847,4537.435897435898,4488.205128205129,4325.641025641026,4691.282051282052,4335.8974358974365,4282.564102564103,4171.282051282052,4492.820512820514
290.2807,0.77010506,0.46609554,0.33333334,0.5522388,0,0.0,0.0,0.0,0.0,0.0,0,0,0.0,0.0,0,0,81.0,0.0,516.0,4620.000000000001,3921.0256410256416,4564.615384615385,4443.076923076924,4246.153846153847,4546.153846153847,4537.435897435898,4488.205128205129,4325.641025641026,4691.282051282052,4335.8974358974365,4282.564102564103,4171.282051282052,4492.820512820514
290.78113,0.85400426,0.4756554,0.33333334,0.5522388,0,0.0,0.0,0.0,0.0,0.0,0,0,0.0,0.0,0,0,16.0,0.0,0.0,4604.615384615385,3925.6410256410263,4549.2307692307695,4442.051282051282,4248.717948717949,4543.589743589744,4510.769230769231,4479.48717948718,4315.8974358974365,4680.512820512821,4357.948717948719,4265.641025641026,4153.333333333334,4480.000000000001
290.78113,0.85400426,0.4756554,0.33333334,0.5522388,0,0.0,0.0,0.0,0.0,0.0,0,0,0.0,0.0,0,0,16.0,0.0,0.0,4604.615384615385,3925.6410256410263,4549.2307692307695,4442.051282051282,4248.717948717949,4543.589743589744,4510.769230769231,4479.48717948718,4315.8974358974365,4680.512820512821,4357.948717948719,4265.641025641026,4153.333333333334,4480.000000000001
291.2816,0.865006,0.48624712,0.33333334,0.5522388,0,0.0,0.0,0.0,0.0,0.0,0,0,0.0,0.0,0,0,80.0,0.0,151.0,4585.641025641026,3934.358974358975,4537.435897435898,4447.6923076923085,4257.435897435898,4554.871794871796,4469.2307692307695,4417.948717948719,4336.410256410257,4684.102564102564,4366.666666666667,4253.846153846154,4150.769230769231,4456.923076923077
291.2816,0.865006,0.48624712,0.33333334,0.5522388,0,0.0,0.0,0.0,0.0,0.0,0,0,0.0,0.0,0,0,80.0,0.0,151.0,4585.641025641026,3934.358974358975,4537.435897435898,4447.6923076923085,4257.435897435898,4554.871794871796,4469.2307692307695,4417.948717948719,4336.410256410257,4684.102564102564,4366.666666666667,4253.846153846154,4150.769230769231,4456.923076923077
291.782,0.7971023,0.481894,0.33333334,0.5522388,0,0.0,0.0,0.0,0.0,0.0,0,0,0.0,0.0,0,0,15.0,0.0,522.0,4618.461538461539,3912.307692307693,4565.641025641026,4441.025641025642,4235.8974358974365,4534.358974358975,4488.717948717949,4446.666666666667,4367.6923076923085,4698.461538461539,4385.128205128206,4277.948717948719,4211.794871794872,4503.076923076924
291.782,0.7971023,0.481894,0.33333334,0.5522388,0,0.0,0.0,0.0,0.0,0.0,0,0,0.0,0.0,0,0,15.0,0.0,522.0,4618.461538461539,3912.307692307693,4565.641025641026,4441.025641025642,4235.8974358974365,4534.358974358975,4488.717948717949,4446.666666666667,4367.6923076923085,4698.461538461539,4385.128205128206,4277.948717948719,4211.794871794872,4503.076923076924
292.28244,0.8693163,0.47679222,0.33333334,0.5522388,0,0.0,0.0,0.0,0.0,0.0,0,0,0.0,0.0,0,0,79.0,0.0,522.0,4694.871794871796,3923.589743589744,4601.025641025642,4441.538461538462,4219.48717948718,4524.102564102564,4540.512820512821,4522.051282051282,4392.307692307693,4718.461538461539,4408.205128205129,4348.717948717949,4270.256410256411,4584.102564102564
292.28244,0.8693163,0.47679222,0.33333334,0.5522388,0,0.0,0.0,0.0,0.0,0.0,0,0,0.0,0.0,0,0,79.0,0.0,522.0,4694.871794871796,3923.589743589744,4601.025641025642,4441.538461538462,4219.48717948718,4524.102564102564,4540.512820512821,4522.051282051282,4392.307692307693,4718.461538461539,4408.205128205129,4348.717948717949,4270.256410256411,4584.102564102564
292.78287,0.88498336,0.45520025,0.33333334,0.5522388,0,0.0,0.0,0.0,0.0,0.0,0,0,0.0,0.0,0,0,14.0,0.0,557.0,4704.102564102564,3942.0512820512827,4618.974358974359,4447.6923076923085,4222.564102564103,4523.076923076924,4547.179487179488,4518.974358974359,4392.307692307693,4729.743589743591,4413.333333333334,4391.282051282052,4292.820512820514,4614.358974358975
292.78287,0.88498336,0.45520025,0.33333334,0.5522388,0,0.0,0.0,0.0,0.0,0.0,0,0,0.0,0.0,0,0,14.0,0.0,557.0,4704.102564102564,3942.0512820512827,4618.974358974359,4447.6923076923085,4222.564102564103,4523.076923076924,4547.179487179488,4518.974358974359,4392.307692307693,4729.743589743591,4413.333333333334,4391.282051282052,4292.820512820514,4614.358974358975
293.2833,0.9196348,0.42546323,0.33333334,0.5522388,0,0.0,0.0,0.0,0.0,0.09739212,0,0,0.0,0.0,0,0,78.0,0.0,557.0,4662.564102564103,3956.410256410257,4572.820512820514,4460.000000000001,4249.2307692307695,4546.153846153847,4495.8974358974365,4486.666666666667,4412.307692307693,4732.820512820514,4414.358974358975,4349.2307692307695,4284.102564102564,4588.717948717949
293.37714,0.9196348,0.42546323,0.33333334,0.5522388,0,0.0,0.0,0.0,0.0,0.0,0,0,0.0,0.0,0,0,90.0,0.0,557.0,4646.666666666667,3951.7948717948725,4570.256410256411,4446.153846153847,4230.256410256411,4531.794871794872,4474.358974358975,4472.820512820514,4403.076923076924,4730.769230769231,4410.256410256411,4340.000000000001,4278.461538461539,4580.512820512821
293.78372,0.9127192,0.3997088,0.33333334,0.5522388,0,0.0,0.0,0.0,0.0,0.0,0,0,0.0,0.0,0,0,13.0,0.0,516.0,4577.435897435898,3948.205128205129,4514.358974358975,4445.641025641026,4251.282051282052,4551.282051282052,4474.358974358975,4475.384615384616,4420.000000000001,4729.2307692307695,4398.974358974359,4260.512820512821,4225.128205128206,4524.102564102564
293.78372,0.9127192,0.3997088,0.33333334,0.5522388,0,0.0,0.0,0.0,0.0,0.0,0,0,0.0,0.0,0,0,13.0,0.0,516.0,4577.435897435898,3948.205128205129,4514.358974358975,4445.641025641026,4251.282051282052,4551.282051282052,4474.358974358975,4475.384615384616,4420.000000000001,4729.2307692307695,4398.974358974359,4260.512820512821,4225.128205128206,4524.102564102564
294.28415,0.8916574,0.3722657,0.33333334,0.5522388,0,0.0,0.0,0.0,0.0,0.0,0,0,0.0,0.0,0,0,77.0,0.0,516.0,4533.333333333334,3932.820512820513,4476.410256410257,4430.769230769231,4251.794871794872,4546.153846153847,4414.358974358975,4398.461538461539,4397.948717948719,4718.461538461539,4365.641025641026,4192.820512820514,4173.846153846154,4469.2307692307695
294.28415,0.8916574,0.3722657,0.33333334,0.5522388,0,0.0,0.0,0.0,0.0,0.0,0,0,0.0,0.0,0,0,77.0,0.0,516.0,4533.333333333334,3932.820512820513,4476.410256410257,4430.769230769231,4251.794871794872,4546.153846153847,4414.358974358975,4398.461538461539,4397.948717948719,4718.461538461539,4365.641025641026,4192.820512820514,4173.846153846154,4469.2307692307695
294.78458,0.82733345,0.3502476,0.33333334,0.5522388,0,0.0,0.0,0.0,0.0,0.0,0,0,0.0,0.0,0,0,12.0,0.0,146.0,4552.307692307693,3945.6410256410263,4475.8974358974365,4442.051282051282,4262.051282051282,4563.589743589744,4417.435897435898,4383.076923076924,4420.000000000001,4727.179487179488,4364.102564102564,4185.128205128206,4169.74358974359,4474.871794871796
294.78458,0.82733345,0.3502476,0.33333334,0.5522388,0,0.0,0.0,0.0,0.0,0.0,0,0,0.0,0.0,0,0,12.0,0.0,146.0,4552.307692307693,3945.6410256410263,4475.8974358974365,4442.051282051282,4262.051282051282,4563.589743589744,4417.435897435898,4383.076923076924,4420.000000000001,4727.179487179488,4364.102564102564,4185.128205128206,4169.74358974359,4474.871794871796
295.285,0.9064295,0.33473435,0.33333334,0.5522388,0,0.0,0.0,0.0,0.0,0.0,0,0,0.0,0.0,0,0,76.0,0.0,146.0,4513.846153846154,3933.8461538461543,4464.102564102564,4429.2307692307695,4263.076923076924,4563.589743589744,4393.846153846154,4355.384615384616,4405.128205128206,4718.974358974359,4346.153846153847,4142.564102564103,4140.512820512821,4436.410256410257
295.285,0.9064295,0.33473435,0.33333334,0.5522388,0,0.0,0.0,0.0,0.0,0.0,0,0,0.0,0.0,0,0,76.0,0.0,146.0,4513.846153846154,3933.8461538461543,4464.102564102564,4429.2307692307695,4263.076923076924,4563.589743589744,4393.846153846154,4355.384615384616,4405.128205128206,4718.974358974359,4346.153846153847,4142.564102564103,4140.512820512821,4436.410256410257
295.78543,0.84292,0.31656355,0.33333334,0.5522388,0,0.0,0.0,0.0,0.0,0.0,0,0,0.0,0.0,0,0,11.0,0.0,522.0,4523.076923076924,3929.2307692307695,4457.948717948719,4428.717948717949,4256.410256410257,4561.025641025642,4382.051282051282,4366.666666666667,4436.410256410257,4732.820512820514,4333.333333333334,4139.48717948718,4126.666666666667,4426.666666666667
295.78543,0.84292,0.31656355,0.33333334,0.5522388,0,0.0,0.0,0.0,0.0,0.0,0,0,0.0,0.0,0,0,11.0,0.0,522.0,4523.076923076924,3929.2307692307695,4457.948717948719,4428.717948717949,4256.410256410257,4561.025641025642,4382.051282051282,4366.666666666667,4436.410256410257,4732.820512820514,4333.333333333334,4139.48717948718,4126.666666666667,4426.666666666667
296.28586,0.8851769,0.29196063,0.33333334,0.5522388,0,0.0,0.0,0.0,0.0,0.0,0,0,0.0,0.0,0,0,75.0,0.0,522.0,4511.282051282052,3928.205128205129,4459.48717948718,4429.2307692307695,4264.102564102564,4568.205128205129,4387.6923076923085,4355.8974358974365,4418.974358974359,4730.769230769231,4336.923076923077,4132.820512820514,4124.615384615385,4412.820512820514
296.28586,0.8851769,0.29196063,0.33333334,0.5522388,0,0.0,0.0,0.0,0.0,0.0,0,0,0.0,0.0,0,0,75.0,0.0,522.0,4511.282051282052,3928.205128205129,4459.48717948718,4429.2307692307695,4264.102564102564,4568.205128205129,4387.6923076923085,4355.8974358974365,4418.974358974359,4730.769230769231,4336.923076923077,4132.820512820514,4124.615384615385,4412.820512820514
296.78632,0.9255533,0.2683482,0.33333334,0.5522388,0,0.0,0.0,0.0,0.0,0.0,0,0,0.0,0.0,0,0,10.0,0.0,557.0,4515.384615384616,3944.1025641025644,4475.384615384616,4430.769230769231,4257.435897435898,4562.051282051282,4344.102564102564,4314.358974358975,4413.333333333334,4734.358974358975,4347.6923076923085,4126.153846153847,4133.846153846154,4429.2307692307695
296.78632,0.9255533,0.2683482,0.33333334,0.5522388,0,0.0,0.0,0.0,0.0,0.0,0,0,0.0,0.0,0,0,10.0,0.0,557.0,4515.384615384616,3944.1025641025644,4475.384615384616,4430.769230769231,4257.435897435898,4562.051282051282,4344.102564102564,4314.358974358975,4413.333333333334,4734.358974358975,4347.6923076923085,4126.153846153847,4133.846153846154,4429.2307692307695
297.28674,0.9056786,0.25552028,0.33333334,0.5522388,0,0.0,0.0,0.0,0.0,0.0,0,0,0.0,0.0,0,0,74.0,0.0,557.0,4540.512820512821,3937.435897435898,4473.846153846154,4433.846153846154,4265.128205128206,4570.769230769231,4400.000000000001,4380.512820512821,4451.794871794872,4757.948717948719,4353.333333333334,4142.051282051282,4140.000000000001,4437.948717948719
297.28674,0.9056786,0.25552028,0.33333334,0.5522388,0,0.0,0.0,0.0,0.0,0.0,0,0,0.0,0.0,0,0,74.0,0.0,557.0,4540.512820512821,3937.435897435898,4473.846153846154,4433.846153846154,4265.128205128206,4570.769230769231,4400.000000000001,4380.512820512821,4451.794871794872,4757.948717948719,4353.333333333334,4142.051282051282,4140.000000000001,4437.948717948719
297.78717,0.8234209,0.25391415,0.33333334,0.5522388,0,0.0,0.0,0.0,0.0,0.0,0,0,0.0,0.0,0,0,9.0,0.0,248.0,4542.051282051282,3929.7435897435903,4475.8974358974365,4428.717948717949,4260.000000000001,4564.615384615385,4424.615384615385,4380.000000000001,4435.8974358974365,4760.000000000001,4360.512820512821,4143.076923076924,4142.051282051282,4446.666666666667
297.78717,0.8234209,0.25391415,0.33333334,0.5522388,0,0.0,0.0,0.0,0.0,0.0,0,0,0.0,0.0,0,0,9.0,0.0,248.0,4542.051282051282,3929.7435897435903,4475.8974358974365,4428.717948717949,4260.000000000001,4564.615384615385,4424.615384615385,4380.000000000001,4435.8974358974365,4760.000000000001,4360.512820512821,4143.076923076924,4142.051282051282,4446.666666666667
298.2876,0.74999946,0.25701228,0.33333334,0.5522388,0,0.0,0.0,0.0,0.0,0.0,0,0,0.0,0.0,0,0,73.0,0.0,248.0,4540.512820512821,3934.358974358975,4494.871794871796,4431.282051282052,4254.358974358975,4558.461538461539,4452.820512820514,4427.6923076923085,4443.076923076924,4778.461538461539,4377.435897435898,4176.923076923077,4165.641025641026,4466.153846153847
298.2876,0.74999946,0.25701228,0.33333334,0.5522388,0,0.0,0.0,0.0,0.0,0.0,0,0,0.0,0.0,0,0,73.0,0.0,248.0,4540.512820512821,3934.358974358975,4494.871794871796,4431.282051282052,4254.358974358975,4558.461538461539,4452.820512820514,4427.6923076923085,4443.076923076924,4778.461538461539,4377.435897435898,4176.923076923077,4165.641025641026,4466.153846153847
298.78802,0.664118,0.28016648,0.33333334,0.5522388,0,0.0,0.0,0.0,0.0,0.0,0,0,0.0,0.0,0,0,8.0,0.0,506.0,4577.948717948719,3931.2820512820517,4484.615384615385,4428.205128205129,4249.74358974359,4555.384615384616,4410.256410256411,4372.820512820514,4428.717948717949,4766.666666666667,4369.2307692307695,4169.74358974359,4166.153846153847,4438.974358974359
298.78802,0.664118,0.28016648,0.33333334,0.5522388,0,0.0,0.0,0.0,0.0,0.0,0,0,0.0,0.0,0,0,8.0,0.0,506.0,4577.948717948719,3931.2820512820517,4484.615384615385,4428.205128205129,4249.74358974359,4555.384615384616,4410.256410256411,4372.820512820514,4428.717948717949,4766.666666666667,4369.2307692307695,4169.74358974359,4166.153846153847,4438.974358974359
299.28845,0.6567032,0.29406175,0.33333334,0.5522388,0,0.0,0.0,0.0,0.0,0.0,0,0,0.0,0.0,0,0,72.0,0.0,506.0,4586.666666666667,3930.7692307692314,4497.435897435898,4428.717948717949,4251.794871794872,4554.871794871796,4424.102564102564,4387.6923076923085,4430.256410256411,4777.435897435898,4380.512820512821,4174.871794871796,4170.769230769231,4448.205128205129
299.28845,0.6567032,0.29406175,0.33333334,0.5522388,0,0.0,0.0,0.0,0.0,0.0,0,0,0.0,0.0,0,0,72.0,0.0,506.0,4586.666666666667,3930.7692307692314,4497.435897435898,4428.717948717949,4251.794871794872,4554.871794871796,4424.102564102564,4387.6923076923085,4430.256410256411,4777.435897435898,4380.512820512821,4174.871794871796,4170.769230769231,4448.205128205129
299.78888,0.63864744,0.30716014,0.33333334,0.5522388,0,0.0,0.0,0.0,0.0,0.0,0,0,0.0,0.0,0,0,7.0,0.0,496.0,4598.461538461539,3930.2564102564106,4496.410256410257,4428.717948717949,4250.256410256411,4553.846153846154,4413.333333333334,4388.205128205129,4409.743589743591,4767.179487179488,4378.974358974359,4174.871794871796,4181.538461538462,4470.256410256411
299.78888,0.63864744,0.30716014,0.33333334,0.5522388,0,0.0,0.0,0.0,0.0,0.0,0,0,0.0,0.0,0,0,7.0,0.0,496.0,4598.461538461539,3930.2564102564106,4496.410256410257,4428.717948717949,4250.256410256411,4553.846153846154,4413.333333333334,4388.205128205129,4409.743589743591,4767.179487179488,4378.974358974359,4174.871794871796,4181.538461538462,4470.256410256411
300.2893,0.64921874,0.30477613,0.33333334,0.5522388,0,0.0,0.0,0.0,0.0,0.0,0,0,0.0,0.0,0,0,71.0,0.0,496.0,4642.051282051282,3926.666666666667,4528.717948717949,4425.128205128206,4242.051282051282,4544.102564102564,4450.769230769231,4420.512820512821,4402.051282051282,4773.846153846154,4380.512820512821,4210.256410256411,4211.282051282052,4500.000000000001
300.2893,0.64921874,0.30477613,0.33333334,0.5522388,0,0.0,0.0,0.0,0.0,0.0,0,0,0.0,0.0,0,0,71.0,0.0,496.0,4642.051282051282,3926.666666666667,4528.717948717949,4425.128205128206,4242.051282051282,4544.102564102564,4450.769230769231,4420.512820512821,4402.051282051282,4773.846153846154,4380.512820512821,4210.256410256411,4211.282051282052,4500.000000000001
300.78973,0.67656624,0.28795806,0.33333334,0.5522388,0,0.0,0.0,0.0,0.0,0.0,0,0,0.0,0.0,0,0,6.0,0.0,588.0,4682.564102564103,3940.5128205128212,4561.538461538462,4437.435897435898,4236.923076923077,4543.076923076924,4455.8974358974365,4449.2307692307695,4395.384615384616,4769.743589743591,4372.307692307693,4238.461538461539,4200.000000000001,4529.743589743591
300.78973,0.67656624,0.28795806,0.33333334,0.5522388,0,0.0,0.0,0.0,0.0,0.0,0,0,0.0,0.0,0,0,6.0,0.0,588.0,4682.564102564103,3940.5128205128212,4561.538461538462,4437.435897435898,4236.923076923077,4543.076923076924,4455.8974358974365,4449.2307692307695,4395.384615384616,4769.743589743591,4372.307692307693,4238.461538461539,4200.000000000001,4529.743589743591
301.29016,0.66832536,0.26706493,0.33333334,0.5522388,0,0.0,0.0,0.0,0.0,0.0,0,0,0.0,0.0,0,0,70.0,0.0,588.0,4636.923076923077,3937.435897435898,4544.615384615385,4440.000000000001,4243.076923076924,4545.128205128206,4469.743589743591,4416.410256410257,4348.717948717949,4743.076923076924,4369.2307692307695,4227.6923076923085,4169.74358974359,4515.384615384616
301.29016,0.66832536,0.26706493,0.33333334,0.5522388,0,0.0,0.0,0.0,0.0,0.0,0,0,0.0,0.0,0,0,70.0,0.0,588.0,4636.923076923077,3937.435897435898,4544.615384615385,4440.000000000001,4243.076923076924,4545.128205128206,4469.743589743591,4416.410256410257,4348.717948717949,4743.076923076924,4369.2307692307695,4227.6923076923085,4169.74358974359,4515.384615384616
301.7906,0.6548409,0.25178286,0.33333334,0.5522388,0,0.0,0.0,0.0,0.0,0.0,0,0,0.0,0.0,0,0,5.0,0.0,572.0,4657.435897435898,3927.1794871794878,4582.564102564103,4428.717948717949,4243.589743589744,4546.153846153847,4532.307692307693,4510.769230769231,4374.358974358975,4757.948717948719,4372.307692307693,4262.564102564103,4223.589743589744,4556.410256410257
301.7906,0.6548409,0.25178286,0.33333334,0.5522388,0,0.0,0.0,0.0,0.0,0.0,0,0,0.0,0.0,0,0,5.0,0.0,572.0,4657.435897435898,3927.1794871794878,4582.564102564103,4428.717948717949,4243.589743589744,4546.153846153847,4532.307692307693,4510.769230769231,4374.358974358975,4757.948717948719,4372.307692307693,4262.564102564103,4223.589743589744,4556.410256410257
302.29105,0.78626,0.24579078,0.33333334,0.5522388,0,0.0,0.0,0.0,0.0,0.0,0,0,0.0,0.0,0,0,69.0,0.0,572.0,4845.641025641026,3949.2307692307695,4725.641025641026,4445.128205128206,4214.358974358975,4513.333333333334,4617.948717948719,4619.48717948718,4270.769230769231,4735.8974358974365,4401.538461538462,4451.282051282052,4336.410256410257,4715.8974358974365
302.29105,0.78626,0.24579078,0.33333334,0.5522388,0,0.0,0.0,0.0,0.0,0.0,0,0,0.0,0.0,0,0,69.0,0.0,572.0,4845.641025641026,3949.2307692307695,4725.641025641026,4445.128205128206,4214.358974358975,4513.333333333334,4617.948717948719,4619.48717948718,4270.769230769231,4735.8974358974365,4401.538461538462,4451.282051282052,4336.410256410257,4715.8974358974365
302.79147,0.9019088,0.23999307,0.33333334,0.5522388,0,0.0,0.0,0.0,0.0,0.0,0,0,0.0,0.0,0,0,4.0,0.0,574.0,4887.6923076923085,3952.820512820513,4721.025641025642,4461.538461538462,4206.666666666667,4500.000000000001,4634.871794871796,4656.410256410257,4230.256410256411,4696.410256410257,4424.615384615385,4563.076923076924,4294.871794871796,4756.923076923077
302.79147,0.9019088,0.23999307,0.33333334,0.5522388,0,0.0,0.0,0.0,0.0,0.0,0,0,0.0,0.0,0,0,4.0,0.0,574.0,4887.6923076923085,3952.820512820513,4721.025641025642,4461.538461538462,4206.666666666667,4500.000000000001,4634.871794871796,4656.410256410257,4230.256410256411,4696.410256410257,4424.615384615385,4563.076923076924,4294.871794871796,4756.923076923077
303.2919,1.0,0.23477511,0.33333334,0.5522388,0,0.0,0.0,0.0,0.0,0.0,0,0,0.0,0.0,0,0,68.0,0.0,574.0,4851.794871794872,3946.666666666667,4674.871794871796,4461.025641025642,4188.205128205129,4485.128205128206,4580.000000000001,4595.8974358974365,4200.512820512821,4636.923076923077,4434.871794871796,4577.435897435898,4197.435897435898,4688.717948717949
303.2919,1.0,0.23477511,0.33333334,0.5522388,0,0.0,0.0,0.0,0.0,0.0,0,0,0.0,0.0,0,0,68.0,0.0,574.0,4851.794871794872,3946.666666666667,4674.871794871796,4461.025641025642,4188.205128205129,4485.128205128206,4580.000000000001,4595.8974358974365,4200.512820512821,4636.923076923077,4434.871794871796,4577.435897435898,4197.435897435898,4688.717948717949
303.79233,1.0,0.23007895,0.33333334,0.5522388,0,0.0,0.0,0.0,0.0,0.0,0,0,0.0,0.0,0,0,3.0,0.0,547.0,4889.2307692307695,3915.3846153846157,4676.410256410257,4461.025641025642,4185.641025641026,4477.948717948719,4562.564102564103,4585.128205128206,4194.358974358975,4589.2307692307695,4427.6923076923085,4638.974358974359,4144.615384615385,4689.743589743591
303.79233,1.0,0.23007895,0.33333334,0.5522388,0,0.0,0.0,0.0,0.0,0.0,0,0,0.0,0.0,0,0,3.0,0.0,547.0,4889.2307692307695,3915.3846153846157,4676.410256410257,4461.025641025642,4185.641025641026,4477.948717948719,4562.564102564103,4585.128205128206,4194.358974358975,4589.2307692307695,4427.6923076923085,4638.974358974359,4144.615384615385,4689.743589743591
304.29276,1.0,0.22585241,0.33333334,0.5522388,0,0.0,0.0,0.0,0.0,0.0,0,0,0.0,0.0,0,0,67.0,0.0,547.0,4814.358974358975,3928.205128205129,4572.820512820514,4471.282051282052,4202.564102564103,4493.846153846154,4479.48717948718,4428.717948717949,4236.410256410257,4524.102564102564,4372.307692307693,4562.564102564103,4003.589743589744,4568.205128205129
304.29276,1.0,0.22585241,0.33333334,0.5522388,0,0.0,0.0,0.0,0.0,0.0,0,0,0.0,0.0,0,0,67.0,0.0,547.0,4814.358974358975,3928.205128205129,4572.820512820514,4471.282051282052,4202.564102564103,4493.846153846154,4479.48717948718,4428.717948717949,4236.410256410257,4524.102564102564,4372.307692307693,4562.564102564103,4003.589743589744,4568.205128205129
304.79318,1.0,0.22204852,0.33333334,0.5522388,0,0.0,0.0,0.0,0.0,0.0,0,0,0.0,0.0,0,0,2.0,0.0,515.0,4712.820512820514,3915.8974358974365,4473.333333333334,4471.794871794872,4217.948717948719,4508.205128205129,4439.48717948718,4367.6923076923085,4209.74358974359,4447.6923076923085,4281.538461538462,4429.743589743591,3855.8974358974365,4432.307692307693
304.79318,1.0,0.22204852,0.33333334,0.5522388,0,0.0,0.0,0.0,0.0,0.0,0,0,0.0,0.0,0,0,2.0,0.0,515.0,4712.820512820514,3915.8974358974365,4473.333333333334,4471.794871794872,4217.948717948719,4508.205128205129,4439.48717948718,4367.6923076923085,4209.74358974359,4447.6923076923085,4281.538461538462,4429.743589743591,3855.8974358974365,4432.307692307693
305.2936,0.9770803,0.22272873,0.33333334,0.5522388,0,0.0,0.0,0.0,0.0,0.0,0,0,0.0,0.0,0,0,66.0,0.0,515.0,4646.153846153847,3930.2564102564106,4453.846153846154,4462.051282051282,4226.666666666667,4518.461538461539,4393.333333333334,4308.717948717949,4214.358974358975,4419.48717948718,4205.641025641026,4336.410256410257,3830.2564102564106,4358.974358974359
305.2936,0.9770803,0.22272873,0.33333334,0.5522388,0,0.0,0.0,0.0,0.0,0.0,0,0,0.0,0.0,0,0,66.0,0.0,515.0,4646.153846153847,3930.2564102564106,4453.846153846154,4462.051282051282,4226.666666666667,4518.461538461539,4393.333333333334,4308.717948717949,4214.358974358975,4419.48717948718,4205.641025641026,4336.410256410257,3830.2564102564106,4358.974358974359
305.79404,1.0,0.22285716,0.33333334,0.5522388,0,0.0,0.0,0.0,0.0,0.0,0,0,0.0,0.0,0,0,1.0,0.0,464.0,4575.384615384616,3927.692307692308,4418.974358974359,4457.435897435898,4233.333333333334,4527.6923076923085,4369.743589743591,4270.256410256411,4223.589743589744,4425.641025641026,4166.666666666667,4275.8974358974365,3880.0000000000005,4357.948717948719
305.79404,1.0,0.22285716,0.33333334,0.5522388,0,0.0,0.0,0.0,0.0,0.0,0,0,0.0,0.0,0,0,1.0,0.0,464.0,4575.384615384616,3927.692307692308,4418.974358974359,4457.435897435898,4233.333333333334,4527.6923076923085,4369.743589743591,4270.256410256411,4223.589743589744,4425.641025641026,4166.666666666667,4275.8974358974365,3880.0000000000005,4357.948717948719
306.29446,1.0,0.22297275,0.33333334,0.5522388,0,0.0,0.0,0.0,0.0,0.0,0,0,0.0,0.0,0,0,65.0,0.0,464.0,4549.2307692307695,3927.692307692308,4397.435897435898,4446.153846153847,4241.025641025642,4539.48717948718,4354.871794871796,4248.205128205129,4252.820512820514,4446.666666666667,4139.48717948718,4202.051282051282,3940.5128205128212,4342.051282051282
306.29446,1.0,0.22297275,0.33333334,0.5522388,0,0.0,0.0,0.0,0.0,0.0,0,0,0.0,0.0,0,0,65.0,0.0,464.0,4549.2307692307695,3927.692307692308,4397.435897435898,4446.153846153847,4241.025641025642,4539.48717948718,4354.871794871796,4248.205128205129,4252.820512820514,4446.666666666667,4139.48717948718,4202.051282051282,3940.5128205128212,4342.051282051282
306.7949,1.0,0.22307678,0.33333334,0.5522388,0,0.0,0.0,0.0,0.0,0.0,0,0,0.0,0.0,0,0,0.0,0.0,510.0,4528.717948717949,3921.0256410256416,4410.256410256411,4442.051282051282,4252.820512820514,4555.8974358974365,4389.2307692307695,4302.051282051282,4291.282051282052,4484.615384615385,4118.974358974359,4189.2307692307695,3980.0000000000005,4328.205128205129
306.7949,1.0,0.22307678,0.33333334,0.5522388,0,0.0,0.0,0.0,0.0,0.0,0,0,0.0,0.0,0,0,0.0,0.0,510.0,4528.717948717949,3921.0256410256416,4410.256410256411,4442.051282051282,4252.820512820514,4555.8974358974365,4389.2307692307695,4302.051282051282,4291.282051282052,4484.615384615385,4118.974358974359,4189.2307692307695,3980.0000000000005,4328.205128205129
307.29532,1.0,0.2231704,0.33333334,0.5522388,0,0.0,0.0,0.0,0.0,0.0,0,0,0.0,0.0,0,0,64.0,0.0,510.0,4522.051282051282,3918.461538461539,4422.051282051282,4443.076923076924,4251.794871794872,4546.666666666667,4388.717948717949,4301.025641025642,4296.410256410257,4507.6923076923085,4113.333333333334,4171.282051282052,4007.1794871794878,4353.333333333334
307.5768,1.0,0.2231704,0.33333334,0.5522388,0,0.0,0.0,0.0,0.0,0.0,0,0,0.0,0.0,0,0,100.0,0.0,145.0,4524.102564102564,3928.205128205129,4445.641025641026,4439.48717948718,4247.6923076923085,4544.615384615385,4380.000000000001,4271.282051282052,4283.076923076924,4505.641025641026,4106.666666666667,4178.461538461539,4026.666666666667,4334.358974358975
307.79578,1.0,0.22325467,0.33333334,0.5522388,0,0.0,0.0,0.0,0.0,0.0,0,0,0.0,0.0,0,0,128.0,0.0,145.0,4477.435897435898,3917.9487179487182,4421.025641025642,4443.589743589744,4264.102564102564,4563.076923076924,4395.384615384616,4288.205128205129,4306.666666666667,4513.333333333334,4089.7435897435903,4136.923076923077,4023.076923076924,4147.179487179487
307.79578,1.0,0.22325467,0.33333334,0.5522388,0,0.0,0.0,0.0,0.0,0.0,0,0,0.0,0.0,0,0,128.0,0.0,145.0,4477.435897435898,3917.9487179487182,4421.025641025642,4443.589743589744,4264.102564102564,4563.076923076924,4395.384615384616,4288.205128205129,4306.666666666667,4513.333333333334,4089.7435897435903,4136.923076923077,4023.076923076924,4147.179487179487
308.2962,1.0,0.22979285,0.33333334,0.5522388,0,0.0,0.0,0.0,0.0,0.0,0,0,0.0,0.0,0,0,63.0,0.0,0.0,4493.846153846154,3949.7435897435903,4461.025641025642,4454.871794871796,4282.051282051282,4577.435897435898,4398.461538461539,4344.102564102564,4384.102564102564,4580.000000000001,4116.923076923077,4168.717948717949,4110.769230769231,4185.641025641026
308.2962,1.0,0.22979285,0.33333334,0.5522388,0,0.0,0.0,0.0,0.0,0.0,0,0,0.0,0.0,0,0,63.0,0.0,0.0,4493.846153846154,3949.7435897435903,4461.025641025642,4454.871794871796,4282.051282051282,4577.435897435898,4398.461538461539,4344.102564102564,4384.102564102564,4580.000000000001,4116.923076923077,4168.717948717949,4110.769230769231,4185.641025641026
308.79663,1.0,0.23254022,0.33333334,0.5522388,0,0.0,0.0,0.0,0.0,0.0,0,0,0.0,0.0,0,0,127.0,0.0,524.0,4463.589743589744,3903.589743589744,4443.589743589744,4416.923076923077,4255.384615384616,4559.48717948718,4426.153846153847,4372.307692307693,4374.871794871796,4604.615384615385,4130.256410256411,4143.076923076924,4155.8974358974365,4378.461538461539
308.79663,1.0,0.23254022,0.33333334,0.5522388,0,0.0,0.0,0.0,0.0,0.0,0,0,0.0,0.0,0,0,127.0,0.0,524.0,4463.589743589744,3903.589743589744,4443.589743589744,4416.923076923077,4255.384615384616,4559.48717948718,4426.153846153847,4372.307692307693,4374.871794871796,4604.615384615385,4130.256410256411,4143.076923076924,4155.8974358974365,4378.461538461539
309.29706,1.0,0.22634327,0.33333334,0.5522388,0,0.0,0.0,0.0,0.0,0.0,0,0,0.0,0.0,0,0,62.0,0.0,0.0,4555.8974358974365,3926.666666666667,4517.435897435898,4430.769230769231,4240.000000000001,4541.025641025642,4453.333333333334,4428.717948717949,4387.6923076923085,4632.820512820514,4171.794871794872,4215.384615384616,4226.153846153847,4504.615384615385
309.516,1.0,0.22634327,0.33333334,0.5522388,0,0.0,0.0,0.0,0.0,0.29791072,0,0,0.0,0.0,0,0,90.0,0.0,555.0,4557.435897435898,3931.7948717948725,4522.564102564103,4439.48717948718,4246.666666666667,4542.564102564103,4457.948717948719,4450.769230769231,4391.794871794872,4640.512820512821,4179.48717948718,4194.871794871796,4220.000000000001,4493.846153846154
309.7975,0.9737585,0.21518125,0.33333334,0.5522388,0,0.0,0.0,0.0,0.0,0.0,0,0,0.0,0.0,0,0,126.0,0.0,555.0,4580.000000000001,3961.0256410256416,4537.435897435898,4455.8974358974365,4247.6923076923085,4545.128205128206,4474.358974358975,4466.153846153847,4381.025641025642,4642.051282051282,4186.153846153847,4223.076923076924,4200.000000000001,4500.000000000001
309.7975,0.9737585,0.21518125,0.33333334,0.5522388,0,0.0,0.0,0.0,0.0,0.0,0,0,0.0,0.0,0,0,126.0,0.0,555.0,4580.000000000001,3961.0256410256416,4537.435897435898,4455.8974358974365,4247.6923076923085,4545.128205128206,4474.358974358975,4466.153846153847,4381.025641025642,4642.051282051282,4186.153846153847,4223.076923076924,4200.000000000001,4500.000000000001
310.2979,1.0,0.20276803,0.33333334,0.5522388,0,0.0,0.0,0.0,0.0,1.0,0,0,0.0,0.0,0,0,61.0,0.0,0.0,4454.358974358975,3930.2564102564106,4493.846153846154,4444.102564102564,4251.794871794872,4549.743589743591,4449.743589743591,4437.948717948719,4390.769230769231,4641.538461538462,4203.076923076924,4177.435897435898,4181.025641025642,4408.717948717949
310.51685,1.0,0.20276803,0.33333334,0.5522388,0,0.0,0.0,0.0,0.0,0.20779315,0,0,0.0,0.0,0,0,89.0,0.0,516.0,4468.205128205129,3943.589743589744,4491.282051282052,4445.128205128206,4245.128205128206,4545.641025641026,4412.820512820514,4388.717948717949,4368.717948717949,4632.307692307693,4192.820512820514,4158.461538461539,4174.871794871796,4406.666666666667
310.79834,0.9481261,0.1917394,0.33333334,0.5522388,0,0.0,0.0,0.0,0.0,0.041400652,0,0,0.0,0.0,0,0,125.0,0.0,516.0,4463.589743589744,3934.8717948717954,4473.333333333334,4439.48717948718,4238.974358974359,4543.076923076924,4390.256410256411,4373.333333333334,4367.179487179487,4637.948717948719,4205.128205128206,4138.974358974359,4190.769230769231,4404.102564102564
310.89218,0.9481261,0.1917394,0.33333334,0.5522388,0,0.0,0.0,0.0,0.0,0.0,0,0,0.0,0.0,0,0,8.0,0.0,508.0,4483.589743589744,3934.8717948717954,4479.48717948718,4439.48717948718,4242.051282051282,4543.589743589744,4397.948717948719,4381.538461538462,4375.8974358974365,4647.179487179488,4209.74358974359,4149.2307692307695,4197.435897435898,4410.769230769231
311.29877,0.910959,0.1748563,0.33333334,0.5522388,0,0.0,0.0,0.0,0.0,0.0,0,0,0.0,0.0,0,0,60.0,0.0,0.0,4509.743589743591,3947.692307692308,4487.6923076923085,4444.615384615385,4256.410256410257,4555.8974358974365,4393.846153846154,4373.846153846154,4397.435897435898,4675.8974358974365,4235.8974358974365,4144.615384615385,4225.641025641026,4409.2307692307695
311.29877,0.910959,0.1748563,0.33333334,0.5522388,0,0.0,0.0,0.0,0.0,0.0,0,0,0.0,0.0,0,0,60.0,0.0,0.0,4509.743589743591,3947.692307692308,4487.6923076923085,4444.615384615385,4256.410256410257,4555.8974358974365,4393.846153846154,4373.846153846154,4397.435897435898,4675.8974358974365,4235.8974358974365,4144.615384615385,4225.641025641026,4409.2307692307695
311.83047,0.85607123,0.15564778,0.33333334,0.5522388,1,0.0,0.0,0.0,0.0,0.0,0,0,0.0,0.0,0,0,128.0,0.0,146.0,4527.179487179488,3949.7435897435903,4468.205128205129,4441.025641025642,4247.6923076923085,4553.846153846154,4368.717948717949,4345.128205128206,4384.102564102564,4683.589743589744,4242.051282051282,4114.871794871796,4226.666666666667,4442.051282051282
311.98688,0.85607123,0.15564778,0.33333334,0.5522388,0,0.0,0.0,0.0,0.0,0.0,0,0,0.0,0.0,0,0,19.0,0.0,0.0,4482.051282051282,3953.8461538461543,4475.384615384616,4447.179487179487,4265.641025641026,4564.615384615385,4382.564102564103,4374.871794871796,4424.615384615385,4704.102564102564,4255.8974358974365,4120.000000000001,4232.820512820514,4384.615384615385
312.29962,0.7849947,0.14357446,0.33333334,0.5522388,0,0.0,0.0,0.0,0.0,0.6438628,0,0,0.0,0.0,0,0,59.0,0.0,0.0,4438.974358974359,3929.7435897435903,4440.512820512821,4430.256410256411,4252.307692307693,4555.384615384616,4377.435897435898,4351.282051282052,4414.871794871796,4709.2307692307695,4253.333333333334,4096.923076923077,4222.051282051282,4383.076923076924
312.39346,0.7849947,0.14357446,0.33333334,0.5522388,0,0.0,0.0,0.0,0.0,0.0,0,0,0.0,0.0,0,0,71.0,0.0,498.0,4451.282051282052,3932.307692307693,4453.846153846154,4429.743589743591,4250.769230769231,4552.307692307693,4376.923076923077,4354.358974358975,4413.846153846154,4716.410256410257,4256.923076923077,4102.564102564103,4229.2307692307695,4380.000000000001
312.83133,0.7209544,0.13535966,0.33333334,0.5522388,1,0.0,0.0,0.0,0.0,0.0,0,0,0.0,0.0,0,0,127.0,0.0,524.0,4523.076923076924,3949.2307692307695,4483.589743589744,4435.384615384616,4254.871794871796,4553.333333333334,4373.846153846154,4350.256410256411,4427.6923076923085,4740.000000000001,4289.2307692307695,4127.6923076923085,4253.333333333334,4449.2307692307695
312.98773,0.7209544,0.13535966,0.33333334,0.5522388,0,0.0,0.0,0.0,0.0,0.0,0,0,0.0,0.0,0,0,18.0,0.0,0.0,4474.871794871796,3934.8717948717954,4473.333333333334,4434.358974358975,4266.666666666667,4566.666666666667,4392.307692307693,4373.333333333334,4439.48717948718,4744.615384615386,4284.615384615385,4113.333333333334,4229.2307692307695,4394.871794871796
313.3005,0.6583019,0.14208102,0.33333334,0.5522388,0,0.0,0.0,0.0,0.0,1.0,0,0,0.0,0.0,0,0,58.0,0.0,0.0,4486.666666666667,3938.461538461539,4474.871794871796,4442.051282051282,4272.307692307693,4571.794871794872,4403.076923076924,4389.743589743591,4466.666666666667,4766.666666666667,4296.923076923077,4125.128205128206,4243.589743589744,4349.743589743591
313.3005,0.6583019,0.14208102,0.33333334,0.5522388,0,0.0,0.0,0.0,0.0,1.0,0,0,0.0,0.0,0,0,58.0,0.0,0.0,4486.666666666667,3938.461538461539,4474.871794871796,4442.051282051282,4272.307692307693,4571.794871794872,4403.076923076924,4389.743589743591,4466.666666666667,4766.666666666667,4296.923076923077,4125.128205128206,4243.589743589744,4349.743589743591
313.80093,0.6118509,0.15888596,0.33333334,0.5522388,0,0.0,0.0,0.0,0.0,0.72059244,0,0,0.0,0.0,0,0,122.0,0.0,555.0,4517.948717948719,3927.692307692308,4474.358974358975,4429.2307692307695,4257.435897435898,4557.435897435898,4408.717948717949,4404.102564102564,4473.333333333334,4787.6923076923085,4316.410256410257,4156.923076923077,4258.461538461539,4396.923076923077
314.01987,0.6118509,0.15888596,0.33333334,0.5522388,0,0.0,0.0,0.0,0.0,0.0,0,0,0.0,0.0,0,0,21.0,0.0,0.0,4525.641025641026,3927.692307692308,4493.333333333334,4429.743589743591,4257.948717948719,4560.000000000001,4424.102564102564,4422.564102564103,4480.512820512821,4801.025641025642,4328.205128205129,4168.205128205129,4275.8974358974365,4412.820512820514
314.30136,0.6001935,0.15389264,0.33333334,0.5522388,0,0.0,0.0,0.0,0.0,0.0,0,0,0.0,0.0,0,0,57.0,0.0,0.0,4553.333333333334,3941.0256410256416,4489.2307692307695,4434.358974358975,4264.615384615385,4563.076923076924,4409.743589743591,4406.666666666667,4483.076923076924,4802.564102564103,4331.282051282052,4172.820512820514,4261.025641025642,4337.948717948719
314.5203,0.6001935,0.15389264,0.33333334,0.5522388,0,0.0,0.0,0.0,0.0,1.0,0,0,0.0,0.0,0,0,85.0,0.0,516.0,4558.974358974359,3941.538461538462,4486.666666666667,4440.000000000001,4266.153846153847,4560.512820512821,4417.435897435898,4405.641025641026,4463.076923076924,4783.589743589744,4330.256410256411,4163.076923076924,4226.153846153847,3340.512820512821
314.8018,0.6732186,0.14057511,0.33333334,0.5522388,0,0.0,0.0,0.0,0.0,1.0,0,0,0.0,0.0,0,0,121.0,0.0,516.0,4708.717948717949,3981.0256410256416,4540.512820512821,4456.410256410257,4269.74358974359,4569.2307692307695,4420.512820512821,4418.461538461539,4475.384615384616,4816.410256410257,4339.48717948718,4204.102564102564,4257.948717948719,4138.461538461539
314.89563,0.6732186,0.14057511,0.33333334,0.5522388,0,0.0,0.0,0.0,0.0,1.0,0,0,0.0,0.0,0,0,4.0,0.0,574.0,4680.512820512821,3986.666666666667,4540.512820512821,4461.025641025642,4278.461538461539,4583.589743589744,4436.410256410257,4433.333333333334,4494.871794871796,4828.717948717949,4347.179487179487,4211.794871794872,4263.589743589744,4185.128205128206
315.30222,0.72314674,0.12854894,0.33333334,0.5522388,0,0.0,0.0,0.0,0.0,1.0,0,0,0.0,0.0,1,0,56.0,0.0,0.0,4604.615384615385,3942.0512820512827,4502.564102564103,4443.076923076924,4258.461538461539,4557.435897435898,4422.564102564103,4429.2307692307695,4464.615384615385,4819.48717948718,4354.358974358975,4174.358974358975,4256.923076923077,4703.589743589744
315.30222,0.72314674,0.12854894,0.33333334,0.5522388,0,0.0,0.0,0.0,0.0,1.0,0,0,0.0,0.0,1,0,56.0,0.0,0.0,4604.615384615385,3942.0512820512827,4502.564102564103,4443.076923076924,4258.461538461539,4557.435897435898,4422.564102564103,4429.2307692307695,4464.615384615385,4819.48717948718,4354.358974358975,4174.358974358975,4256.923076923077,4703.589743589744
315.80264,0.79450107,0.122035936,0.33333334,0.5522388,0,0.0,0.0,0.0,0.0,0.112680435,0,0,0.0,0.0,0,0,120.0,0.0,146.0,4689.2307692307695,3914.8717948717954,4554.871794871796,4429.743589743591,4238.461538461539,4538.461538461539,4497.435897435898,4511.794871794872,4401.538461538462,4802.051282051282,4340.512820512821,4255.384615384616,4269.2307692307695,4736.923076923077
316.02158,0.79450107,0.122035936,0.33333334,0.5522388,0,0.0,0.0,0.0,0.0,0.0,0,0,0.0,0.0,0,0,19.0,0.0,0.0,4717.435897435898,3927.1794871794878,4584.102564102564,4446.666666666667,4245.128205128206,4538.974358974359,4508.205128205129,4532.307692307693,4384.615384615385,4788.717948717949,4346.666666666667,4306.153846153847,4283.076923076924,4761.025641025642
316.30307,0.8103155,0.11863319,0.33333334,0.5522388,0,0.0,0.0,0.0,0.0,0.0,0,0,0.0,0.0,0,0,55.0,0.0,0.0,4689.2307692307695,3910.7692307692314,4571.282051282052,4441.538461538462,4229.74358974359,4521.538461538462,4505.128205128206,4524.615384615385,4335.384615384616,4756.410256410257,4342.564102564103,4318.461538461539,4229.74358974359,4726.153846153847
316.30307,0.8103155,0.11863319,0.33333334,0.5522388,0,0.0,0.0,0.0,0.0,0.0,0,0,0.0,0.0,0,0,55.0,0.0,0.0,4689.2307692307695,3910.7692307692314,4571.282051282052,4441.538461538462,4229.74358974359,4521.538461538462,4505.128205128206,4524.615384615385,4335.384615384616,4756.410256410257,4342.564102564103,4318.461538461539,4229.74358974359,4726.153846153847
316.8035,0.9007658,0.120689504,0.33333334,0.5522388,0,0.0,0.0,0.0,0.0,0.0,0,0,0.0,0.0,0,0,119.0,0.0,516.0,4717.435897435898,3918.461538461539,4587.179487179488,4446.666666666667,4221.538461538462,4514.358974358975,4484.102564102564,4446.666666666667,4263.589743589744,4702.564102564103,4348.717948717949,4363.589743589744,4198.974358974359,4693.333333333334
317.02243,0.9007658,0.120689504,0.33333334,0.5522388,0,0.0,0.0,0.0,0.0,0.64149064,0,0,0.0,0.0,0,0,18.0,0.0,0.0,4667.6923076923085,3910.2564102564106,4553.846153846154,4444.615384615385,4232.820512820514,4523.589743589744,4489.743589743591,4439.48717948718,4257.948717948719,4684.615384615386,4345.128205128206,4322.051282051282,4156.923076923077,4609.2307692307695
317.30392,0.97106063,0.12079624,0.33333334,0.5522388,0,0.0,0.0,0.0,0.0,0.4999583,0,0,0.0,0.0,0,0,54.0,0.0,0.0,4666.666666666667,3919.48717948718,4554.871794871796,4443.589743589744,4233.846153846154,4525.641025641026,4477.948717948719,4440.000000000001,4288.205128205129,4687.179487179488,4355.384615384616,4347.179487179487,4171.282051282052,4587.179487179488
317.52286,0.97106063,0.12079624,0.33333334,0.5522388,0,0.0,0.0,0.0,0.0,0.0,0,0,0.0,0.0,0,0,82.0,0.0,556.0,4643.076923076924,3917.9487179487182,4532.820512820514,4437.435897435898,4228.717948717949,4524.615384615385,4465.128205128206,4415.8974358974365,4289.2307692307695,4678.974358974359,4354.358974358975,4328.717948717949,4152.307692307693,4565.641025641026
317.80435,0.96343046,0.11963313,0.33333334,0.5522388,0,0.0,0.0,0.0,0.0,0.0,0,0,0.0,0.0,0,0,118.0,0.0,556.0,4600.000000000001,3924.1025641025644,4504.102564102564,4442.564102564103,4240.512820512821,4535.8974358974365,4442.051282051282,4403.076923076924,4320.512820512821,4681.538461538462,4361.025641025642,4288.205128205129,4153.846153846154,4528.205128205129
317.80435,0.96343046,0.11963313,0.33333334,0.5522388,0,0.0,0.0,0.0,0.0,0.0,0,0,0.0,0.0,0,0,118.0,0.0,556.0,4600.000000000001,3924.1025641025644,4504.102564102564,4442.564102564103,4240.512820512821,4535.8974358974365,4442.051282051282,4403.076923076924,4320.512820512821,4681.538461538462,4361.025641025642,4288.205128205129,4153.846153846154,4528.205128205129
318.3048,0.91704047,0.112526216,0.33333334,0.5522388,0,0.0,0.0,0.0,0.0,0.0,0,0,0.0,0.0,0,0,53.0,0.0,0.0,4542.564102564103,3930.7692307692314,4458.974358974359,4443.589743589744,4236.410256410257,4530.769230769231,4403.076923076924,4367.179487179487,4338.974358974359,4682.051282051282,4350.769230769231,4218.974358974359,4127.179487179487,4461.538461538462
318.3048,0.91704047,0.112526216,0.33333334,0.5522388,0,0.0,0.0,0.0,0.0,0.0,0,0,0.0,0.0,0,0,53.0,0.0,0.0,4542.564102564103,3930.7692307692314,4458.974358974359,4443.589743589744,4236.410256410257,4530.769230769231,4403.076923076924,4367.179487179487,4338.974358974359,4682.051282051282,4350.769230769231,4218.974358974359,4127.179487179487,4461.538461538462
318.80524,0.88430566,0.10059679,0.33333334,0.5522388,1,0.0,0.0,0.0,0.0,0.0,0,0,0.0,0.0,0,0,117.0,0.0,516.0,4568.205128205129,3954.358974358975,4481.025641025642,4454.358974358975,4257.435897435898,4554.871794871796,4394.358974358975,4365.128205128206,4396.410256410257,4716.410256410257,4358.461538461539,4224.102564102564,4173.333333333334,4504.615384615385
318.93033,0.88430566,0.10059679,0.33333334,0.5522388,0,0.0,0.0,0.0,0.0,0.0,0,0,0.0,0.0,0,0,4.0,0.0,574.0,4508.717948717949,3925.6410256410263,4444.615384615385,4440.000000000001,4247.179487179487,4549.743589743591,4395.384615384616,4366.153846153847,4391.794871794872,4711.794871794872,4350.769230769231,4182.051282051282,4148.205128205129,4455.8974358974365
319.30566,0.85348845,0.09703319,0.33333334,0.5522388,0,0.0,0.0,0.0,0.0,0.0,0,0,0.0,0.0,0,0,52.0,0.0,0.0,4509.743589743591,3934.358974358975,4433.846153846154,4438.461538461539,4259.48717948718,4553.846153846154,4386.153846153847,4355.384615384616,4412.820512820514,4719.48717948718,4344.102564102564,4143.076923076924,4145.128205128206,4450.769230769231
319.30566,0.85348845,0.09703319,0.33333334,0.5522388,0,0.0,0.0,0.0,0.0,0.0,0,0,0.0,0.0,0,0,52.0,0.0,0.0,4509.743589743591,3934.358974358975,4433.846153846154,4438.461538461539,4259.48717948718,4553.846153846154,4386.153846153847,4355.384615384616,4412.820512820514,4719.48717948718,4344.102564102564,4143.076923076924,4145.128205128206,4450.769230769231
319.8061,0.85287726,0.09653647,0.33333334,0.5522388,0,0.0,0.0,0.0,0.0,0.0,0,0,0.0,0.0,0,0,116.0,0.0,146.0,4490.256410256411,3932.307692307693,4439.48717948718,4431.794871794872,4249.2307692307695,4546.153846153847,4389.743589743591,4370.769230769231,4436.410256410257,4748.717948717949,4350.256410256411,4148.205128205129,4176.923076923077,4426.666666666667
319.8061,0.85287726,0.09653647,0.33333334,0.5522388,0,0.0,0.0,0.0,0.0,0.0,0,0,0.0,0.0,0,0,116.0,0.0,146.0,4490.256410256411,3932.307692307693,4439.48717948718,4431.794871794872,4249.2307692307695,4546.153846153847,4389.743589743591,4370.769230769231,4436.410256410257,4748.717948717949,4350.256410256411,4148.205128205129,4176.923076923077,4426.666666666667
320.30652,0.8568145,0.095527135,0.33333334,0.5522388,0,0.0,0.0,0.0,0.0,0.0,0,0,0.0,0.0,0,0,51.0,0.0,0.0,4517.948717948719,3935.8974358974365,4464.615384615385,4433.333333333334,4266.666666666667,4563.589743589744,4415.384615384616,4395.8974358974365,4461.538461538462,4774.358974358975,4353.846153846154,4163.076923076924,4226.153846153847,4467.6923076923085
320.30652,0.8568145,0.095527135,0.33333334,0.5522388,0,0.0,0.0,0.0,0.0,0.0,0,0,0.0,0.0,0,0,51.0,0.0,0.0,4517.948717948719,3935.8974358974365,4464.615384615385,4433.333333333334,4266.666666666667,4563.589743589744,4415.384615384616,4395.8974358974365,4461.538461538462,4774.358974358975,4353.846153846154,4163.076923076924,4226.153846153847,4467.6923076923085
320.80695,0.82112813,0.09542629,0.33333334,0.5522388,0,0.0,0.0,0.0,0.0,0.0,0,0,0.0,0.0,0,1,115.0,0.0,523.0,4590.256410256411,3932.820512820513,4524.615384615385,4420.512820512821,4250.256410256411,4548.205128205129,4467.179487179487,4463.076923076924,4417.948717948719,4770.256410256411,4345.641025641026,4203.076923076924,4237.948717948719,4528.205128205129
321.08844,0.82112813,0.09542629,0.33333334,0.5522388,0,0.0,0.0,0.0,0.0,0.0,0,0,0.0,0.0,0,0,22.0,0.0,0.0,4613.846153846154,3946.666666666667,4540.512820512821,4427.6923076923085,4244.102564102564,4540.000000000001,4486.153846153847,4484.102564102564,4398.461538461539,4763.076923076924,4341.538461538462,4255.8974358974365,4236.923076923077,4572.820512820514
321.30737,0.785228,0.096711956,0.33333334,0.5522388,0,0.0,0.0,0.0,0.0,0.0,0,0,0.0,0.0,0,0,50.0,0.0,0.0,4621.538461538462,3951.7948717948725,4551.794871794872,4430.256410256411,4235.384615384616,4531.282051282052,4465.641025641026,4484.102564102564,4381.538461538462,4754.871794871796,4345.128205128206,4265.641025641026,4227.6923076923085,4598.461538461539
321.30737,0.785228,0.096711956,0.33333334,0.5522388,0,0.0,0.0,0.0,0.0,0.0,0,0,0.0,0.0,0,0,50.0,0.0,0.0,4621.538461538462,3951.7948717948725,4551.794871794872,4430.256410256411,4235.384615384616,4531.282051282052,4465.641025641026,4484.102564102564,4381.538461538462,4754.871794871796,4345.128205128206,4265.641025641026,4227.6923076923085,4598.461538461539
321.8078,0.788248,0.09593842,0.33333334,0.5522388,0,0.0,0.0,0.0,0.0,0.0,0,0,0.0,0.0,0,0,114.0,0.0,556.0,4630.256410256411,3964.1025641025644,4545.641025641026,4449.743589743591,4247.6923076923085,4545.641025641026,4473.846153846154,4483.589743589744,4365.641025641026,4738.461538461539,4336.410256410257,4284.102564102564,4186.153846153847,4568.205128205129
321.8078,0.788248,0.09593842,0.33333334,0.5522388,0,0.0,0.0,0.0,0.0,0.0,0,0,0.0,0.0,0,0,114.0,0.0,556.0,4630.256410256411,3964.1025641025644,4545.641025641026,4449.743589743591,4247.6923076923085,4545.641025641026,4473.846153846154,4483.589743589744,4365.641025641026,4738.461538461539,4336.410256410257,4284.102564102564,4186.153846153847,4568.205128205129
322.30823,0.8117254,0.09719433,0.33333334,0.5522388,0,0.0,0.0,0.0,0.0,0.0,0,0,0.0,0.0,0,0,49.0,0.0,0.0,4596.923076923077,3947.1794871794878,4491.282051282052,4438.974358974359,4240.000000000001,4536.923076923077,4437.435897435898,4435.384615384616,4366.153846153847,4716.923076923077,4326.666666666667,4231.282051282052,4133.333333333334,4507.179487179488
322.30823,0.8117254,0.09719433,0.33333334,0.5522388,0,0.0,0.0,0.0,0.0,0.0,0,0,0.0,0.0,0,0,49.0,0.0,0.0,4596.923076923077,3947.1794871794878,4491.282051282052,4438.974358974359,4240.000000000001,4536.923076923077,4437.435897435898,4435.384615384616,4366.153846153847,4716.923076923077,4326.666666666667,4231.282051282052,4133.333333333334,4507.179487179488
322.83994,0.74470025,0.09846715,0.33333334,0.5522388,0,0.0,0.0,0.0,0.0,0.0,0,0,0.0,0.0,0,0,117.0,0.0,516.0,4589.2307692307695,3934.8717948717954,4464.615384615385,4432.820512820514,4242.564102564103,4540.000000000001,4406.666666666667,4396.923076923077,4382.051282051282,4718.461538461539,4319.48717948718,4190.256410256411,4127.6923076923085,4511.794871794872
322.83994,0.74470025,0.09846715,0.33333334,0.5522388,0,0.0,0.0,0.0,0.0,0.0,0,0,0.0,0.0,0,0,117.0,0.0,516.0,4589.2307692307695,3934.8717948717954,4464.615384615385,4432.820512820514,4242.564102564103,4540.000000000001,4406.666666666667,4396.923076923077,4382.051282051282,4718.461538461539,4319.48717948718,4190.256410256411,4127.6923076923085,4511.794871794872
323.30908,0.7176836,0.100546226,0.33333334,0.5522388,0,0.0,0.0,0.0,0.0,0.0,0,0,0.0,0.0,0,0,48.0,0.0,0.0,4582.564102564103,3938.9743589743593,4473.333333333334,4431.282051282052,4244.102564102564,4543.589743589744,4401.538461538462,4375.384615384616,4400.512820512821,4729.743589743591,4328.205128205129,4198.461538461539,4148.717948717949,4485.641025641026
323.30908,0.7176836,0.100546226,0.33333334,0.5522388,0,0.0,0.0,0.0,0.0,0.0,0,0,0.0,0.0,0,0,48.0,0.0,0.0,4582.564102564103,3938.9743589743593,4473.333333333334,4431.282051282052,4244.102564102564,4543.589743589744,4401.538461538462,4375.384615384616,4400.512820512821,4729.743589743591,4328.205128205129,4198.461538461539,4148.717948717949,4485.641025641026
323.80954,0.7134531,0.103929326,0.33333334,0.5522388,0,0.0,0.0,0.0,0.0,0.0,0,0,0.0,0.0,0,0,112.0,0.0,146.0,4567.179487179488,3932.820512820513,4458.461538461539,4430.769230769231,4257.435897435898,4555.8974358974365,4409.743589743591,4394.871794871796,4438.461538461539,4763.076923076924,4351.794871794872,4202.564102564103,4214.871794871796,4495.384615384616
323.80954,0.7134531,0.103929326,0.33333334,0.5522388,0,0.0,0.0,0.0,0.0,0.0,0,0,0.0,0.0,0,0,112.0,0.0,146.0,4567.179487179488,3932.820512820513,4458.461538461539,4430.769230769231,4257.435897435898,4555.8974358974365,4409.743589743591,4394.871794871796,4438.461538461539,4763.076923076924,4351.794871794872,4202.564102564103,4214.871794871796,4495.384615384616
324.30997,0.6560485,0.106351495,0.33333334,0.5522388,0,0.0,0.0,0.0,0.0,0.0,0,0,0.0,0.0,0,0,47.0,0.0,0.0,4544.102564102564,3945.1282051282055,4463.076923076924,4441.538461538462,4266.666666666667,4566.153846153847,4419.48717948718,4395.8974358974365,4449.743589743591,4776.923076923077,4366.153846153847,4191.794871794872,4211.282051282052,4481.025641025642
324.30997,0.6560485,0.106351495,0.33333334,0.5522388,0,0.0,0.0,0.0,0.0,0.0,0,0,0.0,0.0,0,0,47.0,0.0,0.0,4544.102564102564,3945.1282051282055,4463.076923076924,4441.538461538462,4266.666666666667,4566.153846153847,4419.48717948718,4395.8974358974365,4449.743589743591,4776.923076923077,4366.153846153847,4191.794871794872,4211.282051282052,4481.025641025642
324.8104,0.64827466,0.1011172,0.33333334,0.5522388,0,0.0,0.0,0.0,0.0,0.0,0,0,0.0,0.0,0,0,111.0,0.0,521.0,4547.179487179488,3938.461538461539,4463.589743589744,4436.410256410257,4259.48717948718,4552.820512820514,4409.743589743591,4395.8974358974365,4467.179487179487,4797.435897435898,4376.923076923077,4192.820512820514,4218.974358974359,4482.564102564103
324.8104,0.64827466,0.1011172,0.33333334,0.5522388,0,0.0,0.0,0.0,0.0,0.0,0,0,0.0,0.0,0,0,111.0,0.0,521.0,4547.179487179488,3938.461538461539,4463.589743589744,4436.410256410257,4259.48717948718,4552.820512820514,4409.743589743591,4395.8974358974365,4467.179487179487,4797.435897435898,4376.923076923077,4192.820512820514,4218.974358974359,4482.564102564103
325.31082,0.6004863,0.09604728,0.33333334,0.5522388,0,0.0,0.0,0.0,0.0,0.0,0,0,0.0,0.0,0,0,46.0,0.0,0.0,4561.025641025642,3946.666666666667,4470.769230769231,4433.333333333334,4250.769230769231,4552.307692307693,4404.615384615385,4388.205128205129,4452.820512820514,4795.8974358974365,4376.923076923077,4178.461538461539,4196.923076923077,4457.435897435898
325.31082,0.6004863,0.09604728,0.33333334,0.5522388,0,0.0,0.0,0.0,0.0,0.0,0,0,0.0,0.0,0,0,46.0,0.0,0.0,4561.025641025642,3946.666666666667,4470.769230769231,4433.333333333334,4250.769230769231,4552.307692307693,4404.615384615385,4388.205128205129,4452.820512820514,4795.8974358974365,4376.923076923077,4178.461538461539,4196.923076923077,4457.435897435898
325.81125,0.551911,0.09044594,0.33333334,0.5522388,0,0.0,0.0,0.0,0.0,0.0,0,0,0.0,0.0,0,0,110.0,0.0,556.0,4668.205128205129,3960.0000000000005,4488.205128205129,4439.48717948718,4247.6923076923085,4544.615384615385,4390.769230769231,4381.538461538462,4438.461538461539,4801.025641025642,4391.282051282052,4182.564102564103,4198.974358974359,4554.871794871796
326.06146,0.551911,0.09044594,0.33333334,0.5522388,0,0.0,0.0,0.0,0.0,0.724151,0,0,0.0,0.0,0,0,13.0,0.0,516.0,4565.641025641026,3932.307692307693,4463.589743589744,4429.743589743591,4251.282051282052,4553.333333333334,4414.871794871796,4415.384615384616,4466.153846153847,4805.641025641026,4388.717948717949,4180.000000000001,4196.923076923077,4474.871794871796
326.31168,0.48645756,0.09302656,0.33333334,0.5522388,0,0.0,0.0,0.0,0.0,0.55843323,0,0,0.0,0.0,0,0,45.0,0.0,0.0,4564.615384615385,3938.461538461539,4473.333333333334,4436.923076923077,4248.717948717949,4548.205128205129,4424.615384615385,4409.743589743591,4453.846153846154,4810.769230769231,4395.384615384616,4184.102564102564,4195.384615384616,4455.384615384616
326.40552,0.48645756,0.09302656,0.33333334,0.5522388,0,0.0,0.0,0.0,0.0,0.0,0,0,0.0,0.0,0,0,57.0,0.0,0.0,4543.076923076924,3930.2564102564106,4468.717948717949,4433.846153846154,4251.282051282052,4551.282051282052,4418.461538461539,4416.923076923077,4456.923076923077,4803.589743589744,4399.48717948718,4186.153846153847,4194.358974358975,4454.358974358975
326.8121,0.4477842,0.096448176,0.33333334,0.5522388,0,0.0,0.0,0.0,0.0,0.0,0,0,0.0,0.0,0,0,109.0,0.0,516.0,4551.794871794872,3927.692307692308,4460.512820512821,4430.769230769231,4249.74358974359,4548.205128205129,4411.282051282052,4419.48717948718,4454.871794871796,4807.179487179488,4397.948717948719,4163.076923076924,4180.512820512821,4449.743589743591
326.8121,0.4477842,0.096448176,0.33333334,0.5522388,0,0.0,0.0,0.0,0.0,0.0,0,0,0.0,0.0,0,0,109.0,0.0,516.0,4551.794871794872,3927.692307692308,4460.512820512821,4430.769230769231,4249.74358974359,4548.205128205129,4411.282051282052,4419.48717948718,4454.871794871796,4807.179487179488,4397.948717948719,4163.076923076924,4180.512820512821,4449.743589743591
327.31253,0.44883424,0.100832544,0.33333334,0.5522388,0,0.0,0.0,0.0,0.0,0.0,0,0,0.0,0.0,0,0,44.0,0.0,0.0,4536.923076923077,3934.358974358975,4461.538461538462,4435.8974358974365,4245.128205128206,4549.743589743591,4426.153846153847,4442.051282051282,4464.102564102564,4813.333333333334,4416.410256410257,4181.538461538462,4212.307692307693,4501.025641025642
327.31253,0.44883424,0.100832544,0.33333334,0.5522388,0,0.0,0.0,0.0,0.0,0.0,0,0,0.0,0.0,0,0,44.0,0.0,0.0,4536.923076923077,3934.358974358975,4461.538461538462,4435.8974358974365,4245.128205128206,4549.743589743591,4426.153846153847,4442.051282051282,4464.102564102564,4813.333333333334,4416.410256410257,4181.538461538462,4212.307692307693,4501.025641025642
327.81296,0.43425068,0.09940494,0.33333334,0.5522388,0,0.0,0.0,0.0,0.0,0.0,0,0,0.0,0.0,0,0,108.0,0.0,140.0,4568.717948717949,3941.0256410256416,4489.743589743591,4443.076923076924,4260.512820512821,4564.102564102564,4439.48717948718,4445.641025641026,4464.102564102564,4822.051282051282,4426.153846153847,4213.333333333334,4212.820512820514,4497.435897435898
327.81296,0.43425068,0.09940494,0.33333334,0.5522388,0,0.0,0.0,0.0,0.0,0.0,0,0,0.0,0.0,0,0,108.0,0.0,140.0,4568.717948717949,3941.0256410256416,4489.743589743591,4443.076923076924,4260.512820512821,4564.102564102564,4439.48717948718,4445.641025641026,4464.102564102564,4822.051282051282,4426.153846153847,4213.333333333334,4212.820512820514,4497.435897435898
