timestamp,excitement,frustration,meditation,engagementBoredom,blink,clench,laugh,smile,eyebrow,furrowBrow,lookLeft,lookRight,smirkLeft,smirkRight,winkLeft,winkRight,eeg0,eeg1,eeg2,eeg3,eeg4,eeg5,eeg6,eeg7,eeg8,eeg9,eeg10,eeg11,eeg12,eeg13,eeg14,eeg15,eeg16
1829.8303,0.6347118,0.50415355,0.33333334,0.5522388,0,0.0,0.0,0.0,0.0,0.5549451,0,0,0.0,0.0,0,0,109.0,0.0,494.0,4477.435897435898,4260.512820512821,4329.743589743591,4005.1282051282055,4168.205128205129,4511.282051282052,4384.615384615385,4430.256410256411,4355.384615384616,4617.435897435898,4306.153846153847,4165.641025641026,4103.589743589744,4277.435897435898
1830.1743,0.7471522,0.5190281,0.33333334,0.5522388,1,0.0,0.0,0.0,0.0,0.20250717,0,0,0.0,0.0,0,0,24.0,0.0,0.0,4520.512820512821,4230.769230769231,4341.025641025642,4078.9743589743593,4175.8974358974365,4504.102564102564,4370.256410256411,4395.8974358974365,4345.128205128206,4637.948717948719,4295.384615384616,4191.794871794872,4126.153846153847,4396.923076923077
1830.3308,0.7471522,0.5190281,0.33333334,0.5522388,0,0.0,0.0,0.0,0.0,0.35313538,0,0,0.0,0.0,0,0,44.0,0.0,0.0,4518.974358974359,4168.717948717949,4295.8974358974365,4101.025641025642,4153.846153846154,4489.2307692307695,4345.641025641026,4332.307692307693,4328.717948717949,4581.538461538462,4281.025641025642,4144.102564102564,4074.8717948717954,4395.8974358974365
1830.6123,0.7025049,0.5324152,0.33333334,0.5522388,0,0.0,0.0,0.0,0.0,0.2170313,0,0,0.0,0.0,1,0,80.0,0.0,54.0,4601.025641025642,4228.717948717949,4329.743589743591,4130.256410256411,4170.769230769231,4508.717948717949,4355.8974358974365,4355.8974358974365,4322.051282051282,4584.102564102564,4285.128205128206,4181.025641025642,4094.358974358975,4526.153846153847
1830.925,0.7025049,0.5324152,0.33333334,0.5522388,0,0.0,0.0,0.0,0.0,0.13878794,0,0,0.0,0.0,0,0,120.0,0.0,54.0,4569.743589743591,4167.179487179487,4342.051282051282,4188.205128205129,4197.948717948719,4520.000000000001,4354.358974358975,4366.153846153847,4321.025641025642,4575.8974358974365,4270.769230769231,4149.74358974359,4018.9743589743593,4442.564102564103
1831.1127,0.68995494,0.5444636,0.33333334,0.5522388,0,0.0,0.0,0.0,0.0,0.35798866,0,0,0.0,0.0,0,0,15.0,0.0,468.0,4562.564102564103,4160.512820512821,4355.8974358974365,4217.435897435898,4200.000000000001,4508.205128205129,4354.871794871796,4350.256410256411,4313.333333333334,4575.8974358974365,4263.589743589744,4161.538461538462,4056.9230769230776,4472.307692307693
1831.3317,0.68995494,0.5444636,0.33333334,0.5522388,0,0.0,0.0,0.0,0.0,0.34362754,0,0,0.0,0.0,0,0,43.0,0.0,0.0,4596.410256410257,4186.153846153847,4357.435897435898,4246.666666666667,4203.589743589744,4523.589743589744,4374.358974358975,4357.435897435898,4315.8974358974365,4593.333333333334,4260.000000000001,4184.102564102564,4072.820512820513,4516.410256410257
1831.6444,0.74802506,0.5899598,0.33333334,0.5522388,0,0.0,0.0,0.0,0.0,0.30816662,0,0,0.0,0.0,0,0,83.0,0.0,468.0,4629.743589743591,4122.564102564103,4392.307692307693,4287.179487179487,4229.2307692307695,4537.948717948719,4412.307692307693,4378.974358974359,4341.538461538462,4627.179487179488,4271.282051282052,4213.846153846154,4083.076923076924,4600.000000000001
1831.832,0.74802506,0.5899598,0.33333334,0.5522388,0,0.0,0.0,0.0,0.0,0.09215528,0,0,0.0,0.0,0,0,107.0,0.0,468.0,4635.8974358974365,4106.153846153847,4420.000000000001,4312.307692307693,4232.820512820514,4537.435897435898,4427.6923076923085,4386.153846153847,4333.846153846154,4634.358974358975,4268.205128205129,4234.358974358975,4114.871794871796,4628.717948717949
1832.1135,0.7189017,0.6303643,0.33333334,0.5522388,0,0.0,0.0,0.0,0.0,0.1827487,0,0,0.0,0.0,0,0,14.0,0.0,525.0,4633.333333333334,4082.564102564103,4428.205128205129,4335.384615384616,4243.589743589744,4552.820512820514,4428.717948717949,4372.820512820514,4346.666666666667,4645.641025641026,4260.000000000001,4217.435897435898,4076.9230769230776,4666.666666666667
1832.3325,0.7189017,0.6303643,0.33333334,0.5522388,0,0.0,0.0,0.0,0.0,0.24491768,0,0,0.0,0.0,0,0,42.0,0.0,0.0,4654.358974358975,4044.1025641025644,4472.820512820514,4363.589743589744,4248.205128205129,4554.871794871796,4460.512820512821,4414.871794871796,4358.974358974359,4679.48717948718,4275.384615384616,4264.102564102564,4134.871794871796,4716.923076923077
1832.614,0.73079556,0.62763214,0.33333334,0.5522388,1,0.0,0.0,0.0,0.0,0.18859516,0,0,0.0,0.0,0,0,78.0,0.0,525.0,4645.641025641026,3961.538461538462,4488.717948717949,4386.666666666667,4248.717948717949,4541.025641025642,4460.000000000001,4406.666666666667,4356.923076923077,4690.256410256411,4269.74358974359,4262.564102564103,4129.2307692307695,4694.358974358975
1832.8329,0.73079556,0.62763214,0.33333334,0.5522388,0,0.0,0.0,0.0,0.0,0.2309112,0,0,0.0,0.0,0,0,106.0,0.0,525.0,4636.923076923077,3917.435897435898,4507.179487179488,4408.717948717949,4253.846153846154,4552.307692307693,4463.076923076924,4405.128205128206,4367.179487179487,4718.461538461539,4273.333333333334,4271.794871794872,4145.128205128206,4652.820512820514
1833.1144,0.7421112,0.6493974,0.33333334,0.5522388,0,0.0,0.0,0.0,0.0,0.27429166,0,0,0.0,0.0,0,0,13.0,0.0,494.0,4650.769230769231,3944.615384615385,4521.025641025642,4426.153846153847,4263.589743589744,4556.923076923077,4476.923076923077,4430.256410256411,4374.871794871796,4729.2307692307695,4272.820512820514,4279.48717948718,4153.333333333334,4648.717948717949
1833.3334,0.7421112,0.6493974,0.33333334,0.5522388,0,0.0,0.0,0.0,0.0,0.1072034,0,0,0.0,0.0,0,0,41.0,0.0,0.0,4660.000000000001,3924.615384615385,4536.923076923077,4442.564102564103,4287.6923076923085,4583.589743589744,4492.820512820514,4440.512820512821,4380.512820512821,4731.794871794872,4221.538461538462,4283.076923076924,4145.641025641026,4613.846153846154
1833.6149,0.7210177,0.6873164,0.33333334,0.5522388,1,0.0,0.0,0.0,0.0,0.14825949,0,0,0.0,0.0,0,0,77.0,0.0,494.0,4651.282051282052,3895.8974358974365,4571.282051282052,4449.743589743591,4295.384615384616,4584.102564102564,4506.666666666667,4472.820512820514,4401.025641025642,4783.076923076924,4207.179487179487,4332.820512820514,4234.871794871796,4632.307692307693
1833.865,0.7210177,0.6873164,0.33333334,0.5522388,1,0.0,0.0,0.0,0.0,0.12657227,0,0,0.0,0.0,0,0,109.0,0.0,494.0,4665.641025641026,3905.6410256410263,4557.435897435898,4446.666666666667,4298.974358974359,4596.410256410257,4489.2307692307695,4442.051282051282,4415.384615384616,4790.256410256411,4207.6923076923085,4342.564102564103,4270.256410256411,4621.025641025642
1834.1152,0.6947695,0.72149026,0.33333334,0.5522388,0,0.0,0.0,0.0,0.0,0.13236551,0,0,0.0,0.0,0,0,12.0,0.0,54.0,4625.128205128206,3791.2820512820517,4540.000000000001,4444.102564102564,4328.205128205129,4632.820512820514,4509.2307692307695,4470.256410256411,4424.102564102564,4788.717948717949,4204.615384615385,4297.948717948719,4220.000000000001,4557.435897435898
1834.3342,0.6947695,0.72149026,0.33333334,0.5522388,0,0.0,0.0,0.0,0.0,0.06595513,0,0,0.0,0.0,0,0,40.0,0.0,0.0,4616.923076923077,3775.3846153846157,4507.6923076923085,4432.820512820514,4326.153846153847,4642.051282051282,4498.974358974359,4459.48717948718,4414.871794871796,4768.717948717949,4211.282051282052,4278.974358974359,4223.076923076924,4569.2307692307695
1834.6157,0.7059884,0.75224674,0.33333334,0.5522388,0,0.0,0.0,0.0,0.0,0.03855733,0,0,0.0,0.0,0,0,76.0,0.0,54.0,4628.205128205129,3774.358974358975,4506.153846153847,4434.358974358975,4324.615384615385,4630.769230769231,4505.641025641026,4463.076923076924,4411.794871794872,4764.615384615386,4219.48717948718,4282.051282051282,4230.769230769231,4570.256410256411
1834.8346,0.7059884,0.75224674,0.33333334,0.5522388,0,0.0,0.0,0.0,0.0,0.13378702,0,0,0.0,0.0,0,0,104.0,0.0,54.0,4665.641025641026,3780.0000000000005,4521.538461538462,4436.410256410257,4318.974358974359,4629.743589743591,4504.615384615385,4440.512820512821,4409.2307692307695,4787.179487179488,4226.153846153847,4318.461538461539,4285.128205128206,4598.461538461539
1835.1161,0.77819383,0.77992755,0.33333334,0.5522388,0,0.0,0.0,0.0,0.0,0.051299322,0,0,0.0,0.0,0,0,11.0,0.0,466.0,4684.102564102564,3792.820512820513,4522.564102564103,4435.8974358974365,4311.282051282052,4616.410256410257,4501.538461538462,4493.333333333334,4434.871794871796,4800.000000000001,4245.128205128206,4339.48717948718,4278.461538461539,4622.564102564103
1835.3351,0.77819383,0.77992755,0.33333334,0.5522388,0,0.0,0.0,0.0,0.0,0.09871562,0,0,0.0,0.0,0,0,39.0,0.0,0.0,4722.564102564103,3821.0256410256416,4521.025641025642,4436.410256410257,4310.769230769231,4617.435897435898,4489.743589743591,4399.48717948718,4402.051282051282,4746.153846153847,4232.307692307693,4317.948717948719,4232.820512820514,4617.435897435898
1835.6166,0.74831045,0.8048403,0.33333334,0.5522388,0,0.0,0.0,0.0,0.0,0.048751883,0,0,0.0,0.0,0,0,75.0,0.0,466.0,4729.2307692307695,3821.0256410256416,4520.512820512821,4436.410256410257,4301.025641025642,4613.846153846154,4498.461538461539,4449.2307692307695,4421.538461538462,4794.871794871796,4255.384615384616,4336.923076923077,4295.8974358974365,4644.102564102564
1835.8354,0.74831045,0.8048403,0.33333334,0.5522388,0,0.0,0.0,0.0,0.0,0.026132574,0,0,0.0,0.0,0,0,103.0,0.0,466.0,4701.025641025642,3823.589743589744,4520.512820512821,4438.974358974359,4296.410256410257,4602.051282051282,4519.48717948718,4521.025641025642,4444.102564102564,4795.384615384616,4275.384615384616,4348.205128205129,4296.923076923077,4655.8974358974365
1836.117,0.71967745,0.74391896,0.33333334,0.5522388,0,0.0,0.0,0.0,0.0,0.25308177,0,0,0.0,0.0,0,0,10.0,0.0,525.0,4687.6923076923085,3849.7435897435903,4537.948717948719,4457.948717948719,4283.076923076924,4588.205128205129,4521.025641025642,4521.538461538462,4451.282051282052,4786.666666666667,4286.153846153847,4343.589743589744,4261.025641025642,4733.846153846154
1836.3359,0.71967745,0.74391896,0.33333334,0.5522388,0,0.0,0.0,0.0,0.0,0.44929126,0,0,0.0,0.0,0,0,38.0,0.0,0.0,4682.051282051282,3849.7435897435903,4536.410256410257,4460.000000000001,4277.948717948719,4577.435897435898,4510.256410256411,4506.153846153847,4448.205128205129,4780.512820512821,4275.8974358974365,4348.205128205129,4258.461538461539,4685.128205128206
1836.6174,0.7261026,0.6808066,0.33333334,0.5522388,0,0.0,0.0,0.0,0.0,1.0,0,0,0.0,0.0,0,0,74.0,0.0,525.0,4694.358974358975,3848.717948717949,4541.538461538462,4458.974358974359,4268.205128205129,4577.948717948719,4518.461538461539,4518.974358974359,4456.923076923077,4798.974358974359,4287.6923076923085,4369.2307692307695,4295.384615384616,4661.025641025642
1836.8363,0.7261026,0.6808066,0.33333334,0.5522388,0,0.0,0.0,0.0,0.0,0.16369328,0,0,0.0,0.0,1,0,102.0,0.0,525.0,4704.102564102564,3909.2307692307695,4551.794871794872,4460.512820512821,4282.564102564103,4584.615384615385,4509.2307692307695,4525.128205128206,4461.538461538462,4795.384615384616,4292.307692307693,4361.025641025642,4272.307692307693,4641.025641025642
1837.1178,0.75414056,0.6254379,0.33333334,0.5522388,0,0.0,0.0,0.0,0.0,0.29168087,0,0,0.0,0.0,1,0,9.0,0.0,481.0,4679.48717948718,3866.1538461538466,4521.538461538462,4460.512820512821,4260.512820512821,4557.435897435898,4491.794871794872,4457.435897435898,4440.512820512821,4763.589743589744,4272.307692307693,4323.076923076924,4231.282051282052,4535.8974358974365
1837.3368,0.75414056,0.6254379,0.33333334,0.5522388,0,0.0,0.0,0.0,0.0,0.10094753,0,0,0.0,0.0,0,0,37.0,0.0,0.0,4664.102564102564,3861.0256410256416,4518.974358974359,4450.256410256411,4263.076923076924,4561.538461538462,4492.307692307693,4491.282051282052,4457.948717948719,4763.076923076924,4281.538461538462,4313.333333333334,4203.076923076924,4529.2307692307695
1837.6183,0.68432087,0.5727787,0.33333334,0.5522388,1,0.0,0.0,0.0,0.0,0.072076105,0,0,0.0,0.0,0,0,73.0,0.0,481.0,4642.051282051282,3844.1025641025644,4503.589743589744,4436.923076923077,4265.128205128206,4569.2307692307695,4492.820512820514,4444.102564102564,4437.948717948719,4733.846153846154,4274.358974358975,4289.2307692307695,4185.128205128206,4490.769230769231
1837.8372,0.68432087,0.5727787,0.33333334,0.5522388,0,0.0,0.0,0.0,0.0,0.16644405,0,0,0.0,0.0,0,0,101.0,0.0,494.0,4661.538461538462,3879.48717948718,4516.410256410257,4421.025641025642,4275.8974358974365,4588.717948717949,4492.307692307693,4460.000000000001,4448.205128205129,4746.666666666667,4286.153846153847,4292.820512820514,4181.538461538462,4517.948717948719
1838.1187,0.6854715,0.5861552,0.33333334,0.5522388,0,0.0,0.0,0.0,0.0,0.08392624,0,0,0.0,0.0,0,0,8.0,0.0,379.0,4666.153846153847,3927.1794871794878,4520.512820512821,4412.820512820514,4281.538461538462,4588.717948717949,4461.538461538462,4450.769230769231,4440.000000000001,4754.358974358975,4290.256410256411,4307.6923076923085,4228.205128205129,4558.461538461539
1838.3376,0.6854715,0.5861552,0.33333334,0.5522388,0,0.0,0.0,0.0,0.0,0.08918907,0,0,0.0,0.0,0,0,36.0,0.0,0.0,4625.641025641026,3876.9230769230776,4507.6923076923085,4501.025641025642,4252.820512820514,4557.435897435898,4459.48717948718,4451.794871794872,4429.2307692307695,4741.025641025642,4291.282051282052,4282.564102564103,4205.641025641026,4504.102564102564
1838.6504,0.6480739,0.74844915,0.33333334,0.5522388,0,0.0,0.0,0.0,0.0,0.15022925,0,0,0.0,0.0,0,0,76.0,0.0,54.0,4586.666666666667,3838.9743589743593,4506.666666666667,4430.769230769231,4265.641025641026,4560.512820512821,4477.435897435898,4485.128205128206,4440.512820512821,4773.846153846154,4294.871794871796,4281.025641025642,4198.461538461539,4470.769230769231
1838.838,0.6480739,0.74844915,0.33333334,0.5522388,0,0.0,0.0,0.0,0.0,0.17748685,0,0,0.0,0.0,0,0,100.0,0.0,54.0,4590.256410256411,3877.9487179487182,4492.307692307693,4413.333333333334,4263.589743589744,4556.410256410257,4474.358974358975,4476.923076923077,4428.717948717949,4734.871794871796,4289.2307692307695,4263.076923076924,4155.384615384616,4422.564102564103
1839.1195,0.65883785,0.7376055,0.33333334,0.5522388,0,0.0,0.0,0.0,0.0,0.33027887,0,0,0.0,0.0,0,0,7.0,0.0,467.0,4597.948717948719,3896.410256410257,4488.205128205129,4403.589743589744,4250.769230769231,4554.871794871796,4459.48717948718,4456.410256410257,4421.025641025642,4704.615384615386,4287.179487179487,4251.794871794872,4136.923076923077,4473.333333333334
1839.3385,0.65883785,0.7376055,0.33333334,0.5522388,0,0.0,0.0,0.0,0.0,0.19024731,0,0,0.0,0.0,0,0,35.0,0.0,0.0,4591.794871794872,3883.589743589744,4474.358974358975,4396.410256410257,4249.2307692307695,4552.820512820514,4461.025641025642,4467.179487179487,4432.307692307693,4720.000000000001,4286.153846153847,4244.615384615385,4133.846153846154,4425.641025641026
1839.62,0.61901283,0.69185686,0.33333334,0.5522388,0,0.0,0.0,0.0,0.0,0.27319095,0,0,0.0,0.0,0,0,71.0,0.0,467.0,4651.282051282052,3993.333333333334,4509.743589743591,4414.358974358975,4261.025641025642,4569.2307692307695,4458.974358974359,4443.076923076924,4418.461538461539,4747.6923076923085,4298.461538461539,4311.794871794872,4242.564102564103,4516.410256410257
1839.839,0.61901283,0.69185686,0.33333334,0.5522388,0,0.0,0.0,0.0,0.0,0.13752276,0,0,0.0,0.0,1,0,99.0,0.0,466.0,4596.923076923077,3892.307692307693,4474.358974358975,4407.6923076923085,4248.717948717949,4553.333333333334,4457.435897435898,4455.8974358974365,4423.589743589744,4738.461538461539,4300.000000000001,4260.000000000001,4192.307692307693,4394.871794871796
1840.1205,0.61311734,0.6895337,0.33333334,0.5522388,0,0.0,0.0,0.0,0.0,0.2365597,0,0,0.0,0.0,0,0,6.0,0.0,548.0,4598.461538461539,3892.820512820513,4477.435897435898,4422.564102564103,4261.025641025642,4570.256410256411,4455.384615384616,4450.769230769231,4428.205128205129,4742.564102564103,4301.025641025642,4254.871794871796,4184.102564102564,4383.076923076924
1840.3394,0.61311734,0.6895337,0.33333334,0.5522388,0,0.0,0.0,0.0,0.0,0.0,0,0,0.0,0.0,0,0,34.0,0.0,0.0,4592.820512820514,3874.8717948717954,4469.2307692307695,4412.307692307693,4245.641025641026,4556.410256410257,4441.538461538462,4444.615384615385,4418.974358974359,4735.384615384616,4300.000000000001,4247.179487179487,4185.641025641026,4353.333333333334
1840.6208,0.62062836,0.67665255,0.33333334,0.5522388,0,0.0,0.0,0.0,0.0,0.0,0,0,0.0,0.0,0,0,70.0,0.0,548.0,4611.794871794872,3910.2564102564106,4474.871794871796,4406.666666666667,4248.205128205129,4554.871794871796,4442.564102564103,4443.076923076924,4411.794871794872,4718.461538461539,4296.410256410257,4245.641025641026,4185.641025641026,4308.717948717949
1840.8398,0.62062836,0.67665255,0.33333334,0.5522388,0,0.0,0.0,0.0,0.0,0.28691873,0,0,0.0,0.0,0,0,98.0,0.0,525.0,4585.641025641026,3853.333333333334,4463.589743589744,4411.282051282052,4247.179487179487,4554.871794871796,4460.512820512821,4442.564102564103,4405.641025641026,4711.794871794872,4296.923076923077,4229.2307692307695,4171.794871794872,4320.000000000001
1841.1213,0.64049214,0.71335185,0.33333334,0.5522388,1,0.0,0.0,0.0,0.0,0.3455146,0,0,0.0,0.0,0,0,5.0,0.0,555.0,4614.871794871796,3911.2820512820517,4485.128205128206,4412.307692307693,4251.282051282052,4556.410256410257,4442.564102564103,4440.512820512821,4417.435897435898,4727.6923076923085,4303.589743589744,4246.666666666667,4202.051282051282,4407.6923076923085
1841.3402,0.64049214,0.71335185,0.33333334,0.5522388,0,0.0,0.0,0.0,0.0,0.16034745,0,0,0.0,0.0,0,0,33.0,0.0,0.0,4598.974358974359,3894.8717948717954,4470.256410256411,4423.589743589744,4249.2307692307695,4557.435897435898,4442.051282051282,4430.769230769231,4414.358974358975,4729.743589743591,4302.051282051282,4233.846153846154,4188.717948717949,4385.128205128206
1841.6217,0.6062924,0.75115234,0.33333334,0.5522388,0,0.0,0.0,0.0,0.0,0.058231506,0,0,0.0,0.0,0,0,69.0,0.0,555.0,4609.743589743591,3911.7948717948725,4476.923076923077,4413.846153846154,4245.641025641026,4550.769230769231,4444.102564102564,4422.564102564103,4405.641025641026,4704.102564102564,4298.461538461539,4236.410256410257,4167.6923076923085,4387.179487179487
1841.8407,0.6062924,0.75115234,0.33333334,0.5522388,0,0.0,0.0,0.0,0.0,0.07249285,0,0,0.0,0.0,0,0,97.0,0.0,494.0,4658.461538461539,3989.23076923077,4493.333333333334,4408.717948717949,4244.615384615385,4551.794871794872,4432.820512820514,4433.846153846154,4417.948717948719,4732.820512820514,4308.717948717949,4269.2307692307695,4238.461538461539,4455.8974358974365
1842.1222,0.62240714,0.77287126,0.33333334,0.5522388,0,0.0,0.0,0.0,0.0,0.14230795,0,0,0.0,0.0,1,0,4.0,0.0,556.0,4638.461538461539,3910.2564102564106,4495.384615384616,4427.6923076923085,4262.564102564103,4553.333333333334,4458.974358974359,4455.384615384616,4433.846153846154,4771.282051282052,4324.615384615385,4264.615384615385,4234.871794871796,4428.205128205129
1842.3411,0.62240714,0.77287126,0.33333334,0.5522388,0,0.0,0.0,0.0,0.0,0.09721434,0,0,0.0,0.0,0,0,32.0,0.0,0.0,4632.307692307693,3899.48717948718,4502.564102564103,4429.743589743591,4249.2307692307695,4542.564102564103,4477.948717948719,4478.974358974359,4435.384615384616,4768.205128205129,4326.666666666667,4267.179487179487,4250.256410256411,4413.333333333334
1842.6538,0.5221421,0.7606534,0.33333334,0.5522388,0,0.0,0.0,0.0,0.0,0.08252133,0,0,0.0,0.0,1,0,72.0,0.0,379.0,4633.333333333334,3972.820512820513,4506.666666666667,4443.076923076924,4260.512820512821,4543.076923076924,4472.820512820514,4473.333333333334,4431.794871794872,4764.615384615386,4326.153846153847,4278.461538461539,4245.128205128206,4364.615384615385
1842.8416,0.5221421,0.7606534,0.33333334,0.5522388,0,0.0,0.0,0.0,0.0,0.17186461,0,0,0.0,0.0,1,0,96.0,0.0,54.0,4574.871794871796,3876.9230769230776,4472.820512820514,4451.794871794872,4246.666666666667,4536.923076923077,4458.461538461539,4442.564102564103,4417.435897435898,4748.205128205129,4317.948717948719,4221.538461538462,4183.076923076924,4323.076923076924
1843.123,0.54580677,0.7511113,0.33333334,0.5522388,0,0.0,0.0,0.0,0.0,0.24427795,0,0,0.0,0.0,0,0,3.0,0.0,535.0,4559.48717948718,3840.0000000000005,4456.410256410257,4444.615384615385,4232.307692307693,4540.512820512821,4444.102564102564,4427.6923076923085,4410.256410256411,4735.384615384616,4314.358974358975,4216.410256410257,4176.923076923077,4250.256410256411
1843.4045,0.54580677,0.7511113,0.33333334,0.5522388,0,0.0,0.0,0.0,0.0,0.12760176,0,0,0.0,0.0,1,0,39.0,0.0,0.0,4564.615384615385,4046.1538461538466,4436.923076923077,4437.435897435898,4230.769230769231,4536.410256410257,4427.179487179487,4420.512820512821,4388.205128205129,4702.051282051282,4310.256410256411,4207.6923076923085,4148.205128205129,4272.307692307693
1843.6234,0.5276245,0.9583729,0.33333334,0.5522388,0,0.0,0.0,0.0,0.0,0.18294662,0,0,0.0,0.0,0,0,67.0,0.0,535.0,4536.923076923077,3958.9743589743593,4420.512820512821,4450.769230769231,4229.74358974359,4548.717948717949,4442.051282051282,4426.666666666667,4407.6923076923085,4728.205128205129,4312.307692307693,4197.948717948719,4133.846153846154,4373.333333333334
1843.8424,0.5276245,0.9583729,0.33333334,0.5522388,0,0.0,0.0,0.0,0.0,0.6979716,0,0,0.0,0.0,0,0,95.0,0.0,471.0,4534.871794871796,3961.538461538462,4416.923076923077,4444.102564102564,4216.410256410257,4537.948717948719,4412.820512820514,4378.974358974359,4384.615384615385,4693.333333333334,4307.6923076923085,4187.6923076923085,4097.435897435898,4403.589743589744
1844.1239,0.49417052,0.9789911,0.33333334,0.5522388,0,0.0,0.0,0.0,0.0,0.16727056,0,0,0.0,0.0,1,0,2.0,0.0,449.0,4566.666666666667,3938.461538461539,4413.333333333334,4425.128205128206,4184.102564102564,4509.2307692307695,4404.102564102564,4383.076923076924,4384.102564102564,4689.2307692307695,4312.820512820514,4217.435897435898,4129.74358974359,4446.666666666667
1844.3428,0.49417052,0.9789911,0.33333334,0.5522388,0,0.0,0.0,0.0,0.0,0.1551681,0,0,0.0,0.0,0,0,30.0,0.0,0.0,4527.179487179488,3892.307692307693,4415.8974358974365,4414.871794871796,4182.564102564103,4507.6923076923085,4395.8974358974365,4384.102564102564,4382.051282051282,4674.871794871796,4301.025641025642,4214.358974358975,4123.076923076924,4431.794871794872
1844.6243,0.59839904,1.0,0.33333334,0.5522388,0,0.0,0.0,0.0,0.0,0.48706916,0,0,0.0,0.0,0,0,66.0,0.0,449.0,4542.564102564103,3905.1282051282055,4427.6923076923085,4425.128205128206,4200.512820512821,4523.589743589744,4410.256410256411,4381.025641025642,4381.538461538462,4665.641025641026,4303.589743589744,4226.153846153847,4102.564102564103,4389.743589743591
1844.8433,0.59839904,1.0,0.33333334,0.5522388,0,0.0,0.0,0.0,0.0,0.12198645,0,0,0.0,0.0,1,0,94.0,0.0,525.0,4556.923076923077,3927.692307692308,4428.717948717949,4417.435897435898,4204.102564102564,4525.641025641026,4407.6923076923085,4378.974358974359,4381.025641025642,4671.794871794872,4303.076923076924,4230.256410256411,4126.666666666667,4425.641025641026
1845.156,0.5907555,1.0,0.33333334,0.5522388,0,0.0,0.0,0.0,0.0,0.10876938,0,0,0.0,0.0,0,0,5.0,0.0,555.0,4551.282051282052,3877.435897435898,4440.512820512821,4414.871794871796,4216.923076923077,4536.923076923077,4410.769230769231,4383.589743589744,4385.128205128206,4690.769230769231,4301.025641025642,4232.307692307693,4126.153846153847,4492.307692307693
1845.3436,0.5907555,1.0,0.33333334,0.5522388,0,0.0,0.0,0.0,0.0,0.6997817,0,0,0.0,0.0,0,0,29.0,0.0,0.0,4555.384615384616,3877.435897435898,4445.641025641026,4427.6923076923085,4231.794871794872,4541.025641025642,4428.205128205129,4381.538461538462,4380.512820512821,4693.846153846154,4303.076923076924,4238.461538461539,4138.974358974359,4512.307692307693
1845.6251,0.67845577,1.0,0.33333334,0.5522388,0,0.0,0.0,0.0,0.0,0.19249552,0,0,0.0,0.0,1,0,65.0,0.0,395.0,4571.794871794872,3893.333333333334,4472.820512820514,4428.717948717949,4235.8974358974365,4553.333333333334,4445.128205128206,4414.871794871796,4392.307692307693,4715.384615384616,4309.743589743591,4261.025641025642,4171.794871794872,4537.435897435898
1845.8754,0.67845577,1.0,0.33333334,0.5522388,0,0.0,0.0,0.0,0.0,0.122614905,0,0,0.0,0.0,0,0,97.0,0.0,494.0,4577.435897435898,3891.2820512820517,4476.410256410257,4434.871794871796,4248.205128205129,4556.410256410257,4446.153846153847,4412.820512820514,4395.8974358974365,4721.538461538462,4315.8974358974365,4262.051282051282,4173.846153846154,4538.974358974359
1846.1256,0.5538828,1.0,0.33333334,0.5522388,0,0.0,0.0,0.0,0.0,0.08520207,0,0,0.0,0.0,0,0,0.0,0.0,481.0,4602.564102564103,3922.564102564103,4500.000000000001,4438.974358974359,4261.538461538462,4572.307692307693,4459.48717948718,4439.48717948718,4393.846153846154,4749.743589743591,4323.076923076924,4282.564102564103,4200.000000000001,4577.435897435898
1846.3445,0.5538828,1.0,0.33333334,0.5522388,0,0.0,0.0,0.0,0.0,0.39390847,0,0,0.0,0.0,0,0,28.0,0.0,0.0,4617.435897435898,3926.1538461538466,4508.717948717949,4440.000000000001,4261.538461538462,4568.717948717949,4473.333333333334,4447.179487179487,4408.717948717949,4761.538461538462,4330.769230769231,4293.846153846154,4204.615384615385,4604.615384615385
1846.626,0.64245254,1.0,0.33333334,0.5522388,0,0.0,0.0,0.0,0.0,0.0,0,0,0.0,0.0,0,0,64.0,0.0,481.0,4603.589743589744,3939.48717948718,4506.153846153847,4430.256410256411,4247.6923076923085,4554.358974358975,4458.461538461539,4435.384615384616,4396.923076923077,4742.051282051282,4328.717948717949,4290.769230769231,4215.384615384616,4556.923076923077
1846.845,0.64245254,1.0,0.33333334,0.5522388,1,0.0,0.0,0.0,0.0,0.119741514,0,0,0.0,0.0,0,0,92.0,0.0,54.0,4618.461538461539,3955.3846153846157,4510.256410256411,4430.769230769231,4251.794871794872,4552.820512820514,4462.051282051282,4438.974358974359,4397.435897435898,4761.538461538462,4333.333333333334,4299.48717948718,4230.769230769231,4526.153846153847
1847.1265,0.6409263,1.0,0.33333334,0.5522388,0,0.0,0.0,0.0,0.0,0.21205248,0,0,0.0,0.0,0,0,128.0,0.0,54.0,4599.48717948718,3920.5128205128212,4504.102564102564,4432.307692307693,4247.179487179487,4552.820512820514,4460.000000000001,4446.153846153847,4401.538461538462,4751.282051282052,4329.2307692307695,4277.948717948719,4206.153846153847,4475.384615384616
1847.3453,0.6409263,1.0,0.33333334,0.5522388,0,0.0,0.0,0.0,0.0,0.14285173,0,0,0.0,0.0,0,0,27.0,0.0,0.0,4616.923076923077,3925.1282051282055,4506.666666666667,4433.333333333334,4251.282051282052,4555.384615384616,4460.512820512821,4430.256410256411,4393.333333333334,4724.615384615386,4326.153846153847,4278.974358974359,4200.000000000001,4476.410256410257
1847.6268,0.7430789,1.0,0.33333334,0.5522388,1,0.0,0.0,0.0,0.0,0.0,0,0,0.0,0.0,0,0,63.0,0.0,0.0,4660.512820512821,3992.820512820513,4544.615384615385,4482.051282051282,4302.051282051282,4605.128205128206,4523.589743589744,4502.564102564103,4424.615384615385,4775.384615384616,4355.8974358974365,4310.256410256411,4231.282051282052,4508.205128205129
1847.7207,0.7430789,1.0,0.33333334,0.5522388,0,0.0,0.0,0.0,0.0,0.0,0,0,0.0,0.0,0,0,75.0,0.0,469.0,4630.256410256411,3956.9230769230776,4503.589743589744,4458.461538461539,4267.179487179487,4572.307692307693,4486.666666666667,4444.102564102564,4409.2307692307695,4742.051282051282,4341.025641025642,4266.153846153847,4215.8974358974365,4468.717948717949
1848.1273,0.84848654,1.0,0.33333334,0.5522388,0,0.0,0.0,0.0,0.0,0.0,0,0,0.0,0.0,0,0,127.0,0.0,469.0,4622.051282051282,3969.7435897435903,4493.333333333334,4417.948717948719,4247.179487179487,4541.538461538462,4460.512820512821,4421.025641025642,4396.410256410257,4703.589743589744,4331.282051282052,4254.871794871796,4164.102564102564,4478.461538461539
1848.4088,0.84848654,1.0,0.33333334,0.5522388,0,0.0,0.0,0.0,0.0,0.0,0,0,0.0,0.0,0,0,34.0,0.0,0.0,4620.512820512821,3926.666666666667,4490.769230769231,4423.589743589744,4234.871794871796,4540.512820512821,4459.48717948718,4396.410256410257,4387.6923076923085,4690.769230769231,4326.666666666667,4235.8974358974365,4153.846153846154,4460.512820512821
1848.6277,0.75541747,1.0,0.33333334,0.5522388,0,0.0,0.0,0.0,0.0,0.13198504,0,0,0.0,0.0,0,0,62.0,0.0,0.0,4617.948717948719,3926.666666666667,4492.820512820514,4421.025641025642,4233.333333333334,4540.000000000001,4457.948717948719,4423.589743589744,4395.8974358974365,4686.153846153847,4329.2307692307695,4234.871794871796,4143.076923076924,4454.358974358975
1848.8467,0.75541747,1.0,0.33333334,0.5522388,0,0.0,0.0,0.0,0.0,0.025322573,0,0,0.0,0.0,0,0,90.0,0.0,525.0,4608.205128205129,3923.076923076924,4493.333333333334,4421.025641025642,4240.512820512821,4537.948717948719,4466.153846153847,4441.025641025642,4397.435897435898,4695.384615384616,4330.256410256411,4230.769230769231,4147.179487179487,4445.128205128206
1849.1282,0.6784849,1.0,0.33333334,0.5522388,1,0.0,0.0,0.0,0.0,0.0,0,0,0.0,0.0,0,0,126.0,0.0,525.0,4633.846153846154,3941.538461538462,4509.743589743591,4415.384615384616,4242.564102564103,4542.051282051282,4458.974358974359,4446.153846153847,4409.2307692307695,4734.358974358975,4340.000000000001,4270.769230769231,4198.974358974359,4491.282051282052
1849.2845,0.6784849,1.0,0.33333334,0.5522388,0,0.0,0.0,0.0,0.0,0.0,0,0,0.0,0.0,0,0,17.0,0.0,0.0,4620.000000000001,3928.717948717949,4513.846153846154,4424.615384615385,4246.666666666667,4552.307692307693,4477.435897435898,4460.512820512821,4416.410256410257,4747.179487179488,4344.102564102564,4270.256410256411,4200.512820512821,4492.307692307693
1849.6285,0.53828126,1.0,0.33333334,0.5522388,0,0.0,0.0,0.0,0.0,0.0,0,0,0.0,0.0,0,0,61.0,0.0,0.0,4649.743589743591,3970.2564102564106,4544.615384615385,4473.846153846154,4282.051282051282,4587.179487179488,4508.717948717949,4490.256410256411,4439.48717948718,4767.6923076923085,4354.871794871796,4295.384615384616,4227.179487179487,4506.153846153847
1849.6285,0.53828126,1.0,0.33333334,0.5522388,0,0.0,0.0,0.0,0.0,0.0,0,0,0.0,0.0,0,0,61.0,0.0,0.0,4649.743589743591,3970.2564102564106,4544.615384615385,4473.846153846154,4282.051282051282,4587.179487179488,4508.717948717949,4490.256410256411,4439.48717948718,4767.6923076923085,4354.871794871796,4295.384615384616,4227.179487179487,4506.153846153847
1850.129,0.53254455,1.0,0.33333334,0.5522388,0,0.0,0.0,0.0,0.0,0.0,0,0,0.0,0.0,0,0,125.0,0.0,494.0,4587.179487179488,3924.1025641025644,4481.538461538462,4427.179487179487,4233.846153846154,4535.384615384616,4430.256410256411,4391.282051282052,4387.6923076923085,4684.102564102564,4330.769230769231,4222.051282051282,4134.871794871796,4444.102564102564
1850.348,0.53254455,1.0,0.33333334,0.5522388,0,0.0,0.0,0.0,0.0,0.08241417,0,0,0.0,0.0,0,0,24.0,0.0,0.0,4580.000000000001,3900.5128205128212,4474.871794871796,4421.538461538462,4228.717948717949,4521.025641025642,4441.025641025642,4409.2307692307695,4395.8974358974365,4709.743589743591,4335.8974358974365,4220.512820512821,4157.948717948719,4427.179487179487
1850.6295,0.52654713,1.0,0.33333334,0.5522388,1,0.0,0.0,0.0,0.0,0.11403352,0,0,0.0,0.0,0,0,60.0,0.0,0.0,4611.282051282052,3962.564102564103,4495.384615384616,4426.153846153847,4232.820512820514,4537.948717948719,4446.153846153847,4415.384615384616,4400.512820512821,4717.435897435898,4339.48717948718,4244.102564102564,4166.666666666667,4436.410256410257
1850.8484,0.52654713,1.0,0.33333334,0.5522388,0,0.0,0.0,0.0,0.0,0.14163217,0,0,0.0,0.0,0,0,88.0,0.0,54.0,4606.666666666667,3941.0256410256416,4499.48717948718,4422.051282051282,4234.358974358975,4536.923076923077,4442.051282051282,4409.743589743591,4394.358974358975,4702.564102564103,4330.769230769231,4240.000000000001,4136.410256410257,4426.666666666667
1851.1299,0.49458477,0.96785533,0.33333334,0.5522388,0,0.0,0.0,0.0,0.0,0.12269478,0,0,0.0,0.0,0,0,124.0,0.0,54.0,4614.871794871796,3908.205128205129,4496.923076923077,4423.076923076924,4231.282051282052,4534.871794871796,4447.6923076923085,4428.205128205129,4411.794871794872,4731.794871794872,4338.461538461539,4248.205128205129,4171.282051282052,4447.6923076923085
1851.3489,0.49458477,0.96785533,0.33333334,0.5522388,0,0.0,0.0,0.0,0.0,0.06526907,0,0,0.0,0.0,0,0,23.0,0.0,0.0,4602.564102564103,3923.589743589744,4488.717948717949,4430.256410256411,4242.051282051282,4539.48717948718,4442.051282051282,4408.717948717949,4399.48717948718,4706.153846153847,4335.384615384616,4217.435897435898,4125.641025641026,4435.384615384616
1851.6304,0.43636227,0.9227448,0.33333334,0.5522388,0,0.0,0.0,0.0,0.0,0.05446784,0,0,0.0,0.0,0,0,59.0,0.0,0.0,4598.974358974359,3908.717948717949,4507.179487179488,4428.717948717949,4243.589743589744,4540.000000000001,4462.051282051282,4442.564102564103,4411.282051282052,4736.923076923077,4338.974358974359,4242.564102564103,4157.435897435898,4448.717948717949
1851.8492,0.43636227,0.9227448,0.33333334,0.5522388,0,0.0,0.0,0.0,0.0,0.1523862,0,0,0.0,0.0,1,0,87.0,0.0,469.0,4621.025641025642,3968.205128205129,4508.205128205129,4426.153846153847,4235.384615384616,4537.948717948719,4443.589743589744,4413.846153846154,4397.435897435898,4705.128205128206,4338.461538461539,4233.846153846154,4151.794871794872,4457.948717948719
1852.162,0.38666576,0.8959652,0.33333334,0.5522388,0,0.0,0.0,0.0,0.0,0.19306326,0,0,0.0,0.0,0,0,127.0,0.0,469.0,4567.6923076923085,3876.410256410257,4474.358974358975,4439.48717948718,4233.333333333334,4536.923076923077,4445.641025641026,4423.589743589744,4404.615384615385,4731.794871794872,4335.8974358974365,4200.000000000001,4129.2307692307695,4392.307692307693
1852.3497,0.38666576,0.8959652,0.33333334,0.5522388,0,0.0,0.0,0.0,0.0,0.1690508,0,0,0.0,0.0,0,0,22.0,0.0,0.0,4618.974358974359,3924.1025641025644,4504.615384615385,4443.076923076924,4248.205128205129,4553.333333333334,4456.923076923077,4435.384615384616,4410.769230769231,4730.256410256411,4340.512820512821,4246.153846153847,4151.794871794872,4425.641025641026
1852.6312,0.40693888,0.9559985,0.33333334,0.5522388,0,0.0,0.0,0.0,0.0,0.18167944,0,0,0.0,0.0,0,0,58.0,0.0,0.0,4625.641025641026,3915.8974358974365,4517.435897435898,4438.974358974359,4245.641025641026,4541.538461538462,4459.48717948718,4439.48717948718,4416.923076923077,4731.282051282052,4342.564102564103,4256.923076923077,4156.923076923077,4461.025641025642
1852.725,0.40693888,0.9559985,0.33333334,0.5522388,0,0.0,0.0,0.0,0.0,0.0,0,0,0.0,0.0,0,0,70.0,0.0,548.0,4616.923076923077,3924.615384615385,4507.179487179488,4439.48717948718,4248.717948717949,4546.666666666667,4457.435897435898,4430.256410256411,4411.794871794872,4729.743589743591,4341.025641025642,4244.615384615385,4145.641025641026,4455.384615384616
1853.1316,0.3130095,0.94569564,0.33333334,0.5522388,0,0.0,0.0,0.0,0.0,0.0,0,0,0.0,0.0,1,0,122.0,0.0,525.0,4647.179487179488,3978.9743589743593,4521.025641025642,4438.461538461539,4244.615384615385,4549.743589743591,4459.48717948718,4427.6923076923085,4411.794871794872,4736.923076923077,4345.128205128206,4259.48717948718,4167.179487179487,4504.102564102564
1853.3506,0.3130095,0.94569564,0.33333334,0.5522388,0,0.0,0.0,0.0,0.0,0.15447576,0,0,0.0,0.0,1,0,21.0,0.0,0.0,4597.435897435898,3894.358974358975,4491.794871794872,4440.000000000001,4236.410256410257,4538.974358974359,4445.641025641026,4424.615384615385,4412.307692307693,4721.025641025642,4336.923076923077,4230.256410256411,4153.333333333334,4460.512820512821
1853.6321,0.33621302,1.0,0.33333334,0.5522388,0,0.0,0.0,0.0,0.0,0.119493075,0,0,0.0,0.0,0,0,57.0,0.0,0.0,4711.794871794872,4123.076923076924,4549.743589743591,4428.717948717949,4233.846153846154,4538.461538461539,4425.641025641026,4408.205128205129,4396.410256410257,4721.538461538462,4346.666666666667,4309.743589743591,4263.076923076924,4625.641025641026
1853.851,0.33621302,1.0,0.33333334,0.5522388,0,0.0,0.0,0.0,0.0,0.18174106,0,0,0.0,0.0,1,0,85.0,0.0,494.0,4589.743589743591,3902.564102564103,4506.666666666667,4442.564102564103,4249.2307692307695,4545.641025641026,4451.282051282052,4410.769230769231,4394.871794871796,4714.871794871796,4335.384615384616,4232.820512820514,4155.8974358974365,4493.333333333334
1854.1324,0.30335483,1.0,0.33333334,0.5522388,0,0.0,0.0,0.0,0.0,0.16455202,0,0,0.0,0.0,0,0,121.0,0.0,494.0,4726.666666666667,4152.307692307693,4575.384615384616,4427.6923076923085,4243.589743589744,4541.025641025642,4464.615384615385,4441.538461538462,4413.333333333334,4804.102564102564,4365.641025641026,4397.948717948719,4434.871794871796,4747.179487179488
1854.3514,0.30335483,1.0,0.33333334,0.5522388,0,0.0,0.0,0.0,0.0,0.16683881,0,0,0.0,0.0,0,1,20.0,0.0,0.0,4675.384615384616,3962.0512820512827,4572.820512820514,4451.282051282052,4276.923076923077,4566.153846153847,4503.076923076924,4486.666666666667,4443.076923076924,4828.205128205129,4379.48717948718,4343.589743589744,4297.948717948719,4602.051282051282
1854.6329,0.38273716,1.0,0.33333334,0.5522388,0,0.0,0.0,0.0,0.0,0.07354611,0,0,0.0,0.0,0,0,56.0,0.0,0.0,4665.128205128206,3958.9743589743593,4586.153846153847,4452.820512820514,4303.589743589744,4582.564102564103,4538.461538461539,4532.820512820514,4447.6923076923085,4783.076923076924,4381.025641025642,4341.025641025642,4246.153846153847,4601.538461538462
1854.8518,0.38273716,1.0,0.33333334,0.5522388,1,0.0,0.0,0.0,0.0,0.13390878,0,0,0.0,0.0,0,0,84.0,0.0,54.0,4657.435897435898,3935.8974358974365,4565.128205128206,4443.076923076924,4278.974358974359,4553.333333333334,4489.2307692307695,4460.000000000001,4418.461538461539,4748.205128205129,4370.769230769231,4309.743589743591,4199.48717948718,4541.538461538462
1855.1333,0.49188647,1.0,0.33333334,0.5522388,0,0.0,0.0,0.0,0.0,0.17871661,0,0,0.0,0.0,0,0,120.0,0.0,54.0,4671.282051282052,3969.7435897435903,4567.179487179488,4453.333333333334,4265.128205128206,4550.256410256411,4482.564102564103,4481.025641025642,4433.846153846154,4767.179487179488,4369.743589743591,4310.256410256411,4219.48717948718,4540.512820512821
1855.4148,0.49188647,1.0,0.33333334,0.5522388,0,0.0,0.0,0.0,0.0,0.100438826,0,0,0.0,0.0,0,0,27.0,0.0,0.0,4611.282051282052,3876.410256410257,4521.538461538462,4448.205128205129,4247.179487179487,4532.820512820514,4475.384615384616,4458.974358974359,4412.820512820514,4736.923076923077,4356.410256410257,4249.2307692307695,4153.846153846154,4443.076923076924
1855.6338,0.4940185,1.0,0.33333334,0.5522388,1,0.0,0.0,0.0,0.0,0.14817058,0,0,0.0,0.0,0,0,55.0,0.0,0.0,4655.8974358974365,3946.666666666667,4553.333333333334,4467.6923076923085,4267.179487179487,4560.000000000001,4476.410256410257,4455.8974358974365,4420.000000000001,4748.205128205129,4357.948717948719,4286.666666666667,4187.179487179487,4485.128205128206
1855.8527,0.4940185,1.0,0.33333334,0.5522388,0,0.0,0.0,0.0,0.0,0.14144465,0,0,0.0,0.0,0,0,83.0,0.0,467.0,4594.871794871796,3853.8461538461543,4505.641025641026,4459.48717948718,4246.153846153847,4536.923076923077,4458.461538461539,4429.2307692307695,4408.717948717949,4721.025641025642,4344.102564102564,4231.282051282052,4146.153846153847,4432.820512820514
1856.1342,0.5522886,1.0,0.33333334,0.5522388,0,0.0,0.0,0.0,0.0,0.11975675,0,0,0.0,0.0,0,0,119.0,0.0,467.0,4668.205128205129,4004.1025641025644,4531.794871794872,4442.564102564103,4245.641025641026,4540.512820512821,4443.076923076924,4411.794871794872,4400.512820512821,4704.615384615386,4349.743589743591,4269.2307692307695,4206.153846153847,4551.794871794872
1856.4156,0.5522886,1.0,0.33333334,0.5522388,0,0.0,0.0,0.0,0.0,0.15855245,0,0,0.0,0.0,0,0,26.0,0.0,0.0,4623.076923076924,3877.435897435898,4536.410256410257,4460.000000000001,4245.641025641026,4542.051282051282,4462.051282051282,4465.641025641026,4428.205128205129,4760.000000000001,4353.333333333334,4250.769230769231,4171.282051282052,4462.051282051282
1856.6346,0.48849696,1.0,0.33333334,0.5522388,0,0.0,0.0,0.0,0.0,0.21212758,0,0,0.0,0.0,0,0,54.0,0.0,0.0,4598.461538461539,3881.538461538462,4569.743589743591,4454.871794871796,4246.153846153847,4540.512820512821,4444.615384615385,4422.564102564103,4407.179487179487,4733.333333333334,4346.666666666667,4215.8974358974365,4125.128205128206,4440.000000000001
1856.8535,0.48849696,1.0,0.33333334,0.5522388,0,0.0,0.0,0.0,0.0,0.0,0,0,0.0,0.0,0,0,82.0,0.0,525.0,4589.743589743591,3878.461538461539,4642.051282051282,4431.794871794872,4242.051282051282,4541.025641025642,4445.128205128206,4416.923076923077,4397.435897435898,4718.974358974359,4341.538461538462,4216.410256410257,4116.923076923077,4436.410256410257
1857.135,0.4890743,1.0,0.33333334,0.5522388,0,0.0,0.0,0.0,0.0,0.0,0,0,0.0,0.0,1,0,118.0,0.0,525.0,4616.923076923077,3910.2564102564106,4696.410256410257,4438.461538461539,4235.384615384616,4542.564102564103,4458.461538461539,4428.717948717949,4400.000000000001,4727.179487179488,4350.256410256411,4236.410256410257,4163.589743589744,4457.948717948719
1857.4165,0.4890743,1.0,0.33333334,0.5522388,0,0.0,0.0,0.0,0.0,0.12782085,0,0,0.0,0.0,0,0,25.0,0.0,0.0,4606.666666666667,3881.538461538462,4681.538461538462,4434.358974358975,4234.871794871796,4540.000000000001,4445.128205128206,4434.871794871796,4398.461538461539,4737.948717948719,4346.153846153847,4220.000000000001,4144.615384615385,4459.48717948718
1857.6667,0.45727777,1.0,0.33333334,0.5522388,0,0.0,0.0,0.0,0.0,0.19800511,0,0,0.0,0.0,1,0,57.0,0.0,0.0,4624.615384615385,3934.358974358975,4664.615384615386,4421.538461538462,4233.846153846154,4535.8974358974365,4442.564102564103,4442.564102564103,4399.48717948718,4712.820512820514,4346.153846153847,4245.128205128206,4171.282051282052,4488.205128205129
1857.8544,0.45727777,1.0,0.33333334,0.5522388,0,0.0,0.0,0.0,0.0,0.12554498,0,0,0.0,0.0,1,0,81.0,0.0,494.0,4549.743589743591,3829.7435897435903,4607.6923076923085,4437.435897435898,4214.358974358975,4511.282051282052,4441.025641025642,4447.6923076923085,4397.435897435898,4720.512820512821,4340.000000000001,4198.461538461539,4152.307692307693,4410.256410256411
1858.1359,0.41768453,1.0,0.33333334,0.5522388,0,0.0,0.0,0.0,0.0,0.17523745,0,0,0.0,0.0,0,0,117.0,0.0,494.0,4516.410256410257,3795.8974358974365,4553.333333333334,4437.948717948719,4202.051282051282,4503.589743589744,4438.974358974359,4446.153846153847,4396.923076923077,4724.615384615386,4333.333333333334,4183.589743589744,4137.435897435898,4339.48717948718
1858.3549,0.41768453,1.0,0.33333334,0.5522388,0,0.0,0.0,0.0,0.0,0.23304905,0,0,0.0,0.0,0,0,16.0,0.0,0.0,4454.358974358975,3895.3846153846157,4487.179487179488,4407.179487179487,4151.282051282052,4473.846153846154,4389.2307692307695,4375.384615384616,4349.743589743591,4660.000000000001,4319.48717948718,4136.410256410257,4078.9743589743593,4309.2307692307695
1858.6364,0.48894837,1.0,0.33333334,0.5522388,1,0.0,0.0,0.0,0.0,0.043329142,0,0,0.0,0.0,0,0,52.0,0.0,0.0,4504.615384615385,3891.2820512820517,4438.461538461539,4452.307692307693,4154.871794871796,4488.717948717949,4371.282051282052,4383.589743589744,4367.179487179487,4676.923076923077,4415.384615384616,4157.435897435898,4117.948717948719,4329.743589743591
1858.8552,0.48894837,1.0,0.33333334,0.5522388,0,0.0,0.0,0.0,0.0,0.074845776,0,0,0.0,0.0,0,0,80.0,0.0,54.0,4536.923076923077,3914.8717948717954,4472.820512820514,4566.666666666667,4269.2307692307695,4589.743589743591,4478.974358974359,4476.923076923077,4412.307692307693,4772.820512820514,4351.282051282052,4229.2307692307695,4182.564102564103,4383.076923076924
1859.1367,0.5837098,1.0,0.33333334,0.5522388,0,0.0,0.0,0.4991715,0.0,0.0,0,0,0.0,0.0,0,0,116.0,0.0,54.0,4586.153846153847,3897.435897435898,4472.820512820514,4710.256410256411,4301.025641025642,4618.974358974359,4491.282051282052,4502.564102564103,4420.000000000001,4841.538461538462,4374.358974358975,4277.948717948719,4267.6923076923085,4457.948717948719
1859.387,0.5837098,1.0,0.33333334,0.5522388,1,0.0,0.0,0.0662493,0.0,0.0,0,0,0.0,0.0,0,0,19.0,0.0,0.0,4619.48717948718,3984.1025641025644,4451.794871794872,4403.076923076924,4273.333333333334,4586.666666666667,4464.615384615385,4452.820512820514,4398.974358974359,4793.333333333334,4327.6923076923085,4276.410256410257,4260.512820512821,4553.333333333334
1859.6372,0.55782354,1.0,0.33333334,0.5522388,0,0.0,0.1506055,0.0,0.0,0.0,0,0,0.0,0.0,0,0,51.0,0.0,0.0,4587.179487179488,3916.9230769230776,4417.948717948719,4374.871794871796,4228.205128205129,4537.948717948719,4423.589743589744,4414.358974358975,4382.564102564103,4757.435897435898,4337.948717948719,4245.641025641026,4204.102564102564,4473.333333333334
1859.8561,0.55782354,1.0,0.33333334,0.5522388,0,0.0,0.0,0.0,0.0,0.17287359,0,0,0.0,0.0,0,0,79.0,0.0,467.0,4566.153846153847,3869.7435897435903,4397.435897435898,4534.358974358975,4210.256410256411,4509.743589743591,4417.435897435898,4404.102564102564,4371.282051282052,4725.641025641026,4313.333333333334,4227.179487179487,4196.923076923077,4471.282051282052
1860.169,0.49444163,1.0,0.33333334,0.5522388,0,0.0,0.0,0.0,0.0,0.1637864,0,0,0.0,0.0,0,0,119.0,0.0,467.0,4577.435897435898,3875.3846153846157,4381.538461538462,4327.6923076923085,4184.102564102564,4491.282051282052,4389.2307692307695,4380.000000000001,4369.743589743591,4686.666666666667,4310.769230769231,4205.128205128206,4166.666666666667,4533.333333333334
1860.3566,0.49444163,1.0,0.33333334,0.5522388,1,0.0,0.0,0.0,0.0,0.34808734,0,0,0.0,0.0,0,0,14.0,0.0,526.0,4624.615384615385,3964.1025641025644,4422.051282051282,4337.948717948719,4198.461538461539,4492.820512820514,4418.974358974359,4406.666666666667,4374.871794871796,4665.641025641026,4313.333333333334,4256.410256410257,4192.307692307693,4647.179487179488
1860.6693,0.53031456,1.0,0.33333334,0.5522388,1,0.0,0.0,0.0,0.0,0.1986844,0,0,0.0,0.0,0,0,54.0,0.0,0.0,4602.051282051282,3976.9230769230776,4414.358974358975,4359.48717948718,4221.025641025642,4494.358974358975,4414.358974358975,4393.846153846154,4370.769230769231,4649.743589743591,4286.153846153847,4253.846153846154,4170.256410256411,4570.769230769231
1860.857,0.53031456,1.0,0.33333334,0.5522388,0,0.0,0.0,0.0,0.0,0.33882076,0,0,0.0,0.0,0,0,78.0,0.0,526.0,4579.48717948718,3917.435897435898,4406.666666666667,4382.564102564103,4230.769230769231,4498.461538461539,4425.128205128206,4402.051282051282,4378.461538461539,4634.358974358975,4301.538461538462,4232.820512820514,4122.564102564103,4489.743589743591
1861.1384,0.5417216,1.0,0.33333334,0.5522388,0,0.0,0.0,0.0,0.0,0.4666443,0,0,0.0,0.0,0,0,114.0,0.0,526.0,4566.153846153847,3918.461538461539,4414.358974358975,4394.871794871796,4232.820512820514,4513.333333333334,4430.256410256411,4387.6923076923085,4366.153846153847,4603.076923076924,4296.923076923077,4208.717948717949,4065.6410256410263,4458.974358974359
1861.3574,0.5417216,1.0,0.33333334,0.5522388,0,0.0,0.0,0.0,0.0,0.060661614,0,0,0.0,0.0,0,0,13.0,0.0,494.0,4556.410256410257,3909.7435897435903,4404.615384615385,4400.512820512821,4222.564102564103,4506.153846153847,4419.48717948718,4372.307692307693,4356.923076923077,4589.743589743591,4296.410256410257,4191.282051282052,4052.820512820513,4442.051282051282
1861.6389,0.5920763,1.0,0.33333334,0.5522388,0,0.0,0.0,0.0,0.0,0.05919753,0,0,0.0,0.0,0,0,49.0,0.0,0.0,4567.6923076923085,3907.1794871794878,4431.282051282052,4413.846153846154,4233.333333333334,4521.538461538462,4430.256410256411,4376.923076923077,4364.102564102564,4606.666666666667,4297.948717948719,4217.435897435898,4077.9487179487187,4454.358974358975
1861.8579,0.5920763,1.0,0.33333334,0.5522388,0,0.0,0.0,0.0,0.0,0.081097454,0,0,0.0,0.0,0,0,77.0,0.0,494.0,4578.461538461539,3901.538461538462,4433.333333333334,4410.256410256411,4221.025641025642,4519.48717948718,4442.564102564103,4403.076923076924,4378.461538461539,4640.512820512821,4307.6923076923085,4234.358974358975,4144.615384615385,4483.076923076924
1862.1394,0.55526406,1.0,0.33333334,0.5522388,0,0.0,0.0,0.0,0.0,0.06984779,0,0,0.0,0.0,0,0,113.0,0.0,494.0,4592.820512820514,3928.205128205129,4447.6923076923085,4417.435897435898,4230.769230769231,4524.615384615385,4442.051282051282,4396.923076923077,4370.256410256411,4653.846153846154,4311.282051282052,4233.333333333334,4154.358974358975,4503.076923076924
1862.3583,0.55526406,1.0,0.33333334,0.5522388,0,0.0,0.0,0.0,0.0,0.0,0,0,0.0,0.0,1,0,12.0,0.0,53.0,4653.333333333334,4031.2820512820517,4485.641025641026,4423.589743589744,4244.615384615385,4537.435897435898,4438.974358974359,4393.333333333334,4370.769230769231,4649.743589743591,4316.923076923077,4280.000000000001,4183.589743589744,4560.512820512821
1862.6398,0.5244484,1.0,0.33333334,0.5522388,0,0.0,0.0,0.0,0.0,0.12979238,0,0,0.0,0.0,1,0,48.0,0.0,0.0,4601.025641025642,3935.3846153846157,4463.076923076924,4435.8974358974365,4247.179487179487,4540.512820512821,4460.000000000001,4422.564102564103,4378.461538461539,4662.051282051282,4314.871794871796,4243.589743589744,4146.666666666667,4507.6923076923085
1862.8588,0.5244484,1.0,0.33333334,0.5522388,0,0.0,0.0,0.0,0.0,0.15250361,0,0,0.0,0.0,1,0,76.0,0.0,53.0,4654.871794871796,4009.23076923077,4493.846153846154,4429.2307692307695,4243.589743589744,4538.461538461539,4463.076923076924,4418.461538461539,4382.564102564103,4685.641025641026,4323.589743589744,4289.74358974359,4201.538461538462,4566.153846153847
1863.1403,0.49361134,1.0,0.33333334,0.5522388,0,0.0,0.0,0.0,0.0,0.12816705,0,0,0.0,0.0,1,0,112.0,0.0,53.0,4594.871794871796,3909.7435897435903,4457.948717948719,4427.179487179487,4230.256410256411,4530.769230769231,4455.384615384616,4407.6923076923085,4366.666666666667,4657.435897435898,4311.794871794872,4229.74358974359,4137.435897435898,4501.538461538462
1863.3591,0.49361134,1.0,0.33333334,0.5522388,0,0.0,0.0,0.0,0.0,0.21039224,0,0,0.0,0.0,0,0,11.0,0.0,467.0,4611.794871794872,3925.1282051282055,4480.000000000001,4430.769230769231,4235.384615384616,4538.974358974359,4459.48717948718,4422.564102564103,4382.051282051282,4690.769230769231,4321.025641025642,4251.794871794872,4162.051282051282,4489.2307692307695
1863.6406,0.39423892,1.0,0.33333334,0.5522388,0,0.0,0.0,0.0,0.0,0.4728142,0,0,0.0,0.0,0,0,47.0,0.0,0.0,4728.717948717949,4155.384615384616,4532.307692307693,4409.743589743591,4229.2307692307695,4536.923076923077,4446.153846153847,4395.8974358974365,4364.615384615385,4661.538461538462,4325.128205128206,4324.615384615385,4237.435897435898,4592.820512820514
1863.8909,0.39423892,1.0,0.33333334,0.5522388,0,0.0,0.0,0.0,0.0,0.15192501,0,0,0.0,0.0,0,0,79.0,0.0,467.0,4611.282051282052,3916.410256410257,4489.2307692307695,4435.384615384616,4247.6923076923085,4543.076923076924,4461.025641025642,4423.589743589744,4384.102564102564,4686.153846153847,4317.435897435898,4247.6923076923085,4126.666666666667,4429.2307692307695
1864.1411,0.31120124,1.0,0.33333334,0.5522388,0,0.0,0.0,0.0,0.0,0.19426242,0,0,0.0,0.0,0,0,111.0,0.0,467.0,4591.282051282052,3911.2820512820517,4468.717948717949,4425.128205128206,4233.846153846154,4536.410256410257,4442.051282051282,4396.923076923077,4376.410256410257,4672.307692307693,4312.307692307693,4222.564102564103,4097.435897435898,4392.820512820514
1864.36,0.31120124,1.0,0.33333334,0.5522388,0,0.0,0.0,0.0,0.0,0.37194306,0,0,0.0,0.0,0,0,10.0,0.0,526.0,4608.717948717949,3924.1025641025644,4477.435897435898,4417.435897435898,4244.102564102564,4540.512820512821,4457.948717948719,4422.564102564103,4377.948717948719,4675.384615384616,4315.8974358974365,4236.923076923077,4117.435897435898,4383.076923076924
1864.6415,0.31587446,1.0,0.33333334,0.5522388,0,0.0,0.0,0.0,0.0,0.13699433,0,0,0.0,0.0,1,0,46.0,0.0,0.0,4606.666666666667,3940.5128205128212,4484.102564102564,4423.076923076924,4243.589743589744,4540.000000000001,4450.256410256411,4412.820512820514,4374.871794871796,4668.205128205129,4318.461538461539,4238.461538461539,4122.051282051282,4369.743589743591
1864.923,0.31587446,1.0,0.33333334,0.5522388,0,0.0,0.0,0.0,0.0,0.16610704,0,0,0.0,0.0,0,0,82.0,0.0,526.0,4601.538461538462,3908.205128205129,4477.435897435898,4421.538461538462,4238.974358974359,4536.923076923077,4446.153846153847,4412.307692307693,4373.846153846154,4680.512820512821,4316.410256410257,4232.820512820514,4148.205128205129,4365.641025641026
1865.142,0.26066804,1.0,0.33333334,0.5522388,0,0.0,0.0,0.0,0.0,0.15591678,0,0,0.0,0.0,1,0,110.0,0.0,526.0,4619.48717948718,3950.2564102564106,4484.615384615385,4423.589743589744,4245.641025641026,4542.051282051282,4447.179487179487,4404.615384615385,4375.384615384616,4683.076923076924,4318.461538461539,4243.076923076924,4164.615384615385,4405.128205128206
1865.3608,0.26066804,1.0,0.33333334,0.5522388,0,0.0,0.0,0.0,0.0,0.13287003,0,0,0.0,0.0,1,0,9.0,0.0,478.0,4579.48717948718,3908.717948717949,4467.179487179487,4434.871794871796,4249.2307692307695,4551.282051282052,4446.153846153847,4408.717948717949,4367.179487179487,4653.333333333334,4313.333333333334,4185.128205128206,4084.1025641025644,4376.410256410257
1865.6423,0.21520647,1.0,0.33333334,0.5522388,0,0.0,0.0,0.0,0.0,0.1497953,0,0,0.0,0.0,0,0,45.0,0.0,0.0,4571.282051282052,3891.2820512820517,4461.538461538462,4418.974358974359,4247.179487179487,4538.974358974359,4455.384615384616,4407.6923076923085,4365.128205128206,4659.48717948718,4313.333333333334,4196.923076923077,4121.538461538462,4422.564102564103
1865.9238,0.21520647,1.0,0.33333334,0.5522388,0,0.0,0.0,0.0,0.0,0.38532943,0,0,0.0,0.0,0,1,81.0,0.0,494.0,4651.282051282052,3924.1025641025644,4521.538461538462,4419.48717948718,4245.641025641026,4548.717948717949,4486.666666666667,4459.48717948718,4404.615384615385,4766.666666666667,4338.974358974359,4308.205128205129,4328.717948717949,4545.641025641026
1866.1741,0.30927107,1.0,0.33333334,0.5522388,0,0.0,0.0,0.0,0.0,0.27813202,0,0,0.0,0.0,0,0,113.0,0.0,494.0,4668.205128205129,3929.7435897435903,4537.948717948719,4422.051282051282,4250.769230769231,4555.384615384616,4489.743589743591,4476.410256410257,4414.871794871796,4782.564102564103,4348.717948717949,4332.820512820514,4376.410256410257,4531.282051282052
1866.3617,0.30927107,1.0,0.33333334,0.5522388,0,0.0,0.0,0.0,0.0,0.57276255,0,0,0.0,0.0,0,0,8.0,0.0,379.0,4636.923076923077,3907.692307692308,4521.025641025642,4420.000000000001,4244.102564102564,4540.512820512821,4475.384615384616,4456.923076923077,4409.743589743591,4765.641025641026,4343.589743589744,4304.615384615385,4338.974358974359,4518.974358974359
1866.6432,0.35004553,1.0,0.33333334,0.5522388,0,0.0,0.0,0.0,0.0,0.14302069,0,0,0.0,0.0,0,0,44.0,0.0,0.0,4621.025641025642,3931.7948717948725,4500.000000000001,4426.153846153847,4235.384615384616,4538.974358974359,4464.102564102564,4432.820512820514,4397.435897435898,4736.410256410257,4336.410256410257,4262.564102564103,4268.205128205129,4478.974358974359
1866.8622,0.35004553,1.0,0.33333334,0.5522388,0,0.0,0.0,0.0,0.0,0.20808968,0,0,0.0,0.0,0,0,72.0,0.0,379.0,4620.000000000001,3924.615384615385,4500.512820512821,4425.128205128206,4240.512820512821,4545.128205128206,4463.076923076924,4429.2307692307695,4400.000000000001,4721.538461538462,4332.820512820514,4257.435897435898,4263.076923076924,4443.589743589744
1867.1437,0.37871736,1.0,0.33333334,0.5522388,0,0.0,0.0,0.0,0.0,0.55824095,0,0,0.0,0.0,0,0,108.0,0.0,53.0,4620.000000000001,3908.205128205129,4490.769230769231,4427.6923076923085,4232.820512820514,4538.461538461539,4458.974358974359,4426.153846153847,4398.461538461539,4733.846153846154,4335.384615384616,4248.717948717949,4263.076923076924,4411.794871794872
1867.3625,0.37871736,1.0,0.33333334,0.5522388,0,0.0,0.0,0.0,0.0,0.0,0,0,0.0,0.0,0,0,7.0,0.0,467.0,4622.051282051282,3895.3846153846157,4493.333333333334,4436.410256410257,4238.974358974359,4540.512820512821,4461.025641025642,4443.076923076924,4413.846153846154,4741.538461538462,4335.8974358974365,4247.179487179487,4261.025641025642,4402.051282051282
1867.644,0.36239254,1.0,0.33333334,0.5522388,0,0.0,0.0,0.0,0.0,0.0,0,0,0.0,0.0,0,0,43.0,0.0,0.0,4642.564102564103,3918.9743589743593,4507.6923076923085,4441.025641025642,4246.153846153847,4550.769230769231,4457.435897435898,4429.2307692307695,4408.717948717949,4746.666666666667,4342.564102564103,4273.846153846154,4274.358974358975,4415.8974358974365
1867.8004,0.36239254,1.0,0.33333334,0.5522388,0,0.0,0.0,0.0,0.0,0.0,0,0,0.0,0.0,1,0,63.0,0.0,0.0,4680.000000000001,4002.564102564103,4527.179487179488,4422.051282051282,4232.820512820514,4538.461538461539,4444.102564102564,4412.820512820514,4395.8974358974365,4689.2307692307695,4334.871794871796,4274.871794871796,4216.410256410257,4443.076923076924
1868.1445,0.353686,1.0,0.33333334,0.5522388,0,0.0,0.0,0.0,0.0,0.15615343,0,0,0.0,0.0,0,0,107.0,0.0,469.0,4603.076923076924,3951.7948717948725,4487.179487179488,4434.871794871796,4236.923076923077,4534.358974358975,4443.589743589744,4410.256410256411,4392.307692307693,4664.102564102564,4324.615384615385,4210.256410256411,4131.794871794872,4342.564102564103
1868.3634,0.353686,1.0,0.33333334,0.5522388,0,0.0,0.0,0.0,0.0,0.10998873,0,0,0.0,0.0,0,0,6.0,0.0,548.0,4724.615384615386,4207.6923076923085,4541.538461538462,4418.461538461539,4241.025641025642,4541.025641025642,4422.051282051282,4369.743589743591,4372.307692307693,4638.974358974359,4323.076923076924,4296.410256410257,4224.102564102564,4502.051282051282
1868.6449,0.31317624,1.0,0.33333334,0.5522388,0,0.0,0.0,0.0,0.0,0.1211802,0,0,0.0,0.0,1,0,42.0,0.0,0.0,4575.8974358974365,3879.48717948718,4461.025641025642,4437.948717948719,4223.076923076924,4536.410256410257,4428.205128205129,4394.871794871796,4389.2307692307695,4687.179487179488,4318.974358974359,4184.102564102564,4110.256410256411,4387.6923076923085
1868.8639,0.31317624,1.0,0.33333334,0.5522388,0,0.0,0.0,0.0,0.0,0.17894015,0,0,0.0,0.0,0,0,70.0,0.0,548.0,4587.179487179488,3889.2307692307695,4464.615384615385,4443.589743589744,4233.333333333334,4542.051282051282,4439.48717948718,4401.025641025642,4394.871794871796,4704.102564102564,4327.179487179487,4201.025641025642,4143.076923076924,4461.538461538462
1869.1454,0.3647777,1.0,0.33333334,0.5522388,0,0.0,0.0,0.0,0.0,0.7027237,0,0,0.0,0.0,0,0,106.0,0.0,526.0,4588.205128205129,3892.820512820513,4475.384615384616,4441.025641025642,4233.333333333334,4552.307692307693,4446.666666666667,4418.974358974359,4402.051282051282,4718.461538461539,4333.333333333334,4218.974358974359,4155.384615384616,4473.846153846154
1869.3643,0.3647777,1.0,0.33333334,0.5522388,0,0.0,0.0,0.0,0.0,0.055995986,0,0,0.0,0.0,0,0,5.0,0.0,552.0,4577.948717948719,3894.8717948717954,4469.743589743591,4441.538461538462,4237.435897435898,4551.282051282052,4442.051282051282,4406.666666666667,4395.8974358974365,4713.333333333334,4331.282051282052,4214.871794871796,4144.102564102564,4459.48717948718
1869.6458,0.2957346,1.0,0.33333334,0.5522388,0,0.0,0.0,0.0,0.0,0.15026821,0,0,0.0,0.0,0,0,41.0,0.0,0.0,4530.769230769231,3884.1025641025644,4436.923076923077,4443.076923076924,4237.435897435898,4541.538461538462,4426.666666666667,4380.000000000001,4370.769230769231,4642.564102564103,4312.820512820514,4151.282051282052,4005.1282051282055,4400.512820512821
1869.8647,0.2957346,1.0,0.33333334,0.5522388,0,0.0,0.0,0.0,0.0,0.13774866,0,0,0.0,0.0,0,0,69.0,0.0,552.0,4537.435897435898,3880.0000000000005,4441.025641025642,4452.307692307693,4249.2307692307695,4555.384615384616,4432.307692307693,4400.512820512821,4385.128205128206,4668.205128205129,4314.871794871796,4158.974358974359,4023.589743589744,4448.205128205129
1870.1462,0.40326843,0.9939072,0.33333334,0.5522388,1,0.0,0.0,0.0,0.0,0.5502917,0,0,0.0,0.0,0,0,105.0,0.0,494.0,4620.000000000001,3953.333333333334,4493.333333333334,4437.948717948719,4248.205128205129,4553.846153846154,4454.871794871796,4411.794871794872,4387.6923076923085,4698.461538461539,4329.2307692307695,4235.8974358974365,4121.025641025642,4539.48717948718
1870.3651,0.40326843,0.9939072,0.33333334,0.5522388,1,0.0,0.0,0.0,0.0,0.24635391,0,0,0.0,0.0,0,0,4.0,0.0,556.0,4649.743589743591,3912.820512820513,4517.435897435898,4432.307692307693,4233.846153846154,4539.48717948718,4461.538461538462,4440.512820512821,4404.615384615385,4757.435897435898,4342.051282051282,4282.564102564103,4230.256410256411,4584.615384615385
1870.6466,0.443202,0.91636443,0.33333334,0.5522388,0,0.0,0.0,0.0,0.0,0.16199626,0,0,0.0,0.0,0,0,40.0,0.0,0.0,4611.794871794872,3893.333333333334,4565.641025641026,4414.358974358975,4225.128205128206,4524.615384615385,4443.076923076924,4442.564102564103,4396.923076923077,4745.128205128206,4342.564102564103,4254.871794871796,4177.948717948719,4552.820512820514
1870.8656,0.443202,0.91636443,0.33333334,0.5522388,0,0.0,0.0,0.0,0.0,0.38031572,0,1,0.0,0.0,0,0,68.0,0.0,556.0,4622.051282051282,3893.333333333334,4638.974358974359,4422.564102564103,4233.846153846154,4537.435897435898,4458.461538461539,4447.6923076923085,4401.025641025642,4767.179487179488,4346.666666666667,4256.410256410257,4187.179487179487,4607.6923076923085
1871.1471,0.4423235,0.84998584,0.33333334,0.5522388,0,0.0,0.0,0.0,0.0,0.0,0,1,0.0,0.0,0,0,104.0,0.0,53.0,4762.564102564103,4149.74358974359,4756.410256410257,4408.205128205129,4240.512820512821,4542.051282051282,4448.717948717949,4425.641025641026,4398.461538461539,4768.205128205129,4359.48717948718,4360.512820512821,4284.615384615385,4806.153846153847
1871.3973,0.4423235,0.84998584,0.33333334,0.5522388,0,0.0,0.0,0.0,0.0,0.14635034,0,0,0.0,0.0,0,0,7.0,0.0,467.0,4635.384615384616,3908.717948717949,4683.076923076924,4423.076923076924,4232.820512820514,4536.410256410257,4446.153846153847,4429.743589743591,4399.48717948718,4770.256410256411,4347.179487179487,4250.769230769231,4162.564102564103,4646.666666666667
1871.6475,0.47986722,0.7904082,0.33333334,0.5522388,0,0.0,0.0,0.0,0.0,0.14330554,0,0,0.0,0.0,0,0,39.0,0.0,0.0,4649.743589743591,3893.8461538461543,4671.794871794872,4417.948717948719,4230.256410256411,4535.384615384616,4444.102564102564,4423.076923076924,4394.871794871796,4741.025641025642,4348.205128205129,4252.307692307693,4153.846153846154,4631.282051282052
1871.8665,0.47986722,0.7904082,0.33333334,0.5522388,0,0.0,0.0,0.0,0.0,0.12901814,0,0,0.0,0.0,0,0,67.0,0.0,535.0,4662.564102564103,3912.307692307693,4655.384615384616,4429.2307692307695,4235.384615384616,4540.000000000001,4461.538461538462,4444.102564102564,4402.051282051282,4748.717948717949,4349.2307692307695,4267.179487179487,4170.769230769231,4625.641025641026
1872.148,0.4397272,0.7367884,0.33333334,0.5522388,1,0.0,0.0,0.0,0.0,0.17347196,0,0,0.0,0.0,0,0,103.0,0.0,465.0,4590.769230769231,3962.564102564103,4576.923076923077,4436.923076923077,4233.846153846154,4538.974358974359,4418.461538461539,4358.974358974359,4351.282051282052,4614.358974358975,4318.461538461539,4148.205128205129,3960.0000000000005,4530.769230769231
1872.367,0.4397272,0.7367884,0.33333334,0.5522388,0,0.0,0.0,0.0,0.0,0.19847481,0,0,0.0,0.0,0,0,2.0,0.0,449.0,4645.641025641026,4004.1025641025644,4600.000000000001,4473.846153846154,4281.025641025642,4575.8974358974365,4462.564102564103,4412.820512820514,4379.48717948718,4685.128205128206,4333.846153846154,4214.871794871796,4049.7435897435903,4592.307692307693
1872.6484,0.5475132,0.6885305,0.33333334,0.5522388,0,0.0,0.0,0.0,0.0,0.041970212,0,0,0.0,0.0,0,0,38.0,0.0,0.0,4637.948717948719,3962.564102564103,4563.589743589744,4463.589743589744,4262.564102564103,4556.410256410257,4456.923076923077,4416.410256410257,4384.102564102564,4701.025641025642,4339.48717948718,4230.256410256411,4107.179487179487,4554.871794871796
1872.8673,0.5475132,0.6885305,0.33333334,0.5522388,0,0.0,0.0,0.0,0.0,0.270528,0,0,0.0,0.0,0,0,66.0,0.0,449.0,4626.666666666667,3964.1025641025644,4533.846153846154,4450.769230769231,4249.2307692307695,4544.102564102564,4441.025641025642,4397.435897435898,4376.410256410257,4674.871794871796,4332.820512820514,4217.948717948719,4093.333333333334,4523.589743589744
1873.1488,0.52189803,0.64509845,0.33333334,0.5522388,0,0.0,0.0,0.0,0.0,0.12408057,0,0,0.0,0.0,0,0,102.0,0.0,526.0,4613.333333333334,3954.358974358975,4515.384615384616,4451.282051282052,4249.74358974359,4549.2307692307695,4447.179487179487,4418.974358974359,4383.076923076924,4690.256410256411,4331.794871794872,4225.641025641026,4102.051282051282,4536.410256410257
1873.3678,0.52189803,0.64509845,0.33333334,0.5522388,0,0.0,0.0,0.0,0.0,0.08058387,0,0,0.0,0.0,0,0,1.0,0.0,389.0,4622.051282051282,3946.1538461538466,4500.512820512821,4454.358974358975,4250.769230769231,4552.820512820514,4461.025641025642,4433.333333333334,4386.666666666667,4722.564102564103,4335.8974358974365,4246.153846153847,4154.358974358975,4567.6923076923085
1873.6493,0.4535371,0.5977523,0.33333334,0.5522388,0,0.0,0.0,0.0,0.0,0.20153819,0,0,0.0,0.0,0,0,37.0,0.0,0.0,4582.051282051282,3914.8717948717954,4470.256410256411,4456.923076923077,4245.128205128206,4542.051282051282,4461.025641025642,4447.179487179487,4389.2307692307695,4705.128205128206,4331.794871794872,4217.948717948719,4123.076923076924,4519.48717948718
1873.8682,0.4535371,0.5977523,0.33333334,0.5522388,0,0.0,0.0,0.0,0.0,0.25616044,0,0,0.0,0.0,0,0,65.0,0.0,389.0,4618.461538461539,3960.5128205128212,4483.589743589744,4458.461538461539,4249.74358974359,4553.846153846154,4464.102564102564,4457.435897435898,4395.8974358974365,4725.128205128206,4344.102564102564,4251.794871794872,4183.589743589744,4556.410256410257
1874.1497,0.44525254,0.55857617,0.33333334,0.5522388,0,0.0,0.0,0.0,0.0,0.15412691,0,0,0.0,0.0,0,0,101.0,0.0,494.0,4628.717948717949,3957.9487179487182,4487.179487179488,4455.384615384616,4250.769230769231,4552.820512820514,4474.871794871796,4456.923076923077,4397.948717948719,4722.051282051282,4344.102564102564,4281.025641025642,4205.641025641026,4571.282051282052
1874.3687,0.44525254,0.55857617,0.33333334,0.5522388,0,0.0,0.0,0.0,0.0,0.0,0,0,0.0,0.0,0,0,0.0,0.0,477.0,4638.974358974359,3952.820512820513,4489.2307692307695,4457.948717948719,4250.769230769231,4553.846153846154,4468.205128205129,4462.051282051282,4413.846153846154,4753.333333333334,4349.743589743591,4283.589743589744,4234.871794871796,4591.794871794872
1874.6501,0.4627753,0.5074917,0.33333334,0.5522388,0,0.0,0.0,0.0,0.0,0.22843015,0,0,0.0,0.0,0,0,36.0,0.0,0.0,4676.923076923077,3921.0256410256416,4518.461538461539,4460.512820512821,4255.8974358974365,4555.8974358974365,4504.102564102564,4521.538461538462,4446.666666666667,4861.025641025642,4377.948717948719,4367.6923076923085,4426.153846153847,4677.948717948719
1874.869,0.4627753,0.5074917,0.33333334,0.5522388,0,0.0,0.0,0.0,0.0,0.17782496,0,0,0.0,0.0,0,0,64.0,0.0,477.0,4775.384615384616,4126.666666666667,4553.333333333334,4450.256410256411,4265.641025641026,4567.6923076923085,4492.820512820514,4489.743589743591,4428.205128205129,4818.461538461539,4382.051282051282,4429.2307692307695,4463.589743589744,4785.128205128206
1875.1505,0.6109741,0.53198034,0.33333334,0.5522388,0,0.0,0.0,0.0,0.0,0.14904277,1,0,0.0,0.0,1,0,100.0,0.0,53.0,4622.051282051282,3877.9487179487182,4472.307692307693,4437.948717948719,4237.948717948719,4541.025641025642,4477.948717948719,4475.8974358974365,4424.102564102564,4776.923076923077,4363.589743589744,4294.871794871796,4291.282051282052,4605.641025641026
1875.3695,0.6109741,0.53198034,0.33333334,0.5522388,1,0.0,0.0,0.0,0.0,0.19627078,0,0,0.0,0.0,0,0,128.0,0.0,53.0,4665.641025641026,3931.2820512820517,4488.717948717949,4430.256410256411,4237.948717948719,4540.000000000001,4475.8974358974365,4455.8974358974365,4418.974358974359,4771.282051282052,4365.641025641026,4310.769230769231,4306.153846153847,4644.102564102564
1875.651,0.64452595,0.6729458,0.33333334,0.5522388,0,0.0,0.0,0.0,0.0,0.19703753,0,0,0.0,0.0,0,0,35.0,0.0,0.0,4620.512820512821,3871.2820512820517,4467.6923076923085,4416.923076923077,4221.538461538462,4527.6923076923085,4462.564102564103,4443.589743589744,4412.820512820514,4744.615384615386,4352.820512820514,4271.794871794872,4241.538461538462,4598.461538461539
1875.8699,0.64452595,0.6729458,0.33333334,0.5522388,0,0.0,0.0,0.0,0.0,0.14788188,0,0,0.0,0.0,0,0,63.0,0.0,0.0,4620.000000000001,3889.7435897435903,4471.794871794872,4425.641025641026,4228.717948717949,4525.641025641026,4456.923076923077,4445.641025641026,4407.6923076923085,4743.076923076924,4356.410256410257,4281.538461538462,4241.538461538462,4604.615384615385
1876.1514,0.56981504,0.77250797,0.33333334,0.5522388,0,0.0,0.0,0.0,0.0,0.13691126,0,0,0.0,0.0,0,0,99.0,0.0,465.0,4734.358974358975,4100.512820512821,4534.871794871796,4398.461538461539,4234.358974358975,4536.410256410257,4460.512820512821,4444.615384615385,4411.794871794872,4774.358974358975,4371.794871794872,4400.512820512821,4423.076923076924,4768.205128205129
1876.4016,0.56981504,0.77250797,0.33333334,0.5522388,0,0.0,0.0,0.0,0.0,0.12563765,0,0,0.0,0.0,0,0,2.0,0.0,449.0,4762.051282051282,4157.435897435898,4547.6923076923085,4406.153846153847,4238.461538461539,4538.461538461539,4448.717948717949,4436.923076923077,4415.384615384616,4767.179487179488,4377.948717948719,4413.333333333334,4398.974358974359,4774.871794871796
1876.6519,0.6710484,0.8621994,0.33333334,0.5522388,0,0.0,0.0,0.0,0.0,0.1676045,0,0,0.0,0.0,0,0,34.0,0.0,0.0,4545.128205128206,3800.0000000000005,4444.102564102564,4414.871794871796,4216.923076923077,4521.538461538462,4455.8974358974365,4437.948717948719,4398.461538461539,4728.205128205129,4347.179487179487,4218.461538461539,4137.948717948719,4485.641025641026
1876.8707,0.6710484,0.8621994,0.33333334,0.5522388,0,0.0,0.0,0.0,0.0,0.15298337,0,0,0.0,0.0,0,0,62.0,0.0,0.0,4550.256410256411,3816.410256410257,4454.358974358975,4416.410256410257,4227.6923076923085,4522.051282051282,4454.358974358975,4436.923076923077,4405.641025641026,4736.923076923077,4350.769230769231,4231.794871794872,4155.384615384616,4492.820512820514
1877.1522,0.6695436,0.94292176,0.33333334,0.5522388,0,0.0,0.0,0.0,0.0,0.028058566,0,0,0.0,0.0,0,0,98.0,0.0,524.0,4537.948717948719,3852.820512820513,4451.282051282052,4416.410256410257,4232.307692307693,4527.6923076923085,4453.846153846154,4422.564102564103,4393.846153846154,4685.641025641026,4342.051282051282,4203.589743589744,4075.3846153846157,4470.769230769231
1877.3712,0.6695436,0.94292176,0.33333334,0.5522388,0,0.0,0.0,0.0,0.0,0.06801005,0,0,0.0,0.0,0,0,126.0,0.0,524.0,4545.641025641026,3853.8461538461543,4443.589743589744,4419.48717948718,4229.74358974359,4523.076923076924,4442.564102564103,4398.974358974359,4379.48717948718,4664.102564102564,4334.358974358975,4193.333333333334,4066.666666666667,4466.153846153847
1877.6527,0.7715963,1.0,0.33333334,0.5522388,0,0.0,0.0,0.0,0.0,0.0,0,0,0.0,0.0,0,0,33.0,0.0,0.0,4606.153846153847,3883.076923076924,4494.358974358975,4423.076923076924,4231.794871794872,4528.717948717949,4462.051282051282,4441.025641025642,4411.282051282052,4749.743589743591,4358.461538461539,4274.358974358975,4217.948717948719,4524.102564102564
1877.6527,0.7715963,1.0,0.33333334,0.5522388,0,0.0,0.0,0.0,0.0,0.0,0,0,0.0,0.0,0,0,33.0,0.0,0.0,4606.153846153847,3883.076923076924,4494.358974358975,4423.076923076924,4231.794871794872,4528.717948717949,4462.051282051282,4441.025641025642,4411.282051282052,4749.743589743591,4358.461538461539,4274.358974358975,4217.948717948719,4524.102564102564
1878.1531,0.7097318,1.0,0.33333334,0.5522388,0,0.0,0.0,0.0,0.0,1.0,0,0,0.0,0.0,0,0,97.0,0.0,494.0,4579.48717948718,3891.7948717948725,4482.051282051282,4420.000000000001,4231.282051282052,4524.615384615385,4444.615384615385,4416.410256410257,4389.2307692307695,4727.6923076923085,4349.2307692307695,4245.128205128206,4196.923076923077,4420.000000000001
1878.3721,0.7097318,1.0,0.33333334,0.5522388,0,0.0,0.0,0.0,0.0,0.93117464,0,0,0.0,0.0,0,0,125.0,0.0,494.0,4582.564102564103,3912.820512820513,4488.205128205129,4425.641025641026,4235.384615384616,4536.410256410257,4455.384615384616,4426.153846153847,4394.358974358975,4727.6923076923085,4349.743589743591,4244.102564102564,4189.74358974359,4385.128205128206
1878.6536,0.60679156,0.9980052,0.33333334,0.5522388,1,0.0,0.0,0.0,0.0,0.12431436,0,0,0.0,0.0,0,0,32.0,0.0,0.0,4621.025641025642,3957.9487179487182,4511.794871794872,4428.205128205129,4248.205128205129,4546.666666666667,4458.974358974359,4430.256410256411,4398.974358974359,4743.589743589744,4356.923076923077,4271.794871794872,4226.666666666667,4394.871794871796
1878.8724,0.60679156,0.9980052,0.33333334,0.5522388,0,0.0,0.0,0.0,0.0,0.15816611,0,0,0.0,0.0,0,0,60.0,0.0,0.0,4593.846153846154,3903.076923076924,4497.435897435898,4429.2307692307695,4238.461538461539,4538.974358974359,4444.102564102564,4433.333333333334,4396.410256410257,4735.8974358974365,4352.820512820514,4250.769230769231,4203.589743589744,4362.051282051282
1879.1539,0.62651455,0.93319637,0.33333334,0.5522388,0,0.0,0.0,0.0,0.0,0.078305505,0,0,0.0,0.0,0,0,96.0,0.0,52.0,4572.820512820514,3932.820512820513,4483.589743589744,4425.641025641026,4233.333333333334,4536.923076923077,4431.282051282052,4398.974358974359,4379.48717948718,4644.615384615385,4335.8974358974365,4199.48717948718,4066.1538461538466,4315.384615384616
1879.3729,0.62651455,0.93319637,0.33333334,0.5522388,0,0.0,0.0,0.0,0.0,0.04449062,0,0,0.0,0.0,0,0,124.0,0.0,52.0,4585.641025641026,3955.3846153846157,4489.2307692307695,4437.435897435898,4250.256410256411,4548.205128205129,4443.076923076924,4393.846153846154,4377.948717948719,4651.282051282052,4333.333333333334,4213.333333333334,4087.1794871794878,4326.153846153847
1879.6544,0.73935294,0.8652759,0.33333334,0.5522388,0,0.0,0.0,0.0,0.0,0.0,0,0,0.0,0.0,0,0,31.0,0.0,0.0,4554.358974358975,3911.2820512820517,4467.179487179487,4429.2307692307695,4233.333333333334,4531.794871794872,4444.102564102564,4399.48717948718,4380.512820512821,4675.8974358974365,4330.256410256411,4187.6923076923085,4084.615384615385,4297.435897435898
1879.6544,0.73935294,0.8652759,0.33333334,0.5522388,0,0.0,0.0,0.0,0.0,0.0,0,0,0.0,0.0,0,0,31.0,0.0,0.0,4554.358974358975,3911.2820512820517,4467.179487179487,4429.2307692307695,4233.333333333334,4531.794871794872,4444.102564102564,4399.48717948718,4380.512820512821,4675.8974358974365,4330.256410256411,4187.6923076923085,4084.615384615385,4297.435897435898
1880.1548,0.80211174,0.80837786,0.33333334,0.5522388,0,0.0,0.0,0.0,0.0,0.0,0,0,0.0,0.0,0,0,95.0,0.0,472.0,4584.615384615385,3923.589743589744,4491.282051282052,4427.179487179487,4234.871794871796,4536.410256410257,4428.717948717949,4401.538461538462,4382.564102564103,4688.205128205129,4336.923076923077,4233.846153846154,4146.153846153847,4320.512820512821
1880.1548,0.80211174,0.80837786,0.33333334,0.5522388,0,0.0,0.0,0.0,0.0,0.0,0,0,0.0,0.0,0,0,95.0,0.0,472.0,4584.615384615385,3923.589743589744,4491.282051282052,4427.179487179487,4234.871794871796,4536.410256410257,4428.717948717949,4401.538461538462,4382.564102564103,4688.205128205129,4336.923076923077,4233.846153846154,4146.153846153847,4320.512820512821
1880.6553,0.7980465,0.7434621,0.33333334,0.5522388,0,0.0,0.0,0.0,0.0,0.0,0,0,0.0,0.0,0,0,30.0,0.0,0.0,4586.153846153847,3938.9743589743593,4482.564102564103,4431.282051282052,4232.307692307693,4531.794871794872,4426.666666666667,4376.410256410257,4370.256410256411,4702.051282051282,4337.435897435898,4246.153846153847,4156.923076923077,4384.102564102564
1880.6553,0.7980465,0.7434621,0.33333334,0.5522388,0,0.0,0.0,0.0,0.0,0.0,0,0,0.0,0.0,0,0,30.0,0.0,0.0,4586.153846153847,3938.9743589743593,4482.564102564103,4431.282051282052,4232.307692307693,4531.794871794872,4426.666666666667,4376.410256410257,4370.256410256411,4702.051282051282,4337.435897435898,4246.153846153847,4156.923076923077,4384.102564102564
1881.1556,0.7715207,0.6851075,0.33333334,0.5522388,0,0.0,0.0,0.0,0.0,0.0,0,0,0.0,0.0,0,1,94.0,0.0,524.0,4650.769230769231,3909.7435897435903,4516.923076923077,4420.000000000001,4228.717948717949,4525.641025641026,4473.846153846154,4444.615384615385,4404.615384615385,4773.846153846154,4356.923076923077,4323.589743589744,4278.974358974359,4446.153846153847
1881.3746,0.7715207,0.6851075,0.33333334,0.5522388,0,0.0,0.0,0.0,0.0,0.16308011,0,0,0.0,0.0,0,1,122.0,0.0,524.0,4634.358974358975,3895.8974358974365,4502.564102564103,4415.8974358974365,4218.461538461539,4524.615384615385,4456.923076923077,4427.179487179487,4393.333333333334,4746.153846153847,4352.307692307693,4296.410256410257,4232.307692307693,4438.974358974359
1881.6561,0.796069,0.6325884,0.33333334,0.5522388,0,0.0,0.0,0.0,0.0,0.1711422,0,0,0.0,0.0,0,0,29.0,0.0,0.0,4620.512820512821,3908.205128205129,4512.307692307693,4425.128205128206,4231.794871794872,4534.358974358975,4465.128205128206,4440.512820512821,4394.871794871796,4748.717948717949,4352.307692307693,4289.2307692307695,4221.025641025642,4453.846153846154
1881.875,0.796069,0.6325884,0.33333334,0.5522388,0,0.0,0.0,0.0,0.0,0.0,0,0,0.0,0.0,0,0,57.0,0.0,0.0,4733.846153846154,4112.307692307693,4562.564102564103,4409.743589743591,4249.74358974359,4548.717948717949,4460.512820512821,4413.333333333334,4388.205128205129,4745.128205128206,4360.512820512821,4377.948717948719,4330.769230769231,4598.974358974359
1882.1565,0.75389004,0.5853212,0.33333334,0.5522388,0,0.0,0.0,0.0,0.0,0.16454585,0,0,0.0,0.0,0,0,93.0,0.0,494.0,4591.794871794872,3891.7948717948725,4476.923076923077,4426.153846153847,4231.794871794872,4531.282051282052,4460.000000000001,4427.6923076923085,4391.794871794872,4738.461538461539,4345.641025641026,4244.102564102564,4180.512820512821,4442.564102564103
1882.3755,0.75389004,0.5853212,0.33333334,0.5522388,0,0.0,0.0,0.0,0.0,0.13923599,0,0,0.0,0.0,0,0,121.0,0.0,494.0,4721.025641025642,4111.794871794872,4548.717948717949,4411.282051282052,4233.333333333334,4538.461538461539,4436.923076923077,4401.538461538462,4386.153846153847,4730.769230769231,4358.461538461539,4345.641025641026,4293.846153846154,4607.179487179488
1882.657,0.64649516,0.5427807,0.33333334,0.5522388,0,0.0,0.0,0.0,0.0,0.12859939,0,0,0.0,0.0,0,0,28.0,0.0,0.0,4591.794871794872,3878.461538461539,4483.076923076924,4422.051282051282,4228.205128205129,4524.102564102564,4466.153846153847,4448.717948717949,4393.333333333334,4719.48717948718,4362.564102564103,4230.769230769231,4136.410256410257,4461.025641025642
1882.876,0.64649516,0.5427807,0.33333334,0.5522388,0,0.0,0.0,0.0,0.0,0.09981901,0,0,0.0,0.0,0,0,56.0,0.0,0.0,4574.871794871796,3861.538461538462,4476.923076923077,4428.205128205129,4229.74358974359,4523.589743589744,4447.6923076923085,4417.948717948719,4385.128205128206,4723.076923076924,4368.205128205129,4232.820512820514,4151.282051282052,4472.820512820514
1883.1575,0.58195835,0.50449425,0.33333334,0.5522388,0,0.0,0.0,0.0,0.0,0.13718067,0,0,0.0,0.0,1,0,92.0,0.0,52.0,4529.743589743591,3852.307692307693,4449.2307692307695,4422.051282051282,4228.717948717949,4532.307692307693,4445.128205128206,4437.948717948719,4382.564102564103,4698.461538461539,4346.153846153847,4187.6923076923085,4120.512820512821,4404.615384615385
1883.4076,0.58195835,0.50449425,0.33333334,0.5522388,0,0.0,0.0,0.0,0.0,0.16751598,0,0,0.0,0.0,0,0,124.0,0.0,52.0,4517.948717948719,3812.820512820513,4436.410256410257,4419.48717948718,4205.641025641026,4510.769230769231,4433.333333333334,4405.128205128206,4373.846153846154,4704.102564102564,4317.435897435898,4181.538461538462,4124.615384615385,4469.743589743591
1883.6578,0.5801253,0.47003645,0.33333334,0.5522388,0,0.0,0.0,0.0,0.0,1.0,0,0,0.0,0.0,0,0,27.0,0.0,0.0,4555.8974358974365,3863.076923076924,4445.128205128206,4423.589743589744,4214.871794871796,4520.000000000001,4436.410256410257,4431.282051282052,4387.179487179487,4708.717948717949,4337.948717948719,4210.256410256411,4151.794871794872,4554.358974358975
1883.8768,0.5801253,0.47003645,0.33333334,0.5522388,0,0.0,0.0,0.0,0.0,0.2127553,0,0,0.0,0.0,0,0,55.0,0.0,0.0,4689.743589743591,4145.641025641026,4525.128205128206,4415.384615384616,4241.025641025642,4537.435897435898,4446.666666666667,4440.000000000001,4379.48717948718,4690.769230769231,4346.153846153847,4324.102564102564,4281.538461538462,4694.358974358975
1884.1583,0.62901074,0.7346322,0.33333334,0.5522388,0,0.0,0.0,0.0,0.0,0.14231525,0,0,0.0,0.0,1,0,91.0,0.0,470.0,4585.641025641026,3927.692307692308,4481.025641025642,4455.8974358974365,4254.358974358975,4546.153846153847,4476.923076923077,4474.358974358975,4402.051282051282,4723.076923076924,4351.794871794872,4244.615384615385,4184.615384615385,4558.461538461539
1884.3772,0.62901074,0.7346322,0.33333334,0.5522388,0,0.0,0.0,0.0,0.0,0.13823427,0,0,0.0,0.0,0,0,119.0,0.0,470.0,4635.8974358974365,3955.8974358974365,4497.435897435898,4462.051282051282,4251.282051282052,4548.205128205129,4473.846153846154,4451.282051282052,4395.8974358974365,4724.102564102564,4363.589743589744,4269.74358974359,4220.000000000001,4620.512820512821
1884.6587,0.64133203,0.9313299,0.33333334,0.5522388,0,0.0,0.0,0.0,0.0,0.16739577,0,0,0.0,0.0,0,0,26.0,0.0,0.0,4609.743589743591,3953.8461538461543,4493.333333333334,4479.48717948718,4277.948717948719,4569.743589743591,4480.512820512821,4472.307692307693,4398.461538461539,4728.717948717949,4355.384615384616,4252.820512820514,4205.641025641026,4567.6923076923085
1884.8777,0.64133203,0.9313299,0.33333334,0.5522388,0,0.0,0.0,0.0,0.0,0.29117218,0,0,0.0,0.0,0,0,54.0,0.0,0.0,4602.051282051282,3954.358974358975,4490.769230769231,4478.461538461539,4261.025641025642,4555.384615384616,4475.384615384616,4457.435897435898,4396.923076923077,4715.384615384616,4354.871794871796,4249.74358974359,4195.8974358974365,4537.948717948719
1885.1592,0.6733118,0.91594326,0.33333334,0.5522388,0,0.0,0.0,0.0,0.0,0.09693663,0,0,0.0,0.0,0,0,90.0,0.0,525.0,4710.769230769231,4173.333333333334,4541.538461538462,4445.128205128206,4245.128205128206,4539.48717948718,4455.384615384616,4415.8974358974365,4384.615384615385,4693.846153846154,4358.461538461539,4326.666666666667,4277.948717948719,4646.666666666667
1885.378,0.6733118,0.91594326,0.33333334,0.5522388,0,0.0,0.0,0.0,0.0,0.12445997,0,0,0.0,0.0,1,0,118.0,0.0,525.0,4620.000000000001,3955.3846153846157,4504.102564102564,4461.538461538462,4232.307692307693,4535.8974358974365,4461.538461538462,4442.051282051282,4393.846153846154,4706.666666666667,4352.820512820514,4250.256410256411,4201.538461538462,4540.512820512821
1885.6595,0.6350037,1.0,0.33333334,0.5522388,0,0.0,0.0,0.0,0.0,0.105155215,0,0,0.0,0.0,0,0,25.0,0.0,0.0,4712.307692307693,4155.384615384616,4543.076923076924,4436.410256410257,4231.282051282052,4523.589743589744,4430.769230769231,4386.153846153847,4369.2307692307695,4685.641025641026,4358.461538461539,4321.025641025642,4296.923076923077,4652.820512820514
1885.9098,0.6350037,1.0,0.33333334,0.5522388,0,0.0,0.0,0.0,0.0,0.1138609,0,0,0.0,0.0,0,0,57.0,0.0,0.0,4607.179487179488,3937.435897435898,4507.179487179488,4460.000000000001,4243.589743589744,4540.512820512821,4474.358974358975,4434.871794871796,4392.820512820514,4717.435897435898,4349.743589743591,4232.307692307693,4215.8974358974365,4492.307692307693
1886.16,0.497827,1.0,0.33333334,0.5522388,0,0.0,0.0,0.0,0.0,0.21647772,0,0,0.0,0.0,0,0,89.0,0.0,494.0,4551.794871794872,3894.8717948717954,4487.6923076923085,4458.974358974359,4228.205128205129,4523.076923076924,4448.717948717949,4394.871794871796,4377.948717948719,4704.102564102564,4344.615384615385,4206.153846153847,4188.717948717949,4414.871794871796
1886.3789,0.497827,1.0,0.33333334,0.5522388,0,0.0,0.0,0.0,0.0,1.0,0,0,0.0,0.0,0,0,117.0,0.0,494.0,4570.769230769231,3894.8717948717954,4486.153846153847,4461.538461538462,4230.769230769231,4528.717948717949,4444.615384615385,4400.000000000001,4382.051282051282,4716.410256410257,4335.8974358974365,4202.051282051282,4202.564102564103,4378.974358974359
1886.6604,0.4742042,1.0,0.33333334,0.5522388,0,0.0,0.0,0.0,0.0,0.19128977,0,0,0.0,0.0,1,0,24.0,0.0,0.0,4591.282051282052,3930.2564102564106,4493.333333333334,4444.615384615385,4221.025641025642,4523.589743589744,4446.666666666667,4413.846153846154,4390.256410256411,4706.153846153847,4341.025641025642,4230.256410256411,4204.102564102564,4410.256410256411
1886.8794,0.4742042,1.0,0.33333334,0.5522388,0,0.0,0.0,0.0,0.0,0.14531088,0,0,0.0,0.0,1,0,52.0,0.0,0.0,4563.589743589744,3899.48717948718,4484.102564102564,4436.410256410257,4215.8974358974365,4520.000000000001,4443.589743589744,4412.307692307693,4381.025641025642,4701.025641025642,4336.410256410257,4204.102564102564,4167.179487179487,4389.2307692307695
1887.1609,0.40580252,1.0,0.33333334,0.5522388,0,0.0,0.0,0.0,0.0,0.14087528,0,0,0.0,0.0,1,0,88.0,0.0,52.0,4603.076923076924,3943.589743589744,4506.666666666667,4437.435897435898,4229.2307692307695,4520.512820512821,4441.538461538462,4379.48717948718,4369.743589743591,4694.871794871796,4340.512820512821,4242.051282051282,4197.948717948719,4425.641025641026
1887.3798,0.40580252,1.0,0.33333334,0.5522388,0,0.0,0.0,0.0,0.0,0.12888382,0,0,0.0,0.0,1,0,116.0,0.0,52.0,4590.256410256411,3906.1538461538466,4499.48717948718,4435.384615384616,4234.871794871796,4538.461538461539,4456.923076923077,4396.923076923077,4380.512820512821,4696.923076923077,4335.8974358974365,4217.435897435898,4167.179487179487,4423.076923076924
1887.6613,0.3179049,1.0,0.33333334,0.5522388,0,0.0,0.0,0.0,0.0,0.09170666,0,0,0.0,0.0,0,0,23.0,0.0,0.0,4608.717948717949,3928.205128205129,4511.282051282052,4436.923076923077,4244.102564102564,4544.615384615385,4460.512820512821,4429.2307692307695,4395.8974358974365,4723.589743589744,4345.641025641026,4233.846153846154,4183.076923076924,4435.384615384616
1887.8802,0.3179049,1.0,0.33333334,0.5522388,0,0.0,0.0,0.0,0.0,0.14500569,0,0,0.0,0.0,0,0,51.0,0.0,0.0,4631.282051282052,3963.076923076924,4520.512820512821,4428.205128205129,4246.666666666667,4553.333333333334,4449.2307692307695,4398.974358974359,4384.615384615385,4709.743589743591,4342.564102564103,4246.153846153847,4193.333333333334,4446.153846153847
1888.1617,0.34101108,1.0,0.33333334,0.5522388,0,0.0,0.0,0.0,0.0,0.15447192,0,0,0.0,0.0,0,0,87.0,0.0,469.0,4717.435897435898,4127.6923076923085,4552.307692307693,4402.564102564103,4209.74358974359,4538.461538461539,4421.538461538462,4362.564102564103,4366.666666666667,4687.179487179488,4337.435897435898,4307.6923076923085,4262.564102564103,4596.410256410257
1888.4119,0.34101108,1.0,0.33333334,0.5522388,0,0.0,0.0,0.0,0.0,0.16843021,0,0,0.0,0.0,0,0,119.0,0.0,469.0,4604.102564102564,3896.9230769230776,4505.128205128206,4434.358974358975,4228.717948717949,4567.179487179488,4448.205128205129,4437.948717948719,4380.000000000001,4691.794871794872,4337.435897435898,4211.794871794872,4131.794871794872,4482.564102564103
1888.6621,0.27876386,1.0,0.33333334,0.5522388,0,0.0,0.0,0.0,0.0,0.045653783,0,0,0.0,0.0,0,0,22.0,0.0,0.0,4615.8974358974365,3910.7692307692314,4514.871794871796,4426.666666666667,4229.74358974359,4558.461538461539,4456.923076923077,4427.6923076923085,4380.000000000001,4690.256410256411,4341.025641025642,4217.435897435898,4141.538461538462,4494.358974358975
1888.8811,0.27876386,1.0,0.33333334,0.5522388,1,0.0,0.0,0.0,0.0,0.18573028,0,0,0.0,0.0,0,0,50.0,0.0,0.0,4665.128205128206,3977.9487179487182,4536.410256410257,4409.2307692307695,4234.358974358975,4558.974358974359,4460.000000000001,4444.102564102564,4391.282051282052,4695.8974358974365,4343.589743589744,4248.717948717949,4172.307692307693,4548.717948717949
1889.1626,0.2449741,1.0,0.33333334,0.5522388,0,0.0,0.0,0.0,0.0,0.14997727,0,0,0.0,0.0,0,0,86.0,0.0,526.0,4604.102564102564,3895.8974358974365,4504.615384615385,4410.256410256411,4220.000000000001,4539.48717948718,4445.128205128206,4430.256410256411,4383.076923076924,4696.923076923077,4333.333333333334,4204.102564102564,4138.461538461539,4476.410256410257
1889.3815,0.2449741,1.0,0.33333334,0.5522388,0,0.0,0.0,0.0,0.0,0.108686596,0,0,0.0,0.0,0,0,114.0,0.0,526.0,4603.589743589744,3893.8461538461543,4505.128205128206,4411.282051282052,4221.025641025642,4537.948717948719,4443.076923076924,4420.512820512821,4378.461538461539,4674.871794871796,4330.769230769231,4210.769230769231,4123.589743589744,4470.256410256411
1889.663,0.212571,1.0,0.33333334,0.5522388,0,0.0,0.0,0.0,0.0,0.110283256,0,0,0.0,0.0,0,0,21.0,0.0,0.0,4643.589743589744,3938.9743589743593,4516.923076923077,4426.153846153847,4229.2307692307695,4538.461538461539,4455.384615384616,4425.641025641026,4394.871794871796,4716.410256410257,4344.615384615385,4250.769230769231,4190.256410256411,4505.641025641026
1889.882,0.212571,1.0,0.33333334,0.5522388,0,0.0,0.0,0.0,0.0,0.14709102,0,0,0.0,0.0,0,0,49.0,0.0,0.0,4730.256410256411,4113.333333333334,4563.589743589744,4409.743589743591,4230.256410256411,4537.948717948719,4437.435897435898,4409.743589743591,4382.051282051282,4708.717948717949,4352.820512820514,4326.666666666667,4284.102564102564,4637.435897435898
1890.1635,0.18822564,1.0,0.33333334,0.5522388,0,0.0,0.0,0.0,0.0,0.1362791,0,0,0.0,0.0,0,0,85.0,0.0,494.0,4602.051282051282,3896.410256410257,4517.948717948719,4427.179487179487,4232.307692307693,4538.974358974359,4450.256410256411,4428.717948717949,4381.538461538462,4706.666666666667,4337.948717948719,4230.769230769231,4152.307692307693,4522.051282051282
1890.3823,0.18822564,1.0,0.33333334,0.5522388,0,0.0,0.0,0.0,0.0,0.2623243,0,0,0.0,0.0,0,0,113.0,0.0,494.0,4613.846153846154,3911.7948717948725,4521.025641025642,4436.410256410257,4234.358974358975,4541.025641025642,4452.307692307693,4429.2307692307695,4393.333333333334,4720.512820512821,4341.538461538462,4250.256410256411,4161.538461538462,4602.051282051282
1890.6638,0.1667036,1.0,0.33333334,0.5522388,0,0.0,0.0,0.0,0.0,1.0,0,0,0.0,0.0,0,0,20.0,0.0,0.0,4598.461538461539,3910.7692307692314,4520.000000000001,4433.846153846154,4231.282051282052,4537.948717948719,4446.153846153847,4428.205128205129,4389.743589743591,4706.153846153847,4336.410256410257,4236.410256410257,4150.769230769231,4629.743589743591
1890.8828,0.1667036,1.0,0.33333334,0.5522388,0,0.0,0.0,0.0,0.0,0.35684243,0,0,0.0,0.0,0,0,48.0,0.0,0.0,4601.025641025642,3913.333333333334,4521.538461538462,4427.6923076923085,4232.820512820514,4535.384615384616,4448.717948717949,4429.743589743591,4397.948717948719,4711.794871794872,4337.948717948719,4233.846153846154,4145.641025641026,4628.717948717949
1891.1643,0.1289097,1.0,0.33333334,0.5522388,0,0.0,0.0,0.0,0.0,0.14625509,0,0,0.0,0.0,1,0,84.0,0.0,52.0,4657.435897435898,3995.3846153846157,4532.307692307693,4421.025641025642,4229.2307692307695,4523.076923076924,4444.615384615385,4416.923076923077,4388.717948717949,4702.564102564103,4340.512820512821,4276.923076923077,4182.564102564103,4671.282051282052
1891.3832,0.1289097,1.0,0.33333334,0.5522388,0,0.0,0.0,0.0,0.0,0.15228607,0,0,0.0,0.0,1,0,112.0,0.0,52.0,4604.102564102564,3897.435897435898,4516.410256410257,4430.256410256411,4245.641025641026,4540.000000000001,4472.307692307693,4444.615384615385,4409.743589743591,4737.948717948719,4340.000000000001,4249.2307692307695,4158.461538461539,4607.6923076923085
1891.6647,0.0951442,1.0,0.33333334,0.5522388,0,0.0,0.0,0.0,0.0,0.18259415,0,0,0.0,0.0,0,0,19.0,0.0,0.0,4664.615384615386,3854.8717948717954,4548.205128205129,4440.512820512821,4248.205128205129,4537.948717948719,4477.948717948719,4455.384615384616,4414.871794871796,4773.333333333334,4356.410256410257,4308.717948717949,4236.410256410257,4694.358974358975
1891.8837,0.0951442,1.0,0.33333334,0.5522388,0,0.0,0.0,0.0,0.0,0.20803517,0,0,0.0,0.0,0,0,47.0,0.0,0.0,4655.8974358974365,3879.48717948718,4555.384615384616,4454.871794871796,4265.128205128206,4555.384615384616,4504.102564102564,4486.666666666667,4429.743589743591,4788.717948717949,4367.179487179487,4315.8974358974365,4236.923076923077,4680.512820512821
1892.1652,0.19107896,1.0,0.33333334,0.5522388,0,0.0,0.0,0.0,0.0,0.110479176,0,0,0.0,0.0,0,0,83.0,0.0,466.0,4766.153846153847,4114.358974358975,4606.666666666667,4430.256410256411,4268.205128205129,4557.435897435898,4491.282051282052,4459.48717948718,4422.051282051282,4791.282051282052,4373.333333333334,4400.512820512821,4375.8974358974365,4854.358974358975
1892.4154,0.19107896,1.0,0.33333334,0.5522388,0,0.0,0.0,0.0,0.0,0.17877614,0,0,0.0,0.0,0,0,115.0,0.0,466.0,4646.153846153847,3891.2820512820517,4538.974358974359,4435.384615384616,4248.717948717949,4543.076923076924,4490.256410256411,4462.051282051282,4418.974358974359,4756.923076923077,4358.461538461539,4278.461538461539,4185.641025641026,4723.076923076924
1892.6655,0.31682858,1.0,0.33333334,0.5522388,0,0.0,0.0,0.0,0.0,0.0757306,0,0,0.0,0.0,0,0,18.0,0.0,0.0,4653.333333333334,3891.7948717948725,4545.641025641026,4428.205128205129,4251.794871794872,4553.333333333334,4490.256410256411,4446.153846153847,4416.410256410257,4740.000000000001,4356.410256410257,4284.102564102564,4157.435897435898,4718.461538461539
1892.8845,0.31682858,1.0,0.33333334,0.5522388,0,0.0,0.0,0.0,0.0,0.03995665,0,0,0.0,0.0,0,0,46.0,0.0,0.0,4643.589743589744,3921.538461538462,4538.461538461539,4434.871794871796,4250.256410256411,4544.102564102564,4472.820512820514,4437.948717948719,4413.333333333334,4737.948717948719,4353.333333333334,4281.025641025642,4154.358974358975,4706.153846153847
1893.166,0.3543329,1.0,0.33333334,0.5522388,1,0.0,0.0,0.0,0.0,0.11188471,0,0,0.0,0.0,0,0,82.0,0.0,526.0,4632.307692307693,3911.7948717948725,4536.923076923077,4428.205128205129,4249.74358974359,4540.512820512821,4475.8974358974365,4444.615384615385,4411.794871794872,4735.8974358974365,4350.769230769231,4264.615384615385,4137.435897435898,4678.461538461539
1893.385,0.3543329,1.0,0.33333334,0.5522388,0,0.0,0.0,0.0,0.0,0.18976612,0,0,0.0,0.0,0,0,110.0,0.0,526.0,4603.589743589744,3878.9743589743593,4510.256410256411,4422.564102564103,4232.307692307693,4525.128205128206,4458.461538461539,4427.179487179487,4402.051282051282,4710.256410256411,4347.6923076923085,4232.820512820514,4132.307692307693,4633.333333333334
1893.6664,0.39970252,1.0,0.33333334,0.5522388,0,0.0,0.0,0.0,0.0,0.16177085,0,0,0.0,0.0,0,0,17.0,0.0,0.0,4613.333333333334,3913.333333333334,4502.051282051282,4421.025641025642,4229.74358974359,4521.538461538462,4444.102564102564,4421.025641025642,4392.307692307693,4698.461538461539,4342.564102564103,4226.666666666667,4134.358974358975,4621.538461538462
1893.8854,0.39970252,1.0,0.33333334,0.5522388,1,0.0,0.0,0.0,0.0,0.1356987,0,0,0.0,0.0,0,0,45.0,0.0,0.0,4646.666666666667,3926.1538461538466,4530.256410256411,4416.410256410257,4233.333333333334,4526.153846153847,4456.410256410257,4427.6923076923085,4404.102564102564,4708.205128205129,4341.538461538462,4251.282051282052,4140.512820512821,4617.948717948719
1894.1669,0.391915,1.0,0.33333334,0.5522388,0,0.0,0.0,0.0,0.0,0.16945988,0,0,0.0,0.0,0,0,81.0,0.0,494.0,4631.794871794872,3908.205128205129,4519.48717948718,4420.512820512821,4233.333333333334,4526.153846153847,4450.769230769231,4409.743589743591,4393.333333333334,4696.410256410257,4338.461538461539,4237.435897435898,4124.615384615385,4584.102564102564
1894.3859,0.391915,1.0,0.33333334,0.5522388,0,0.0,0.0,0.0,0.0,0.1229522,0,0,0.0,0.0,0,0,109.0,0.0,494.0,4620.000000000001,3903.076923076924,4516.923076923077,4421.538461538462,4234.871794871796,4537.435897435898,4461.538461538462,4435.384615384616,4402.051282051282,4706.666666666667,4342.051282051282,4231.794871794872,4138.461538461539,4563.589743589744
1894.6674,0.3564656,1.0,0.33333334,0.5522388,0,0.0,0.0,0.0,0.0,0.2741948,0,0,0.0,0.0,0,0,16.0,0.0,0.0,4631.282051282052,3951.2820512820517,4522.051282051282,4430.256410256411,4245.641025641026,4542.051282051282,4446.153846153847,4411.794871794872,4386.666666666667,4681.538461538462,4332.820512820514,4229.2307692307695,4072.307692307693,4502.564102564103
1894.8862,0.3564656,1.0,0.33333334,0.5522388,0,0.0,0.0,0.0,0.0,0.5372304,0,0,0.0,0.0,0,0,44.0,0.0,0.0,4634.358974358975,3941.538461538462,4520.512820512821,4417.948717948719,4233.333333333334,4535.8974358974365,4448.717948717949,4418.461538461539,4390.256410256411,4689.2307692307695,4333.333333333334,4235.384615384616,4095.3846153846157,4476.923076923077
1895.1677,0.41933724,1.0,0.33333334,0.5522388,0,0.0,0.0,0.0,0.0,0.12648155,0,0,0.0,0.0,0,1,80.0,0.0,52.0,4664.102564102564,3930.2564102564106,4526.153846153847,4423.076923076924,4231.282051282052,4534.871794871796,4472.820512820514,4447.6923076923085,4414.358974358975,4748.717948717949,4349.743589743591,4288.717948717949,4216.923076923077,4522.051282051282
1895.3867,0.41933724,1.0,0.33333334,0.5522388,0,0.0,0.0,0.0,0.0,0.1318432,0,0,0.0,0.0,0,1,108.0,0.0,52.0,4612.307692307693,3867.1794871794878,4492.307692307693,4422.564102564103,4215.8974358974365,4520.512820512821,4458.461538461539,4424.615384615385,4395.384615384616,4724.615384615386,4338.974358974359,4227.6923076923085,4151.282051282052,4451.282051282052
1895.6682,0.4632781,1.0,0.33333334,0.5522388,0,0.0,0.0,0.0,0.0,0.11235792,0,0,0.0,0.0,0,0,15.0,0.0,464.0,4607.6923076923085,3902.0512820512827,4505.128205128206,4425.641025641026,4233.846153846154,4536.410256410257,4457.948717948719,4410.769230769231,4390.769230769231,4701.025641025642,4335.8974358974365,4224.102564102564,4114.358974358975,4456.923076923077
1895.8871,0.4632781,1.0,0.33333334,0.5522388,0,0.0,0.0,0.0,0.0,0.050287567,0,0,0.0,0.0,0,0,43.0,0.0,0.0,4616.410256410257,3923.076923076924,4521.025641025642,4426.153846153847,4235.384615384616,4537.948717948719,4462.051282051282,4415.8974358974365,4395.384615384616,4703.076923076924,4342.051282051282,4240.512820512821,4133.333333333334,4477.435897435898
1896.1686,0.5006239,1.0,0.33333334,0.5522388,0,0.0,0.0,0.0,0.0,0.0,0,0,0.0,0.0,0,0,79.0,0.0,464.0,4638.461538461539,3938.9743589743593,4528.717948717949,4432.820512820514,4248.717948717949,4547.6923076923085,4470.256410256411,4436.410256410257,4404.102564102564,4713.846153846154,4345.128205128206,4270.256410256411,4161.538461538462,4496.923076923077
1896.1686,0.5006239,1.0,0.33333334,0.5522388,0,0.0,0.0,0.0,0.0,0.0,0,0,0.0,0.0,0,0,79.0,0.0,464.0,4638.461538461539,3938.9743589743593,4528.717948717949,4432.820512820514,4248.717948717949,4547.6923076923085,4470.256410256411,4436.410256410257,4404.102564102564,4713.846153846154,4345.128205128206,4270.256410256411,4161.538461538462,4496.923076923077
1896.6691,0.50373787,1.0,0.33333334,0.5522388,0,0.0,0.0,0.0,0.0,0.0,0,0,0.0,0.0,0,0,14.0,0.0,526.0,4631.794871794872,3908.717948717949,4520.000000000001,4445.128205128206,4249.2307692307695,4554.871794871796,4474.871794871796,4443.589743589744,4407.6923076923085,4743.589743589744,4347.179487179487,4266.666666666667,4192.307692307693,4457.948717948719
1896.888,0.50373787,1.0,0.33333334,0.5522388,0,0.0,0.0,0.0,0.0,0.32457632,0,0,0.0,0.0,0,0,42.0,0.0,0.0,4642.564102564103,3910.2564102564106,4511.794871794872,4443.076923076924,4244.615384615385,4543.076923076924,4464.102564102564,4418.974358974359,4398.461538461539,4718.974358974359,4344.615384615385,4251.282051282052,4164.102564102564,4423.589743589744
1897.1694,0.49997166,1.0,0.33333334,0.5522388,0,0.0,0.0,0.0,0.0,0.18767586,0,0,0.0,0.0,0,0,78.0,0.0,526.0,4634.871794871796,3882.0512820512827,4508.205128205129,4432.820512820514,4231.282051282052,4536.410256410257,4458.974358974359,4418.974358974359,4396.410256410257,4733.846153846154,4345.641025641026,4273.333333333334,4201.538461538462,4418.461538461539
1897.3884,0.49997166,1.0,0.33333334,0.5522388,0,0.0,0.0,0.0,0.0,0.13644525,0,0,0.0,0.0,0,0,106.0,0.0,526.0,4748.205128205129,4113.333333333334,4555.384615384616,4410.769230769231,4233.333333333334,4535.384615384616,4451.794871794872,4397.948717948719,4382.564102564103,4701.538461538462,4355.8974358974365,4353.333333333334,4296.410256410257,4556.923076923077
1897.6699,0.44753572,1.0,0.33333334,0.5522388,0,0.0,0.0,0.0,0.0,0.14920165,0,0,0.0,0.0,1,0,13.0,0.0,494.0,4632.820512820514,3909.2307692307695,4492.820512820514,4430.256410256411,4227.6923076923085,4527.179487179488,4443.076923076924,4398.974358974359,4392.820512820514,4700.000000000001,4342.051282051282,4252.820512820514,4155.384615384616,4414.871794871796
1897.8888,0.44753572,1.0,0.33333334,0.5522388,0,0.0,0.0,0.0,0.0,0.1756989,0,0,0.0,0.0,0,0,41.0,0.0,0.0,4626.666666666667,3908.717948717949,4491.282051282052,4431.282051282052,4230.769230769231,4536.410256410257,4446.153846153847,4402.051282051282,4394.871794871796,4718.974358974359,4342.051282051282,4261.538461538462,4156.923076923077,4425.641025641026
1898.1703,0.39828506,1.0,0.33333334,0.5522388,0,0.0,0.0,0.0,0.0,0.13535953,0,0,0.0,0.0,0,0,77.0,0.0,494.0,4632.307692307693,3908.717948717949,4496.923076923077,4423.589743589744,4223.589743589744,4524.102564102564,4442.564102564103,4395.8974358974365,4394.358974358975,4723.076923076924,4341.538461538462,4262.564102564103,4158.461538461539,4431.282051282052
1898.2642,0.39828506,1.0,0.33333334,0.5522388,0,0.0,0.0,0.0,0.0,0.0,0,0,0.0,0.0,0,0,89.0,0.0,494.0,4630.256410256411,3909.2307692307695,4502.564102564103,4424.102564102564,4220.512820512821,4522.564102564103,4429.2307692307695,4394.871794871796,4385.128205128206,4722.564102564103,4343.076923076924,4255.384615384616,4159.48717948718,4444.102564102564
1898.6708,0.31498194,0.98765284,0.33333334,0.5522388,0,0.0,0.0,0.0,0.0,0.0,0,0,0.0,0.0,0,0,12.0,0.0,52.0,4617.948717948719,3907.692307692308,4515.8974358974365,4422.564102564103,4220.512820512821,4524.102564102564,4444.615384615385,4402.051282051282,4391.794871794872,4721.025641025642,4341.025641025642,4251.794871794872,4171.794871794872,4472.820512820514
1898.6708,0.31498194,0.98765284,0.33333334,0.5522388,0,0.0,0.0,0.0,0.0,0.0,0,0,0.0,0.0,0,0,12.0,0.0,52.0,4617.948717948719,3907.692307692308,4515.8974358974365,4422.564102564103,4220.512820512821,4524.102564102564,4444.615384615385,4402.051282051282,4391.794871794872,4721.025641025642,4341.025641025642,4251.794871794872,4171.794871794872,4472.820512820514
1899.1711,0.27612403,0.8909899,0.33333334,0.5522388,0,0.0,0.0,0.0,0.0,0.03732093,1,0,0.0,0.0,0,0,76.0,0.0,52.0,4599.48717948718,3970.2564102564106,4511.282051282052,4432.307692307693,4234.358974358975,4536.923076923077,4428.205128205129,4371.282051282052,4363.589743589744,4635.8974358974365,4324.102564102564,4211.282051282052,4062.564102564103,4457.435897435898
1899.3901,0.27612403,0.8909899,0.33333334,0.5522388,0,0.0,0.0,0.0,0.0,0.04265165,1,0,0.0,0.0,0,0,104.0,0.0,52.0,4587.6923076923085,3940.5128205128212,4507.179487179488,4432.820512820514,4231.794871794872,4539.48717948718,4444.102564102564,4386.153846153847,4368.717948717949,4664.102564102564,4324.615384615385,4210.256410256411,4089.7435897435903,4451.282051282052
1899.6716,0.25152823,0.7895312,0.33333334,0.5522388,0,0.0,0.0,0.0,0.0,0.07116016,1,0,0.0,0.0,0,0,11.0,0.0,466.0,4598.461538461539,3931.2820512820517,4504.615384615385,4428.717948717949,4231.794871794872,4534.871794871796,4435.8974358974365,4389.743589743591,4370.256410256411,4672.307692307693,4328.205128205129,4225.128205128206,4119.48717948718,4473.846153846154
1899.8905,0.25152823,0.7895312,0.33333334,0.5522388,0,0.0,0.0,0.0,0.0,0.25401703,1,0,0.0,0.0,0,0,39.0,0.0,0.0,4628.205128205129,3955.3846153846157,4513.333333333334,4432.820512820514,4234.871794871796,4538.974358974359,4437.435897435898,4388.205128205129,4370.256410256411,4676.923076923077,4328.205128205129,4245.128205128206,4125.641025641026,4499.48717948718
1900.172,0.2747997,0.70477134,0.33333334,0.5522388,0,0.0,0.0,0.0,0.0,0.17290558,0,0,0.0,0.0,1,0,75.0,0.0,466.0,4635.384615384616,3951.7948717948725,4511.794871794872,4433.333333333334,4229.2307692307695,4523.589743589744,4447.6923076923085,4405.641025641026,4382.564102564103,4710.769230769231,4336.923076923077,4262.564102564103,4197.948717948719,4544.102564102564
1900.391,0.2747997,0.70477134,0.33333334,0.5522388,0,0.0,0.0,0.0,0.0,0.13880253,0,0,0.0,0.0,1,0,103.0,0.0,466.0,4602.564102564103,3910.2564102564106,4491.282051282052,4445.128205128206,4232.307692307693,4537.948717948719,4443.589743589744,4413.333333333334,4388.717948717949,4717.435897435898,4335.8974358974365,4230.769230769231,4178.974358974359,4556.410256410257
1900.6725,0.23114839,0.6391345,0.33333334,0.5522388,0,0.0,0.0,0.0,0.0,0.5963787,0,0,0.0,0.0,0,0,10.0,0.0,526.0,4602.564102564103,3921.538461538462,4494.358974358975,4441.025641025642,4232.307692307693,4537.948717948719,4444.102564102564,4412.820512820514,4379.48717948718,4712.307692307693,4338.974358974359,4234.358974358975,4171.282051282052,4584.615384615385
1900.8914,0.23114839,0.6391345,0.33333334,0.5522388,0,0.0,0.0,0.0,0.0,0.23389365,0,0,0.0,0.0,0,0,38.0,0.0,0.0,4729.743589743591,4131.282051282052,4560.512820512821,4434.871794871796,4249.2307692307695,4553.846153846154,4456.923076923077,4409.743589743591,4379.48717948718,4705.641025641026,4345.641025641026,4328.717948717949,4260.000000000001,4737.435897435898
1901.1729,0.25996968,0.6024448,0.33333334,0.5522388,0,0.0,0.0,0.0,0.0,0.12411577,0,0,0.0,0.0,0,0,74.0,0.0,526.0,4616.410256410257,3926.666666666667,4490.769230769231,4447.179487179487,4234.871794871796,4540.000000000001,4445.128205128206,4415.384615384616,4383.076923076924,4713.846153846154,4335.8974358974365,4231.282051282052,4161.538461538462,4611.282051282052
1901.3918,0.25996968,0.6024448,0.33333334,0.5522388,0,0.0,0.0,0.0,0.0,0.09322067,0,0,0.0,0.0,0,0,102.0,0.0,526.0,4618.461538461539,3916.410256410257,4493.846153846154,4436.923076923077,4230.769230769231,4535.8974358974365,4449.743589743591,4414.358974358975,4380.000000000001,4694.358974358975,4329.743589743591,4226.666666666667,4157.948717948719,4612.820512820514
1901.6733,0.21701844,0.5779379,0.33333334,0.5522388,0,0.0,0.0,0.0,0.0,0.09892075,0,0,0.0,0.0,0,0,9.0,0.0,480.0,4652.307692307693,3961.538461538462,4508.717948717949,4443.589743589744,4234.358974358975,4539.48717948718,4443.076923076924,4420.000000000001,4388.717948717949,4702.564102564103,4336.410256410257,4238.461538461539,4184.615384615385,4622.051282051282
1901.8922,0.21701844,0.5779379,0.33333334,0.5522388,0,0.0,0.0,0.0,0.0,0.122210644,0,0,0.0,0.0,0,0,37.0,0.0,0.0,4625.641025641026,3928.717948717949,4489.743589743591,4447.179487179487,4232.820512820514,4536.923076923077,4448.205128205129,4424.615384615385,4380.512820512821,4701.025641025642,4333.333333333334,4223.589743589744,4172.307692307693,4592.307692307693
1902.1737,0.34741718,0.55589086,0.33333334,0.5522388,0,0.0,0.0,0.0,0.0,0.19534485,0,0,0.0,0.0,0,1,73.0,0.0,480.0,4661.538461538462,3925.1282051282055,4526.666666666667,4445.641025641026,4234.871794871796,4538.974358974359,4458.974358974359,4437.948717948719,4397.948717948719,4750.769230769231,4346.153846153847,4278.974358974359,4273.846153846154,4608.717948717949
1902.3927,0.34741718,0.55589086,0.33333334,0.5522388,0,0.0,0.0,0.0,0.0,0.2704471,0,0,0.0,0.0,0,0,101.0,0.0,494.0,4598.974358974359,3908.717948717949,4491.794871794872,4445.128205128206,4233.846153846154,4538.974358974359,4458.974358974359,4417.948717948719,4382.564102564103,4702.051282051282,4331.794871794872,4215.384615384616,4156.410256410257,4551.282051282052
1902.6742,0.4046912,0.5360486,0.33333334,0.5522388,0,0.0,0.0,0.0,0.0,0.1711649,0,0,0.0,0.0,0,0,8.0,0.0,379.0,4602.051282051282,3903.589743589744,4488.717948717949,4448.205128205129,4235.384615384616,4537.948717948719,4445.128205128206,4432.307692307693,4395.384615384616,4709.743589743591,4333.846153846154,4223.589743589744,4178.461538461539,4571.282051282052
1902.8931,0.4046912,0.5360486,0.33333334,0.5522388,0,0.0,0.0,0.0,0.0,0.27299964,0,0,0.0,0.0,0,0,36.0,0.0,0.0,4745.641025641026,4046.666666666667,4594.871794871796,4490.769230769231,4302.051282051282,4604.615384615385,4541.025641025642,4536.923076923077,4444.102564102564,4844.102564102564,4376.410256410257,4384.615384615385,4410.256410256411,4749.743589743591
1903.1746,0.5477839,0.5181905,0.33333334,0.5522388,0,0.0,0.0,0.0,0.0,0.16097961,0,0,0.0,0.0,1,0,72.0,0.0,379.0,4695.384615384616,3993.333333333334,4578.461538461539,4529.743589743591,4325.641025641026,4629.743589743591,4553.846153846154,4539.48717948718,4443.076923076924,4810.769230769231,4372.820512820514,4323.076923076924,4263.589743589744,4653.333333333334
1903.3936,0.5477839,0.5181905,0.33333334,0.5522388,0,0.0,0.0,0.0,0.0,0.15097992,0,0,0.0,0.0,0,0,100.0,0.0,52.0,4712.820512820514,3989.7435897435903,4601.025641025642,4552.307692307693,4343.076923076924,4646.153846153847,4585.128205128206,4570.256410256411,4458.974358974359,4885.128205128206,4389.743589743591,4370.256410256411,4376.410256410257,4690.769230769231
1903.675,0.6920498,0.50211823,0.33333334,0.5522388,0,0.0,0.0,0.0,0.0,0.08958697,0,0,0.0,0.0,0,0,7.0,0.0,466.0,4712.307692307693,4005.1282051282055,4599.48717948718,4555.8974358974365,4335.8974358974365,4634.871794871796,4554.358974358975,4542.051282051282,4455.384615384616,4841.538461538462,4391.282051282052,4352.820512820514,4311.794871794872,4682.051282051282
1903.8939,0.6920498,0.50211823,0.33333334,0.5522388,0,0.0,0.0,0.0,0.0,0.13837706,0,0,0.0,0.0,0,0,35.0,0.0,0.0,4682.564102564103,3973.8461538461543,4570.769230769231,4548.205128205129,4326.666666666667,4629.2307692307695,4553.846153846154,4541.538461538462,4457.435897435898,4832.307692307693,4388.205128205129,4314.358974358975,4273.333333333334,4638.461538461539
1904.1754,0.8190038,0.5507348,0.33333334,0.5522388,0,0.0,0.0,0.0,0.0,0.18152632,0,0,0.0,0.0,0,0,71.0,0.0,466.0,4685.128205128206,4019.48717948718,4581.025641025642,4540.000000000001,4324.615384615385,4623.076923076924,4534.871794871796,4507.6923076923085,4445.641025641026,4778.974358974359,4380.000000000001,4313.846153846154,4229.2307692307695,4586.153846153847
1904.3944,0.8190038,0.5507348,0.33333334,0.5522388,1,0.0,0.0,0.0,0.0,0.13102056,0,0,0.0,0.0,0,0,99.0,0.0,466.0,4666.666666666667,4002.564102564103,4554.358974358975,4501.538461538462,4292.820512820514,4590.769230769231,4495.384615384616,4476.923076923077,4427.6923076923085,4746.666666666667,4373.333333333334,4293.333333333334,4213.333333333334,4527.6923076923085
1904.6759,0.8054095,0.67022,0.33333334,0.5522388,0,0.0,0.0,0.0,0.0,0.2758846,0,0,0.0,0.0,0,0,6.0,0.0,548.0,4662.564102564103,3973.333333333334,4546.153846153847,4476.410256410257,4265.128205128206,4568.205128205129,4476.410256410257,4455.384615384616,4426.666666666667,4725.641025641026,4363.589743589744,4281.538461538462,4196.410256410257,4492.307692307693
1904.8949,0.8054095,0.67022,0.33333334,0.5522388,0,0.0,0.0,0.0,0.0,0.08128261,0,0,0.0,0.0,0,0,34.0,0.0,0.0,4651.794871794872,3963.589743589744,4541.025641025642,4476.410256410257,4271.794871794872,4570.769230769231,4475.8974358974365,4449.743589743591,4423.076923076924,4724.102564102564,4361.025641025642,4266.153846153847,4185.128205128206,4479.48717948718
1905.1764,0.823315,0.6472156,0.33333334,0.5522388,0,0.0,0.0,0.0,0.0,0.16733605,0,0,0.0,0.0,0,0,70.0,0.0,548.0,4654.871794871796,3967.692307692308,4525.641025641026,4463.589743589744,4258.461538461539,4555.384615384616,4461.025641025642,4432.307692307693,4415.384615384616,4709.743589743591,4355.384615384616,4263.076923076924,4171.794871794872,4449.743589743591
1905.3953,0.823315,0.6472156,0.33333334,0.5522388,0,0.0,0.0,0.0,0.0,0.33449483,0,0,0.0,0.0,0,0,98.0,0.0,526.0,4654.358974358975,3970.7692307692314,4528.717948717949,4463.076923076924,4262.564102564103,4555.8974358974365,4472.820512820514,4429.2307692307695,4413.846153846154,4704.102564102564,4353.333333333334,4265.641025641026,4153.333333333334,4429.743589743591
1905.6455,0.76140064,0.59119666,0.33333334,0.5522388,0,0.0,0.0,0.0,0.0,0.14928433,0,0,0.0,0.0,0,0,1.0,0.0,387.0,4654.871794871796,3963.076923076924,4538.461538461539,4458.461538461539,4264.102564102564,4559.48717948718,4467.6923076923085,4444.102564102564,4418.461538461539,4711.282051282052,4355.384615384616,4278.974358974359,4166.153846153847,4428.205128205129
1905.8958,0.76140064,0.59119666,0.33333334,0.5522388,0,0.0,0.0,0.0,0.0,0.0,0,0,0.0,0.0,0,0,33.0,0.0,0.0,4648.717948717949,3957.435897435898,4538.974358974359,4456.923076923077,4258.461538461539,4556.923076923077,4472.820512820514,4443.589743589744,4422.051282051282,4714.871794871796,4353.333333333334,4281.025641025642,4197.948717948719,4433.333333333334
1906.1459,0.6479726,0.53719735,0.33333334,0.5522388,0,0.0,0.0,0.0,0.0,0.0,0,0,0.0,0.0,0,0,65.0,0.0,387.0,4666.153846153847,3973.8461538461543,4540.000000000001,4475.384615384616,4281.538461538462,4585.128205128206,4495.384615384616,4471.794871794872,4430.256410256411,4739.48717948718,4357.435897435898,4286.666666666667,4187.6923076923085,4442.051282051282
1906.1772,0.6479726,0.53719735,0.33333334,0.5522388,0,0.0,0.0,0.0,0.0,0.0,0,0,0.0,0.0,0,0,69.0,0.0,552.0,4666.666666666667,3963.076923076924,4539.48717948718,4480.512820512821,4278.974358974359,4578.461538461539,4492.307692307693,4488.717948717949,4446.153846153847,4797.435897435898,4363.589743589744,4309.743589743591,4270.769230769231,4474.871794871796
1906.6464,0.5909168,0.4884997,0.33333334,0.5522388,0,0.0,0.0,0.0,0.0,0.27503243,0,0,0.0,0.0,0,0,0.0,0.0,480.0,4640.000000000001,3944.615384615385,4526.153846153847,4436.923076923077,4250.256410256411,4556.410256410257,4461.025641025642,4437.948717948719,4424.615384615385,4738.974358974359,4340.000000000001,4278.974358974359,4203.589743589744,4498.974358974359
1906.8966,0.5909168,0.4884997,0.33333334,0.5522388,0,0.0,0.0,0.0,0.0,0.25179747,0,0,0.0,0.0,0,0,32.0,0.0,0.0,4632.307692307693,3920.5128205128212,4500.000000000001,4417.435897435898,4243.589743589744,4538.461538461539,4453.333333333334,4429.2307692307695,4413.333333333334,4711.794871794872,4334.358974358975,4243.589743589744,4173.333333333334,4484.102564102564
1907.1467,0.51970434,0.45955342,0.33333334,0.5522388,0,0.0,0.0,0.0,0.0,0.0,0,0,0.0,0.0,0,0,64.0,0.0,480.0,4644.615384615385,3944.1025641025644,4518.461538461539,4441.025641025642,4261.538461538462,4559.48717948718,4472.820512820514,4452.820512820514,4424.102564102564,4737.948717948719,4342.051282051282,4263.589743589744,4184.102564102564,4502.564102564103
1907.1781,0.51970434,0.45955342,0.33333334,0.5522388,0,0.0,0.0,0.0,0.0,0.0,0,0,0.0,0.0,0,0,68.0,0.0,556.0,4635.384615384616,3929.7435897435903,4505.641025641026,4422.564102564103,4244.102564102564,4541.025641025642,4454.871794871796,4427.6923076923085,4409.2307692307695,4711.794871794872,4336.923076923077,4249.74358974359,4167.179487179487,4488.717948717949
1907.6472,0.60175115,0.42949453,0.33333334,0.5522388,0,0.0,0.0,0.0,0.0,0.0,0,0,0.0,0.0,0,0,128.0,0.0,52.0,4598.461538461539,3939.48717948718,4489.2307692307695,4410.769230769231,4231.282051282052,4525.128205128206,4438.461538461539,4417.948717948719,4407.179487179487,4709.2307692307695,4326.153846153847,4232.307692307693,4154.358974358975,4474.871794871796
1907.8975,0.60175115,0.42949453,0.33333334,0.5522388,0,0.0,0.0,0.0,0.0,0.12986517,0,0,0.0,0.0,0,0,31.0,0.0,0.0,4619.48717948718,3957.9487179487182,4347.6923076923085,4414.358974358975,4235.8974358974365,4536.923076923077,4454.871794871796,4430.256410256411,4402.051282051282,4717.435897435898,4332.307692307693,4248.717948717949,4189.2307692307695,4491.282051282052
1908.1476,0.65460104,0.40739033,0.33333334,0.5522388,1,0.0,0.0,0.0,0.0,0.23777907,0,0,0.0,0.0,0,0,63.0,0.0,0.0,4647.6923076923085,3974.358974358975,4330.769230769231,4420.000000000001,4235.8974358974365,4538.461538461539,4444.102564102564,4442.564102564103,4413.333333333334,4722.051282051282,4337.435897435898,4280.000000000001,4213.333333333334,4521.538461538462
1908.3978,0.65460104,0.40739033,0.33333334,0.5522388,0,0.0,0.0,0.0,0.0,0.15014343,0,0,0.0,0.0,0,0,95.0,0.0,466.0,4617.435897435898,3914.8717948717954,4326.153846153847,4424.615384615385,4233.333333333334,4537.435897435898,4455.8974358974365,4430.769230769231,4412.307692307693,4732.820512820514,4330.769230769231,4243.076923076924,4185.641025641026,4466.666666666667
1908.6481,0.63839775,0.3993216,0.33333334,0.5522388,0,0.0,0.0,0.0,0.0,0.23966673,0,0,0.0,0.0,0,0,127.0,0.0,466.0,4600.512820512821,3865.1282051282055,4339.48717948718,4431.794871794872,4234.358974358975,4538.974358974359,4461.025641025642,4444.615384615385,4411.282051282052,4722.051282051282,4326.153846153847,4230.769230769231,4184.615384615385,4422.564102564103
1908.8983,0.63839775,0.3993216,0.33333334,0.5522388,0,0.0,0.0,0.0,0.0,0.29461533,0,0,0.0,0.0,0,0,30.0,0.0,0.0,4612.820512820514,3899.48717948718,4372.307692307693,4426.153846153847,4230.769230769231,4534.871794871796,4455.384615384616,4425.128205128206,4393.846153846154,4687.6923076923085,4323.589743589744,4228.717948717949,4155.8974358974365,4382.051282051282
1909.1484,0.6612769,0.48248345,0.33333334,0.5522388,1,0.0,0.0,0.0,0.0,0.11846434,0,0,0.0,0.0,0,0,62.0,0.0,0.0,4625.128205128206,3913.8461538461543,4414.358974358975,4429.743589743591,4241.538461538462,4546.153846153847,4475.8974358974365,4463.076923076924,4429.743589743591,4743.589743589744,4337.435897435898,4266.666666666667,4218.461538461539,4397.435897435898
1909.3987,0.6612769,0.48248345,0.33333334,0.5522388,0,0.0,0.0,0.0,0.0,0.16381548,0,0,0.0,0.0,0,0,94.0,0.0,526.0,4596.410256410257,3891.7948717948725,4406.153846153847,4423.076923076924,4224.615384615385,4523.589743589744,4444.615384615385,4425.128205128206,4396.410256410257,4700.512820512821,4327.179487179487,4221.538461538462,4170.769230769231,4407.179487179487
1909.6489,0.6284058,0.5625365,0.33333334,0.5522388,0,0.0,0.0,0.0,0.0,0.50206584,0,0,0.0,0.0,0,0,126.0,0.0,526.0,4595.8974358974365,3899.48717948718,4429.743589743591,4435.8974358974365,4235.384615384616,4537.948717948719,4446.153846153847,4429.743589743591,4397.948717948719,4723.076923076924,4332.307692307693,4234.358974358975,4199.48717948718,4439.48717948718
1909.8992,0.6284058,0.5625365,0.33333334,0.5522388,0,0.0,0.0,0.0,0.0,0.0,0,0,0.0,0.0,0,0,29.0,0.0,0.0,4613.333333333334,3912.820512820513,4454.871794871796,4443.076923076924,4247.6923076923085,4541.025641025642,4459.48717948718,4441.538461538462,4405.128205128206,4723.589743589744,4339.48717948718,4248.205128205129,4210.256410256411,4460.000000000001
1910.1494,0.633027,0.551977,0.33333334,0.5522388,0,0.0,0.0,0.0,0.0,0.0,0,0,0.0,0.0,0,0,61.0,0.0,0.0,4620.000000000001,3922.564102564103,4472.307692307693,4457.435897435898,4261.538461538462,4555.8974358974365,4475.8974358974365,4444.102564102564,4413.333333333334,4729.743589743591,4340.000000000001,4261.538461538462,4226.153846153847,4481.538461538462
1910.3058,0.633027,0.551977,0.33333334,0.5522388,1,0.0,0.0,0.0,0.0,0.0,0,0,0.0,0.0,0,0,81.0,0.0,494.0,4671.282051282052,4005.6410256410263,4501.025641025642,4462.564102564103,4263.589743589744,4568.717948717949,4476.410256410257,4461.538461538462,4413.846153846154,4752.820512820514,4355.8974358974365,4304.615384615385,4288.717948717949,4540.000000000001
1910.6498,0.66498035,0.54247993,0.33333334,0.5522388,0,0.0,0.0,0.0,0.0,0.15262687,0,0,0.0,0.0,0,0,125.0,0.0,494.0,4608.717948717949,3910.2564102564106,4475.8974358974365,4443.589743589744,4242.564102564103,4542.051282051282,4451.282051282052,4416.923076923077,4380.000000000001,4704.102564102564,4340.000000000001,4246.666666666667,4215.8974358974365,4487.6923076923085
1910.9,0.66498035,0.54247993,0.33333334,0.5522388,0,0.0,0.0,0.0,0.0,0.036907174,0,0,0.0,0.0,0,0,28.0,0.0,0.0,4605.641025641026,3913.8461538461543,4485.641025641026,4441.538461538462,4248.205128205129,4552.820512820514,4465.128205128206,4442.564102564103,4399.48717948718,4723.589743589744,4342.564102564103,4251.282051282052,4230.769230769231,4489.743589743591
1911.1503,0.58679086,0.53393257,0.33333334,0.5522388,0,0.0,0.0,0.0,0.0,0.097429015,0,0,0.0,0.0,0,0,60.0,0.0,0.0,4617.435897435898,3897.435897435898,4492.820512820514,4438.461538461539,4232.307692307693,4539.48717948718,4461.538461538462,4442.564102564103,4412.307692307693,4780.512820512821,4349.743589743591,4281.025641025642,4321.025641025642,4520.512820512821
1911.4004,0.58679086,0.53393257,0.33333334,0.5522388,0,0.0,0.0,0.0,0.0,0.05378458,0,0,0.0,0.0,0,0,92.0,0.0,52.0,4594.871794871796,3909.7435897435903,4478.461538461539,4434.871794871796,4233.846153846154,4538.461538461539,4441.538461538462,4415.384615384616,4386.153846153847,4704.615384615386,4337.435897435898,4232.820512820514,4198.974358974359,4472.307692307693
1911.6506,0.56897384,0.52623993,0.33333334,0.5522388,0,0.0,0.0,0.0,0.0,0.10804715,0,0,0.0,0.0,0,0,124.0,0.0,52.0,4587.6923076923085,3911.2820512820517,4480.000000000001,4427.179487179487,4232.307692307693,4535.8974358974365,4442.564102564103,4422.564102564103,4392.307692307693,4692.307692307693,4332.820512820514,4230.769230769231,4196.410256410257,4462.051282051282
1911.9009,0.56897384,0.52623993,0.33333334,0.5522388,0,0.0,0.0,0.0,0.0,0.12377412,0,0,0.0,0.0,0,0,27.0,0.0,0.0,4640.000000000001,3976.410256410257,4514.871794871796,4424.615384615385,4230.769230769231,4536.923076923077,4439.48717948718,4425.641025641026,4390.256410256411,4701.025641025642,4337.948717948719,4279.48717948718,4254.358974358975,4530.769230769231
1912.1511,0.61889124,0.51931655,0.33333334,0.5522388,0,0.0,0.0,0.0,0.0,0.20635653,0,0,0.0,0.0,0,1,59.0,0.0,0.0,4605.128205128206,3890.2564102564106,4506.153846153847,4448.205128205129,4244.102564102564,4549.2307692307695,4473.846153846154,4474.358974358975,4414.358974358975,4750.769230769231,4348.717948717949,4273.846153846154,4252.307692307693,4484.102564102564
1912.4012,0.61889124,0.51931655,0.33333334,0.5522388,0,0.0,0.0,0.0,0.0,0.18145958,0,0,0.0,0.0,0,0,91.0,0.0,466.0,4598.461538461539,3929.7435897435903,4482.564102564103,4423.076923076924,4231.282051282052,4532.307692307693,4440.512820512821,4420.512820512821,4373.846153846154,4663.589743589744,4325.641025641026,4228.717948717949,4132.820512820514,4459.48717948718
1912.6515,0.6001839,0.48143113,0.33333334,0.5522388,0,0.0,0.0,0.0,0.0,0.10301655,0,0,0.0,0.0,0,0,123.0,0.0,466.0,4605.128205128206,3931.7948717948725,4492.307692307693,4425.641025641026,4232.820512820514,4535.384615384616,4439.48717948718,4409.2307692307695,4372.307692307693,4684.102564102564,4331.794871794872,4248.205128205129,4149.74358974359,4502.564102564103
