timestamp,excitement,frustration,meditation,engagementBoredom,blink,clench,laugh,smile,eyebrow,furrowBrow,lookLeft,lookRight,smirkLeft,smirkRight,winkLeft,winkRight,eeg0,eeg1,eeg2,eeg3,eeg4,eeg5,eeg6,eeg7,eeg8,eeg9,eeg10,eeg11,eeg12,eeg13,eeg14,eeg15,eeg16
224.09102,0.45067748,0.9424313,0.33333352,0.5522419,0,0.0,0.0,0.0,0.0,0.24854377,0,0,0.0,0.0,1,0,84.0,0.0,401.0,4889.743589743591,4140.000000000001,4465.128205128206,4513.846153846154,4261.538461538462,4586.666666666667,4478.461538461539,4488.205128205129,4417.948717948719,4736.923076923077,4383.589743589744,4264.615384615385,4184.615384615385,4649.743589743591
224.34123,0.4721588,0.96104133,0.33333352,0.5522416,0,0.0,0.0,0.0,0.0,0.16052893,0,0,0.0,0.0,0,0,116.0,0.0,401.0,4809.743589743591,4083.589743589744,4463.076923076924,4474.871794871796,4251.282051282052,4562.564102564103,4461.025641025642,4474.871794871796,4405.128205128206,4709.2307692307695,4341.025641025642,4230.256410256411,4150.256410256411,4599.48717948718
224.59145,0.4721588,0.96104133,0.33333352,0.5522416,0,0.0,0.0,0.0,0.0,0.43350235,0,0,0.0,0.0,0,0,19.0,0.0,0.0,4755.384615384616,4065.6410256410263,4453.846153846154,4446.153846153847,4251.282051282052,4555.384615384616,4429.2307692307695,4416.410256410257,4380.000000000001,4669.2307692307695,4322.051282051282,4216.410256410257,4109.2307692307695,4557.948717948719
224.84166,0.56943333,0.97779036,0.3333335,0.5522413,0,0.0,0.0,0.0,0.0,0.1194197,0,0,0.0,0.0,0,0,51.0,0.0,0.0,4735.8974358974365,4035.3846153846157,4455.8974358974365,4428.205128205129,4262.564102564103,4560.512820512821,4441.025641025642,4460.000000000001,4398.461538461539,4692.820512820514,4320.000000000001,4226.666666666667,4122.051282051282,4535.384615384616
225.09187,0.56943333,0.97779036,0.3333335,0.5522413,0,0.0,0.0,0.0,0.0,0.2718877,0,0,0.0,0.0,0,0,83.0,0.0,473.0,4690.769230769231,3975.8974358974365,4463.076923076924,4423.076923076924,4266.666666666667,4567.6923076923085,4461.025641025642,4491.282051282052,4410.256410256411,4726.153846153847,4352.307692307693,4249.2307692307695,4185.128205128206,4511.282051282052
225.34209,0.51681876,0.9928645,0.33333346,0.5522411,0,0.0,0.0,0.0,0.0,0.14470512,0,0,0.0,0.0,0,0,115.0,0.0,473.0,4678.974358974359,3983.076923076924,4463.589743589744,4417.435897435898,4278.461538461539,4568.205128205129,4455.384615384616,4472.307692307693,4398.974358974359,4706.153846153847,4362.051282051282,4244.102564102564,4148.717948717949,4513.333333333334
225.5923,0.51681876,0.9928645,0.33333346,0.5522411,0,0.0,0.0,0.0,0.0,0.16702417,0,0,0.0,0.0,0,0,18.0,0.0,0.0,4683.076923076924,4018.461538461539,4473.846153846154,4413.846153846154,4284.102564102564,4572.307692307693,4478.461538461539,4493.846153846154,4352.820512820514,4683.589743589744,4343.589743589744,4256.923076923077,4104.615384615385,4538.461538461539
225.84253,0.46012482,1.0,0.33333346,0.55224085,0,0.0,0.0,0.0,0.0,0.17879847,0,0,0.0,0.0,0,0,50.0,0.0,0.0,4697.435897435898,4016.410256410257,4488.205128205129,4411.282051282052,4290.256410256411,4576.410256410257,4473.333333333334,4473.333333333334,4353.333333333334,4708.717948717949,4360.512820512821,4278.461538461539,4135.8974358974365,4567.6923076923085
226.09274,0.46012482,1.0,0.33333346,0.55224085,0,0.0,0.0,0.0,0.0,0.17816532,0,0,0.0,0.0,0,0,82.0,0.0,522.0,4658.974358974359,3974.358974358975,4477.435897435898,4405.641025641026,4285.128205128206,4573.846153846154,4485.128205128206,4471.282051282052,4400.000000000001,4695.384615384616,4334.871794871796,4265.641025641026,4116.923076923077,4526.153846153847
226.34296,0.4226448,0.97118384,0.33333346,0.55224067,0,0.0,0.0,0.0,0.0,0.097766854,0,0,0.0,0.0,0,0,114.0,0.0,522.0,4666.666666666667,3975.8974358974365,4486.153846153847,4408.205128205129,4296.410256410257,4581.025641025642,4491.282051282052,4480.512820512821,4402.051282051282,4712.820512820514,4350.769230769231,4276.410256410257,4127.6923076923085,4524.615384615385
226.59317,0.4226448,0.97118384,0.33333346,0.55224067,0,0.0,0.0,0.0,0.0,0.0,0,0,0.0,0.0,0,0,17.0,0.0,0.0,4652.820512820514,3971.7948717948725,4477.435897435898,4410.769230769231,4289.74358974359,4569.743589743591,4475.8974358974365,4440.000000000001,4395.8974358974365,4718.974358974359,4331.794871794872,4270.769230769231,4139.48717948718,4553.846153846154
226.74956,0.4295983,0.8973875,0.33333343,0.5522405,0,0.0,0.0,0.0,0.0,0.0,0,0,0.0,0.0,0,0,37.0,0.0,0.0,4646.153846153847,3962.564102564103,4482.564102564103,4417.435897435898,4294.358974358975,4584.102564102564,4491.794871794872,4473.846153846154,4410.256410256411,4737.948717948719,4353.846153846154,4280.512820512821,4151.794871794872,4552.307692307693
227.0936,0.4295983,0.8973875,0.33333343,0.5522405,1,0.0,0.0,0.0,0.0,0.14732347,0,0,0.0,0.0,0,0,81.0,0.0,491.0,4630.769230769231,3916.410256410257,4476.410256410257,4424.615384615385,4289.74358974359,4570.256410256411,4490.256410256411,4481.025641025642,4420.000000000001,4757.435897435898,4355.384615384616,4268.717948717949,4164.102564102564,4522.564102564103
227.34381,0.40384588,0.97989476,0.33333343,0.5522403,0,0.0,0.0,0.0,0.0,0.1636427,0,0,0.0,0.0,0,0,113.0,0.0,491.0,4641.538461538462,3987.692307692308,4483.076923076924,4436.923076923077,4300.512820512821,4574.358974358975,4477.435897435898,4473.846153846154,4401.538461538462,4717.435897435898,4326.153846153847,4268.205128205129,4136.410256410257,4544.102564102564
227.59402,0.40384588,0.97989476,0.33333343,0.5522403,0,0.0,0.0,0.0,0.0,0.09914257,0,0,0.0,0.0,0,0,16.0,0.0,0.0,4651.282051282052,3973.333333333334,4484.615384615385,4455.8974358974365,4296.923076923077,4576.410256410257,4492.307692307693,4492.820512820514,4411.794871794872,4735.8974358974365,4352.307692307693,4265.641025641026,4169.2307692307695,4585.641025641026
227.84424,0.41624013,1.0,0.33333343,0.55224013,1,0.0,0.0,0.0,0.0,0.19355007,0,0,0.0,0.0,0,0,48.0,0.0,0.0,4683.589743589744,3974.358974358975,4502.564102564103,4474.871794871796,4306.153846153847,4586.153846153847,4495.8974358974365,4474.871794871796,4405.641025641026,4748.717948717949,4375.8974358974365,4286.153846153847,4200.512820512821,4633.333333333334
228.09445,0.41624013,1.0,0.33333343,0.55224013,0,0.0,0.0,0.0,0.0,0.14294332,0,0,0.0,0.0,0,0,80.0,0.0,402.0,4671.794871794872,3974.358974358975,4499.48717948718,4486.666666666667,4300.512820512821,4586.153846153847,4489.743589743591,4492.820512820514,4415.8974358974365,4755.384615384616,4390.769230769231,4286.153846153847,4217.435897435898,4666.153846153847
228.34467,0.3705901,1.0,0.3333334,0.55224,0,0.0,0.0,0.0,0.0,0.042915445,0,0,0.0,0.0,0,0,112.0,0.0,402.0,4703.589743589744,3980.0000000000005,4523.076923076924,4497.948717948719,4326.153846153847,4602.564102564103,4519.48717948718,4519.48717948718,4413.333333333334,4793.333333333334,4426.153846153847,4309.743589743591,4256.410256410257,4669.743589743591
228.5949,0.3705901,1.0,0.3333334,0.55224,0,0.0,0.0,0.0,0.0,0.0,0,0,0.0,0.0,0,0,15.0,0.0,473.0,4681.025641025642,3958.461538461539,4505.128205128206,4501.538461538462,4311.282051282052,4595.8974358974365,4510.769230769231,4510.769230769231,4412.820512820514,4784.102564102564,4410.769230769231,4295.384615384616,4250.769230769231,4635.8974358974365
228.75127,0.39697802,1.0,0.3333334,0.5522399,0,0.0,0.0,0.0,0.0,0.0,0,0,0.0,0.0,0,0,35.0,0.0,0.0,4720.000000000001,3978.9743589743593,4524.102564102564,4506.153846153847,4310.769230769231,4589.743589743591,4521.538461538462,4510.256410256411,4405.641025641026,4788.717948717949,4419.48717948718,4321.538461538462,4286.666666666667,4649.743589743591
228.75127,0.39697802,1.0,0.3333334,0.5522399,0,0.0,0.0,0.0,0.0,0.0,0,0,0.0,0.0,0,0,35.0,0.0,0.0,4720.000000000001,3978.9743589743593,4524.102564102564,4506.153846153847,4310.769230769231,4589.743589743591,4521.538461538462,4510.256410256411,4405.641025641026,4788.717948717949,4419.48717948718,4321.538461538462,4286.666666666667,4649.743589743591
229.34554,0.34952667,1.0,0.3333334,0.5522398,0,0.0,0.0,0.0,0.0,0.093758576,0,0,0.0,0.0,0,0,111.0,0.0,473.0,4705.128205128206,3980.0000000000005,4515.384615384616,4501.025641025642,4307.6923076923085,4588.717948717949,4521.025641025642,4506.666666666667,4408.717948717949,4776.410256410257,4414.358974358975,4317.948717948719,4278.461538461539,4587.179487179488
229.59575,0.34952667,1.0,0.3333334,0.5522398,0,0.0,0.0,0.0,0.0,0.17218696,0,0,0.0,0.0,0,0,14.0,0.0,522.0,4695.8974358974365,3970.2564102564106,4498.974358974359,4488.205128205129,4288.717948717949,4571.794871794872,4509.2307692307695,4514.358974358975,4417.948717948719,4749.2307692307695,4396.923076923077,4293.333333333334,4262.564102564103,4540.000000000001
229.84596,0.39264688,1.0,0.3333334,0.5522397,0,0.0,0.0,0.0,0.0,0.06446753,0,0,0.0,0.0,0,0,46.0,0.0,0.0,4703.076923076924,3975.3846153846157,4511.794871794872,4481.538461538462,4291.794871794872,4571.794871794872,4506.666666666667,4505.128205128206,4414.358974358975,4758.974358974359,4404.102564102564,4310.256410256411,4274.358974358975,4565.641025641026
229.97107,0.39264688,1.0,0.3333334,0.5522397,0,0.0,0.0,0.0,0.0,0.0,0,0,0.0,0.0,0,0,62.0,0.0,0.0,4712.307692307693,3985.1282051282055,4515.8974358974365,4483.589743589744,4301.538461538462,4583.589743589744,4520.000000000001,4507.6923076923085,4412.307692307693,4776.410256410257,4425.641025641026,4313.846153846154,4292.307692307693,4574.871794871796
230.34639,0.36848244,0.954543,0.33333337,0.5522396,0,0.0,0.0,0.0,0.0,0.019386753,0,0,0.0,0.0,0,0,110.0,0.0,522.0,4682.564102564103,3957.9487179487182,4502.051282051282,4460.000000000001,4261.025641025642,4556.410256410257,4487.6923076923085,4464.615384615385,4408.717948717949,4760.512820512821,4389.2307692307695,4288.717948717949,4244.615384615385,4556.410256410257
230.5966,0.36848244,0.954543,0.33333337,0.5522396,0,0.0,0.0,0.0,0.0,0.067240134,0,0,0.0,0.0,0,0,13.0,0.0,491.0,4683.589743589744,3975.3846153846157,4497.435897435898,4452.820512820514,4266.153846153847,4558.461538461539,4505.128205128206,4473.333333333334,4410.256410256411,4752.820512820514,4390.256410256411,4287.6923076923085,4236.923076923077,4576.923076923077
230.84682,0.3203699,0.8783963,0.33333337,0.55223954,0,0.0,0.0,0.0,0.0,0.060667984,0,0,0.0,0.0,0,0,45.0,0.0,0.0,4682.564102564103,3960.0000000000005,4494.358974358975,4436.923076923077,4248.205128205129,4544.615384615385,4497.435897435898,4491.794871794872,4424.102564102564,4771.282051282052,4374.871794871796,4283.589743589744,4247.179487179487,4575.8974358974365
231.12831,0.3203699,0.8783963,0.33333337,0.55223954,0,0.0,0.0,0.0,0.0,0.17817348,0,0,0.0,0.0,1,0,81.0,0.0,491.0,4726.666666666667,4044.1025641025644,4522.564102564103,4457.435897435898,4261.025641025642,4554.358974358975,4470.769230769231,4434.871794871796,4400.000000000001,4748.205128205129,4399.48717948718,4325.641025641026,4273.846153846154,4656.410256410257
231.34726,0.28390896,0.81442314,0.33333337,0.5522395,0,0.0,0.0,0.0,0.0,0.17391497,0,0,0.0,0.0,1,0,109.0,0.0,491.0,4651.794871794872,3913.333333333334,4484.615384615385,4440.512820512821,4262.564102564103,4554.871794871796,4503.589743589744,4484.102564102564,4401.025641025642,4733.333333333334,4368.205128205129,4257.435897435898,4215.384615384616,4508.205128205129
231.59747,0.28390896,0.81442314,0.33333337,0.5522395,0,0.0,0.0,0.0,0.0,0.15005822,0,0,0.0,0.0,0,0,12.0,0.0,402.0,4683.076923076924,3957.435897435898,4512.307692307693,4454.358974358975,4267.179487179487,4561.538461538462,4506.666666666667,4484.102564102564,4408.205128205129,4745.641025641026,4389.743589743591,4291.282051282052,4234.871794871796,4553.333333333334
231.84769,0.25292727,0.8268009,0.33333337,0.55223936,0,0.0,0.0,0.0,0.0,0.037224118,0,0,0.0,0.0,0,0,44.0,0.0,0.0,4689.2307692307695,3960.5128205128212,4515.384615384616,4462.051282051282,4275.8974358974365,4563.589743589744,4509.743589743591,4495.384615384616,4409.743589743591,4741.538461538462,4391.282051282052,4296.410256410257,4220.512820512821,4552.820512820514
231.9728,0.25292727,0.8268009,0.33333337,0.55223936,0,0.0,0.0,0.0,0.0,0.0,0,0,0.0,0.0,0,0,60.0,0.0,0.0,4697.948717948719,3959.48717948718,4524.615384615385,4467.179487179487,4277.435897435898,4561.538461538462,4493.333333333334,4483.076923076924,4415.384615384616,4739.48717948718,4396.410256410257,4305.128205128206,4216.923076923077,4540.512820512821
232.25429,0.210389,0.8840419,0.33333337,0.5522393,0,0.0,0.0,0.0,0.0,0.0,0,0,0.0,0.0,0,0,96.0,0.0,402.0,4729.743589743591,3978.9743589743593,4540.512820512821,4470.256410256411,4278.461538461539,4569.2307692307695,4507.6923076923085,4493.333333333334,4417.435897435898,4751.794871794872,4410.769230769231,4314.871794871796,4233.846153846154,4558.974358974359
232.62961,0.210389,0.8840419,0.33333337,0.5522393,0,0.0,0.0,0.0,0.0,0.19499418,0,0,0.0,0.0,0,0,15.0,0.0,473.0,4720.000000000001,3987.692307692308,4540.000000000001,4468.205128205129,4292.820512820514,4587.179487179488,4531.794871794872,4526.666666666667,4427.179487179487,4761.025641025642,4405.641025641026,4298.461538461539,4220.000000000001,4526.666666666667
232.84854,0.24150775,1.0,0.33333337,0.5522393,0,0.0,0.0,0.0,0.0,0.11961005,0,0,0.0,0.0,0,0,43.0,0.0,0.0,4675.384615384616,3642.564102564103,4530.256410256411,4462.051282051282,4261.538461538462,4551.794871794872,4503.589743589744,4500.000000000001,4407.6923076923085,4783.589743589744,4422.564102564103,4310.256410256411,4246.666666666667,4523.076923076924
233.09875,0.24150775,1.0,0.33333337,0.5522393,0,0.0,0.0,0.0,0.0,0.0496128,0,0,0.0,0.0,0,0,75.0,0.0,473.0,4664.102564102564,3670.2564102564106,4513.333333333334,4457.435897435898,4249.74358974359,4538.974358974359,4480.512820512821,4467.179487179487,4400.512820512821,4778.461538461539,4407.6923076923085,4294.871794871796,4234.871794871796,4506.666666666667
233.34897,0.2815287,1.0,0.33333337,0.55223924,0,0.0,0.0,0.0,0.0,0.011026177,0,0,0.0,0.0,0,0,107.0,0.0,473.0,4670.769230769231,3727.692307692308,4502.564102564103,4455.384615384616,4247.179487179487,4538.461538461539,4456.410256410257,4435.384615384616,4393.333333333334,4762.564102564103,4411.794871794872,4284.102564102564,4237.948717948719,4519.48717948718
233.59918,0.2815287,1.0,0.33333337,0.55223924,0,0.0,0.0,0.0,0.0,0.039159033,0,0,0.0,0.0,0,0,10.0,0.0,522.0,4685.641025641026,3787.1794871794878,4513.333333333334,4456.923076923077,4233.333333333334,4534.871794871796,4472.307692307693,4466.666666666667,4400.000000000001,4763.076923076924,4408.717948717949,4285.128205128206,4229.2307692307695,4525.128205128206
233.8494,0.30025187,1.0,0.33333334,0.5522392,0,0.0,0.0,0.0,0.0,0.1262784,0,0,0.0,0.0,0,0,42.0,0.0,0.0,4663.589743589744,3799.48717948718,4509.2307692307695,4451.794871794872,4246.666666666667,4539.48717948718,4463.076923076924,4450.256410256411,4400.000000000001,4753.333333333334,4398.461538461539,4267.6923076923085,4188.205128205129,4491.282051282052
234.09962,0.30025187,1.0,0.33333334,0.5522392,0,0.0,0.0,0.0,0.0,0.09258135,0,0,0.0,0.0,0,0,74.0,0.0,522.0,4663.589743589744,3827.1794871794878,4505.641025641026,4456.410256410257,4262.051282051282,4544.102564102564,4474.358974358975,4472.307692307693,4397.948717948719,4727.179487179488,4390.256410256411,4248.205128205129,4155.8974358974365,4467.6923076923085
234.34984,0.27857223,0.9485291,0.33333334,0.5522391,1,0.0,0.0,0.0,0.0,0.11946072,0,0,0.0,0.0,0,0,106.0,0.0,522.0,4704.102564102564,3887.1794871794878,4521.538461538462,4464.615384615385,4267.6923076923085,4554.871794871796,4490.256410256411,4486.153846153847,4404.102564102564,4758.974358974359,4403.589743589744,4281.538461538462,4192.820512820514,4520.000000000001
234.60005,0.27857223,0.9485291,0.33333334,0.5522391,0,0.0,0.0,0.0,0.0,0.09477021,0,0,0.0,0.0,0,0,9.0,0.0,481.0,4701.538461538462,3886.666666666667,4505.128205128206,4446.666666666667,4264.102564102564,4554.871794871796,4474.871794871796,4473.846153846154,4397.435897435898,4729.2307692307695,4395.8974358974365,4271.282051282052,4176.923076923077,4516.923076923077
234.85027,0.23138602,0.86771804,0.33333334,0.5522391,0,0.0,0.0,0.0,0.0,0.1305617,0,0,0.0,0.0,0,0,41.0,0.0,0.0,4694.358974358975,3911.2820512820517,4514.358974358975,4440.000000000001,4265.641025641026,4554.358974358975,4468.205128205129,4455.8974358974365,4391.282051282052,4722.564102564103,4394.358974358975,4277.435897435898,4167.179487179487,4485.128205128206
235.10048,0.23138602,0.86771804,0.33333334,0.5522391,1,0.0,0.0,0.0,0.0,0.23370682,0,0,0.0,0.0,0,0,73.0,0.0,481.0,4733.333333333334,3953.8461538461543,4535.384615384616,4450.769230769231,4274.358974358975,4556.923076923077,4471.794871794872,4468.205128205129,4352.820512820514,4734.871794871796,4401.025641025642,4301.025641025642,4179.48717948718,4532.820512820514
235.3507,0.27488452,0.8290052,0.33333334,0.55223906,0,0.0,0.0,0.0,0.0,0.19256656,0,0,0.0,0.0,0,0,105.0,0.0,491.0,4709.2307692307695,3950.7692307692314,4529.743589743591,4462.051282051282,4272.307692307693,4554.871794871796,4475.384615384616,4462.564102564103,4347.6923076923085,4721.025641025642,4382.564102564103,4279.48717948718,4156.923076923077,4510.256410256411
235.6009,0.27488452,0.8290052,0.33333334,0.55223906,0,0.0,0.0,0.0,0.0,0.080869384,0,0,0.0,0.0,0,0,8.0,0.0,362.0,4693.333333333334,3949.2307692307695,4535.8974358974365,4464.102564102564,4264.615384615385,4554.871794871796,4488.717948717949,4474.871794871796,4396.410256410257,4747.179487179488,4392.307692307693,4278.461538461539,4156.923076923077,4517.948717948719
235.85112,0.27679825,0.7941673,0.33333334,0.55223906,0,0.0,0.0,0.0,0.0,0.046559416,0,0,0.0,0.0,0,0,40.0,0.0,0.0,4684.615384615386,3943.589743589744,4531.794871794872,4475.8974358974365,4266.666666666667,4555.384615384616,4492.307692307693,4495.384615384616,4400.000000000001,4734.871794871796,4377.948717948719,4267.179487179487,4154.358974358975,4509.2307692307695
235.97623,0.27679825,0.7941673,0.33333334,0.55223906,0,0.0,0.0,0.0,0.0,0.0,0,0,0.0,0.0,0,0,56.0,0.0,0.0,4682.564102564103,3944.615384615385,4523.589743589744,4477.435897435898,4262.564102564103,4553.846153846154,4474.358974358975,4478.974358974359,4406.153846153847,4749.2307692307695,4382.564102564103,4266.153846153847,4172.820512820514,4517.948717948719
236.25772,0.22307171,0.74914485,0.33333334,0.55223906,0,0.0,0.0,0.0,0.0,0.0,0,0,0.0,0.0,0,0,92.0,0.0,402.0,4664.102564102564,3969.7435897435903,4510.769230769231,4476.923076923077,4252.307692307693,4541.025641025642,4462.564102564103,4427.179487179487,4368.205128205129,4667.179487179488,4335.8974358974365,4234.871794871796,4104.102564102564,4507.179487179488
236.60176,0.22307171,0.74914485,0.33333334,0.55223906,0,0.0,0.0,0.0,0.0,0.030364195,0,0,0.0,0.0,0,0,7.0,0.0,461.0,4640.000000000001,3942.0512820512827,4480.512820512821,4458.461538461539,4240.512820512821,4521.538461538462,4441.025641025642,4405.128205128206,4368.717948717949,4684.615384615386,4343.076923076924,4227.6923076923085,4121.538461538462,4498.974358974359
236.85199,0.2690537,0.6826686,0.33333334,0.552239,0,0.0,0.0,0.0,0.0,0.33288994,0,0,0.0,0.0,0,0,39.0,0.0,0.0,4518.974358974359,3881.538461538462,4421.025641025642,4441.025641025642,4228.205128205129,4519.48717948718,4416.923076923077,4366.666666666667,4349.2307692307695,4624.615384615385,4229.74358974359,4098.461538461539,3927.1794871794878,4340.512820512821
237.1022,0.2690537,0.6826686,0.33333334,0.552239,0,0.0,0.0,0.0,0.0,0.33272123,0,0,0.0,0.0,0,0,71.0,0.0,461.0,4592.820512820514,3917.435897435898,4454.358974358975,4456.410256410257,4217.948717948719,4518.461538461539,4439.48717948718,4404.102564102564,4362.564102564103,4674.358974358975,4298.461538461539,4178.974358974359,4048.717948717949,4408.717948717949
237.25858,0.392477,0.62178725,0.33333334,0.552239,0,0.0,0.0,0.0,0.0,0.0,0,0,0.0,0.0,0,0,91.0,0.0,475.0,4618.461538461539,3896.9230769230776,4461.538461538462,4463.589743589744,4216.923076923077,4512.820512820514,4464.615384615385,4428.717948717949,4361.538461538462,4694.871794871796,4318.461538461539,4208.205128205129,4106.666666666667,4417.948717948719
237.25858,0.392477,0.62178725,0.33333334,0.552239,0,0.0,0.0,0.0,0.0,0.0,0,0,0.0,0.0,0,0,91.0,0.0,475.0,4618.461538461539,3896.9230769230776,4461.538461538462,4463.589743589744,4216.923076923077,4512.820512820514,4464.615384615385,4428.717948717949,4361.538461538462,4694.871794871796,4318.461538461539,4208.205128205129,4106.666666666667,4417.948717948719
237.85284,0.4169842,0.5852799,0.33333334,0.55223894,0,0.0,0.0,0.0,0.0,0.03846163,0,0,0.0,0.0,0,0,38.0,0.0,0.0,4653.333333333334,3912.307692307693,4475.384615384616,4461.538461538462,4216.410256410257,4520.000000000001,4474.871794871796,4438.461538461539,4358.461538461539,4713.846153846154,4332.307692307693,4237.948717948719,4148.717948717949,4442.564102564103
238.10306,0.4169842,0.5852799,0.33333334,0.55223894,0,0.0,0.0,0.0,0.0,0.130866,0,0,0.0,0.0,0,0,70.0,0.0,546.0,4698.461538461539,3926.666666666667,4478.974358974359,4451.794871794872,4217.948717948719,4521.025641025642,4456.410256410257,4445.128205128206,4378.461538461539,4725.128205128206,4340.000000000001,4242.051282051282,4164.615384615385,4500.512820512821
238.35327,0.36063656,0.57731265,0.33333334,0.55223894,0,0.0,0.0,0.0,0.0,0.27796134,0,0,0.0,0.0,0,0,102.0,0.0,522.0,4753.333333333334,3944.1025641025644,4485.128205128206,4461.025641025642,4221.538461538462,4522.564102564103,4448.205128205129,4430.769230769231,4357.948717948719,4716.923076923077,4366.666666666667,4248.205128205129,4172.307692307693,4560.512820512821
238.60349,0.36063656,0.57731265,0.33333334,0.55223894,0,0.0,0.0,0.0,0.0,0.23637348,0,0,0.0,0.0,0,0,5.0,0.0,550.0,4776.923076923077,4131.282051282052,4442.564102564103,4445.641025641026,4184.102564102564,4506.153846153847,4468.717948717949,4414.871794871796,4347.6923076923085,4680.000000000001,4331.282051282052,4195.8974358974365,4148.717948717949,4605.641025641026
238.8537,0.34064063,0.58132935,0.33333334,0.55223894,0,0.0,0.0,0.0,0.0,0.68160605,0,0,0.0,0.0,0,0,37.0,0.0,0.0,5066.666666666667,4137.435897435898,4478.461538461539,4446.153846153847,4213.846153846154,4525.641025641026,4484.102564102564,4477.435897435898,4346.666666666667,4731.282051282052,4387.179487179487,4231.794871794872,4247.6923076923085,4798.974358974359
239.10391,0.34064063,0.58132935,0.33333334,0.55223894,0,0.0,0.0,0.0,0.0,0.7201568,0,0,0.0,0.0,0,0,69.0,0.0,550.0,5109.743589743591,4122.564102564103,4521.025641025642,4456.410256410257,4256.410256410257,4553.846153846154,4529.2307692307695,4586.153846153847,4383.076923076924,4745.128205128206,4373.846153846154,4252.307692307693,4290.769230769231,4810.256410256411
239.35413,0.5097637,0.7514001,0.33333334,0.55223894,0,0.0,0.0,0.0,0.0,0.3304029,0,0,0.0,0.0,0,0,101.0,0.0,491.0,5007.6923076923085,4155.384615384616,4591.794871794872,4510.256410256411,4265.641025641026,4550.769230769231,4507.179487179488,4575.384615384616,4392.820512820514,4763.076923076924,4398.974358974359,4308.717948717949,4312.307692307693,4750.256410256411
239.60435,0.5097637,0.7514001,0.33333334,0.55223894,0,0.0,0.0,0.0,0.0,0.4623173,0,0,0.0,0.0,0,0,4.0,0.0,553.0,4937.435897435898,4103.076923076924,4601.538461538462,4521.025641025642,4258.974358974359,4538.461538461539,4512.307692307693,4581.538461538462,4389.2307692307695,4710.256410256411,4393.333333333334,4273.846153846154,4308.205128205129,4812.820512820514
239.85457,0.6730353,0.8934451,0.33333334,0.55223894,0,0.0,0.0,0.0,0.0,0.21993826,0,0,0.0,0.0,0,0,36.0,0.0,0.0,4886.666666666667,4002.0512820512827,4613.333333333334,4495.8974358974365,4263.076923076924,4555.8974358974365,4503.589743589744,4542.051282051282,4386.666666666667,4735.8974358974365,4468.205128205129,4294.871794871796,4427.179487179487,4792.307692307693
240.10478,0.6730353,0.8934451,0.33333334,0.55223894,0,0.0,0.0,0.0,0.0,0.15543562,0,1,0.0,0.0,0,0,68.0,0.0,553.0,4865.128205128206,3990.2564102564106,4602.051282051282,4498.974358974359,4252.307692307693,4553.846153846154,4494.871794871796,4453.333333333334,4345.641025641026,4671.794871794872,4442.051282051282,4264.102564102564,4366.666666666667,4709.743589743591
240.355,0.7513586,1.0,0.33333334,0.5522389,0,0.0,0.0,0.0,0.0,0.62081987,0,1,0.0,0.0,0,0,100.0,0.0,397.0,4786.666666666667,3966.1538461538466,4547.6923076923085,4490.769230769231,4264.615384615385,4571.282051282052,4481.538461538462,4476.923076923077,4366.153846153847,4644.102564102564,4412.820512820514,4201.025641025642,4251.794871794872,4538.461538461539
240.60521,0.7513586,1.0,0.33333334,0.5522389,0,0.0,0.0,0.0,0.0,0.30579442,0,1,0.0,0.0,0,0,3.0,0.0,485.0,4852.820512820514,3986.666666666667,4586.666666666667,4498.974358974359,4286.153846153847,4600.512820512821,4533.846153846154,4543.589743589744,4402.051282051282,4716.410256410257,4558.974358974359,4366.666666666667,4445.128205128206,4717.435897435898
240.85542,0.74437124,1.0,0.33333334,0.5522389,0,0.0,0.0,0.0,0.0,0.24753669,0,0,0.0,0.0,0,1,35.0,0.0,0.0,4753.846153846154,4004.1025641025644,4531.282051282052,4488.205128205129,4285.128205128206,4598.974358974359,4493.846153846154,4463.589743589744,4366.153846153847,4633.333333333334,4443.589743589744,4264.615384615385,4201.025641025642,4524.615384615385
241.10564,0.74437124,1.0,0.33333334,0.5522389,0,0.0,0.0,0.0,0.0,0.3554535,0,0,0.0,0.0,0,0,67.0,0.0,485.0,4709.2307692307695,3959.48717948718,4478.461538461539,4476.923076923077,4262.051282051282,4578.461538461539,4453.846153846154,4403.076923076924,4352.307692307693,4631.282051282052,4442.051282051282,4251.794871794872,4178.974358974359,4486.666666666667
241.35585,0.77004486,1.0,0.33333334,0.5522389,0,0.0,0.0,0.0,0.0,0.07466687,0,0,0.0,0.0,0,0,99.0,0.0,472.0,4688.205128205129,4024.1025641025644,4486.666666666667,4498.974358974359,4271.282051282052,4581.538461538462,4448.717948717949,4398.974358974359,4358.974358974359,4574.871794871796,4397.435897435898,4255.8974358974365,4117.435897435898,4477.435897435898
241.60606,0.77004486,1.0,0.33333334,0.5522389,0,0.0,0.0,0.0,0.0,0.22765936,0,0,0.0,0.0,0,0,2.0,0.0,457.0,4603.589743589744,3935.8974358974365,4469.2307692307695,4512.820512820514,4281.025641025642,4585.641025641026,4471.794871794872,4403.076923076924,4355.384615384616,4598.461538461539,4410.769230769231,4248.717948717949,4102.564102564103,4400.512820512821
241.85628,0.7985717,1.0,0.33333334,0.5522389,0,0.0,0.0,0.0,0.0,0.18308215,0,0,0.0,0.0,0,0,34.0,0.0,0.0,4635.384615384616,3913.8461538461543,4425.641025641026,4530.256410256411,4257.435897435898,4568.717948717949,4446.153846153847,4401.538461538462,4346.666666666667,4591.794871794872,4383.076923076924,4231.794871794872,4024.1025641025644,4445.128205128206
242.1065,0.7985717,1.0,0.33333334,0.5522389,0,0.0,0.0,0.0,0.0,0.23556095,0,0,0.0,0.0,0,0,66.0,0.0,457.0,4644.102564102564,3923.589743589744,4359.48717948718,4538.461538461539,4211.794871794872,4554.871794871796,4456.923076923077,4332.307692307693,4322.564102564103,4600.512820512821,4371.794871794872,4183.076923076924,3978.461538461539,4463.076923076924
242.35672,0.70687413,1.0,0.33333334,0.5522389,1,0.0,0.0,0.0,0.0,0.27253744,0,0,0.0,0.0,0,0,98.0,0.0,522.0,4826.666666666667,4008.717948717949,4385.641025641026,4528.717948717949,4250.256410256411,4603.589743589744,4469.743589743591,4329.2307692307695,4331.794871794872,4648.205128205129,4406.153846153847,4245.641025641026,4044.1025641025644,4621.538461538462
242.60693,0.70687413,1.0,0.33333334,0.5522389,0,0.0,0.0,0.0,0.0,0.15670578,0,0,0.0,0.0,0,0,1.0,0.0,137.0,4783.076923076924,3939.48717948718,4400.000000000001,4490.769230769231,4273.846153846154,4614.871794871796,4507.179487179488,4441.538461538462,4359.48717948718,4710.256410256411,4420.512820512821,4248.717948717949,4044.615384615385,4555.384615384616
242.85715,0.70023257,1.0,0.33333334,0.5522389,1,0.0,0.0,0.0,0.0,0.09056139,0,0,0.0,0.0,0,0,33.0,0.0,0.0,4824.615384615386,4031.7948717948725,4517.435897435898,4521.538461538462,4390.256410256411,4700.000000000001,4607.6923076923085,4554.871794871796,4416.410256410257,4829.2307692307695,4501.538461538462,4348.717948717949,4195.8974358974365,4622.051282051282
243.10736,0.70023257,1.0,0.33333334,0.5522389,0,0.0,0.0,0.0,0.0,0.1948282,0,0,0.0,0.0,0,0,65.0,0.0,137.0,4785.128205128206,4003.076923076924,4524.615384615385,4522.051282051282,4378.461538461539,4673.846153846154,4613.846153846154,4585.641025641026,4411.282051282052,4821.025641025642,4481.538461538462,4334.871794871796,4199.48717948718,4543.589743589744
243.35757,0.7903703,1.0,0.33333334,0.5522389,0,0.0,0.0,0.0,0.0,0.16292205,0,0,0.0,0.0,0,0,97.0,0.0,491.0,4742.051282051282,4014.358974358975,4570.256410256411,4537.948717948719,4352.307692307693,4635.8974358974365,4586.666666666667,4577.435897435898,4398.461538461539,4817.948717948719,4480.000000000001,4367.179487179487,4094.358974358975,4569.2307692307695
243.60779,0.7903703,1.0,0.33333334,0.5522389,0,0.0,0.0,0.0,0.0,0.5195707,0,0,0.0,0.0,0,0,0.0,0.0,474.0,4698.974358974359,3985.1282051282055,4564.102564102564,4525.128205128206,4326.153846153847,4606.153846153847,4543.589743589744,4543.076923076924,4397.948717948719,4797.948717948719,4446.153846153847,4345.128205128206,4108.205128205129,4568.717948717949
243.858,0.82220495,1.0,0.33333334,0.5522389,0,0.0,0.0,0.0,0.0,0.109381154,0,0,0.0,0.0,0,0,32.0,0.0,0.0,4738.974358974359,4000.5128205128212,4578.461538461539,4521.025641025642,4329.2307692307695,4612.307692307693,4546.153846153847,4545.128205128206,4403.076923076924,4803.076923076924,4441.025641025642,4339.48717948718,4155.384615384616,4601.538461538462
244.10822,0.82220495,1.0,0.33333334,0.5522389,0,0.0,0.0,0.0,0.0,0.13851587,0,0,0.0,0.0,0,0,64.0,0.0,474.0,4719.48717948718,3991.7948717948725,4575.8974358974365,4527.179487179488,4323.076923076924,4600.000000000001,4538.974358974359,4550.256410256411,4396.410256410257,4781.025641025642,4427.6923076923085,4328.205128205129,4152.820512820514,4568.205128205129
244.35843,0.79003906,1.0,0.33333334,0.5522388,0,0.0,0.0,0.0,0.0,0.17936617,0,0,0.0,0.0,0,0,96.0,0.0,399.0,4733.846153846154,4061.0256410256416,4587.179487179488,4527.6923076923085,4329.2307692307695,4603.589743589744,4524.102564102564,4497.948717948719,4358.461538461539,4751.282051282052,4385.641025641026,4310.769230769231,4114.871794871796,4565.128205128206
244.63992,0.79003906,1.0,0.33333334,0.5522388,0,0.0,0.0,0.0,0.0,0.14804012,0,0,0.0,0.0,0,1,3.0,0.0,485.0,4743.589743589744,4008.205128205129,4624.102564102564,4510.256410256411,4333.846153846154,4614.358974358975,4573.333333333334,4568.717948717949,4400.000000000001,4837.435897435898,4465.641025641026,4383.589743589744,4272.307692307693,4613.333333333334
244.85887,0.7999157,1.0,0.33333334,0.5522388,0,0.0,0.0,0.0,0.0,0.14187816,0,0,0.0,0.0,0,0,31.0,0.0,0.0,4780.512820512821,4058.9743589743593,4657.435897435898,4497.435897435898,4347.179487179487,4629.743589743591,4589.2307692307695,4605.128205128206,4434.358974358975,4869.2307692307695,4475.8974358974365,4414.358974358975,4309.743589743591,4661.025641025642
245.10909,0.7999157,1.0,0.33333334,0.5522388,0,0.0,0.0,0.0,0.0,0.13932069,0,0,0.0,0.0,0,0,63.0,0.0,0.0,4713.846153846154,3997.9487179487182,4596.923076923077,4448.717948717949,4333.333333333334,4623.589743589744,4537.948717948719,4502.051282051282,4343.076923076924,4788.717948717949,4413.333333333334,4324.102564102564,4245.128205128206,4572.307692307693
245.3593,0.8866481,1.0,0.33333334,0.5522388,0,0.0,0.0,0.0,0.0,0.04752122,0,0,0.0,0.0,0,0,95.0,0.0,474.0,4704.102564102564,3989.7435897435903,4598.974358974359,4441.025641025642,4325.641025641026,4623.076923076924,4517.948717948719,4517.435897435898,4364.615384615385,4811.282051282052,4418.461538461539,4336.923076923077,4260.512820512821,4563.589743589744
245.60951,0.8866481,1.0,0.33333334,0.5522388,0,0.0,0.0,0.0,0.0,0.0,0,0,0.0,0.0,0,0,127.0,0.0,474.0,4711.282051282052,3987.1794871794878,4605.128205128206,4448.205128205129,4320.000000000001,4609.743589743591,4518.461538461539,4497.435897435898,4409.743589743591,4804.615384615386,4406.666666666667,4342.051282051282,4251.794871794872,4568.717948717949
245.79716,0.90147007,1.0,0.33333334,0.5522388,1,0.0,0.0,0.0,0.0,0.0,0,0,0.0,0.0,0,0,22.0,0.0,0.0,4749.2307692307695,4051.2820512820517,4612.820512820514,4460.000000000001,4308.717948717949,4602.051282051282,4513.333333333334,4503.076923076924,4421.025641025642,4777.435897435898,4424.615384615385,4356.923076923077,4265.641025641026,4605.128205128206
246.10994,0.90147007,1.0,0.33333334,0.5522388,0,0.0,0.0,0.0,0.0,0.1521275,0,0,0.0,0.0,0,0,62.0,0.0,0.0,4700.000000000001,3985.1282051282055,4584.615384615385,4433.333333333334,4295.384615384616,4586.666666666667,4521.025641025642,4516.410256410257,4423.589743589744,4779.48717948718,4390.256410256411,4310.256410256411,4230.769230769231,4521.025641025642
246.36015,0.85533047,1.0,0.33333334,0.5522388,0,0.0,0.0,0.0,0.0,0.10014046,0,0,0.0,0.0,0,0,94.0,0.0,522.0,4672.820512820514,3995.8974358974365,4566.153846153847,4433.846153846154,4293.846153846154,4584.102564102564,4487.179487179488,4466.153846153847,4399.48717948718,4744.615384615386,4334.358974358975,4271.282051282052,4150.256410256411,4457.948717948719
246.61037,0.85533047,1.0,0.33333334,0.5522388,0,0.0,0.0,0.0,0.0,0.10005174,0,0,0.0,0.0,0,0,126.0,0.0,522.0,4735.8974358974365,4006.1538461538466,4594.871794871796,4447.6923076923085,4295.8974358974365,4586.666666666667,4525.128205128206,4524.102564102564,4435.8974358974365,4820.000000000001,4417.435897435898,4353.846153846154,4298.974358974359,4543.076923076924
246.86058,0.83115554,1.0,0.33333334,0.5522388,0,0.0,0.0,0.0,0.0,0.17019914,0,0,0.0,0.0,0,0,29.0,0.0,0.0,4806.666666666667,4109.2307692307695,4626.153846153847,4479.48717948718,4283.589743589744,4585.128205128206,4516.923076923077,4525.128205128206,4442.564102564103,4818.974358974359,4446.666666666667,4395.8974358974365,4339.48717948718,4633.333333333334
247.1108,0.83115554,1.0,0.33333334,0.5522388,0,0.0,0.0,0.0,0.0,0.16390526,0,0,0.0,0.0,0,0,61.0,0.0,0.0,4707.6923076923085,3978.461538461539,4575.384615384616,4470.769230769231,4282.564102564103,4575.384615384616,4508.717948717949,4493.846153846154,4431.794871794872,4774.871794871796,4398.974358974359,4316.923076923077,4259.48717948718,4504.615384615385
247.36101,0.7848855,1.0,0.33333334,0.5522388,0,0.0,0.0,0.0,0.0,0.09719724,0,0,0.0,0.0,0,0,93.0,0.0,491.0,4697.948717948719,3957.9487179487182,4558.974358974359,4473.846153846154,4281.538461538462,4571.794871794872,4493.846153846154,4522.051282051282,4437.948717948719,4763.076923076924,4381.538461538462,4296.410256410257,4230.769230769231,4475.384615384616
247.61124,0.7848855,1.0,0.33333334,0.5522388,0,0.0,0.0,0.0,0.0,0.030813951,0,0,0.0,0.0,0,0,125.0,0.0,491.0,4717.948717948719,3956.410256410257,4572.307692307693,4487.6923076923085,4265.128205128206,4569.743589743591,4503.589743589744,4517.435897435898,4427.6923076923085,4785.128205128206,4399.48717948718,4316.923076923077,4248.205128205129,4505.128205128206
247.86145,0.69560033,1.0,0.33333334,0.5522388,0,0.0,0.0,0.0,0.0,0.0,0,0,0.0,0.0,0,0,28.0,0.0,0.0,4730.256410256411,3971.7948717948725,4593.846153846154,4511.794871794872,4294.871794871796,4600.000000000001,4554.871794871796,4598.974358974359,4465.641025641026,4811.794871794872,4432.820512820514,4350.769230769231,4266.153846153847,4523.076923076924
248.11166,0.69560033,1.0,0.33333334,0.5522388,1,0.0,0.0,0.0,0.0,0.11992402,0,0,0.0,0.0,0,0,60.0,0.0,0.0,4717.948717948719,3971.2820512820517,4569.743589743591,4506.666666666667,4276.923076923077,4581.025641025642,4507.179487179488,4499.48717948718,4433.333333333334,4762.564102564103,4405.641025641026,4329.2307692307695,4247.179487179487,4522.051282051282
248.36188,0.65472555,1.0,0.33333334,0.5522388,0,0.0,0.0,0.0,0.0,0.091454476,0,0,0.0,0.0,0,0,92.0,0.0,399.0,4728.717948717949,3957.435897435898,4555.384615384616,4500.512820512821,4263.589743589744,4569.2307692307695,4521.025641025642,4516.410256410257,4441.025641025642,4773.333333333334,4412.820512820514,4311.282051282052,4231.794871794872,4540.512820512821
248.61209,0.65472555,1.0,0.33333334,0.5522388,0,0.0,0.0,0.0,0.0,0.1293151,0,0,0.0,0.0,0,0,124.0,0.0,399.0,4712.820512820514,3963.589743589744,4558.974358974359,4508.205128205129,4277.948717948719,4584.102564102564,4527.179487179488,4533.333333333334,4425.641025641026,4797.948717948719,4421.025641025642,4312.307692307693,4228.205128205129,4568.717948717949
248.8623,0.60932744,1.0,0.33333334,0.5522388,0,0.0,0.0,0.0,0.0,0.09349119,0,0,0.0,0.0,0,0,27.0,0.0,0.0,4718.461538461539,3973.8461538461543,4569.2307692307695,4520.000000000001,4293.846153846154,4586.666666666667,4523.589743589744,4539.48717948718,4487.6923076923085,4796.410256410257,4445.641025641026,4325.128205128206,4247.6923076923085,4587.6923076923085
249.11252,0.60932744,1.0,0.33333334,0.5522388,1,0.0,0.2214701,0.0,0.0,0.0,0,0,0.0,0.0,0,0,59.0,0.0,0.0,4745.128205128206,4007.1794871794878,4570.256410256411,4523.076923076924,4283.076923076924,4577.948717948719,4524.615384615385,4546.666666666667,4464.615384615385,4791.794871794872,4427.6923076923085,4333.333333333334,4246.666666666667,4601.538461538462
249.36273,0.5575974,1.0,0.33333334,0.5522388,0,0.0,0.0,0.0,0.0,0.16445449,0,0,0.0,0.0,0,0,91.0,0.0,474.0,4686.153846153847,3943.589743589744,4534.358974358975,4514.358974358975,4262.564102564103,4557.435897435898,4495.384615384616,4506.666666666667,4456.923076923077,4753.846153846154,4392.820512820514,4292.820512820514,4195.384615384616,4544.102564102564
249.61295,0.5575974,1.0,0.33333334,0.5522388,0,0.0,0.0,0.0,0.0,0.09843087,0,0,0.0,0.0,0,0,123.0,0.0,474.0,4673.846153846154,3949.2307692307695,4525.128205128206,4519.48717948718,4261.538461538462,4553.333333333334,4499.48717948718,4534.871794871796,4450.769230769231,4721.025641025642,4369.2307692307695,4270.256410256411,4168.717948717949,4569.2307692307695
249.86316,0.56309336,1.0,0.33333334,0.5522388,0,0.0,0.0,0.0,0.0,0.057846744,0,0,0.0,0.0,0,0,26.0,0.0,0.0,4662.051282051282,3969.7435897435903,4515.8974358974365,4524.102564102564,4261.025641025642,4555.384615384616,4507.179487179488,4529.743589743591,4453.846153846154,4703.076923076924,4336.410256410257,4263.076923076924,4117.948717948719,4576.923076923077
250.11337,0.56309336,1.0,0.33333334,0.5522388,0,0.0,0.0,0.0,0.0,0.03721163,0,0,0.0,0.0,0,0,58.0,0.0,0.0,4671.282051282052,3960.0000000000005,4523.076923076924,4535.384615384616,4266.666666666667,4560.512820512821,4491.794871794872,4510.769230769231,4461.538461538462,4739.48717948718,4343.076923076924,4274.358974358975,4150.256410256411,4598.461538461539
250.3636,0.5430708,1.0,0.33333334,0.5522388,0,0.0,0.0,0.0,0.0,0.01750913,0,0,0.0,0.0,0,0,90.0,0.0,522.0,4641.025641025642,3928.205128205129,4496.923076923077,4530.769230769231,4260.512820512821,4547.6923076923085,4475.8974358974365,4494.358974358975,4453.333333333334,4726.153846153847,4336.923076923077,4252.820512820514,4140.512820512821,4562.051282051282
250.61382,0.5430708,1.0,0.33333334,0.5522388,0,0.0,0.0,0.0,0.0,0.0,0,0,0.0,0.0,0,0,122.0,0.0,522.0,4648.205128205129,3932.307692307693,4501.025641025642,4537.948717948719,4248.717948717949,4540.000000000001,4471.282051282052,4482.564102564103,4458.974358974359,4732.820512820514,4346.153846153847,4263.076923076924,4146.153846153847,4565.128205128206
250.77019,0.4790128,0.9702548,0.33333334,0.5522388,0,0.0,0.0,0.0,0.0,0.0,0,0,0.0,0.0,0,0,13.0,0.0,491.0,4649.743589743591,3933.8461538461543,4494.871794871796,4536.410256410257,4247.179487179487,4535.384615384616,4473.846153846154,4492.820512820514,4450.256410256411,4727.179487179488,4337.948717948719,4258.974358974359,4141.538461538462,4553.333333333334
250.77019,0.4790128,0.9702548,0.33333334,0.5522388,0,0.0,0.0,0.0,0.0,0.0,0,0,0.0,0.0,0,0,13.0,0.0,491.0,4649.743589743591,3933.8461538461543,4494.871794871796,4536.410256410257,4247.179487179487,4535.384615384616,4473.846153846154,4492.820512820514,4450.256410256411,4727.179487179488,4337.948717948719,4258.974358974359,4141.538461538462,4553.333333333334
251.27063,0.567928,0.8591292,0.33333334,0.5522388,0,0.0,0.0,0.0,0.0,0.0,0,0,0.0,0.0,0,0,77.0,0.0,491.0,4631.794871794872,3923.589743589744,4478.974358974359,4530.256410256411,4230.256410256411,4521.025641025642,4439.48717948718,4426.153846153847,4438.461538461539,4706.666666666667,4321.025641025642,4249.74358974359,4139.48717948718,4554.871794871796
251.27063,0.567928,0.8591292,0.33333334,0.5522388,0,0.0,0.0,0.0,0.0,0.0,0,0,0.0,0.0,0,0,77.0,0.0,491.0,4631.794871794872,3923.589743589744,4478.974358974359,4530.256410256411,4230.256410256411,4521.025641025642,4439.48717948718,4426.153846153847,4438.461538461539,4706.666666666667,4321.025641025642,4249.74358974359,4139.48717948718,4554.871794871796
251.86488,0.6054462,0.76541334,0.33333334,0.5522388,0,0.0,0.0,0.0,0.0,0.044596095,0,0,0.0,0.0,0,0,24.0,0.0,0.0,4661.025641025642,3652.307692307693,4508.205128205129,4546.153846153847,4249.2307692307695,4527.179487179488,4488.205128205129,4477.435897435898,4448.205128205129,4730.256410256411,4361.538461538462,4284.102564102564,4156.923076923077,4587.179487179488
252.1151,0.6054462,0.76541334,0.33333334,0.5522388,0,0.0,0.0,0.0,0.0,0.055215944,0,0,0.0,0.0,0,0,56.0,0.0,0.0,4644.615384615385,3676.410256410257,4488.717948717949,4540.512820512821,4233.846153846154,4512.307692307693,4460.000000000001,4449.2307692307695,4431.282051282052,4723.076923076924,4357.948717948719,4261.538461538462,4154.871794871796,4567.179487179488
252.36531,0.6201774,0.6831074,0.33333334,0.5522388,1,0.0,0.0,0.0,0.0,0.13190858,0,0,0.0,0.0,0,0,88.0,0.0,399.0,4615.8974358974365,3678.9743589743593,4461.538461538462,4533.846153846154,4236.923076923077,4520.512820512821,4461.025641025642,4442.051282051282,4418.461538461539,4706.153846153847,4348.717948717949,4234.358974358975,4152.820512820514,4510.256410256411
252.61552,0.6201774,0.6831074,0.33333334,0.5522388,0,0.0,0.0,0.0,0.0,0.17588347,0,0,0.0,0.0,1,0,120.0,0.0,399.0,4614.358974358975,3730.7692307692314,4468.205128205129,4541.025641025642,4247.179487179487,4521.025641025642,4460.512820512821,4449.2307692307695,4422.564102564103,4761.538461538462,4369.2307692307695,4248.205128205129,4171.282051282052,4491.282051282052
252.86574,0.60389125,0.6447137,0.33333334,0.5522388,0,0.0,0.0,0.0,0.0,0.2360073,0,0,0.0,0.0,0,0,23.0,0.0,0.0,4649.743589743591,3789.2307692307695,4490.256410256411,4546.666666666667,4251.282051282052,4539.48717948718,4475.8974358974365,4462.051282051282,4412.820512820514,4750.769230769231,4376.923076923077,4274.358974358975,4201.538461538462,4520.000000000001
253.11597,0.60389125,0.6447137,0.33333334,0.5522388,0,0.0,0.0,0.0,0.0,0.0726176,0,0,0.0,0.0,0,0,55.0,0.0,0.0,4660.512820512821,3824.615384615385,4493.846153846154,4541.025641025642,4253.333333333334,4537.435897435898,4472.307692307693,4464.615384615385,4410.256410256411,4735.8974358974365,4358.974358974359,4273.846153846154,4204.102564102564,4496.410256410257
253.36618,0.5812279,0.7022454,0.33333334,0.5522388,0,0.0,0.0,0.0,0.0,0.10183413,0,0,0.0,0.0,0,0,87.0,0.0,474.0,4634.871794871796,3828.717948717949,4487.179487179488,4528.717948717949,4262.564102564103,4544.615384615385,4474.358974358975,4464.615384615385,4404.615384615385,4753.846153846154,4342.051282051282,4253.846153846154,4197.948717948719,4465.641025641026
253.6164,0.5812279,0.7022454,0.33333334,0.5522388,0,0.0,0.0,0.0,0.0,0.07360966,0,0,0.0,0.0,0,0,119.0,0.0,474.0,4666.666666666667,3868.205128205129,4520.000000000001,4540.000000000001,4286.666666666667,4574.871794871796,4506.666666666667,4492.307692307693,4415.384615384616,4775.8974358974365,4380.512820512821,4285.641025641026,4246.666666666667,4496.410256410257
253.86661,0.5182888,0.77241397,0.33333334,0.5522388,0,0.0,0.0,0.0,0.0,0.0,0,0,0.0,0.0,0,0,22.0,0.0,0.0,4669.743589743591,3863.076923076924,4516.410256410257,4523.589743589744,4262.564102564103,4554.871794871796,4499.48717948718,4478.461538461539,4407.179487179487,4790.769230769231,4390.769230769231,4292.820512820514,4250.769230769231,4491.794871794872
253.86661,0.5182888,0.77241397,0.33333334,0.5522388,0,0.0,0.0,0.0,0.0,0.0,0,0,0.0,0.0,0,0,22.0,0.0,0.0,4669.743589743591,3863.076923076924,4516.410256410257,4523.589743589744,4262.564102564103,4554.871794871796,4499.48717948718,4478.461538461539,4407.179487179487,4790.769230769231,4390.769230769231,4292.820512820514,4250.769230769231,4491.794871794872
254.27321,0.50516915,0.7684933,0.33333334,0.5522388,0,0.0,0.0,0.0,0.0,0.0,0,0,0.0,0.0,0,0,74.0,0.0,522.0,4658.461538461539,3889.7435897435903,4500.000000000001,4523.076923076924,4264.615384615385,4555.384615384616,4493.333333333334,4497.948717948719,4413.333333333334,4804.102564102564,4384.102564102564,4278.974358974359,4254.871794871796,4505.128205128206
254.61725,0.50516915,0.7684933,0.33333334,0.5522388,0,0.0,0.0,0.0,0.0,0.27390918,0,0,0.0,0.0,0,0,118.0,0.0,522.0,4718.461538461539,3955.8974358974365,4546.666666666667,4539.48717948718,4281.025641025642,4570.256410256411,4517.435897435898,4529.2307692307695,4424.615384615385,4805.641025641026,4423.076923076924,4336.410256410257,4286.153846153847,4572.820512820514
254.86746,0.54974693,0.76089185,0.33333334,0.5522388,0,0.0,0.0,0.0,0.0,0.05297617,0,0,0.0,0.0,0,0,21.0,0.0,0.0,4693.333333333334,3957.9487179487182,4529.743589743591,4535.8974358974365,4277.435897435898,4566.666666666667,4495.384615384616,4490.769230769231,4410.769230769231,4784.615384615386,4408.717948717949,4312.820512820514,4261.538461538462,4551.282051282052
255.11768,0.54974693,0.76089185,0.33333334,0.5522388,0,0.0,0.0,0.0,0.0,0.025157394,0,0,0.0,0.0,0,0,53.0,0.0,0.0,4670.256410256411,3969.7435897435903,4522.051282051282,4531.282051282052,4283.589743589744,4571.794871794872,4507.6923076923085,4509.743589743591,4399.48717948718,4779.48717948718,4392.307692307693,4284.102564102564,4231.282051282052,4536.410256410257
255.36789,0.5262006,0.7042371,0.33333334,0.5522388,0,0.0,0.0,0.0,0.0,0.019963259,0,0,0.0,0.0,0,0,85.0,0.0,491.0,4706.666666666667,3996.410256410257,4562.564102564103,4543.589743589744,4317.948717948719,4605.128205128206,4540.512820512821,4524.102564102564,4424.102564102564,4806.153846153847,4435.384615384616,4331.794871794872,4295.8974358974365,4576.923076923077
255.6181,0.5262006,0.7042371,0.33333334,0.5522388,1,0.0,0.0,0.0,0.0,0.15319128,0,0,0.0,0.0,0,0,117.0,0.0,491.0,4788.717948717949,4090.2564102564106,4598.974358974359,4554.358974358975,4326.153846153847,4610.256410256411,4538.974358974359,4518.974358974359,4391.282051282052,4824.102564102564,4474.358974358975,4395.8974358974365,4338.461538461539,4656.410256410257
255.86833,0.6271932,0.6536137,0.33333334,0.5522388,0,0.0,0.0,0.0,0.0,0.16824386,0,0,0.0,0.0,0,0,20.0,0.0,0.0,4703.589743589744,3989.23076923077,4555.384615384616,4528.717948717949,4318.461538461539,4606.666666666667,4523.076923076924,4498.461538461539,4380.512820512821,4798.974358974359,4415.384615384616,4322.564102564103,4247.179487179487,4542.564102564103
256.11853,0.6271932,0.6536137,0.33333334,0.5522388,0,0.0,0.0,0.0,0.0,0.08247011,0,0,0.0,0.0,0,0,52.0,0.0,0.0,4704.102564102564,3977.435897435898,4555.8974358974365,4515.8974358974365,4305.128205128206,4591.282051282052,4530.256410256411,4496.410256410257,4417.435897435898,4786.666666666667,4424.102564102564,4324.102564102564,4236.923076923077,4542.051282051282
256.36874,0.6805381,0.6080526,0.33333334,0.5522388,0,0.0,0.0,0.0,0.0,0.018724805,0,0,0.0,0.0,0,0,84.0,0.0,399.0,4680.512820512821,3966.1538461538466,4530.769230769231,4505.641025641026,4292.820512820514,4580.000000000001,4523.076923076924,4486.153846153847,4406.666666666667,4764.102564102564,4410.769230769231,4296.410256410257,4215.384615384616,4536.923076923077
256.61896,0.6805381,0.6080526,0.33333334,0.5522388,0,0.0,0.0,0.0,0.0,0.13512385,0,0,0.0,0.0,0,0,116.0,0.0,399.0,4692.820512820514,3960.5128205128212,4536.410256410257,4506.666666666667,4266.153846153847,4561.538461538462,4506.666666666667,4500.512820512821,4428.717948717949,4807.6923076923085,4446.153846153847,4318.974358974359,4266.153846153847,4587.6923076923085
256.86917,0.59839565,0.56704766,0.33333334,0.5522388,0,0.0,0.0,0.0,0.0,0.13290924,0,0,0.0,0.0,0,0,19.0,0.0,0.0,4660.000000000001,3951.7948717948725,4486.153846153847,4487.6923076923085,4216.410256410257,4508.717948717949,4448.717948717949,4433.333333333334,4400.000000000001,4717.435897435898,4394.871794871796,4268.205128205129,4202.051282051282,4559.48717948718
257.11942,0.59839565,0.56704766,0.33333334,0.5522388,0,0.0,0.0,0.0,0.0,0.16621882,0,0,0.0,0.0,0,0,51.0,0.0,0.0,4750.769230769231,4152.820512820514,4525.128205128206,4514.358974358975,4230.769230769231,4523.076923076924,4455.384615384616,4408.717948717949,4383.076923076924,4693.333333333334,4395.384615384616,4322.564102564103,4223.589743589744,4699.48717948718
257.36963,0.5859569,0.5301432,0.33333334,0.5522388,0,0.0,0.0,0.0,0.0,0.14668016,0,0,0.0,0.0,0,0,83.0,0.0,474.0,4641.025641025642,3974.358974358975,4487.6923076923085,4496.923076923077,4231.794871794872,4524.615384615385,4458.974358974359,4411.794871794872,4378.974358974359,4672.820512820514,4350.256410256411,4244.102564102564,4137.435897435898,4563.589743589744
257.61984,0.5859569,0.5301432,0.33333334,0.5522388,0,0.0,0.0,0.0,0.0,0.08626597,0,0,0.0,0.0,0,0,115.0,0.0,474.0,4632.307692307693,3917.9487179487182,4489.743589743591,4492.820512820514,4236.923076923077,4535.384615384616,4491.282051282052,4475.8974358974365,4416.410256410257,4742.051282051282,4396.410256410257,4265.128205128206,4213.333333333334,4583.076923076924
257.87006,0.5724466,0.5067951,0.33333334,0.5522388,0,0.0,0.0,0.0,0.0,0.030946188,0,0,0.0,0.0,0,0,18.0,0.0,0.0,4632.820512820514,3955.3846153846157,4490.769230769231,4501.025641025642,4248.205128205129,4538.461538461539,4477.435897435898,4431.282051282052,4385.128205128206,4691.282051282052,4331.794871794872,4233.846153846154,4115.384615384616,4550.256410256411
258.12027,0.5724466,0.5067951,0.33333334,0.5522388,0,0.0,0.0,0.0,0.0,0.043743793,0,0,0.0,0.0,0,0,50.0,0.0,0.0,4611.794871794872,3965.1282051282055,4473.846153846154,4500.000000000001,4238.974358974359,4522.564102564103,4448.717948717949,4397.948717948719,4369.2307692307695,4669.2307692307695,4304.102564102564,4213.333333333334,4058.461538461539,4521.538461538462
258.37048,0.60276866,0.49867505,0.33333334,0.5522388,0,0.0,0.0,0.0,0.0,0.03670736,0,0,0.0,0.0,0,0,82.0,0.0,522.0,4639.48717948718,3956.410256410257,4493.846153846154,4504.102564102564,4248.205128205129,4538.461538461539,4476.410256410257,4429.743589743591,4373.333333333334,4715.8974358974365,4355.8974358974365,4262.051282051282,4151.794871794872,4567.179487179488
258.6207,0.60276866,0.49867505,0.33333334,0.5522388,0,0.0,0.0,0.0,0.0,0.06422871,0,0,0.0,0.0,0,0,114.0,0.0,522.0,4597.948717948719,3926.1538461538466,4468.205128205129,4493.846153846154,4210.256410256411,4506.666666666667,4426.153846153847,4396.410256410257,4357.948717948719,4671.794871794872,4322.051282051282,4215.384615384616,4100.000000000001,4505.128205128206
258.8709,0.6041983,0.48707375,0.33333334,0.5522388,0,0.0,0.0,0.0,0.0,0.0,0,0,0.0,0.0,0,0,17.0,0.0,0.0,4610.256410256411,3923.076923076924,4480.000000000001,4500.512820512821,4228.205128205129,4524.615384615385,4435.8974358974365,4404.102564102564,4358.974358974359,4680.000000000001,4330.769230769231,4233.333333333334,4121.538461538462,4508.205128205129
258.8709,0.6041983,0.48707375,0.33333334,0.5522388,0,0.0,0.0,0.0,0.0,0.0,0,0,0.0,0.0,0,0,17.0,0.0,0.0,4610.256410256411,3923.076923076924,4480.000000000001,4500.512820512821,4228.205128205129,4524.615384615385,4435.8974358974365,4404.102564102564,4358.974358974359,4680.000000000001,4330.769230769231,4233.333333333334,4121.538461538462,4508.205128205129
259.2775,0.58084685,0.4499326,0.33333334,0.5522388,0,0.0,0.0,0.0,0.0,0.0,0,0,0.0,0.0,0,0,69.0,0.0,550.0,4595.384615384616,3922.564102564103,4470.256410256411,4510.256410256411,4234.358974358975,4535.384615384616,4441.538461538462,4413.846153846154,4354.871794871796,4678.974358974359,4284.102564102564,4198.974358974359,4062.0512820512827,4485.641025641026
259.2775,0.58084685,0.4499326,0.33333334,0.5522388,0,0.0,0.0,0.0,0.0,0.0,0,0,0.0,0.0,0,0,69.0,0.0,550.0,4595.384615384616,3922.564102564103,4470.256410256411,4510.256410256411,4234.358974358975,4535.384615384616,4441.538461538462,4413.846153846154,4354.871794871796,4678.974358974359,4284.102564102564,4198.974358974359,4062.0512820512827,4485.641025641026
259.77792,0.55014807,0.4261419,0.33333334,0.5522388,0,0.0,0.0,0.0,0.0,0.0,0,0,0.0,0.0,0,0,4.0,0.0,553.0,4644.102564102564,3965.6410256410263,4500.000000000001,4523.076923076924,4272.307692307693,4558.461538461539,4479.48717948718,4454.871794871796,4367.179487179487,4695.384615384616,4325.128205128206,4240.512820512821,4121.025641025642,4538.974358974359
260.12198,0.55014807,0.4261419,0.33333334,0.5522388,0,0.0,0.0,0.0,0.0,0.09400341,0,0,0.0,0.0,0,0,48.0,0.0,0.0,4658.461538461539,3946.1538461538466,4512.820512820514,4518.974358974359,4266.153846153847,4555.8974358974365,4477.435897435898,4447.6923076923085,4370.769230769231,4751.794871794872,4372.820512820514,4278.461538461539,4213.333333333334,4606.153846153847
260.3722,0.4781861,0.4284093,0.33333334,0.5522388,0,0.0,0.0,0.0,0.0,0.10611514,0,0,0.0,0.0,0,0,80.0,0.0,399.0,4637.435897435898,3894.8717948717954,4481.538461538462,4499.48717948718,4227.6923076923085,4521.025641025642,4442.051282051282,4425.641025641026,4352.307692307693,4742.564102564103,4356.410256410257,4261.538461538462,4214.358974358975,4601.025641025642
260.6224,0.4781861,0.4284093,0.33333334,0.5522388,0,0.0,0.0,0.0,0.0,0.023169152,0,0,0.0,0.0,0,0,112.0,0.0,399.0,4631.794871794872,3927.1794871794878,4484.615384615385,4511.794871794872,4250.256410256411,4541.025641025642,4470.769230769231,4457.435897435898,4361.538461538462,4716.410256410257,4322.051282051282,4228.717948717949,4158.461538461539,4589.743589743591
260.87262,0.41922468,0.39532217,0.33333334,0.5522388,0,0.0,0.0,0.0,0.0,0.02108111,0,0,0.0,0.0,0,0,15.0,0.0,474.0,4652.820512820514,3928.717948717949,4496.923076923077,4517.948717948719,4261.538461538462,4552.820512820514,4464.615384615385,4445.641025641026,4368.205128205129,4720.000000000001,4329.743589743591,4249.2307692307695,4183.589743589744,4615.384615384616
260.99774,0.41922468,0.39532217,0.33333334,0.5522388,0,0.0,0.0,0.0,0.0,0.0,0,0,0.0,0.0,0,0,31.0,0.0,0.0,4664.615384615386,3948.205128205129,4515.384615384616,4521.025641025642,4264.102564102564,4556.410256410257,4473.846153846154,4460.000000000001,4366.666666666667,4741.538461538462,4351.794871794872,4280.000000000001,4226.153846153847,4646.666666666667
261.37305,0.3921208,0.373826,0.33333334,0.5522388,0,0.0,0.0,0.0,0.0,0.025810165,0,0,0.0,0.0,0,0,79.0,0.0,474.0,4666.666666666667,3935.8974358974365,4508.717948717949,4512.820512820514,4263.076923076924,4552.307692307693,4476.923076923077,4463.076923076924,4372.307692307693,4766.153846153847,4345.641025641026,4269.2307692307695,4214.871794871796,4633.333333333334
261.62326,0.3921208,0.373826,0.33333334,0.5522388,0,0.0,0.0,0.0,0.0,0.0,0,0,0.0,0.0,0,0,111.0,0.0,474.0,4690.769230769231,3943.076923076924,4512.820512820514,4515.8974358974365,4263.076923076924,4552.307692307693,4474.358974358975,4472.307692307693,4376.410256410257,4747.6923076923085,4290.769230769231,4271.794871794872,4211.282051282052,4641.025641025642
261.77966,0.3314544,0.3403549,0.33333334,0.5522388,0,0.0,0.0,0.0,0.0,0.0,0,0,0.0,0.0,0,0,2.0,0.0,459.0,4689.2307692307695,3946.666666666667,4518.974358974359,4518.974358974359,4265.128205128206,4558.974358974359,4475.8974358974365,4473.333333333334,4373.846153846154,4765.641025641026,4308.205128205129,4277.948717948719,4217.948717948719,4644.102564102564
261.77966,0.3314544,0.3403549,0.33333334,0.5522388,0,0.0,0.0,0.0,0.0,0.0,0,0,0.0,0.0,0,0,2.0,0.0,459.0,4689.2307692307695,3946.666666666667,4518.974358974359,4518.974358974359,4265.128205128206,4558.974358974359,4475.8974358974365,4473.333333333334,4373.846153846154,4765.641025641026,4308.205128205129,4277.948717948719,4217.948717948719,4644.102564102564
262.2801,0.31968513,0.32678965,0.33333334,0.5522388,0,0.0,0.0,0.0,0.0,0.0,0,0,0.0,0.0,0,0,66.0,0.0,459.0,4660.512820512821,3954.358974358975,4506.666666666667,4509.2307692307695,4249.2307692307695,4539.48717948718,4453.333333333334,4441.538461538462,4365.641025641026,4726.153846153847,4268.205128205129,4218.974358974359,4153.333333333334,4567.179487179488
262.2801,0.31968513,0.32678965,0.33333334,0.5522388,0,0.0,0.0,0.0,0.0,0.0,0,0,0.0,0.0,0,0,66.0,0.0,459.0,4660.512820512821,3954.358974358975,4506.666666666667,4509.2307692307695,4249.2307692307695,4539.48717948718,4453.333333333334,4441.538461538462,4365.641025641026,4726.153846153847,4268.205128205129,4218.974358974359,4153.333333333334,4567.179487179488
262.78052,0.31946695,0.3537534,0.33333334,0.5522388,0,0.0,0.0,0.0,0.0,0.0,0,0,0.0,0.0,0,0,1.0,0.0,124.0,4774.358974358975,4002.0512820512827,4641.025641025642,4500.512820512821,4250.256410256411,4556.410256410257,4472.307692307693,4457.435897435898,4361.025641025642,4743.076923076924,4325.128205128206,4249.2307692307695,4230.256410256411,4596.923076923077
263.12457,0.31946695,0.3537534,0.33333334,0.5522388,0,0.0,0.0,0.0,0.0,0.080621146,0,0,0.0,0.0,0,0,45.0,0.0,0.0,4796.923076923077,3982.0512820512827,4652.307692307693,4485.641025641026,4247.179487179487,4557.435897435898,4460.000000000001,4446.666666666667,4359.48717948718,4735.8974358974365,4389.743589743591,4265.128205128206,4298.461538461539,4632.307692307693
263.3748,0.28778705,0.389318,0.33333334,0.5522388,0,0.0,0.0,0.0,0.0,0.031982988,0,0,0.0,0.0,0,0,77.0,0.0,491.0,4783.076923076924,3944.615384615385,4648.205128205129,4487.6923076923085,4261.025641025642,4572.820512820514,4486.666666666667,4443.589743589744,4353.333333333334,4683.589743589744,4396.923076923077,4258.974358974359,4293.846153846154,4614.871794871796
263.625,0.28778705,0.389318,0.33333334,0.5522388,0,0.0,0.0,0.0,0.0,0.03598705,0,0,0.0,0.0,0,0,109.0,0.0,491.0,4773.846153846154,3951.7948717948725,4616.923076923077,4490.256410256411,4249.2307692307695,4561.025641025642,4474.871794871796,4443.076923076924,4360.512820512821,4705.128205128206,4403.076923076924,4264.102564102564,4302.564102564103,4623.589743589744
263.8752,0.29724762,0.4158252,0.33333334,0.5522388,1,0.0,0.0,0.0,0.0,0.16217539,0,0,0.0,0.0,0,0,12.0,0.0,399.0,4742.564102564103,3887.692307692308,4591.794871794872,4487.6923076923085,4246.153846153847,4555.384615384616,4475.384615384616,4450.256410256411,4354.358974358975,4690.769230769231,4403.076923076924,4249.2307692307695,4277.435897435898,4587.6923076923085
264.12543,0.29724762,0.4158252,0.33333334,0.5522388,0,0.0,0.0,0.0,0.0,0.18604979,0,0,0.0,0.0,0,0,44.0,0.0,0.0,4689.2307692307695,3862.0512820512827,4543.589743589744,4475.8974358974365,4236.923076923077,4541.025641025642,4458.974358974359,4443.076923076924,4355.8974358974365,4690.769230769231,4375.384615384616,4223.589743589744,4236.410256410257,4568.717948717949
264.37564,0.35297176,0.43004566,0.33333334,0.5522388,0,0.0,0.0,0.0,0.0,0.05025397,0,0,0.0,0.0,0,0,76.0,0.0,399.0,4665.641025641026,3850.7692307692314,4522.564102564103,4478.974358974359,4248.205128205129,4541.025641025642,4457.948717948719,4443.589743589744,4344.102564102564,4650.769230769231,4347.6923076923085,4208.205128205129,4199.48717948718,4553.333333333334
264.50073,0.35297176,0.43004566,0.33333334,0.5522388,0,0.0,0.0,0.0,0.0,0.0,0,0,0.0,0.0,0,0,92.0,0.0,399.0,4660.512820512821,3853.8461538461543,4522.051282051282,4487.6923076923085,4247.6923076923085,4541.025641025642,4471.282051282052,4441.538461538462,4344.615384615385,4683.076923076924,4360.000000000001,4218.461538461539,4198.974358974359,4561.538461538462
264.78223,0.35461372,0.40838945,0.33333334,0.5522388,0,0.0,0.0,0.0,0.0,0.0,0,0,0.0,0.0,0,0,128.0,0.0,399.0,4651.794871794872,3867.1794871794878,4510.256410256411,4492.307692307693,4260.512820512821,4553.333333333334,4490.769230769231,4486.666666666667,4378.461538461539,4730.769230769231,4385.128205128206,4241.025641025642,4219.48717948718,4576.923076923077
265.12628,0.35461372,0.40838945,0.33333334,0.5522388,1,0.0,0.0,0.0,0.0,0.12767282,0,0,0.0,0.0,0,0,43.0,0.0,0.0,4668.205128205129,3891.7948717948725,4515.8974358974365,4497.948717948719,4258.461538461539,4551.794871794872,4471.794871794872,4451.794871794872,4357.435897435898,4740.000000000001,4396.410256410257,4283.076923076924,4238.974358974359,4602.051282051282
265.3765,0.33883175,0.4223274,0.33333334,0.5522388,0,0.0,0.0,0.0,0.0,0.1590463,0,0,0.0,0.0,0,0,75.0,0.0,474.0,4622.564102564103,3863.589743589744,4491.282051282052,4494.871794871796,4273.846153846154,4565.128205128206,4477.435897435898,4485.128205128206,4380.512820512821,4735.384615384616,4379.48717948718,4245.128205128206,4182.051282051282,4537.948717948719
265.6267,0.33883175,0.4223274,0.33333334,0.5522388,0,0.0,0.0,0.0,0.0,0.17255823,0,0,0.0,0.0,0,0,107.0,0.0,474.0,4788.205128205129,4192.820512820514,4557.948717948719,4542.564102564103,4279.48717948718,4568.205128205129,4460.000000000001,4441.538461538462,4347.6923076923085,4653.333333333334,4372.307692307693,4331.282051282052,4185.641025641026,4711.794871794872
265.87692,0.24166487,0.44885224,0.33333334,0.5522388,0,0.0,0.0,0.0,0.0,0.18331596,0,0,0.0,0.0,1,0,10.0,0.0,522.0,4626.153846153847,3924.615384615385,4472.307692307693,4495.8974358974365,4272.307692307693,4560.512820512821,4474.358974358975,4467.6923076923085,4366.153846153847,4703.589743589744,4336.410256410257,4213.846153846154,4094.8717948717954,4488.717948717949
266.12714,0.24166487,0.44885224,0.33333334,0.5522388,0,0.0,0.0,0.0,0.0,0.15983143,0,0,0.0,0.0,0,0,42.0,0.0,0.0,4664.615384615386,3881.0256410256416,4509.743589743591,4487.6923076923085,4264.615384615385,4558.461538461539,4494.358974358975,4496.923076923077,4388.717948717949,4789.743589743591,4413.333333333334,4266.153846153847,4216.923076923077,4520.512820512821
266.37735,0.23990695,0.560014,0.33333334,0.5522388,0,0.0,0.0,0.0,0.0,0.0641848,0,1,0.0,0.0,0,0,74.0,0.0,522.0,4685.641025641026,3892.820512820513,4513.846153846154,4473.846153846154,4257.435897435898,4552.820512820514,4480.000000000001,4476.410256410257,4388.205128205129,4747.6923076923085,4397.948717948719,4259.48717948718,4211.282051282052,4514.358974358975
266.62756,0.23990695,0.560014,0.33333334,0.5522388,0,0.0,0.0,0.0,0.0,0.11020322,0,1,0.0,0.0,0,0,106.0,0.0,522.0,4657.435897435898,3910.7692307692314,4492.307692307693,4455.384615384616,4232.820512820514,4537.948717948719,4456.410256410257,4446.666666666667,4361.538461538462,4681.025641025642,4328.717948717949,4199.48717948718,4091.2820512820517,4458.461538461539
266.87778,0.25524694,0.6617364,0.33333334,0.5522388,0,0.0,0.0,0.0,0.0,0.03508408,0,1,0.0,0.0,0,0,9.0,0.0,481.0,4643.076923076924,3906.666666666667,4488.717948717949,4447.179487179487,4266.153846153847,4570.769230769231,4478.461538461539,4447.179487179487,4336.410256410257,4687.6923076923085,4322.564102564103,4183.076923076924,4077.435897435898,4443.589743589744
267.128,0.25524694,0.6617364,0.33333334,0.5522388,1,0.0,0.0,0.0,0.0,0.15181026,0,0,0.0,0.0,0,0,41.0,0.0,0.0,4630.256410256411,3878.9743589743593,4477.435897435898,4438.974358974359,4244.615384615385,4539.48717948718,4462.051282051282,4440.512820512821,4283.076923076924,4676.410256410257,4333.333333333334,4185.128205128206,4088.205128205129,4459.48717948718
267.3782,0.2510197,0.6996153,0.33333334,0.5522388,0,0.0,0.0,0.0,0.0,0.1390577,0,0,0.0,0.0,0,0,73.0,0.0,481.0,4628.205128205129,3863.076923076924,4474.358974358975,4439.48717948718,4243.076923076924,4540.512820512821,4455.384615384616,4420.000000000001,4287.179487179487,4694.871794871796,4334.871794871796,4197.435897435898,4088.205128205129,4477.948717948719
267.62842,0.2510197,0.6996153,0.33333334,0.5522388,0,0.0,0.0,0.0,0.0,0.110838175,0,0,0.0,0.0,0,0,105.0,0.0,491.0,4650.769230769231,3892.307692307693,4494.871794871796,4446.666666666667,4255.384615384616,4554.871794871796,4470.256410256411,4457.948717948719,4356.410256410257,4711.794871794872,4349.2307692307695,4221.538461538462,4121.025641025642,4524.102564102564
267.87866,0.3054999,0.68031836,0.33333334,0.5522388,0,0.0,0.0,0.0,0.0,0.0,0,0,0.0,0.0,0,0,8.0,0.0,362.0,4659.48717948718,3883.589743589744,4483.589743589744,4442.564102564103,4249.2307692307695,4551.282051282052,4450.769230769231,4423.589743589744,4332.307692307693,4688.717948717949,4339.48717948718,4217.948717948719,4122.051282051282,4505.128205128206
267.87866,0.3054999,0.68031836,0.33333334,0.5522388,0,0.0,0.0,0.0,0.0,0.0,0,0,0.0,0.0,0,0,8.0,0.0,362.0,4659.48717948718,3883.589743589744,4483.589743589744,4442.564102564103,4249.2307692307695,4551.282051282052,4450.769230769231,4423.589743589744,4332.307692307693,4688.717948717949,4339.48717948718,4217.948717948719,4122.051282051282,4505.128205128206
268.28525,0.26506424,0.663237,0.33333334,0.5522388,0,0.0,0.0,0.0,0.0,0.0,0,0,0.0,0.0,0,1,60.0,0.0,0.0,4729.743589743591,3883.076923076924,4497.948717948719,4441.025641025642,4234.871794871796,4550.769230769231,4460.000000000001,4454.358974358975,4364.615384615385,4756.410256410257,4412.820512820514,4262.051282051282,4275.384615384616,4575.384615384616
268.6293,0.26506424,0.663237,0.33333334,0.5522388,0,0.0,0.0,0.0,0.0,0.13844006,1,0,0.0,0.0,0,0,104.0,0.0,399.0,4695.384615384616,3882.0512820512827,4481.538461538462,4445.128205128206,4261.538461538462,4568.717948717949,4448.717948717949,4424.102564102564,4332.307692307693,4680.512820512821,4340.512820512821,4201.025641025642,4137.948717948719,4485.641025641026
268.87952,0.25395432,0.64786375,0.33333334,0.5522388,0,0.0,0.0,0.0,0.0,0.12631875,1,0,0.0,0.0,0,0,7.0,0.0,461.0,4824.102564102564,4098.974358974359,4533.333333333334,4472.307692307693,4250.769230769231,4558.974358974359,4434.358974358975,4412.307692307693,4325.128205128206,4641.538461538462,4391.282051282052,4303.076923076924,4252.820512820514,4675.8974358974365
269.12973,0.25395432,0.64786375,0.33333334,0.5522388,0,0.0,0.0,0.0,0.0,0.1536837,0,0,0.0,0.0,0,0,39.0,0.0,0.0,4639.48717948718,3830.2564102564106,4456.410256410257,4425.128205128206,4249.2307692307695,4557.435897435898,4444.615384615385,4433.333333333334,4338.974358974359,4650.256410256411,4356.923076923077,4191.282051282052,4124.615384615385,4452.307692307693
269.37994,0.20533158,0.63402784,0.33333334,0.5522388,0,0.0,0.0,0.0,0.0,0.21557344,0,0,0.0,0.0,0,0,71.0,0.0,461.0,4659.48717948718,3822.0512820512827,4487.6923076923085,4420.512820512821,4258.461538461539,4563.076923076924,4444.615384615385,4445.128205128206,4340.000000000001,4700.000000000001,4388.205128205129,4243.076923076924,4173.333333333334,4526.666666666667
269.63016,0.20533158,0.63402784,0.33333334,0.5522388,0,0.0,0.0,0.0,0.0,0.18888167,0,0,0.0,0.0,0,0,103.0,0.0,474.0,4643.076923076924,3836.9230769230776,4478.461538461539,4410.769230769231,4250.256410256411,4556.410256410257,4441.025641025642,4433.846153846154,4330.256410256411,4704.102564102564,4383.589743589744,4247.179487179487,4170.769230769231,4498.461538461539
269.88037,0.23637576,0.62157553,0.33333334,0.5522388,0,0.0,0.0,0.0,0.0,0.11652269,0,0,0.0,0.0,0,0,6.0,0.0,544.0,4739.48717948718,3969.7435897435903,4563.076923076924,4453.333333333334,4279.48717948718,4567.179487179488,4462.564102564103,4502.564102564103,4372.307692307693,4772.307692307693,4470.769230769231,4369.743589743591,4317.948717948719,4643.589743589744
270.13058,0.23637576,0.62157553,0.33333334,0.5522388,0,0.0,0.0,0.0,0.0,0.0927548,0,0,0.0,0.0,0,0,38.0,0.0,0.0,4656.410256410257,3869.2307692307695,4526.153846153847,4458.461538461539,4216.923076923077,4537.948717948719,4488.717948717949,4562.051282051282,4398.461538461539,4802.051282051282,4446.666666666667,4341.538461538462,4258.974358974359,4612.820512820514
270.3808,0.26033226,0.61036843,0.33333334,0.5522388,0,0.0,0.0,0.0,0.0,0.15223189,0,0,0.0,0.0,0,1,70.0,0.0,544.0,4640.512820512821,3897.9487179487182,4520.512820512821,4447.6923076923085,4224.102564102564,4541.538461538462,4457.435897435898,4517.435897435898,4363.076923076924,4739.48717948718,4407.179487179487,4319.48717948718,4186.153846153847,4586.153846153847
270.631,0.26033226,0.61036843,0.33333334,0.5522388,0,0.0,0.0,0.0,0.0,0.39868703,0,0,0.0,0.0,0,0,102.0,0.0,522.0,4653.333333333334,3939.48717948718,4542.564102564103,4461.538461538462,4274.358974358975,4588.717948717949,4493.846153846154,4552.820512820514,4396.410256410257,4776.923076923077,4414.871794871796,4341.025641025642,4187.179487179487,4537.435897435898
270.88123,0.26512772,0.6002821,0.33333334,0.5522388,0,0.0,0.0,0.0,0.0,0.28923,0,0,0.0,0.0,0,0,5.0,0.0,550.0,4670.256410256411,4170.769230769231,4537.435897435898,4467.6923076923085,4271.282051282052,4591.794871794872,4462.051282051282,4520.000000000001,4383.076923076924,4741.538461538462,4396.410256410257,4324.615384615385,4180.512820512821,4491.794871794872
271.13144,0.26512772,0.6002821,0.33333334,0.5522388,0,0.0,0.0,0.0,0.0,0.23409155,0,0,0.0,0.0,0,0,37.0,0.0,0.0,4679.48717948718,4066.1538461538466,4506.666666666667,4457.435897435898,4266.666666666667,4589.743589743591,4477.948717948719,4513.333333333334,4385.128205128206,4736.923076923077,4407.179487179487,4283.076923076924,4199.48717948718,4458.461538461539
271.38165,0.2614635,0.59120435,0.33333334,0.5522388,0,0.0,0.0,0.0,0.0,0.28998065,0,0,0.0,0.0,0,0,69.0,0.0,550.0,4730.256410256411,4057.9487179487182,4491.282051282052,4451.794871794872,4251.282051282052,4597.948717948719,4470.769230769231,4466.666666666667,4354.871794871796,4685.128205128206,4408.205128205129,4275.384615384616,4185.641025641026,4471.282051282052
271.63187,0.2614635,0.59120435,0.33333334,0.5522388,0,0.0,0.0,0.0,0.0,0.3797476,0,0,0.0,0.0,0,0,101.0,0.0,491.0,4746.153846153847,4005.1282051282055,4454.871794871796,4438.974358974359,4227.6923076923085,4586.666666666667,4461.538461538462,4466.666666666667,4341.538461538462,4676.923076923077,4426.666666666667,4266.153846153847,4162.564102564103,4477.435897435898
271.88208,0.23435152,0.5830344,0.33333334,0.5522388,0,0.0,0.0,0.0,0.0,0.06473511,0,0,0.0,0.0,0,0,4.0,0.0,553.0,4736.923076923077,3960.0000000000005,4408.205128205129,4423.076923076924,4203.076923076924,4573.333333333334,4489.2307692307695,4453.333333333334,4324.102564102564,4653.846153846154,4402.051282051282,4247.6923076923085,4139.48717948718,4446.666666666667
272.1323,0.23435152,0.5830344,0.33333334,0.5522388,0,0.0,0.0,0.0,0.0,0.020505982,0,0,0.0,0.0,0,0,36.0,0.0,0.0,4709.2307692307695,3931.7948717948725,4430.256410256411,4413.846153846154,4204.102564102564,4573.333333333334,4496.923076923077,4438.974358974359,4296.410256410257,4617.435897435898,4372.820512820514,4217.948717948719,4091.7948717948725,4435.8974358974365
272.2887,0.2995104,0.5467544,0.33333334,0.5522388,0,0.0,0.0,0.0,0.0,0.0,0,0,0.0,0.0,0,0,56.0,0.0,0.0,4682.051282051282,3900.0000000000005,4446.153846153847,4413.333333333334,4209.74358974359,4557.948717948719,4494.358974358975,4429.743589743591,4298.974358974359,4620.000000000001,4387.6923076923085,4216.923076923077,4093.8461538461543,4434.871794871796
272.2887,0.2995104,0.5467544,0.33333334,0.5522388,0,0.0,0.0,0.0,0.0,0.0,0,0,0.0,0.0,0,0,56.0,0.0,0.0,4682.051282051282,3900.0000000000005,4446.153846153847,4413.333333333334,4209.74358974359,4557.948717948719,4494.358974358975,4429.743589743591,4298.974358974359,4620.000000000001,4387.6923076923085,4216.923076923077,4093.8461538461543,4434.871794871796
272.78912,0.32319155,0.50783896,0.33333334,0.5522388,0,0.0,0.0,0.0,0.0,0.0,0,0,0.0,0.0,0,0,120.0,0.0,394.0,4686.666666666667,3909.7435897435903,4540.000000000001,4434.358974358975,4277.948717948719,4588.717948717949,4573.333333333334,4511.282051282052,4346.666666666667,4769.2307692307695,4442.051282051282,4308.717948717949,4168.717948717949,4491.794871794872
273.00806,0.32319155,0.50783896,0.33333334,0.5522388,0,0.0,0.0,0.0,0.0,0.0,0,0,0.0,0.0,0,1,19.0,0.0,0.0,4684.615384615386,3913.8461538461543,4539.48717948718,4428.717948717949,4252.820512820514,4566.153846153847,4557.435897435898,4503.076923076924,4340.000000000001,4765.128205128206,4434.871794871796,4339.48717948718,4213.333333333334,4517.435897435898
273.3834,0.34009337,0.4727817,0.33333334,0.5522388,0,0.0,0.0,0.0,0.0,0.20907213,0,0,0.0,0.0,0,0,67.0,0.0,485.0,4635.8974358974365,3901.0256410256416,4561.538461538462,4434.871794871796,4264.102564102564,4572.820512820514,4526.153846153847,4488.717948717949,4353.333333333334,4750.256410256411,4410.256410256411,4311.794871794872,4152.307692307693,4463.076923076924
273.6336,0.34009337,0.4727817,0.33333334,0.5522388,0,0.0,0.0,0.0,0.0,0.067880504,0,0,0.0,0.0,0,0,99.0,0.0,474.0,4644.615384615385,3924.1025641025644,4577.435897435898,4444.102564102564,4288.717948717949,4591.282051282052,4536.923076923077,4490.769230769231,4348.717948717949,4762.564102564103,4411.794871794872,4328.717948717949,4165.128205128206,4483.076923076924
273.78998,0.31614995,0.4412301,0.33333334,0.5522388,0,0.0,0.0,0.0,0.0,0.0,0,0,0.0,0.0,0,0,119.0,0.0,474.0,4626.666666666667,3926.1538461538466,4577.435897435898,4437.948717948719,4279.48717948718,4571.282051282052,4509.2307692307695,4477.948717948719,4357.435897435898,4764.102564102564,4416.923076923077,4314.871794871796,4171.282051282052,4482.564102564103
273.78998,0.31614995,0.4412301,0.33333334,0.5522388,0,0.0,0.0,0.0,0.0,0.0,0,0,0.0,0.0,0,0,119.0,0.0,474.0,4626.666666666667,3926.1538461538466,4577.435897435898,4437.948717948719,4279.48717948718,4571.282051282052,4509.2307692307695,4477.948717948719,4357.435897435898,4764.102564102564,4416.923076923077,4314.871794871796,4171.282051282052,4482.564102564103
274.2904,0.30999458,0.4128337,0.33333334,0.5522388,0,0.0,0.0,0.0,0.0,0.0,0,0,0.0,0.0,0,1,54.0,0.0,0.0,4644.615384615385,3930.7692307692314,4588.205128205129,4442.564102564103,4266.153846153847,4554.358974358975,4506.666666666667,4506.153846153847,4384.102564102564,4803.076923076924,4433.846153846154,4339.48717948718,4220.512820512821,4509.743589743591
274.63446,0.30999458,0.4128337,0.33333334,0.5522388,0,0.0,0.0,0.0,0.0,0.12140077,0,0,0.0,0.0,0,0,98.0,0.0,522.0,4663.076923076924,3903.589743589744,4594.871794871796,4444.615384615385,4273.846153846154,4560.000000000001,4520.000000000001,4495.384615384616,4390.256410256411,4824.102564102564,4427.6923076923085,4323.589743589744,4207.6923076923085,4505.128205128206
274.88467,0.29469815,0.38727692,0.33333334,0.5522388,0,0.0,0.0,0.0,0.0,0.13459003,0,0,0.0,0.0,0,0,1.0,0.0,124.0,4688.717948717949,3922.0512820512827,4604.102564102564,4446.153846153847,4275.384615384616,4570.256410256411,4536.923076923077,4515.384615384616,4398.974358974359,4817.435897435898,4442.564102564103,4333.846153846154,4231.282051282052,4505.128205128206
275.1349,0.29469815,0.38727692,0.33333334,0.5522388,1,0.0,0.0,0.0,0.0,0.22311479,0,0,0.0,0.0,0,0,33.0,0.0,0.0,4768.717948717949,4001.0256410256416,4661.025641025642,4454.871794871796,4277.948717948719,4592.820512820514,4567.6923076923085,4538.974358974359,4409.743589743591,4842.051282051283,4495.384615384616,4393.846153846154,4323.076923076924,4584.615384615385
275.3851,0.4088927,0.3642758,0.33333334,0.5522388,0,0.0,0.0,0.0,0.0,0.16404201,0,0,0.0,0.0,0,0,65.0,0.0,124.0,4751.794871794872,3941.538461538462,4626.153846153847,4435.8974358974365,4277.435897435898,4603.589743589744,4569.743589743591,4517.948717948719,4397.435897435898,4794.871794871796,4466.153846153847,4343.076923076924,4286.153846153847,4521.538461538462
275.6353,0.4088927,0.3642758,0.33333334,0.5522388,0,0.0,0.0,0.0,0.0,0.07562138,0,0,0.0,0.0,0,0,97.0,0.0,491.0,4743.076923076924,3926.666666666667,4602.051282051282,4429.743589743591,4281.538461538462,4613.846153846154,4576.410256410257,4516.410256410257,4403.076923076924,4793.846153846154,4456.410256410257,4329.743589743591,4297.435897435898,4501.025641025642
275.7917,0.48494545,0.34357482,0.33333334,0.5522388,0,0.0,0.0,0.0,0.0,0.0,0,0,0.0,0.0,0,0,117.0,0.0,491.0,4756.923076923077,3927.692307692308,4602.564102564103,4431.282051282052,4277.948717948719,4609.2307692307695,4572.307692307693,4517.435897435898,4415.384615384616,4809.743589743591,4461.538461538462,4345.128205128206,4327.179487179487,4510.256410256411
275.7917,0.48494545,0.34357482,0.33333334,0.5522388,0,0.0,0.0,0.0,0.0,0.0,0,0,0.0,0.0,0,0,117.0,0.0,491.0,4756.923076923077,3927.692307692308,4602.564102564103,4431.282051282052,4277.948717948719,4609.2307692307695,4572.307692307693,4517.435897435898,4415.384615384616,4809.743589743591,4461.538461538462,4345.128205128206,4327.179487179487,4510.256410256411
276.2921,0.47326434,0.32494393,0.33333334,0.5522388,0,0.0,0.0,0.0,0.0,0.0,0,0,0.0,0.0,0,0,52.0,0.0,0.0,4766.153846153847,3974.8717948717954,4590.769230769231,4433.846153846154,4329.2307692307695,4657.948717948719,4602.051282051282,4509.2307692307695,4386.153846153847,4725.641025641026,4393.333333333334,4309.743589743591,4201.538461538462,4459.48717948718
276.63617,0.47326434,0.32494393,0.33333334,0.5522388,0,0.0,0.0,0.0,0.0,0.12709524,0,0,0.0,0.0,0,0,96.0,0.0,391.0,4795.384615384616,3922.564102564103,4550.769230769231,4397.435897435898,4278.974358974359,4626.666666666667,4596.923076923077,4526.153846153847,4380.512820512821,4737.435897435898,4414.871794871796,4309.2307692307695,4256.923076923077,4441.538461538462
276.88638,0.3730176,0.30817613,0.33333334,0.5522388,0,0.0,0.0,0.0,0.0,0.0,0,0,0.0,0.0,0,0,128.0,0.0,391.0,4813.846153846154,3894.8717948717954,4529.2307692307695,4378.974358974359,4277.948717948719,4640.000000000001,4614.358974358975,4539.48717948718,4368.205128205129,4726.153846153847,4416.410256410257,4290.256410256411,4266.153846153847,4446.153846153847
276.88638,0.3730176,0.30817613,0.33333334,0.5522388,0,0.0,0.0,0.0,0.0,0.0,0,0,0.0,0.0,0,0,128.0,0.0,391.0,4813.846153846154,3894.8717948717954,4529.2307692307695,4378.974358974359,4277.948717948719,4640.000000000001,4614.358974358975,4539.48717948718,4368.205128205129,4726.153846153847,4416.410256410257,4290.256410256411,4266.153846153847,4446.153846153847
277.293,0.43495876,0.3549129,0.33333334,0.5522388,0,0.0,0.0,0.0,0.0,0.0,0,0,0.0,0.0,0,0,51.0,0.0,0.0,4796.410256410257,3832.820512820513,4430.256410256411,4332.307692307693,4249.2307692307695,4647.179487179488,4599.48717948718,4513.846153846154,4344.615384615385,4697.948717948719,4396.923076923077,4260.512820512821,4216.923076923077,4435.8974358974365
277.293,0.43495876,0.3549129,0.33333334,0.5522388,0,0.0,0.0,0.0,0.0,0.0,0,0,0.0,0.0,0,0,51.0,0.0,0.0,4796.410256410257,3832.820512820513,4430.256410256411,4332.307692307693,4249.2307692307695,4647.179487179488,4599.48717948718,4513.846153846154,4344.615384615385,4697.948717948719,4396.923076923077,4260.512820512821,4216.923076923077,4435.8974358974365
277.79343,0.4200163,0.38433808,0.33333334,0.5522388,0,0.0,0.0,0.0,0.0,0.0,0,0,0.0,0.0,0,0,115.0,0.0,474.0,4732.820512820514,3780.0000000000005,4314.358974358975,4340.000000000001,4279.48717948718,4658.461538461539,4581.538461538462,4509.743589743591,4320.000000000001,4682.051282051282,4394.358974358975,4226.666666666667,4163.076923076924,4428.205128205129
277.79343,0.4200163,0.38433808,0.33333334,0.5522388,0,0.0,0.0,0.0,0.0,0.0,0,0,0.0,0.0,0,0,115.0,0.0,474.0,4732.820512820514,3780.0000000000005,4314.358974358975,4340.000000000001,4279.48717948718,4658.461538461539,4581.538461538462,4509.743589743591,4320.000000000001,4682.051282051282,4394.358974358975,4226.666666666667,4163.076923076924,4428.205128205129
278.29385,0.40728107,0.36918575,0.33333334,0.5522388,0,0.0,0.0,0.0,0.0,0.0,0,0,0.0,0.0,0,0,50.0,0.0,0.0,4700.000000000001,3798.461538461539,4437.948717948719,4362.051282051282,4329.2307692307695,4664.102564102564,4606.153846153847,4570.769230769231,4337.435897435898,4764.102564102564,4416.410256410257,4321.025641025642,4210.256410256411,4463.076923076924
278.29385,0.40728107,0.36918575,0.33333334,0.5522388,0,0.0,0.0,0.0,0.0,0.0,0,0,0.0,0.0,0,0,50.0,0.0,0.0,4700.000000000001,3798.461538461539,4437.948717948719,4362.051282051282,4329.2307692307695,4664.102564102564,4606.153846153847,4570.769230769231,4337.435897435898,4764.102564102564,4416.410256410257,4321.025641025642,4210.256410256411,4463.076923076924
278.79428,0.3569678,0.33792803,0.33333334,0.5522388,0,0.0,0.0,0.0,0.0,0.0,0,0,0.0,0.0,0,0,114.0,0.0,522.0,4640.000000000001,3812.820512820513,4523.076923076924,4366.153846153847,4294.871794871796,4597.948717948719,4556.923076923077,4519.48717948718,4342.564102564103,4766.666666666667,4430.256410256411,4332.820512820514,4254.358974358975,4457.435897435898
279.10706,0.3569678,0.33792803,0.33333334,0.5522388,0,0.0,0.0,0.0,0.0,0.0,0,0,0.0,0.0,0,0,25.0,0.0,0.0,4604.102564102564,3805.1282051282055,4543.589743589744,4361.538461538462,4268.205128205129,4568.717948717949,4536.410256410257,4507.6923076923085,4348.205128205129,4761.025641025642,4410.769230769231,4312.820512820514,4214.358974358975,4410.769230769231
279.38855,0.34055611,0.32908696,0.33333334,0.5522388,0,0.0,0.0,0.0,0.0,0.20493053,0,0,0.0,0.0,0,0,61.0,0.0,0.0,4644.102564102564,3844.1025641025644,4577.435897435898,4370.769230769231,4277.948717948719,4569.2307692307695,4550.769230769231,4512.820512820514,4328.717948717949,4788.205128205129,4438.461538461539,4350.769230769231,4221.025641025642,4430.256410256411
279.63876,0.34055611,0.32908696,0.33333334,0.5522388,0,0.0,0.0,0.0,0.0,0.120616436,0,0,0.0,0.0,0,0,93.0,0.0,491.0,4704.615384615386,3864.615384615385,4601.025641025642,4381.025641025642,4277.435897435898,4586.666666666667,4585.128205128206,4551.794871794872,4353.846153846154,4827.6923076923085,4494.358974358975,4392.820512820514,4315.8974358974365,4478.974358974359
279.79514,0.36579835,0.37408245,0.33333334,0.5522388,0,0.0,0.0,0.0,0.0,0.0,0,0,0.0,0.0,0,0,113.0,0.0,491.0,4690.256410256411,3891.7948717948725,4585.641025641026,4386.153846153847,4266.666666666667,4569.2307692307695,4552.307692307693,4500.000000000001,4366.666666666667,4764.102564102564,4429.2307692307695,4345.128205128206,4217.948717948719,4448.205128205129
280.1392,0.36579835,0.37408245,0.33333334,0.5522388,0,0.0,0.0,0.0,0.0,0.11529512,0,0,0.0,0.0,0,0,28.0,0.0,0.0,4807.6923076923085,4066.666666666667,4628.205128205129,4423.589743589744,4263.589743589744,4565.128205128206,4538.461538461539,4475.384615384616,4377.435897435898,4764.102564102564,4486.666666666667,4425.641025641026,4358.461538461539,4609.2307692307695
280.3894,0.34597135,0.48952705,0.33333334,0.5522388,0,0.0,0.0,0.0,0.0,0.16788602,0,0,0.0,0.0,0,0,60.0,0.0,0.0,4689.743589743591,3894.8717948717954,4588.717948717949,4409.2307692307695,4269.2307692307695,4567.6923076923085,4520.512820512821,4490.769230769231,4411.282051282052,4847.179487179488,4497.435897435898,4361.538461538462,4324.102564102564,4482.564102564103
280.63962,0.34597135,0.48952705,0.33333334,0.5522388,0,0.0,0.0,0.0,0.0,0.305639,0,0,0.0,0.0,0,0,92.0,0.0,391.0,4678.974358974359,3944.1025641025644,4583.589743589744,4415.384615384616,4270.256410256411,4552.307692307693,4509.743589743591,4460.000000000001,4399.48717948718,4787.179487179488,4413.846153846154,4321.025641025642,4205.641025641026,4447.179487179487
280.88983,0.35581893,0.57107264,0.33333334,0.5522388,0,0.0,0.0,0.0,0.0,0.047649845,0,0,0.0,0.0,0,0,124.0,0.0,391.0,4667.179487179488,3944.615384615385,4528.717948717949,4424.102564102564,4276.923076923077,4554.358974358975,4522.564102564103,4457.948717948719,4406.153846153847,4811.794871794872,4429.743589743591,4330.769230769231,4226.666666666667,4448.717948717949
281.14005,0.35581893,0.57107264,0.33333334,0.5522388,0,0.0,0.0,0.0,0.0,0.05092861,0,0,0.0,0.0,0,0,27.0,0.0,0.0,4685.641025641026,3973.333333333334,4549.743589743591,4432.820512820514,4281.538461538462,4569.743589743591,4555.8974358974365,4502.051282051282,4428.717948717949,4831.282051282052,4477.948717948719,4335.8974358974365,4257.948717948719,4474.358974358975
281.29642,0.41827497,0.6042127,0.33333334,0.5522388,0,0.0,0.0,0.0,0.0,0.0,0,0,0.0,0.0,0,0,47.0,0.0,0.0,4688.205128205129,3983.076923076924,4556.923076923077,4442.051282051282,4280.000000000001,4554.358974358975,4539.48717948718,4485.641025641026,4434.358974358975,4842.564102564103,4494.871794871796,4366.666666666667,4282.051282051282,4509.2307692307695
281.29642,0.41827497,0.6042127,0.33333334,0.5522388,0,0.0,0.0,0.0,0.0,0.0,0,0,0.0,0.0,0,0,47.0,0.0,0.0,4688.205128205129,3983.076923076924,4556.923076923077,4442.051282051282,4280.000000000001,4554.358974358975,4539.48717948718,4485.641025641026,4434.358974358975,4842.564102564103,4494.871794871796,4366.666666666667,4282.051282051282,4509.2307692307695
281.79684,0.46322015,0.5695865,0.33333334,0.5522388,0,0.0,0.0,0.0,0.0,0.0,0,0,0.0,0.0,0,0,111.0,0.0,476.0,4680.512820512821,4001.538461538462,4594.358974358975,4477.948717948719,4293.333333333334,4572.307692307693,4557.948717948719,4489.2307692307695,4422.564102564103,4826.666666666667,4483.589743589744,4343.076923076924,4280.000000000001,4527.6923076923085
282.1409,0.46322015,0.5695865,0.33333334,0.5522388,1,0.0,0.0,0.0,0.0,0.15216705,0,0,0.0,0.0,0,0,26.0,0.0,0.0,4673.846153846154,3973.333333333334,4592.307692307693,4477.948717948719,4294.871794871796,4582.051282051282,4556.923076923077,4509.743589743591,4437.435897435898,4836.410256410257,4463.589743589744,4332.307692307693,4277.948717948719,4534.358974358975
282.3911,0.4502524,0.53183144,0.33333334,0.5522388,0,0.0,0.0,0.0,0.0,0.13960883,0,0,0.0,0.0,0,0,58.0,0.0,0.0,4667.6923076923085,3972.820512820513,4587.179487179488,4482.051282051282,4289.74358974359,4573.333333333334,4524.102564102564,4478.461538461539,4427.179487179487,4784.102564102564,4444.615384615385,4321.025641025642,4261.538461538462,4529.2307692307695
282.64133,0.4502524,0.53183144,0.33333334,0.5522388,0,0.0,0.0,0.0,0.0,0.09780755,0,0,0.0,0.0,0,0,90.0,0.0,522.0,4693.333333333334,3938.461538461539,4604.615384615385,4479.48717948718,4291.794871794872,4579.48717948718,4552.820512820514,4543.076923076924,4470.256410256411,4878.461538461539,4516.923076923077,4365.641025641026,4368.717948717949,4586.153846153847
282.79773,0.43301848,0.5217841,0.33333334,0.5522388,0,0.0,0.0,0.0,0.0,0.0,0,0,0.0,0.0,0,0,110.0,0.0,522.0,4675.384615384616,3936.9230769230776,4595.8974358974365,4480.000000000001,4282.051282051282,4576.923076923077,4525.128205128206,4519.48717948718,4459.48717948718,4858.974358974359,4507.6923076923085,4342.051282051282,4350.769230769231,4571.282051282052
283.14175,0.43301848,0.5217841,0.33333334,0.5522388,0,0.0,0.0,0.0,0.0,0.10637149,1,0,0.0,0.0,0,0,25.0,0.0,0.0,4660.000000000001,3968.717948717949,4572.307692307693,4487.6923076923085,4273.333333333334,4555.384615384616,4488.717948717949,4482.051282051282,4427.6923076923085,4777.435897435898,4421.025641025642,4289.74358974359,4221.538461538462,4529.743589743591
283.39197,0.45867532,0.49621016,0.33333334,0.5522388,0,0.0,0.0,0.0,0.0,0.08752012,0,0,0.0,0.0,0,0,57.0,0.0,0.0,4670.769230769231,3983.589743589744,4571.282051282052,4494.871794871796,4266.153846153847,4558.974358974359,4507.6923076923085,4503.589743589744,4416.923076923077,4772.820512820514,4460.512820512821,4300.512820512821,4285.641025641026,4564.102564102564
283.5171,0.45867532,0.49621016,0.33333334,0.5522388,0,0.0,0.0,0.0,0.0,0.0,0,0,0.0,0.0,0,0,73.0,0.0,482.0,4644.615384615385,3945.1282051282055,4548.717948717949,4488.205128205129,4265.128205128206,4562.564102564103,4512.307692307693,4507.179487179488,4417.948717948719,4733.846153846154,4412.820512820514,4255.384615384616,4198.974358974359,4513.846153846154
283.8924,0.423823,0.55165344,0.33333334,0.5522388,0,0.0,0.0,0.0,0.0,0.15628509,0,0,0.0,0.0,0,0,121.0,0.0,491.0,4636.923076923077,3932.307692307693,4538.974358974359,4506.666666666667,4261.538461538462,4555.8974358974365,4481.538461538462,4476.410256410257,4412.307692307693,4768.205128205129,4404.615384615385,4268.205128205129,4209.2307692307695,4534.358974358975
284.14264,0.423823,0.55165344,0.33333334,0.5522388,0,0.0,0.0,0.0,0.0,0.19598424,0,0,0.0,0.0,0,0,24.0,0.0,0.0,4628.717948717949,3932.820512820513,4526.666666666667,4508.205128205129,4266.666666666667,4555.8974358974365,4485.641025641026,4500.000000000001,4418.974358974359,4755.8974358974365,4440.000000000001,4261.025641025642,4215.384615384616,4549.743589743591
284.39285,0.4234545,0.52088,0.33333334,0.5522388,0,0.0,0.0,0.0,0.0,0.11578878,0,0,0.0,0.0,0,0,56.0,0.0,0.0,4645.128205128206,3941.538461538462,4524.102564102564,4507.6923076923085,4250.769230769231,4541.538461538462,4478.974358974359,4490.256410256411,4413.846153846154,4765.641025641026,4436.410256410257,4273.333333333334,4217.435897435898,4565.641025641026
284.51794,0.4234545,0.52088,0.33333334,0.5522388,0,0.0,0.0,0.0,0.0,0.0,0,0,0.0,0.0,0,0,72.0,0.0,363.0,4668.205128205129,3961.0256410256416,4540.000000000001,4520.000000000001,4286.153846153847,4571.794871794872,4513.846153846154,4502.051282051282,4416.923076923077,4761.538461538462,4465.641025641026,4301.538461538462,4236.410256410257,4597.948717948719
284.79944,0.4640703,0.540821,0.33333334,0.5522388,0,0.0,0.0,0.0,0.0,0.0,0,0,0.0,0.0,0,0,108.0,0.0,388.0,4691.794871794872,3978.9743589743593,4552.820512820514,4541.025641025642,4301.538461538462,4594.871794871796,4543.076923076924,4541.025641025642,4433.333333333334,4801.538461538462,4484.615384615385,4327.179487179487,4264.102564102564,4625.641025641026
284.79944,0.4640703,0.540821,0.33333334,0.5522388,0,0.0,0.0,0.0,0.0,0.0,0,0,0.0,0.0,0,0,108.0,0.0,388.0,4691.794871794872,3978.9743589743593,4552.820512820514,4541.025641025642,4301.538461538462,4594.871794871796,4543.076923076924,4541.025641025642,4433.333333333334,4801.538461538462,4484.615384615385,4327.179487179487,4264.102564102564,4625.641025641026
285.29987,0.4948851,0.54166573,0.33333334,0.5522388,0,0.0,0.0,0.0,0.0,0.0,0,0,0.0,0.0,0,0,43.0,0.0,0.0,4672.820512820514,3968.717948717949,4526.153846153847,4545.641025641026,4271.794871794872,4557.948717948719,4502.051282051282,4498.461538461539,4415.8974358974365,4772.307692307693,4446.153846153847,4300.000000000001,4213.333333333334,4613.846153846154
285.29987,0.4948851,0.54166573,0.33333334,0.5522388,0,0.0,0.0,0.0,0.0,0.0,0,0,0.0,0.0,0,0,43.0,0.0,0.0,4672.820512820514,3968.717948717949,4526.153846153847,4545.641025641026,4271.794871794872,4557.948717948719,4502.051282051282,4498.461538461539,4415.8974358974365,4772.307692307693,4446.153846153847,4300.000000000001,4213.333333333334,4613.846153846154
285.8003,0.53678864,0.5127671,0.33333334,0.5522388,0,0.0,0.0,0.0,0.0,0.0,0,0,0.0,0.0,0,0,107.0,0.0,476.0,4688.205128205129,3944.1025641025644,4521.025641025642,4548.205128205129,4247.179487179487,4541.025641025642,4487.6923076923085,4489.743589743591,4343.076923076924,4785.641025641026,4491.282051282052,4310.769230769231,4282.564102564103,4655.8974358974365
286.14435,0.53678864,0.5127671,0.33333334,0.5522388,0,0.0,0.0,0.0,0.0,0.25608826,0,0,0.0,0.0,0,0,118.0,0.0,522.0,4696.923076923077,3943.076923076924,4515.8974358974365,4544.102564102564,4237.435897435898,4535.384615384616,4472.820512820514,4467.179487179487,4340.000000000001,4758.461538461539,4470.769230769231,4293.333333333334,4257.948717948719,4661.538461538462
286.30072,0.51488125,0.5088118,0.33333334,0.5522388,0,0.0,0.0,0.0,0.0,0.21316507,0,0,0.0,0.0,0,0,42.0,0.0,0.0,4737.435897435898,4006.1538461538466,4584.102564102564,4535.8974358974365,4246.153846153847,4546.153846153847,4488.717948717949,4460.512820512821,4317.948717948719,4701.025641025642,4440.512820512821,4290.769230769231,4201.025641025642,4658.974358974359
286.64478,0.51488125,0.5088118,0.33333334,0.5522388,0,0.0,0.0,0.0,0.0,0.0,0,0,0.0,0.0,0,0,85.0,0.0,491.0,4772.307692307693,4001.538461538462,4635.384615384616,4523.076923076924,4246.153846153847,4563.076923076924,4506.666666666667,4467.6923076923085,4318.974358974359,4684.615384615386,4465.128205128206,4295.8974358974365,4255.384615384616,4648.205128205129
286.80115,0.5074958,0.485717,0.33333334,0.5522388,0,0.0,0.0,0.0,0.0,0.0,0,0,0.0,0.0,0,0,106.0,0.0,522.0,4775.8974358974365,3989.23076923077,4636.923076923077,4510.769230769231,4246.666666666667,4569.2307692307695,4515.8974358974365,4471.282051282052,4329.743589743591,4705.641025641026,4477.948717948719,4289.2307692307695,4262.564102564103,4652.307692307693
287.11392,0.5074958,0.485717,0.33333334,0.5522388,0,0.0,0.0,0.0,0.0,0.2208538,0,0,0.0,0.0,0,0,17.0,0.0,0.0,4787.6923076923085,3974.8717948717954,4637.948717948719,4518.461538461539,4257.435897435898,4588.717948717949,4541.538461538462,4518.461538461539,4349.2307692307695,4715.8974358974365,4484.615384615385,4298.974358974359,4267.179487179487,4673.846153846154
287.30157,0.5167499,0.4874656,0.33333334,0.5522388,0,0.0,0.0,0.0,0.0,0.08386513,0,0,0.0,0.0,0,0,41.0,0.0,0.0,4803.076923076924,3973.8461538461543,4650.256410256411,4526.666666666667,4282.051282051282,4610.769230769231,4571.282051282052,4552.820512820514,4358.461538461539,4720.000000000001,4488.205128205129,4310.769230769231,4277.948717948719,4683.589743589744
287.52054,0.5167499,0.4874656,0.33333334,0.5522388,0,0.0,0.0,0.0,0.0,0.0,0,0,0.0,0.0,0,0,69.0,0.0,550.0,4792.307692307693,3970.2564102564106,4630.256410256411,4527.6923076923085,4275.384615384616,4600.512820512821,4560.512820512821,4548.205128205129,4362.564102564103,4696.410256410257,4487.6923076923085,4302.051282051282,4262.564102564103,4660.512820512821
287.80203,0.50913215,0.50416774,0.33333334,0.5522388,0,0.0,0.0,0.0,0.0,0.0,0,0,0.0,0.0,0,0,105.0,0.0,491.0,4843.589743589744,3928.205128205129,4634.358974358975,4503.589743589744,4260.000000000001,4602.564102564103,4587.179487179488,4567.6923076923085,4357.435897435898,4663.076923076924,4489.743589743591,4303.076923076924,4283.589743589744,4662.564102564103
288.02097,0.50913215,0.50416774,0.33333334,0.5522388,0,0.0,0.0,0.0,0.0,0.15349,0,0,0.0,0.0,0,0,4.0,0.0,553.0,4878.461538461539,3911.7948717948725,4609.743589743591,4473.333333333334,4233.333333333334,4587.6923076923085,4594.871794871796,4582.051282051282,4351.282051282052,4694.358974358975,4485.641025641026,4273.333333333334,4312.820512820514,4676.923076923077
288.30246,0.43920815,0.49917576,0.33333334,0.5522388,0,0.0,0.0,0.0,0.0,0.16398337,0,0,0.0,0.0,0,0,40.0,0.0,0.0,4895.8974358974365,3621.538461538462,4567.6923076923085,4441.538461538462,4240.000000000001,4602.564102564103,4610.769230769231,4584.615384615385,4351.282051282052,4678.461538461539,4459.48717948718,4246.666666666667,4305.128205128206,4672.820512820514
288.5214,0.43920815,0.49917576,0.33333334,0.5522388,0,0.0,0.0,0.0,0.0,0.10772269,0,0,0.0,0.0,0,0,68.0,0.0,553.0,4851.282051282052,3636.410256410257,4518.461538461539,4424.102564102564,4225.641025641026,4586.666666666667,4584.615384615385,4551.282051282052,4315.8974358974365,4658.974358974359,4378.461538461539,4193.846153846154,4242.564102564103,4643.589743589744
288.8029,0.50408554,0.4803437,0.33333334,0.5522388,0,0.0,0.0,0.0,0.0,0.40304688,0,0,0.0,0.0,0,0,104.0,0.0,386.0,4778.974358974359,3658.9743589743593,4441.025641025642,4413.846153846154,4216.410256410257,4569.2307692307695,4553.333333333334,4522.564102564103,4309.2307692307695,4661.025641025642,4308.717948717949,4157.948717948719,4183.589743589744,4581.538461538462
289.02182,0.50408554,0.4803437,0.33333334,0.5522388,0,0.0,0.0,0.0,0.0,1.0,0,0,0.0,0.0,0,0,3.0,0.0,485.0,4746.153846153847,3704.615384615385,4426.666666666667,4420.512820512821,4217.948717948719,4556.923076923077,4545.641025641026,4523.076923076924,4317.435897435898,4649.743589743591,4308.205128205129,4167.6923076923085,4151.794871794872,4550.256410256411
289.3033,0.48055586,0.41789117,0.33333334,0.5522388,0,0.0,0.0,0.0,0.0,0.78052306,0,0,0.0,0.0,0,0,39.0,0.0,0.0,4712.820512820514,3758.461538461539,4442.564102564103,4426.666666666667,4236.410256410257,4554.871794871796,4551.794871794872,4543.589743589744,4334.358974358975,4715.8974358974365,4333.333333333334,4233.846153846154,4193.846153846154,4565.641025641026
289.52225,0.48055586,0.41789117,0.33333334,0.5522388,0,0.0,0.0,0.0,0.0,0.42493895,0,0,0.0,0.0,0,0,67.0,0.0,485.0,4683.589743589744,3796.9230769230776,4441.025641025642,4425.128205128206,4218.461538461539,4521.025641025642,4521.538461538462,4523.589743589744,4342.051282051282,4735.8974358974365,4328.717948717949,4238.974358974359,4202.051282051282,4550.769230769231
289.80374,0.41389537,0.36461076,0.33333334,0.5522388,0,0.0,0.0,0.0,0.0,0.0,0,0,0.0,0.0,0,0,103.0,0.0,475.0,4659.48717948718,3820.512820512821,4456.410256410257,4433.846153846154,4217.435897435898,4506.153846153847,4487.6923076923085,4498.974358974359,4342.564102564103,4719.48717948718,4307.6923076923085,4261.538461538462,4179.48717948718,4548.717948717949
290.11652,0.41389537,0.36461076,0.33333334,0.5522388,1,0.0,0.0,0.0,0.0,0.0,0,0,0.0,0.0,0,0,14.0,0.0,522.0,4666.153846153847,3917.435897435898,4508.717948717949,4468.205128205129,4251.282051282052,4525.128205128206,4493.846153846154,4510.256410256411,4366.666666666667,4757.948717948719,4329.2307692307695,4312.820512820514,4223.076923076924,4569.743589743591
290.30417,0.41607913,0.32643026,0.33333334,0.5522388,0,0.0,0.0,0.0,0.0,0.16142114,0,0,0.0,0.0,0,0,38.0,0.0,0.0,4623.076923076924,3894.8717948717954,4495.384615384616,4466.666666666667,4246.153846153847,4520.512820512821,4458.974358974359,4487.6923076923085,4367.6923076923085,4765.641025641026,4301.025641025642,4269.74358974359,4198.461538461539,4516.923076923077
290.5231,0.41607913,0.32643026,0.33333334,0.5522388,0,0.0,0.0,0.0,0.0,0.42219332,0,0,0.0,0.0,0,0,66.0,0.0,459.0,4609.2307692307695,3888.205128205129,4495.8974358974365,4471.794871794872,4248.717948717949,4521.025641025642,4444.615384615385,4469.743589743591,4378.461538461539,4729.743589743591,4293.846153846154,4245.641025641026,4184.102564102564,4501.025641025642
290.8046,0.4872476,0.30025983,0.33333334,0.5522388,0,0.0,0.0,0.0,0.0,0.072680086,0,0,0.0,0.0,0,0,102.0,0.0,522.0,4589.743589743591,3913.333333333334,4486.153846153847,4483.076923076924,4246.666666666667,4506.666666666667,4456.410256410257,4472.307692307693,4363.076923076924,4767.179487179488,4318.974358974359,4242.051282051282,4185.128205128206,4490.769230769231
291.02353,0.4872476,0.30025983,0.33333334,0.5522388,0,0.0,0.0,0.0,0.0,0.14980768,0,0,0.0,0.0,0,0,1.0,0.0,124.0,4630.256410256411,3938.461538461539,4520.512820512821,4497.948717948719,4262.051282051282,4524.615384615385,4462.564102564103,4473.846153846154,4380.512820512821,4792.307692307693,4369.743589743591,4293.846153846154,4240.512820512821,4527.6923076923085
291.30502,0.5768941,0.32781777,0.33333334,0.5522388,0,0.0,0.0,0.0,0.0,0.113505416,0,0,0.0,0.0,0,0,37.0,0.0,0.0,4614.358974358975,3976.9230769230776,4521.538461538462,4499.48717948718,4264.615384615385,4533.846153846154,4456.923076923077,4475.384615384616,4386.153846153847,4808.717948717949,4365.641025641026,4283.076923076924,4224.102564102564,4521.025641025642
291.52396,0.5768941,0.32781777,0.33333334,0.5522388,0,0.0,0.0,0.0,0.0,0.051315535,0,0,0.0,0.0,0,0,65.0,0.0,124.0,4587.6923076923085,4000.5128205128212,4500.000000000001,4501.538461538462,4264.102564102564,4535.8974358974365,4445.128205128206,4451.282051282052,4379.48717948718,4800.000000000001,4359.48717948718,4257.435897435898,4196.410256410257,4505.128205128206
291.80545,0.5889532,0.3463115,0.33333334,0.5522388,0,0.0,0.0,0.0,0.0,0.05326259,0,0,0.0,0.0,0,0,101.0,0.0,491.0,4616.410256410257,3996.9230769230776,4520.512820512821,4501.538461538462,4261.538461538462,4536.923076923077,4439.48717948718,4451.282051282052,4383.076923076924,4818.974358974359,4406.153846153847,4290.769230769231,4244.102564102564,4524.102564102564
292.02438,0.5889532,0.3463115,0.33333334,0.5522388,1,0.0,0.0,0.0,0.0,0.10452626,0,0,0.0,0.0,0,0,0.0,0.0,471.0,4620.000000000001,3989.7435897435903,4519.48717948718,4511.794871794872,4265.128205128206,4542.564102564103,4437.948717948719,4442.564102564103,4346.153846153847,4809.743589743591,4395.384615384616,4279.48717948718,4222.051282051282,4517.948717948719
292.30588,0.5870256,0.3566353,0.33333334,0.5522388,0,0.0,0.0,0.0,0.0,0.16582312,0,0,0.0,0.0,0,0,36.0,0.0,0.0,4594.871794871796,3973.8461538461543,4506.153846153847,4523.589743589744,4263.076923076924,4536.923076923077,4416.410256410257,4412.820512820514,4341.538461538462,4804.615384615386,4384.615384615385,4262.051282051282,4185.641025641026,4490.769230769231
292.52484,0.5870256,0.3566353,0.33333334,0.5522388,0,0.0,0.0,0.0,0.0,0.07362859,0,0,0.0,0.0,0,0,64.0,0.0,471.0,4558.974358974359,4022.564102564103,4480.512820512821,4532.820512820514,4266.153846153847,4538.974358974359,4396.410256410257,4365.641025641026,4345.641025641026,4698.461538461539,4303.076923076924,4187.179487179487,4047.692307692308,4421.025641025642
292.8063,0.6262138,0.37076178,0.33333334,0.5522388,0,0.0,0.0,0.0,0.0,0.3914511,0,0,0.0,0.0,0,0,100.0,0.0,387.0,4578.974358974359,3990.7692307692314,4495.384615384616,4535.384615384616,4263.076923076924,4537.948717948719,4410.256410256411,4396.923076923077,4365.641025641026,4738.461538461539,4332.307692307693,4222.051282051282,4101.025641025642,4435.8974358974365
293.11908,0.6262138,0.37076178,0.33333334,0.5522388,1,0.0,0.0,0.0,0.0,0.18887162,0,0,0.0,0.0,0,0,11.0,0.0,475.0,4631.794871794872,3993.333333333334,4523.076923076924,4539.48717948718,4259.48717948718,4540.000000000001,4445.641025641026,4443.076923076924,4399.48717948718,4801.538461538462,4398.461538461539,4280.000000000001,4211.794871794872,4510.769230769231
293.30676,0.63933223,0.413611,0.33333334,0.5522388,0,0.0,0.0,0.0,0.0,0.0,0,0,0.0,0.0,0,0,35.0,0.0,0.0,4632.307692307693,4004.1025641025644,4521.538461538462,4541.025641025642,4257.948717948719,4541.025641025642,4446.153846153847,4436.410256410257,4398.974358974359,4767.179487179488,4398.974358974359,4281.025641025642,4213.333333333334,4502.564102564103
293.30676,0.63933223,0.413611,0.33333334,0.5522388,0,0.0,0.0,0.0,0.0,0.0,0,0,0.0,0.0,0,0,35.0,0.0,0.0,4632.307692307693,4004.1025641025644,4521.538461538462,4541.025641025642,4257.948717948719,4541.025641025642,4446.153846153847,4436.410256410257,4398.974358974359,4767.179487179488,4398.974358974359,4281.025641025642,4213.333333333334,4502.564102564103
293.86972,0.54747355,0.43895125,0.33333334,0.5522388,1,0.0,0.0,0.0,0.0,0.0,0,0,0.0,0.0,0,0,107.0,0.0,475.0,4652.820512820514,4015.8974358974365,4552.307692307693,4553.846153846154,4250.769230769231,4553.333333333334,4485.641025641026,4464.615384615385,4411.794871794872,4801.538461538462,4403.076923076924,4297.948717948719,4221.538461538462,4557.948717948719
294.02612,0.54747355,0.43895125,0.33333334,0.5522388,0,0.0,0.0,0.0,0.0,0.18766056,0,0,0.0,0.0,0,0,127.0,0.0,475.0,4634.358974358975,3988.717948717949,4546.153846153847,4546.666666666667,4259.48717948718,4559.48717948718,4488.717948717949,4458.974358974359,4399.48717948718,4770.256410256411,4391.794871794872,4263.076923076924,4200.512820512821,4522.051282051282
294.30762,0.46047086,0.49604225,0.33333334,0.5522388,0,0.0,0.0,0.0,0.0,0.11323736,0,0,0.0,0.0,0,0,34.0,0.0,0.0,4686.666666666667,3974.358974358975,4571.794871794872,4523.589743589744,4250.256410256411,4565.641025641026,4506.666666666667,4475.384615384616,4409.2307692307695,4756.923076923077,4388.205128205129,4277.435897435898,4228.717948717949,4525.128205128206
294.52655,0.46047086,0.49604225,0.33333334,0.5522388,0,0.0,0.0,0.0,0.0,0.30970785,0,0,0.0,0.0,0,0,62.0,0.0,0.0,4724.102564102564,3974.8717948717954,4591.794871794872,4502.051282051282,4251.794871794872,4571.282051282052,4518.974358974359,4475.8974358974365,4391.282051282052,4713.333333333334,4365.128205128206,4248.717948717949,4217.435897435898,4518.461538461539
294.80804,0.38921216,0.56376946,0.33333334,0.5522388,0,0.0,0.0,0.0,0.0,0.14579841,0,0,0.0,0.0,0,0,98.0,0.0,522.0,4762.564102564103,3924.615384615385,4600.512820512821,4467.179487179487,4268.717948717949,4600.512820512821,4552.820512820514,4501.538461538462,4381.538461538462,4700.512820512821,4365.128205128206,4228.205128205129,4237.435897435898,4519.48717948718
295.02698,0.38921216,0.56376946,0.33333334,0.5522388,0,0.0,0.0,0.0,0.0,0.03190922,0,0,0.0,0.0,0,0,126.0,0.0,522.0,4744.615384615386,3895.3846153846157,4567.6923076923085,4445.128205128206,4264.102564102564,4600.512820512821,4540.512820512821,4486.666666666667,4363.589743589744,4701.025641025642,4350.256410256411,4194.871794871796,4230.256410256411,4490.256410256411
295.33975,0.36166325,0.62430435,0.33333334,0.5522388,0,0.0,0.0,0.0,0.0,0.1562435,0,0,0.0,0.0,0,0,37.0,0.0,0.0,4705.128205128206,3836.410256410257,4525.641025641026,4416.923076923077,4248.205128205129,4574.358974358975,4517.948717948719,4473.333333333334,4340.000000000001,4676.410256410257,4326.666666666667,4180.000000000001,4204.615384615385,4460.000000000001
295.5274,0.36166325,0.62430435,0.33333334,0.5522388,0,0.0,0.0,0.0,0.0,0.0,0,0,0.0,0.0,0,0,61.0,0.0,0.0,4685.641025641026,3845.1282051282055,4525.128205128206,4417.435897435898,4274.871794871796,4589.2307692307695,4524.615384615385,4504.102564102564,4357.435897435898,4681.025641025642,4322.564102564103,4196.923076923077,4184.102564102564,4462.051282051282
295.8089,0.37245634,0.75773585,0.33333334,0.5522388,0,0.0,0.0,0.0,0.0,0.0,0,0,0.0,0.0,0,0,97.0,0.0,491.0,4645.641025641026,3862.0512820512827,4503.076923076924,4420.000000000001,4278.974358974359,4584.615384615385,4505.128205128206,4479.48717948718,4330.769230769231,4660.000000000001,4272.307692307693,4179.48717948718,4120.000000000001,4422.564102564103
295.8089,0.37245634,0.75773585,0.33333334,0.5522388,0,0.0,0.0,0.0,0.0,0.0,0,0,0.0,0.0,0,0,97.0,0.0,491.0,4645.641025641026,3862.0512820512827,4503.076923076924,4420.000000000001,4278.974358974359,4584.615384615385,4505.128205128206,4479.48717948718,4330.769230769231,4660.000000000001,4272.307692307693,4179.48717948718,4120.000000000001,4422.564102564103
296.30933,0.42800614,0.7706021,0.33333334,0.5522388,0,0.0,0.0,0.0,0.0,0.0,0,0,0.0,0.0,0,0,32.0,0.0,0.0,4632.307692307693,3910.7692307692314,4508.205128205129,4433.846153846154,4275.384615384616,4556.410256410257,4474.358974358975,4469.743589743591,4326.666666666667,4681.025641025642,4289.2307692307695,4238.461538461539,4181.025641025642,4441.025641025642
296.30933,0.42800614,0.7706021,0.33333334,0.5522388,0,0.0,0.0,0.0,0.0,0.0,0,0,0.0,0.0,0,0,32.0,0.0,0.0,4632.307692307693,3910.7692307692314,4508.205128205129,4433.846153846154,4275.384615384616,4556.410256410257,4474.358974358975,4469.743589743591,4326.666666666667,4681.025641025642,4289.2307692307695,4238.461538461539,4181.025641025642,4441.025641025642
296.80975,0.4313675,0.76777494,0.33333334,0.5522388,0,0.0,0.0,0.0,0.0,0.0,0,0,0.0,0.0,0,0,96.0,0.0,387.0,4646.153846153847,3958.461538461539,4534.871794871796,4461.025641025642,4281.538461538462,4559.48717948718,4477.435897435898,4474.358974358975,4335.384615384616,4716.410256410257,4309.2307692307695,4282.564102564103,4183.076923076924,4444.615384615385
296.80975,0.4313675,0.76777494,0.33333334,0.5522388,0,0.0,0.0,0.0,0.0,0.0,0,0,0.0,0.0,0,0,96.0,0.0,387.0,4646.153846153847,3958.461538461539,4534.871794871796,4461.025641025642,4281.538461538462,4559.48717948718,4477.435897435898,4474.358974358975,4335.384615384616,4716.410256410257,4309.2307692307695,4282.564102564103,4183.076923076924,4444.615384615385
297.31018,0.36210737,0.7173435,0.33333334,0.5522388,0,0.0,0.0,0.0,0.0,0.04629443,0,0,0.0,0.0,0,0,31.0,0.0,0.0,4647.179487179488,3952.820512820513,4529.743589743591,4457.948717948719,4265.128205128206,4549.2307692307695,4461.025641025642,4473.846153846154,4343.076923076924,4733.333333333334,4352.820512820514,4280.000000000001,4211.282051282052,4428.717948717949
297.40402,0.36210737,0.7173435,0.33333334,0.5522388,0,0.0,0.0,0.0,0.0,0.0,0,0,0.0,0.0,0,0,43.0,0.0,0.0,4644.615384615385,3955.3846153846157,4540.512820512821,4458.461538461539,4278.974358974359,4557.948717948719,4476.410256410257,4490.256410256411,4352.307692307693,4767.6923076923085,4360.000000000001,4278.461538461539,4227.179487179487,4427.6923076923085
297.8106,0.36562714,0.66249037,0.33333334,0.5522388,1,0.0,0.0,0.0,0.0,0.0,0,0,0.0,0.0,0,0,95.0,0.0,476.0,4713.846153846154,3969.7435897435903,4588.717948717949,4452.307692307693,4279.48717948718,4578.974358974359,4506.153846153847,4508.205128205129,4373.846153846154,4799.48717948718,4389.2307692307695,4289.2307692307695,4270.256410256411,4473.333333333334
298.02957,0.36562714,0.66249037,0.33333334,0.5522388,0,0.0,0.0,0.0,0.0,0.20492831,0,0,0.0,0.0,0,0,123.0,0.0,476.0,4706.153846153847,3919.48717948718,4563.076923076924,4424.615384615385,4246.666666666667,4554.871794871796,4487.6923076923085,4489.743589743591,4353.846153846154,4765.128205128206,4373.846153846154,4245.641025641026,4262.051282051282,4455.8974358974365
298.31104,0.4256575,0.6378941,0.33333334,0.5522388,0,0.0,0.0,0.0,0.0,0.12487588,0,0,0.0,0.0,0,0,30.0,0.0,0.0,4674.871794871796,3894.8717948717954,4528.717948717949,4424.615384615385,4248.205128205129,4562.051282051282,4493.333333333334,4494.871794871796,4349.2307692307695,4747.6923076923085,4356.923076923077,4218.974358974359,4231.794871794872,4429.2307692307695
298.53,0.4256575,0.6378941,0.33333334,0.5522388,0,0.0,0.0,0.0,0.0,0.119282626,0,0,0.0,0.0,0,0,58.0,0.0,0.0,4685.128205128206,3943.589743589744,4523.589743589744,4426.153846153847,4234.358974358975,4554.358974358975,4466.666666666667,4480.000000000001,4337.948717948719,4760.512820512821,4345.128205128206,4225.128205128206,4230.769230769231,4462.564102564103
298.8115,0.3707003,0.64605695,0.33333334,0.5522388,1,0.0,0.0,0.0,0.0,0.17154618,0,0,0.0,0.0,0,0,94.0,0.0,522.0,4687.179487179488,3937.9487179487182,4524.615384615385,4414.871794871796,4231.794871794872,4550.256410256411,4460.512820512821,4453.333333333334,4324.102564102564,4707.179487179488,4335.384615384616,4220.512820512821,4226.153846153847,4469.743589743591
299.03043,0.3707003,0.64605695,0.33333334,0.5522388,0,0.0,0.0,0.0,0.0,0.13267925,0,0,0.0,0.0,0,0,122.0,0.0,522.0,4654.358974358975,3880.512820512821,4504.615384615385,4385.641025641026,4216.923076923077,4540.000000000001,4474.358974358975,4471.282051282052,4333.333333333334,4702.051282051282,4341.025641025642,4198.461538461539,4209.74358974359,4443.589743589744
299.31192,0.34763265,0.71749073,0.33333334,0.5522388,0,0.0,0.0,0.0,0.0,0.055926796,0,0,0.0,0.0,0,0,29.0,0.0,0.0,4654.358974358975,3896.410256410257,4499.48717948718,4366.666666666667,4200.000000000001,4540.512820512821,4505.641025641026,4484.615384615385,4320.512820512821,4705.128205128206,4338.974358974359,4212.307692307693,4230.769230769231,4487.6923076923085
299.53085,0.34763265,0.71749073,0.33333334,0.5522388,0,0.0,0.0,0.0,0.0,0.0,0,0,0.0,0.0,0,0,57.0,0.0,0.0,4700.512820512821,3944.1025641025644,4498.974358974359,4373.333333333334,4198.974358974359,4553.846153846154,4511.282051282052,4492.307692307693,4295.8974358974365,4664.615384615386,4357.435897435898,4203.076923076924,4216.410256410257,4529.743589743591
299.81235,0.30138436,0.7597807,0.33333334,0.5522388,0,0.0,0.0,0.0,0.0,0.3330691,0,0,0.0,0.0,0,0,93.0,0.0,491.0,4667.179487179488,3923.589743589744,4452.307692307693,4384.102564102564,4199.48717948718,4554.358974358975,4494.358974358975,4476.923076923077,4295.384615384616,4628.717948717949,4383.076923076924,4166.153846153847,4155.8974358974365,4505.128205128206
300.03128,0.30138436,0.7597807,0.33333334,0.5522388,0,0.0,0.0,0.0,0.0,0.07419452,0,0,0.0,0.0,0,0,121.0,0.0,491.0,4659.48717948718,3908.205128205129,4438.461538461539,4382.051282051282,4184.615384615385,4536.923076923077,4494.871794871796,4477.948717948719,4294.871794871796,4647.179487179488,4344.102564102564,4169.2307692307695,4164.615384615385,4505.128205128206
300.31277,0.24095263,0.7521403,0.33333334,0.5522388,0,0.0,0.0,0.0,0.0,0.0,0,0,0.0,0.0,0,0,28.0,0.0,0.0,4627.6923076923085,3877.9487179487182,4432.307692307693,4384.102564102564,4195.8974358974365,4522.051282051282,4510.769230769231,4491.794871794872,4284.615384615385,4652.820512820514,4313.333333333334,4170.256410256411,4153.333333333334,4491.794871794872
300.5317,0.24095263,0.7521403,0.33333334,0.5522388,1,0.0,0.0,0.0,0.0,0.14937198,0,0,0.0,0.0,0,0,56.0,0.0,0.0,4640.000000000001,3884.615384615385,4461.025641025642,4385.128205128206,4203.076923076924,4505.641025641026,4497.948717948719,4521.538461538462,4297.948717948719,4723.589743589744,4337.435897435898,4233.333333333334,4198.461538461539,4521.025641025642
300.8132,0.2441379,0.69181085,0.33333334,0.5522388,0,0.0,0.0,0.0,0.0,0.22451194,0,0,0.0,0.0,0,0,92.0,0.0,387.0,4597.435897435898,3875.8974358974365,4465.128205128206,4371.282051282052,4227.6923076923085,4507.179487179488,4508.717948717949,4512.307692307693,4301.538461538462,4705.128205128206,4305.128205128206,4245.641025641026,4170.256410256411,4472.307692307693
301.03214,0.2441379,0.69181085,0.33333334,0.5522388,0,0.0,0.0,0.0,0.0,0.2896397,0,0,0.0,0.0,0,0,120.0,0.0,387.0,4600.000000000001,3890.2564102564106,4478.461538461539,4371.282051282052,4232.307692307693,4501.025641025642,4499.48717948718,4517.948717948719,4320.512820512821,4738.461538461539,4332.307692307693,4277.948717948719,4183.589743589744,4454.358974358975
301.31363,0.19031148,0.67703485,0.33333334,0.5522388,0,0.0,0.0,0.0,0.0,0.0,0,0,0.0,0.0,0,0,27.0,0.0,0.0,4569.743589743591,3847.1794871794878,4465.641025641026,4358.974358974359,4237.948717948719,4492.820512820514,4487.179487179488,4507.179487179488,4328.205128205129,4768.205128205129,4371.794871794872,4280.512820512821,4207.179487179487,4414.871794871796
301.31363,0.19031148,0.67703485,0.33333334,0.5522388,0,0.0,0.0,0.0,0.0,0.0,0,0,0.0,0.0,0,0,27.0,0.0,0.0,4569.743589743591,3847.1794871794878,4465.641025641026,4358.974358974359,4237.948717948719,4492.820512820514,4487.179487179488,4507.179487179488,4328.205128205129,4768.205128205129,4371.794871794872,4280.512820512821,4207.179487179487,4414.871794871796
301.87662,0.16062304,0.63150555,0.33333334,0.5522388,1,0.0,0.0,0.0,0.0,0.0,0,0,0.0,0.0,0,0,99.0,0.0,476.0,4589.743589743591,3938.9743589743593,4472.307692307693,4373.846153846154,4245.128205128206,4511.282051282052,4458.461538461539,4460.000000000001,4331.794871794872,4768.717948717949,4416.923076923077,4291.794871794872,4178.974358974359,4426.153846153847
302.033,0.16062304,0.63150555,0.33333334,0.5522388,0,0.0,0.0,0.0,0.0,0.060602397,0,0,0.0,0.0,0,0,119.0,0.0,476.0,4613.333333333334,3957.435897435898,4476.923076923077,4383.589743589744,4257.948717948719,4519.48717948718,4449.2307692307695,4464.102564102564,4341.025641025642,4808.717948717949,4432.307692307693,4311.794871794872,4195.384615384616,4429.743589743591
302.31448,0.07817763,0.6179526,0.33333334,0.5522388,0,0.0,0.0,0.0,0.0,0.046809584,0,0,0.0,0.0,0,0,26.0,0.0,0.0,4605.128205128206,3976.410256410257,4480.000000000001,4397.948717948719,4262.051282051282,4523.589743589744,4446.666666666667,4461.025641025642,4346.153846153847,4802.564102564103,4447.6923076923085,4308.205128205129,4186.153846153847,4437.948717948719
302.53342,0.07817763,0.6179526,0.33333334,0.5522388,0,0.0,0.0,0.0,0.0,0.0,0,0,0.0,0.0,0,0,54.0,0.0,0.0,4605.641025641026,3973.333333333334,4487.6923076923085,4406.153846153847,4273.333333333334,4538.461538461539,4448.717948717949,4462.564102564103,4361.025641025642,4824.102564102564,4446.153846153847,4321.538461538462,4171.282051282052,4441.025641025642
302.8149,0.076401435,0.56928307,0.33333334,0.5522388,0,0.0,0.0,0.0,0.0,0.0,0,0,0.0,0.0,0,0,90.0,0.0,522.0,4600.000000000001,3980.0000000000005,4479.48717948718,4417.435897435898,4273.846153846154,4539.48717948718,4429.743589743591,4444.615384615385,4356.923076923077,4801.025641025642,4446.666666666667,4307.6923076923085,4164.102564102564,4440.512820512821
302.8149,0.076401435,0.56928307,0.33333334,0.5522388,0,0.0,0.0,0.0,0.0,0.0,0,0,0.0,0.0,0,0,90.0,0.0,522.0,4600.000000000001,3980.0000000000005,4479.48717948718,4417.435897435898,4273.846153846154,4539.48717948718,4429.743589743591,4444.615384615385,4356.923076923077,4801.025641025642,4446.666666666667,4307.6923076923085,4164.102564102564,4440.512820512821
303.3779,0.15828528,0.5146471,0.33333334,0.5522388,1,0.0,0.0,0.0,0.0,0.0,0,0,0.0,0.0,0,0,33.0,0.0,0.0,4647.179487179488,4007.1794871794878,4525.128205128206,4452.820512820514,4272.820512820514,4558.461538461539,4479.48717948718,4491.794871794872,4383.076923076924,4807.179487179488,4490.769230769231,4325.128205128206,4227.6923076923085,4442.051282051282
303.5343,0.15828528,0.5146471,0.33333334,0.5522388,0,0.0,0.0,0.0,0.0,0.24503705,0,0,0.0,0.0,0,0,53.0,0.0,0.0,4655.8974358974365,3988.205128205129,4547.179487179488,4442.051282051282,4249.74358974359,4554.358974358975,4464.615384615385,4455.8974358974365,4357.435897435898,4761.538461538462,4452.307692307693,4290.256410256411,4192.307692307693,4422.564102564103
303.81577,0.16597569,0.5229021,0.33333334,0.5522388,0,0.0,0.0,0.0,0.0,0.16697735,0,0,0.0,0.0,0,0,89.0,0.0,491.0,4739.48717948718,3986.1538461538466,4608.205128205129,4412.820512820514,4246.153846153847,4588.205128205129,4514.871794871796,4484.615384615385,4352.307692307693,4732.820512820514,4462.564102564103,4261.025641025642,4225.128205128206,4464.102564102564
304.09726,0.16597569,0.5229021,0.33333334,0.5522388,1,0.0,0.0,0.0,0.0,0.4476373,0,0,0.0,0.0,0,0,125.0,0.0,491.0,4789.2307692307695,3976.9230769230776,4616.410256410257,4383.076923076924,4231.282051282052,4613.846153846154,4570.256410256411,4526.153846153847,4340.000000000001,4736.410256410257,4465.641025641026,4261.025641025642,4282.564102564103,4537.948717948719
304.31622,0.2097477,0.6586726,0.33333334,0.5522388,0,0.0,0.0,0.0,0.0,0.14249165,0,0,0.0,0.0,0,0,24.0,0.0,0.0,4741.025641025642,3910.7692307692314,4576.923076923077,4359.48717948718,4260.512820512821,4643.076923076924,4587.179487179488,4544.102564102564,4334.358974358975,4715.384615384616,4429.2307692307695,4247.6923076923085,4229.74358974359,4489.743589743591
304.53516,0.2097477,0.6586726,0.33333334,0.5522388,0,0.0,0.0,0.0,0.0,0.068224415,0,0,0.0,0.0,0,0,52.0,0.0,0.0,4747.179487179488,3929.7435897435903,4564.102564102564,4358.974358974359,4278.461538461539,4658.461538461539,4607.179487179488,4556.923076923077,4344.615384615385,4739.48717948718,4421.538461538462,4265.128205128206,4235.384615384616,4506.153846153847
304.81665,0.28743416,0.8637571,0.33333334,0.5522388,0,0.0,0.0,0.0,0.0,0.0,0,0,0.0,0.0,0,0,88.0,0.0,386.0,4695.8974358974365,3881.0256410256416,4477.435897435898,4342.051282051282,4250.256410256411,4630.769230769231,4603.589743589744,4525.128205128206,4264.102564102564,4644.615384615385,4331.794871794872,4201.025641025642,4140.000000000001,4454.871794871796
304.81665,0.28743416,0.8637571,0.33333334,0.5522388,0,0.0,0.0,0.0,0.0,0.0,0,0,0.0,0.0,0,0,88.0,0.0,386.0,4695.8974358974365,3881.0256410256416,4477.435897435898,4342.051282051282,4250.256410256411,4630.769230769231,4603.589743589744,4525.128205128206,4264.102564102564,4644.615384615385,4331.794871794872,4201.025641025642,4140.000000000001,4454.871794871796
305.31708,0.39378417,1.0,0.33333334,0.5522388,0,0.0,0.0,0.0,0.0,0.0,0,0,0.0,0.0,0,0,23.0,0.0,0.0,4617.435897435898,3912.820512820513,4392.307692307693,4371.282051282052,4208.717948717949,4586.153846153847,4588.205128205129,4462.564102564103,4241.538461538462,4541.538461538462,4154.358974358975,4112.820512820514,3941.0256410256416,4358.461538461539
305.31708,0.39378417,1.0,0.33333334,0.5522388,0,0.0,0.0,0.0,0.0,0.0,0,0,0.0,0.0,0,0,23.0,0.0,0.0,4617.435897435898,3912.820512820513,4392.307692307693,4371.282051282052,4208.717948717949,4586.153846153847,4588.205128205129,4462.564102564103,4241.538461538462,4541.538461538462,4154.358974358975,4112.820512820514,3941.0256410256416,4358.461538461539
305.8175,0.4573234,1.0,0.33333334,0.5522388,0,0.0,0.0,0.0,0.0,0.0,0,0,0.0,0.0,0,0,87.0,0.0,478.0,4568.717948717949,3861.538461538462,4443.589743589744,4383.076923076924,4217.948717948719,4559.48717948718,4591.282051282052,4486.666666666667,4270.769230769231,4620.000000000001,4128.205128205129,4184.102564102564,4068.717948717949,4403.589743589744
305.8175,0.4573234,1.0,0.33333334,0.5522388,0,0.0,0.0,0.0,0.0,0.0,0,0,0.0,0.0,0,0,87.0,0.0,478.0,4568.717948717949,3861.538461538462,4443.589743589744,4383.076923076924,4217.948717948719,4559.48717948718,4591.282051282052,4486.666666666667,4270.769230769231,4620.000000000001,4128.205128205129,4184.102564102564,4068.717948717949,4403.589743589744
306.31793,0.48516756,0.90083635,0.33333334,0.5522388,0,0.0,0.0,0.0,0.0,0.0,0,0,0.0,0.0,0,0,22.0,0.0,0.0,4522.564102564103,3822.564102564103,4450.769230769231,4354.358974358975,4235.384615384616,4541.025641025642,4542.564102564103,4514.358974358975,4293.846153846154,4672.307692307693,4095.8974358974365,4245.128205128206,4123.076923076924,4445.128205128206
306.31793,0.48516756,0.90083635,0.33333334,0.5522388,0,0.0,0.0,0.0,0.0,0.0,0,0,0.0,0.0,0,0,22.0,0.0,0.0,4522.564102564103,3822.564102564103,4450.769230769231,4354.358974358975,4235.384615384616,4541.025641025642,4542.564102564103,4514.358974358975,4293.846153846154,4672.307692307693,4095.8974358974365,4245.128205128206,4123.076923076924,4445.128205128206
306.81836,0.5133437,0.82060134,0.33333334,0.5522388,0,0.0,0.0,0.0,0.0,0.0,0,0,0.0,0.0,0,0,86.0,0.0,522.0,4491.282051282052,3830.2564102564106,4449.743589743591,4345.641025641026,4247.179487179487,4510.769230769231,4498.974358974359,4464.102564102564,4289.2307692307695,4677.948717948719,4069.7435897435903,4214.358974358975,4077.9487179487187,4332.307692307693
