timestamp,excitement,frustration,meditation,engagementBoredom,blink,clench,laugh,smile,eyebrow,furrowBrow,lookLeft,lookRight,smirkLeft,smirkRight,winkLeft,winkRight,eeg0,eeg1,eeg2,eeg3,eeg4,eeg5,eeg6,eeg7,eeg8,eeg9,eeg10,eeg11,eeg12,eeg13,eeg14,eeg15,eeg16
1141.7312,0.69425493,1.0,0.33333334,0.5522388,0,0.0,0.0,0.0,0.0,0.1454851,0,0,0.0,0.0,0,0,70.0,0.0,552.0,4537.435897435898,3862.0512820512827,4445.128205128206,4424.615384615385,4234.871794871796,4541.538461538462,4476.410256410257,4503.589743589744,4381.538461538462,4762.051282051282,4362.051282051282,4270.769230769231,4217.435897435898,4266.666666666667
1142.0127,0.7012533,1.0,0.33333334,0.5522388,0,0.0,0.0,0.0,0.0,0.48841628,0,0,0.0,0.0,0,0,106.0,0.0,525.0,4656.410256410257,4050.2564102564106,4497.435897435898,4440.000000000001,4254.871794871796,4557.948717948719,4482.564102564103,4527.6923076923085,4373.846153846154,4736.923076923077,4383.589743589744,4355.384615384616,4265.128205128206,4582.051282051282
1142.263,0.7012533,1.0,0.33333334,0.5522388,0,0.0,0.0,0.0,0.0,0.58621925,0,0,0.0,0.0,0,0,9.0,0.0,481.0,4661.025641025642,4056.410256410257,4508.717948717949,4444.102564102564,4264.102564102564,4568.205128205129,4492.307692307693,4559.48717948718,4396.923076923077,4749.2307692307695,4392.307692307693,4362.564102564103,4248.205128205129,4612.820512820514
1142.5131,0.74651355,1.0,0.33333334,0.5522388,0,0.0,0.0,0.0,0.0,0.054392617,0,0,0.0,0.0,0,0,41.0,0.0,0.0,4618.974358974359,4050.7692307692314,4474.358974358975,4416.923076923077,4261.025641025642,4560.000000000001,4463.076923076924,4520.000000000001,4390.256410256411,4708.205128205129,4382.051282051282,4309.2307692307695,4194.358974358975,4663.589743589744
1142.732,0.74651355,1.0,0.33333334,0.5522388,0,0.0,0.047747597,0.0,0.0,0.0,0,0,0.0,0.0,0,0,69.0,0.0,552.0,4617.948717948719,4044.1025641025644,4480.000000000001,4310.256410256411,4261.025641025642,4555.8974358974365,4446.666666666667,4494.358974358975,4397.435897435898,4722.564102564103,4373.333333333334,4320.512820512821,4203.076923076924,4587.179487179488
1143.0135,0.77805716,1.0,0.33333334,0.5522388,0,0.0,0.13043034,0.0,0.0,0.0,0,0,0.0,0.0,0,0,105.0,0.0,495.0,4604.102564102564,3996.9230769230776,4476.410256410257,4296.923076923077,4246.666666666667,4549.2307692307695,4456.410256410257,4504.615384615385,4399.48717948718,4741.025641025642,4375.384615384616,4311.794871794872,4221.538461538462,4723.589743589744
1143.2324,0.77805716,1.0,0.33333334,0.5522388,0,0.0,0.044765446,0.0,0.0,0.0,0,0,0.0,0.0,0,1,4.0,0.0,556.0,4579.48717948718,3973.333333333334,4471.282051282052,4310.769230769231,4248.205128205129,4551.794871794872,4475.8974358974365,4517.948717948719,4397.435897435898,4705.641025641026,4368.205128205129,4277.435897435898,4164.615384615385,4683.589743589744
1143.5139,0.76241624,1.0,0.33333334,0.5522388,0,0.0,0.047633164,0.0,0.0,0.0,0,0,0.0,0.0,0,0,40.0,0.0,0.0,4566.666666666667,3926.1538461538466,4458.461538461539,4325.641025641026,4234.358974358975,4540.000000000001,4471.794871794872,4546.153846153847,4416.923076923077,4730.256410256411,4372.307692307693,4281.025641025642,4182.564102564103,4781.538461538462
1143.7329,0.76241624,1.0,0.33333334,0.5522388,0,0.0,0.0,0.0,0.0,0.22456247,0,0,0.0,0.0,0,0,68.0,0.0,556.0,4591.282051282052,3969.7435897435903,4474.358974358975,4357.435897435898,4234.871794871796,4539.48717948718,4446.666666666667,4491.282051282052,4404.615384615385,4695.384615384616,4367.179487179487,4295.8974358974365,4182.051282051282,4775.384615384616
1144.0144,0.65496427,1.0,0.33333334,0.5522388,0,0.0,0.0,0.0,0.0,0.105519176,0,0,0.0,0.0,0,0,104.0,0.0,51.0,4571.282051282052,3929.2307692307695,4474.871794871796,4365.128205128206,4231.282051282052,4536.923076923077,4460.512820512821,4502.564102564103,4415.8974358974365,4730.256410256411,4368.717948717949,4290.256410256411,4213.846153846154,4684.615384615386
1144.2333,0.65496427,1.0,0.33333334,0.5522388,0,0.0,0.0,0.0,0.0,0.14185363,0,0,0.0,0.0,0,0,3.0,0.0,499.0,4596.923076923077,3968.717948717949,4487.179487179488,4394.358974358975,4247.6923076923085,4553.333333333334,4461.538461538462,4439.48717948718,4382.564102564103,4698.461538461539,4358.461538461539,4294.358974358975,4178.461538461539,4674.871794871796
1144.5148,0.5360101,1.0,0.33333334,0.5522388,0,0.0,0.0,0.0,0.0,0.025383426,0,0,0.0,0.0,0,0,39.0,0.0,0.0,4588.205128205129,3928.205128205129,4488.205128205129,4393.333333333334,4234.871794871796,4539.48717948718,4438.974358974359,4468.717948717949,4404.615384615385,4759.48717948718,4367.179487179487,4295.384615384616,4244.615384615385,4696.923076923077
1144.7338,0.5360101,1.0,0.33333334,0.5522388,0,0.0,0.1586154,0.0,0.0,0.0,0,0,0.0,0.0,0,0,67.0,0.0,499.0,4577.948717948719,3946.1538461538466,4490.769230769231,4413.846153846154,4254.358974358975,4556.923076923077,4475.384615384616,4505.128205128206,4402.564102564103,4724.615384615386,4356.923076923077,4278.461538461539,4147.6923076923085,4593.333333333334
1145.0153,0.46567816,1.0,0.33333334,0.5522388,1,0.0,0.0,0.0,0.0,0.14152755,0,0,0.0,0.0,0,0,103.0,0.0,468.0,4570.256410256411,3928.717948717949,4489.743589743591,4398.974358974359,4235.8974358974365,4540.512820512821,4445.128205128206,4485.128205128206,4392.307692307693,4700.000000000001,4351.282051282052,4265.128205128206,4157.435897435898,4521.025641025642
1145.2341,0.46567816,1.0,0.33333334,0.5522388,0,0.0,0.0,0.0,0.0,0.1955392,0,0,0.0,0.0,0,0,2.0,0.0,455.0,4551.794871794872,3906.666666666667,4470.769230769231,4411.282051282052,4232.820512820514,4537.435897435898,4432.307692307693,4472.307692307693,4395.8974358974365,4718.461538461539,4346.666666666667,4245.641025641026,4152.820512820514,4457.435897435898
1145.5156,0.51408976,1.0,0.33333334,0.5522388,0,0.0,0.0,0.0,0.0,0.07039474,0,0,0.0,0.0,0,0,38.0,0.0,0.0,4566.666666666667,3887.1794871794878,4486.666666666667,4407.6923076923085,4243.589743589744,4544.102564102564,4466.153846153847,4513.846153846154,4394.871794871796,4744.615384615386,4352.820512820514,4274.871794871796,4196.410256410257,4460.512820512821
1145.7346,0.51408976,1.0,0.33333334,0.5522388,0,0.0,0.0,0.0,0.0,0.02090856,0,0,0.0,0.0,0,0,66.0,0.0,455.0,4576.923076923077,3942.0512820512827,4488.205128205129,4416.923076923077,4247.6923076923085,4544.615384615385,4449.743589743591,4490.256410256411,4384.102564102564,4696.410256410257,4345.641025641026,4262.564102564103,4158.461538461539,4486.153846153847
1146.0161,0.5097345,0.9555593,0.33333334,0.5522388,0,0.0,0.0,0.0,0.0,0.035206683,0,0,0.0,0.0,0,0,102.0,0.0,525.0,4592.307692307693,3984.615384615385,4490.256410256411,4427.179487179487,4246.153846153847,4542.564102564103,4452.820512820514,4462.051282051282,4369.2307692307695,4669.743589743591,4345.641025641026,4256.923076923077,4141.538461538462,4502.564102564103
1146.2351,0.5097345,0.9555593,0.33333334,0.5522388,0,0.0,0.0,0.0,0.0,0.022791097,0,0,0.0,0.0,0,0,1.0,0.0,449.0,4577.948717948719,3946.666666666667,4490.769230769231,4452.820512820514,4248.717948717949,4540.000000000001,4444.615384615385,4467.179487179487,4387.6923076923085,4716.410256410257,4349.743589743591,4267.179487179487,4158.461538461539,4490.769230769231
1146.5166,0.5517648,0.9114757,0.33333334,0.5522388,0,0.0,0.0,0.0,0.0,0.2414472,0,0,0.0,0.0,0,0,37.0,0.0,0.0,4431.282051282052,3798.9743589743593,4416.410256410257,4409.743589743591,4230.256410256411,4525.641025641026,4431.794871794872,4445.128205128206,4376.923076923077,4688.205128205129,4330.256410256411,4137.435897435898,4056.410256410257,4324.615384615385
1146.7355,0.5517648,0.9114757,0.33333334,0.5522388,0,0.0,0.0,0.0,0.0,0.12217237,0,0,0.0,0.0,0,0,65.0,0.0,449.0,4462.564102564103,3830.7692307692314,4424.615384615385,4410.769230769231,4231.282051282052,4527.179487179488,4429.2307692307695,4410.769230769231,4366.666666666667,4689.2307692307695,4331.282051282052,4157.948717948719,4076.9230769230776,4345.641025641026
1147.017,0.67261386,0.8638257,0.33333334,0.5522388,0,0.0,0.035064965,0.0,0.0,0.0,0,0,0.0,0.0,0,0,101.0,0.0,495.0,4504.615384615385,3875.3846153846157,4453.846153846154,4452.307692307693,4235.8974358974365,4538.461538461539,4445.641025641026,4411.794871794872,4360.512820512821,4689.2307692307695,4334.871794871796,4195.8974358974365,4112.820512820514,4413.333333333334
1147.236,0.67261386,0.8638257,0.33333334,0.5522388,0,0.0,0.037738997,0.0,0.0,0.0,0,0,0.0,0.0,0,0,0.0,0.0,478.0,4522.564102564103,3895.3846153846157,4454.871794871796,4442.564102564103,4234.871794871796,4537.435897435898,4428.205128205129,4426.153846153847,4383.076923076924,4716.410256410257,4340.512820512821,4207.6923076923085,4134.871794871796,4440.512820512821
1147.5175,0.6529584,0.8176369,0.33333334,0.5522388,0,0.0,0.03937029,0.0,0.0,0.0,0,0,0.0,0.0,0,0,36.0,0.0,0.0,4525.128205128206,3896.410256410257,4445.128205128206,4415.8974358974365,4214.871794871796,4520.512820512821,4427.179487179487,4412.820512820514,4362.051282051282,4684.615384615386,4331.794871794872,4215.384615384616,4135.384615384616,4445.641025641026
1147.7363,0.6529584,0.8176369,0.33333334,0.5522388,0,0.0,0.12120431,0.0,0.0,0.0,0,0,0.0,0.0,0,0,64.0,0.0,478.0,4528.205128205129,3863.076923076924,4443.076923076924,4413.846153846154,4202.051282051282,4507.6923076923085,4428.205128205129,4429.743589743591,4384.102564102564,4724.615384615386,4340.000000000001,4214.871794871796,4172.307692307693,4473.333333333334
1148.0178,0.55382556,0.77061754,0.33333334,0.5522388,0,0.0,0.0,0.0,0.0,0.032813415,0,0,0.0,0.0,0,0,100.0,0.0,51.0,4592.820512820514,3995.8974358974365,4474.358974358975,4442.051282051282,4225.641025641026,4528.205128205129,4418.974358974359,4371.794871794872,4335.384615384616,4676.410256410257,4337.435897435898,4260.000000000001,4193.333333333334,4561.538461538462
1148.2368,0.55382556,0.77061754,0.33333334,0.5522388,0,0.0,0.0,0.0,0.0,0.2348405,0,0,0.0,0.0,1,0,128.0,0.0,51.0,4608.717948717949,3979.48717948718,4497.435897435898,4450.769230769231,4223.589743589744,4521.025641025642,4470.256410256411,4479.48717948718,4370.769230769231,4710.256410256411,4351.282051282052,4309.743589743591,4240.512820512821,4639.48717948718
1148.5183,0.656394,0.72844696,0.33333334,0.5522388,0,0.0,0.0,0.0,0.0,0.15438846,0,0,0.0,0.0,0,0,35.0,0.0,0.0,4714.871794871796,4097.435897435898,4496.410256410257,4490.769230769231,4185.641025641026,4493.333333333334,4467.179487179487,4473.846153846154,4371.794871794872,4715.384615384616,4354.358974358975,4369.2307692307695,4351.282051282052,4696.410256410257
1148.7372,0.656394,0.72844696,0.33333334,0.5522388,0,0.0,0.0,0.0,0.0,0.13848202,0,0,0.0,0.0,0,0,63.0,0.0,0.0,4602.564102564103,3916.410256410257,4444.102564102564,4472.307692307693,4155.384615384616,4478.461538461539,4420.512820512821,4384.102564102564,4347.6923076923085,4703.589743589744,4336.923076923077,4265.128205128206,4216.923076923077,4550.256410256411
1149.0187,0.6239219,0.6904934,0.33333334,0.5522388,0,0.0,0.0,0.0,0.0,0.15620497,1,0,0.0,0.0,1,0,99.0,0.0,471.0,4580.000000000001,3958.461538461539,4460.512820512821,4447.6923076923085,4171.794871794872,4502.051282051282,4426.153846153847,4387.179487179487,4338.461538461539,4682.564102564103,4327.179487179487,4228.717948717949,4136.923076923077,4539.48717948718
1149.2377,0.6239219,0.6904934,0.33333334,0.5522388,0,0.0,0.0,0.0,0.0,0.18961155,1,0,0.0,0.0,0,0,127.0,0.0,471.0,4596.410256410257,3907.1794871794878,4475.384615384616,4421.538461538462,4172.820512820514,4505.641025641026,4446.666666666667,4428.717948717949,4354.358974358975,4721.025641025642,4337.948717948719,4247.6923076923085,4183.076923076924,4485.641025641026
1149.5192,0.5442965,0.65633523,0.33333334,0.5522388,0,0.0,0.0,0.0,0.0,0.32098037,1,0,0.0,0.0,0,0,34.0,0.0,0.0,4668.205128205129,4049.23076923077,4525.128205128206,4457.948717948719,4196.923076923077,4517.435897435898,4408.717948717949,4374.358974358975,4337.435897435898,4661.538461538462,4326.153846153847,4262.051282051282,4153.333333333334,4478.461538461539
1149.738,0.5442965,0.65633523,0.33333334,0.5522388,1,0.0,0.0,0.0,0.0,0.108820826,0,0,0.0,0.0,0,0,62.0,0.0,0.0,4604.102564102564,3892.307692307693,4496.410256410257,4463.076923076924,4192.307692307693,4509.2307692307695,4417.435897435898,4381.538461538462,4352.307692307693,4685.641025641026,4323.076923076924,4221.025641025642,4118.461538461539,4375.384615384616
1150.0195,0.45706794,0.6255929,0.33333334,0.5522388,0,0.0,0.0,0.0,0.0,0.13960558,0,0,0.0,0.0,0,0,98.0,0.0,525.0,4588.717948717949,3875.8974358974365,4490.256410256411,4435.8974358974365,4200.512820512821,4523.589743589744,4424.615384615385,4402.564102564103,4352.307692307693,4690.769230769231,4323.589743589744,4215.8974358974365,4103.076923076924,4316.410256410257
1150.2385,0.45706794,0.6255929,0.33333334,0.5522388,0,0.0,0.0,0.0,0.0,0.10969443,0,0,0.0,0.0,0,0,126.0,0.0,525.0,4560.000000000001,3848.717948717949,4465.128205128206,4427.6923076923085,4197.435897435898,4507.179487179488,4407.6923076923085,4377.948717948719,4352.820512820514,4717.435897435898,4321.538461538462,4214.358974358975,4149.2307692307695,4269.2307692307695
1150.52,0.37412986,0.8751148,0.33333334,0.5522388,0,0.0,0.0,0.0,0.0,0.133463,0,0,0.0,0.0,0,0,33.0,0.0,0.0,4561.538461538462,3876.9230769230776,4467.179487179487,4464.102564102564,4210.769230769231,4521.025641025642,4427.179487179487,4396.923076923077,4364.102564102564,4718.974358974359,4324.102564102564,4227.179487179487,4144.615384615385,4259.48717948718
1150.7389,0.37412986,0.8751148,0.33333334,0.5522388,0,0.0,0.0,0.0,0.0,0.03569019,0,0,0.0,0.0,0,0,61.0,0.0,0.0,4529.2307692307695,3832.820512820513,4432.307692307693,4403.076923076924,4209.2307692307695,4515.384615384616,4414.871794871796,4355.8974358974365,4345.641025641026,4730.256410256411,4320.512820512821,4221.025641025642,4170.769230769231,4239.48717948718
1151.0204,0.3080377,0.80954427,0.33333334,0.5522388,0,0.0,0.0,0.0,0.0,0.061334923,0,0,0.0,0.0,0,0,97.0,0.0,495.0,4548.205128205129,3849.2307692307695,4446.666666666667,4399.48717948718,4211.794871794872,4517.948717948719,4422.564102564103,4387.179487179487,4380.512820512821,4772.307692307693,4334.871794871796,4264.615384615385,4219.48717948718,4314.358974358975
1151.2706,0.3080377,0.80954427,0.33333334,0.5522388,1,0.0,0.0,0.0,0.0,0.0,0,0,0.0,0.0,0,0,0.0,0.0,479.0,4607.179487179488,3984.1025641025644,4478.461538461539,4407.6923076923085,4229.74358974359,4534.871794871796,4464.102564102564,4432.820512820514,4369.2307692307695,4668.205128205129,4324.102564102564,4263.076923076924,4107.6923076923085,4357.435897435898
1151.5209,0.21132828,0.78465474,0.33333334,0.5522388,0,0.0,0.0,0.0,0.0,0.12539352,0,0,0.0,0.0,0,0,32.0,0.0,0.0,4635.8974358974365,4006.1538461538466,4510.256410256411,4418.974358974359,4226.153846153847,4526.666666666667,4428.717948717949,4361.538461538462,4338.461538461539,4669.743589743591,4322.051282051282,4265.641025641026,4108.717948717949,4405.641025641026
1151.7397,0.21132828,0.78465474,0.33333334,0.5522388,0,0.0,0.0,0.0,0.0,0.07953715,0,0,0.0,0.0,0,0,60.0,0.0,0.0,4677.948717948719,4005.1282051282055,4602.564102564103,4424.102564102564,4229.74358974359,4535.384615384616,4425.641025641026,4352.307692307693,4323.076923076924,4702.564102564103,4326.153846153847,4254.358974358975,4121.538461538462,4415.8974358974365
1152.0212,0.2856428,0.79460907,0.33333334,0.5522388,0,0.0,0.0,0.0,0.0,0.08948824,0,0,0.0,0.0,0,0,96.0,0.0,51.0,4732.307692307693,4009.7435897435903,4714.358974358975,4426.666666666667,4232.307692307693,4537.948717948719,4424.615384615385,4369.743589743591,4354.358974358975,4760.000000000001,4338.974358974359,4283.076923076924,4214.358974358975,4475.8974358974365
1152.2402,0.2856428,0.79460907,0.33333334,0.5522388,0,0.0,0.0,0.0,0.0,0.029975861,0,0,0.0,0.0,0,0,124.0,0.0,51.0,4741.538461538462,4037.9487179487182,4734.871794871796,4432.307692307693,4231.282051282052,4550.769230769231,4428.717948717949,4412.820512820514,4356.923076923077,4734.358974358975,4335.8974358974365,4278.461538461539,4174.358974358975,4473.846153846154
1152.5217,0.3084601,0.80374,0.33333334,0.5522388,1,0.0,0.0,0.0,0.0,0.10122951,0,0,0.0,0.0,0,0,31.0,0.0,0.0,4707.179487179488,3980.5128205128212,4712.820512820514,4426.153846153847,4230.769230769231,4549.743589743591,4454.358974358975,4451.794871794872,4369.2307692307695,4749.743589743591,4335.384615384616,4267.6923076923085,4194.871794871796,4462.564102564103
1152.7406,0.3084601,0.80374,0.33333334,0.5522388,0,0.0,0.0,0.0,0.0,0.10389683,0,0,0.0,0.0,0,0,59.0,0.0,0.0,4688.205128205129,3998.9743589743593,4693.846153846154,4445.128205128206,4242.051282051282,4555.8974358974365,4429.743589743591,4402.564102564103,4355.384615384616,4694.358974358975,4325.641025641026,4250.769230769231,4153.846153846154,4474.358974358975
1153.0221,0.3480924,0.81195784,0.33333334,0.5522388,0,0.0,0.0,0.0,0.0,0.09943328,0,0,0.0,0.0,0,0,95.0,0.0,474.0,4634.358974358975,3940.5128205128212,4638.461538461539,4429.743589743591,4239.48717948718,4564.615384615385,4429.2307692307695,4399.48717948718,4351.794871794872,4688.205128205129,4327.179487179487,4244.102564102564,4178.974358974359,4489.743589743591
1153.2411,0.3480924,0.81195784,0.33333334,0.5522388,0,0.0,0.0,0.0,0.0,0.12208747,0,0,0.0,0.0,0,0,123.0,0.0,474.0,4623.589743589744,3951.2820512820517,4601.538461538462,4439.48717948718,4233.333333333334,4556.410256410257,4420.512820512821,4402.051282051282,4352.307692307693,4690.256410256411,4324.615384615385,4251.794871794872,4167.6923076923085,4495.8974358974365
1153.5226,0.31421834,0.81935394,0.33333334,0.5522388,0,0.0,0.0,0.0,0.0,0.0,0,0,0.0,0.0,0,0,30.0,0.0,0.0,4745.128205128206,4166.153846153847,4634.358974358975,4463.076923076924,4245.641025641026,4555.8974358974365,4425.128205128206,4406.153846153847,4334.358974358975,4677.948717948719,4334.358974358975,4369.2307692307695,4302.051282051282,4639.48717948718
1153.7415,0.31421834,0.81935394,0.33333334,0.5522388,0,0.0,0.0,0.0,0.0,0.105807334,0,0,0.0,0.0,0,0,58.0,0.0,0.0,4602.564102564103,3943.589743589744,4554.358974358975,4428.717948717949,4232.820512820514,4553.333333333334,4453.846153846154,4457.948717948719,4356.410256410257,4687.6923076923085,4330.256410256411,4274.358974358975,4167.6923076923085,4457.948717948719
1154.023,0.28090888,0.82601035,0.33333334,0.5522388,0,0.0,0.0,0.0,0.0,0.10124194,0,0,0.0,0.0,0,0,94.0,0.0,525.0,4556.410256410257,3925.6410256410263,4506.666666666667,4418.461538461539,4230.769230769231,4541.538461538462,4444.102564102564,4447.6923076923085,4359.48717948718,4687.179487179488,4324.102564102564,4259.48717948718,4153.333333333334,4505.128205128206
1154.242,0.28090888,0.82601035,0.33333334,0.5522388,0,0.0,0.0,0.0,0.0,0.25199285,0,0,0.0,0.0,0,0,122.0,0.0,525.0,4568.717948717949,3937.9487179487182,4493.333333333334,4423.589743589744,4240.000000000001,4553.333333333334,4461.025641025642,4427.6923076923085,4350.256410256411,4700.000000000001,4325.128205128206,4269.74358974359,4151.794871794872,4561.538461538462
1154.5234,0.3340404,0.72947085,0.33333334,0.5522388,0,0.0,0.0,0.0,0.0,0.1600274,0,0,0.0,0.0,0,0,29.0,0.0,0.0,4591.282051282052,3980.5128205128212,4491.282051282052,4447.179487179487,4247.6923076923085,4554.871794871796,4456.410256410257,4427.6923076923085,4352.307692307693,4704.102564102564,4331.794871794872,4292.820512820514,4158.974358974359,4636.410256410257
1154.7423,0.3340404,0.72947085,0.33333334,0.5522388,0,0.0,0.0,0.0,0.0,0.053239286,0,0,0.0,0.0,0,0,57.0,0.0,0.0,4583.076923076924,3948.717948717949,4462.564102564103,4443.589743589744,4246.666666666667,4553.333333333334,4488.205128205129,4474.871794871796,4363.589743589744,4709.743589743591,4335.384615384616,4275.384615384616,4140.000000000001,4623.589743589744
1155.0238,0.36251777,0.68253225,0.33333334,0.5522388,0,0.0,0.0,0.0,0.0,0.07045485,0,0,0.0,0.0,0,0,93.0,0.0,495.0,4635.384615384616,3988.717948717949,4518.974358974359,4443.076923076924,4256.923076923077,4570.256410256411,4491.794871794872,4470.769230769231,4370.769230769231,4751.282051282052,4344.615384615385,4302.564102564103,4201.538461538462,4681.538461538462
1155.2428,0.36251777,0.68253225,0.33333334,0.5522388,0,0.0,0.0,0.0,0.0,0.04180134,0,0,0.0,0.0,0,0,121.0,0.0,495.0,4652.307692307693,4000.0000000000005,4557.948717948719,4460.000000000001,4267.179487179487,4576.410256410257,4491.282051282052,4478.461538461539,4392.820512820514,4804.615384615386,4355.384615384616,4320.512820512821,4230.769230769231,4655.8974358974365
1155.5243,0.44583696,0.6978545,0.33333334,0.5522388,0,0.0,0.0,0.0,0.0,0.27259108,0,0,0.0,0.0,0,0,28.0,0.0,0.0,4569.743589743591,3942.0512820512827,4499.48717948718,4432.820512820514,4245.128205128206,4554.358974358975,4442.564102564103,4433.333333333334,4389.743589743591,4738.461538461539,4337.948717948719,4227.179487179487,4112.307692307693,4570.769230769231
1155.7432,0.44583696,0.6978545,0.33333334,0.5522388,0,0.0,0.0,0.0,0.0,0.20230767,0,0,0.0,0.0,0,0,56.0,0.0,0.0,4583.076923076924,3944.1025641025644,4494.358974358975,4427.6923076923085,4233.846153846154,4549.743589743591,4440.000000000001,4430.769230769231,4381.025641025642,4716.923076923077,4335.8974358974365,4231.282051282052,4122.051282051282,4661.025641025642
1156.0247,0.42226896,0.6569201,0.33333334,0.5522388,0,0.0,0.0,0.0,0.0,0.10547499,0,0,0.0,0.0,0,0,92.0,0.0,51.0,4588.717948717949,3949.2307692307695,4507.179487179488,4442.564102564103,4235.8974358974365,4542.051282051282,4436.923076923077,4476.923076923077,4390.769230769231,4743.076923076924,4341.025641025642,4250.256410256411,4151.794871794872,4703.589743589744
1156.2437,0.42226896,0.6569201,0.33333334,0.5522388,0,0.0,0.0,0.0,0.0,0.12931572,0,0,0.0,0.0,0,0,120.0,0.0,51.0,4588.205128205129,3957.9487179487182,4500.512820512821,4428.717948717949,4237.948717948719,4547.179487179488,4449.2307692307695,4490.769230769231,4394.358974358975,4713.333333333334,4345.641025641026,4253.846153846154,4152.307692307693,4760.000000000001
1156.5251,0.44464135,0.6195991,0.33333334,0.5522388,1,0.0,0.0,0.0,0.0,0.33612043,0,0,0.0,0.0,0,0,27.0,0.0,0.0,4581.538461538462,3938.9743589743593,4501.025641025642,4422.564102564103,4233.333333333334,4543.589743589744,4461.538461538462,4465.641025641026,4391.282051282052,4743.589743589744,4353.846153846154,4278.461538461539,4191.282051282052,4824.615384615386
1156.7441,0.44464135,0.6195991,0.33333334,0.5522388,0,0.0,0.0,0.0,0.0,0.06575475,0,0,0.0,0.0,0,0,55.0,0.0,0.0,4596.923076923077,3983.076923076924,4494.358974358975,4427.6923076923085,4232.307692307693,4543.589743589744,4456.923076923077,4476.410256410257,4409.743589743591,4730.769230769231,4351.794871794872,4284.102564102564,4196.923076923077,4841.538461538462
1157.0256,0.35592198,0.5860392,0.33333334,0.5522388,0,0.0,0.0,0.0,0.0,0.06228164,0,0,0.0,0.0,0,0,91.0,0.0,464.0,4652.820512820514,4074.8717948717954,4517.435897435898,4448.205128205129,4240.000000000001,4548.205128205129,4457.948717948719,4455.384615384616,4413.846153846154,4731.282051282052,4356.410256410257,4340.000000000001,4246.666666666667,4858.461538461539
1157.2445,0.35592198,0.5860392,0.33333334,0.5522388,0,0.0,0.0,0.0,0.0,0.15000929,0,0,0.0,0.0,0,0,119.0,0.0,464.0,4567.179487179488,3976.410256410257,4462.564102564103,4446.153846153847,4244.102564102564,4544.102564102564,4438.974358974359,4423.076923076924,4377.435897435898,4717.948717948719,4343.589743589744,4266.153846153847,4145.128205128206,4711.282051282052
1157.526,0.40106282,0.55583525,0.33333334,0.5522388,0,0.0,0.0,0.0,0.0,0.23523866,0,0,0.0,0.0,0,0,26.0,0.0,0.0,4572.820512820514,3942.564102564103,4458.974358974359,4428.717948717949,4244.615384615385,4542.564102564103,4441.025641025642,4425.641025641026,4395.8974358974365,4735.8974358974365,4346.153846153847,4268.717948717949,4156.923076923077,4650.769230769231
1157.745,0.40106282,0.55583525,0.33333334,0.5522388,0,0.0,0.0,0.0,0.0,0.20712578,0,0,0.0,0.0,0,0,54.0,0.0,0.0,4552.820512820514,3861.538461538462,4444.615384615385,4406.666666666667,4232.820512820514,4537.948717948719,4463.589743589744,4456.410256410257,4412.820512820514,4783.076923076924,4352.820512820514,4257.435897435898,4240.512820512821,4576.410256410257
1157.87,0.40106282,0.55583525,0.33333334,0.5522388,0,0.0,0.0,0.0,0.0,0.30954662,0,0,0.0,0.0,0,0,70.0,0.0,552.0,4570.769230769231,3845.6410256410263,4472.820512820514,4412.820512820514,4230.769230769231,4537.435897435898,4441.538461538462,4442.564102564103,4413.333333333334,4795.384615384616,4356.923076923077,4251.794871794872,4252.820512820514,4555.384615384616
1158.1515,0.3126272,0.52865165,0.33333334,0.5522388,0,0.0,0.0,0.0,0.0,0.27964622,0,0,0.0,0.0,1,0,121.0,0.0,495.0,4645.128205128206,4005.1282051282055,4549.743589743591,4445.641025641026,4244.102564102564,4546.666666666667,4445.128205128206,4462.051282051282,4412.820512820514,4741.025641025642,4363.076923076924,4277.435897435898,4205.641025641026,4797.948717948719
1158.4017,0.3126272,0.52865165,0.33333334,0.5522388,0,0.0,0.0,0.0,0.0,0.8556683,0,0,0.0,0.0,0,1,24.0,0.0,0.0,4574.871794871796,3926.666666666667,4503.076923076924,4442.051282051282,4215.8974358974365,4522.564102564103,4414.871794871796,4410.256410256411,4381.538461538462,4660.512820512821,4344.615384615385,4213.846153846154,4123.076923076924,4905.128205128206
1158.6207,0.2710972,0.5041865,0.33333334,0.5522388,0,0.0,0.0,0.0,0.0,0.5650235,0,0,0.0,0.0,0,0,52.0,0.0,0.0,4709.743589743591,4072.820512820513,4560.000000000001,4455.8974358974365,4234.358974358975,4555.8974358974365,4440.512820512821,4398.461538461539,4382.564102564103,4680.512820512821,4343.589743589744,4311.282051282052,4233.846153846154,4868.205128205129
1158.8708,0.2710972,0.5041865,0.33333334,0.5522388,0,0.0,0.0,0.0,0.0,0.5033487,0,0,0.0,0.0,0,0,84.0,0.0,51.0,4655.8974358974365,3881.0256410256416,4485.641025641026,4412.820512820514,4208.205128205129,4553.846153846154,4431.282051282052,4383.076923076924,4379.48717948718,4678.461538461539,4337.435897435898,4236.923076923077,4166.153846153847,4710.769230769231
1159.1211,0.27501824,0.92459136,0.33333334,0.5522388,0,0.0,0.0,0.0,0.0,0.08738836,0,0,0.0,0.0,0,0,116.0,0.0,51.0,4662.051282051282,3853.8461538461543,4467.179487179487,4377.948717948719,4202.564102564103,4552.820512820514,4456.410256410257,4427.179487179487,4381.538461538462,4671.282051282052,4337.948717948719,4253.333333333334,4187.6923076923085,4685.641025641026
1159.3792,0.27501824,0.92459136,0.33333334,0.5522388,0,0.0,0.0,0.0,0.0,0.07052121,0,0,0.0,0.0,0,0,19.0,0.0,0.0,4694.871794871796,3888.717948717949,4483.076923076924,4380.512820512821,4204.615384615385,4541.538461538462,4495.384615384616,4417.435897435898,4370.256410256411,4636.923076923077,4333.846153846154,4278.461538461539,4188.205128205129,4636.410256410257
1159.6606,0.2748013,1.0,0.33333334,0.5522388,0,0.0,0.0,0.0,0.0,0.26673508,0,0,0.0,0.0,0,0,55.0,0.0,0.0,4671.282051282052,3849.2307692307695,4475.384615384616,4384.102564102564,4212.307692307693,4542.564102564103,4512.820512820514,4458.974358974359,4390.769230769231,4671.794871794872,4334.358974358975,4281.025641025642,4201.538461538462,4485.641025641026
1159.8796,0.2748013,1.0,0.33333334,0.5522388,0,0.0,0.0,0.0,0.0,0.28558403,0,0,0.0,0.0,0,0,83.0,0.0,464.0,4812.820512820514,4088.205128205129,4543.076923076924,4461.538461538462,4219.48717948718,4541.025641025642,4506.666666666667,4425.641025641026,4369.2307692307695,4661.025641025642,4340.512820512821,4384.615384615385,4271.282051282052,4589.2307692307695
1160.1298,0.27100602,1.0,0.33333334,0.5522388,0,0.0,0.0,0.0,0.0,0.3318415,0,0,0.0,0.0,0,0,115.0,0.0,464.0,4531.794871794872,3754.8717948717954,4431.282051282052,4410.256410256411,4217.435897435898,4524.102564102564,4487.179487179488,4450.256410256411,4399.48717948718,4697.948717948719,4333.846153846154,4204.102564102564,4115.384615384616,4205.128205128206
1160.38,0.27100602,1.0,0.33333334,0.5522388,0,0.0,0.0,0.0,0.0,0.2625031,0,0,0.0,0.0,0,0,18.0,0.0,0.0,4548.717948717949,3882.564102564103,4502.564102564103,4413.846153846154,4266.666666666667,4555.384615384616,4524.102564102564,4509.2307692307695,4411.282051282052,4737.435897435898,4362.051282051282,4275.8974358974365,4153.333333333334,4333.846153846154
1160.6302,0.4045739,1.0,0.33333334,0.5522388,0,0.0,0.0,0.0,0.0,0.57809085,0,0,0.0,0.0,0,0,50.0,0.0,0.0,4606.666666666667,3923.076923076924,4491.794871794872,4429.2307692307695,4245.128205128206,4523.076923076924,4488.717948717949,4494.871794871796,4416.410256410257,4747.6923076923085,4390.256410256411,4322.051282051282,4247.6923076923085,4510.256410256411
1160.8805,0.4045739,1.0,0.33333334,0.5522388,0,0.0,0.0,0.0,0.0,0.3734334,0,0,0.0,0.0,0,0,82.0,0.0,525.0,4602.051282051282,3909.7435897435903,4457.948717948719,4437.948717948719,4221.025641025642,4510.769230769231,4480.512820512821,4507.6923076923085,4425.641025641026,4764.102564102564,4387.179487179487,4313.333333333334,4268.205128205129,4538.974358974359
1161.1306,0.42663667,1.0,0.33333334,0.5522388,1,0.0,0.0,0.0,0.0,0.110775255,0,0,0.0,0.0,0,0,114.0,0.0,525.0,4643.589743589744,3924.1025641025644,4369.2307692307695,4413.846153846154,4202.051282051282,4489.743589743591,4413.333333333334,4387.6923076923085,4385.128205128206,4696.923076923077,4348.717948717949,4232.820512820514,4193.846153846154,4552.820512820514
1161.3809,0.42663667,1.0,0.33333334,0.5522388,0,0.0,0.0,0.0,0.0,0.16252357,0,0,0.0,0.0,0,0,17.0,0.0,0.0,4734.358974358975,3896.410256410257,4316.923076923077,4358.974358974359,4187.179487179487,4492.820512820514,4442.564102564103,4318.461538461539,4369.743589743591,4635.8974358974365,4326.666666666667,4169.2307692307695,4092.307692307693,4461.538461538462
1161.6311,0.49808386,1.0,0.33333334,0.5522388,0,0.0,0.0,0.0,0.0,0.26429722,0,0,0.0,0.0,0,0,49.0,0.0,0.0,4911.282051282052,4165.641025641026,4406.666666666667,4411.794871794872,4201.025641025642,4524.615384615385,4429.2307692307695,4350.769230769231,4363.589743589744,4658.974358974359,4331.794871794872,4311.282051282052,4234.871794871796,4645.128205128206
1161.8813,0.49808386,1.0,0.33333334,0.5522388,0,0.0,0.0,0.0,0.0,0.121113144,0,0,0.0,0.0,1,0,81.0,0.0,495.0,4734.358974358975,3911.2820512820517,4337.435897435898,4387.179487179487,4214.358974358975,4526.666666666667,4441.025641025642,4416.923076923077,4382.564102564103,4703.076923076924,4330.769230769231,4215.8974358974365,4114.871794871796,4487.6923076923085
1162.1315,0.58984464,1.0,0.33333334,0.5522388,0,0.0,0.0,0.0,0.0,0.19293286,0,0,0.0,0.0,0,0,113.0,0.0,495.0,4688.717948717949,3924.615384615385,4344.615384615385,4389.743589743591,4239.48717948718,4550.256410256411,4446.153846153847,4402.051282051282,4380.512820512821,4699.48717948718,4324.615384615385,4216.410256410257,4092.820512820513,4488.717948717949
1162.3817,0.58984464,1.0,0.33333334,0.5522388,0,0.0,0.0,0.0,0.0,0.2879122,0,0,0.0,0.0,0,0,16.0,0.0,0.0,4676.923076923077,3946.666666666667,4368.717948717949,4398.461538461539,4247.6923076923085,4553.333333333334,4457.435897435898,4431.282051282052,4398.461538461539,4729.2307692307695,4329.743589743591,4241.025641025642,4146.666666666667,4510.769230769231
1162.632,0.5820153,1.0,0.33333334,0.5522388,0,0.0,0.0,0.0,0.0,0.51425683,0,0,0.0,0.0,0,0,48.0,0.0,0.0,4646.153846153847,3953.333333333334,4371.282051282052,4383.589743589744,4247.179487179487,4541.538461538462,4445.641025641026,4428.717948717949,4395.8974358974365,4726.153846153847,4327.6923076923085,4236.410256410257,4127.179487179487,4522.564102564103
1162.8822,0.5820153,1.0,0.33333334,0.5522388,0,0.0,0.0,0.0,0.0,0.06979441,0,0,0.0,0.0,0,0,80.0,0.0,51.0,4714.358974358975,4062.564102564103,4424.102564102564,4395.8974358974365,4261.538461538462,4561.538461538462,4446.153846153847,4415.384615384616,4385.128205128206,4695.8974358974365,4323.076923076924,4280.000000000001,4131.282051282052,4580.000000000001
1163.1323,0.55605906,1.0,0.33333334,0.5522388,0,0.0,0.0,0.0,0.0,0.14490418,0,0,0.0,0.0,1,0,112.0,0.0,51.0,4581.538461538462,3902.564102564103,4382.564102564103,4372.307692307693,4246.153846153847,4553.333333333334,4429.2307692307695,4401.538461538462,4374.871794871796,4703.076923076924,4314.871794871796,4170.769230769231,4052.820512820513,4407.179487179487
1163.3826,0.55605906,1.0,0.33333334,0.5522388,0,0.0,0.0,0.0,0.0,0.22867581,0,0,0.0,0.0,0,0,15.0,0.0,471.0,4552.307692307693,3861.0256410256416,4411.794871794872,4381.538461538462,4249.2307692307695,4555.8974358974365,4432.307692307693,4406.153846153847,4383.589743589744,4693.846153846154,4305.128205128206,4152.307692307693,4013.8461538461543,4392.820512820514
1163.6328,0.59736,1.0,0.33333334,0.5522388,0,0.0,0.0,0.0,0.0,0.14331727,0,0,0.0,0.0,0,0,47.0,0.0,0.0,4576.923076923077,3877.9487179487182,4449.743589743591,4388.717948717949,4263.589743589744,4567.179487179488,4434.871794871796,4413.333333333334,4387.179487179487,4723.076923076924,4310.256410256411,4200.512820512821,4059.48717948718,4461.025641025642
1163.883,0.59736,1.0,0.33333334,0.5522388,0,0.0,0.0,0.0,0.0,0.377773,0,0,0.0,0.0,0,0,79.0,0.0,471.0,4599.48717948718,3874.8717948717954,4466.666666666667,4397.435897435898,4263.076923076924,4566.666666666667,4447.6923076923085,4415.8974358974365,4394.871794871796,4729.743589743591,4315.8974358974365,4229.2307692307695,4117.948717948719,4546.666666666667
1164.1333,0.70503205,1.0,0.33333334,0.5522388,0,0.0,0.0,0.0,0.0,0.36102498,0,0,0.0,0.0,0,0,111.0,0.0,471.0,4672.307692307693,3924.615384615385,4504.615384615385,4391.794871794872,4263.076923076924,4568.717948717949,4472.307692307693,4424.615384615385,4389.743589743591,4744.615384615386,4324.102564102564,4320.000000000001,4212.307692307693,4668.717948717949
1164.3834,0.70503205,1.0,0.33333334,0.5522388,0,0.0,0.0,0.0,0.0,0.16963384,0,0,0.0,0.0,0,0,14.0,0.0,525.0,4683.076923076924,3908.205128205129,4505.128205128206,4396.923076923077,4264.615384615385,4571.282051282052,4492.307692307693,4462.051282051282,4413.846153846154,4776.923076923077,4337.948717948719,4350.256410256411,4280.512820512821,4646.666666666667
1164.6337,0.6282724,1.0,0.33333334,0.5522388,0,0.0,0.0,0.0,0.0,0.07896466,0,0,0.0,0.0,0,0,46.0,0.0,0.0,4654.871794871796,3926.666666666667,4474.871794871796,4393.846153846154,4265.128205128206,4571.794871794872,4490.769230769231,4441.025641025642,4390.769230769231,4718.974358974359,4326.153846153847,4320.000000000001,4195.384615384616,4631.282051282052
1164.8839,0.6282724,1.0,0.33333334,0.5522388,0,0.0,0.0,0.0,0.0,0.124450795,0,0,0.0,0.0,0,0,78.0,0.0,525.0,4648.717948717949,3898.461538461539,4465.128205128206,4398.461538461539,4261.025641025642,4569.2307692307695,4496.923076923077,4450.769230769231,4409.743589743591,4763.589743589744,4336.410256410257,4341.538461538462,4277.435897435898,4651.282051282052
1165.1342,0.6184928,1.0,0.33333334,0.5522388,0,0.0,0.0,0.0,0.0,0.1202356,0,0,0.0,0.0,0,0,110.0,0.0,525.0,4631.794871794872,3925.1282051282055,4443.076923076924,4404.102564102564,4264.102564102564,4569.2307692307695,4486.666666666667,4427.179487179487,4395.384615384616,4714.871794871796,4326.153846153847,4307.179487179487,4206.153846153847,4604.615384615385
1165.3843,0.6184928,1.0,0.33333334,0.5522388,0,0.0,0.0,0.0,0.0,0.1982763,0,0,0.0,0.0,0,0,13.0,0.0,495.0,4612.307692307693,3911.7948717948725,4430.769230769231,4405.641025641026,4261.538461538462,4569.2307692307695,4488.205128205129,4425.641025641026,4401.538461538462,4732.820512820514,4328.205128205129,4294.871794871796,4228.717948717949,4572.307692307693
1165.6345,0.552192,1.0,0.33333334,0.5522388,0,0.0,0.0,0.0,0.0,0.30443496,0,0,0.0,0.0,0,0,45.0,0.0,0.0,4629.743589743591,3910.7692307692314,4434.358974358975,4412.307692307693,4264.102564102564,4572.820512820514,4495.384615384616,4431.794871794872,4402.051282051282,4734.871794871796,4333.846153846154,4306.153846153847,4270.769230769231,4555.8974358974365
1165.8848,0.552192,1.0,0.33333334,0.5522388,0,0.0,0.0,0.0,0.0,0.4213754,0,0,0.0,0.0,0,0,77.0,0.0,495.0,4615.384615384616,3932.307692307693,4440.000000000001,4422.564102564103,4263.076923076924,4572.307692307693,4476.410256410257,4420.512820512821,4395.384615384616,4728.717948717949,4331.794871794872,4290.769230769231,4265.128205128206,4501.538461538462
1166.135,0.45920244,1.0,0.33333334,0.5522388,0,0.0,0.0,0.0,0.0,0.3083744,0,0,0.0,0.0,0,0,109.0,0.0,495.0,4642.051282051282,3949.2307692307695,4445.128205128206,4419.48717948718,4266.153846153847,4573.333333333334,4478.974358974359,4424.615384615385,4404.102564102564,4742.564102564103,4332.820512820514,4320.512820512821,4329.743589743591,4512.307692307693
1166.3851,0.45920244,1.0,0.33333334,0.5522388,0,0.0,0.0,0.0,0.0,0.07213137,0,0,0.0,0.0,0,0,12.0,0.0,51.0,4633.333333333334,3928.205128205129,4440.000000000001,4412.307692307693,4262.564102564103,4570.256410256411,4477.948717948719,4427.6923076923085,4395.384615384616,4742.051282051282,4334.358974358975,4309.743589743591,4327.6923076923085,4487.6923076923085
1166.5415,0.48047352,1.0,0.33333334,0.5522388,0,0.0,0.0,0.0,0.0,0.0,0,0,0.0,0.0,0,0,32.0,0.0,0.0,4656.410256410257,3946.666666666667,4458.461538461539,4428.717948717949,4273.846153846154,4579.48717948718,4492.820512820514,4438.461538461539,4401.025641025642,4750.769230769231,4341.538461538462,4334.358974358975,4339.48717948718,4493.846153846154
1166.5415,0.48047352,1.0,0.33333334,0.5522388,0,0.0,0.0,0.0,0.0,0.0,0,0,0.0,0.0,0,0,32.0,0.0,0.0,4656.410256410257,3946.666666666667,4458.461538461539,4428.717948717949,4273.846153846154,4579.48717948718,4492.820512820514,4438.461538461539,4401.025641025642,4750.769230769231,4341.538461538462,4334.358974358975,4339.48717948718,4493.846153846154
1167.042,0.51445067,1.0,0.33333334,0.5522388,0,0.0,0.0,0.0,0.0,0.0,0,0,0.0,0.0,0,0,96.0,0.0,51.0,4615.384615384616,3942.0512820512827,4428.717948717949,4441.025641025642,4250.256410256411,4575.8974358974365,4472.820512820514,4409.2307692307695,4394.358974358975,4703.076923076924,4329.743589743591,4279.48717948718,4263.076923076924,4395.384615384616
1167.386,0.51445067,1.0,0.33333334,0.5522388,0,0.0,0.0,0.0,0.0,0.045075335,0,0,0.0,0.0,0,0,11.0,0.0,470.0,4633.846153846154,3926.1538461538466,4449.743589743591,4443.589743589744,4252.820512820514,4578.974358974359,4478.461538461539,4431.282051282052,4403.076923076924,4748.717948717949,4342.051282051282,4311.282051282052,4328.205128205129,4396.410256410257
1167.6362,0.54446447,1.0,0.33333334,0.5522388,1,0.0,0.0,0.0,0.0,0.15771665,0,0,0.0,0.0,0,0,43.0,0.0,0.0,4669.743589743591,3953.8461538461543,4469.743589743591,4438.974358974359,4251.282051282052,4573.333333333334,4493.846153846154,4453.846153846154,4411.794871794872,4751.794871794872,4349.2307692307695,4327.179487179487,4336.410256410257,4432.307692307693
1167.8865,0.54446447,1.0,0.33333334,0.5522388,0,0.0,0.0,0.0,0.0,0.1381509,0,0,0.0,0.0,0,0,75.0,0.0,470.0,4643.589743589744,3940.0000000000005,4448.205128205129,4425.641025641026,4246.153846153847,4565.641025641026,4474.871794871796,4422.564102564103,4394.871794871796,4690.769230769231,4335.384615384616,4262.564102564103,4227.179487179487,4372.820512820514
1168.1367,0.5915785,1.0,0.33333334,0.5522388,0,0.0,0.0,0.0,0.0,0.13229755,0,0,0.0,0.0,0,0,107.0,0.0,470.0,4621.538461538462,3957.9487179487182,4489.743589743591,4437.948717948719,4265.641025641026,4573.846153846154,4457.948717948719,4397.435897435898,4382.564102564103,4680.512820512821,4325.641025641026,4233.333333333334,4162.051282051282,4342.051282051282
1168.3868,0.5915785,1.0,0.33333334,0.5522388,0,0.0,0.0,0.0,0.0,0.055080168,0,0,0.0,0.0,0,0,10.0,0.0,525.0,4687.179487179488,3940.0000000000005,4615.8974358974365,4420.512820512821,4257.435897435898,4570.769230769231,4461.025641025642,4457.948717948719,4416.410256410257,4766.153846153847,4342.051282051282,4271.794871794872,4247.179487179487,4388.717948717949
1168.6371,0.5725773,1.0,0.33333334,0.5522388,0,0.0,0.0,0.0,0.0,0.0,0,0,0.0,0.0,0,0,42.0,0.0,0.0,4761.025641025642,3959.48717948718,4704.102564102564,4413.333333333334,4261.025641025642,4577.948717948719,4475.384615384616,4477.435897435898,4421.538461538462,4768.717948717949,4353.333333333334,4308.717948717949,4287.179487179487,4451.794871794872
1168.6371,0.5725773,1.0,0.33333334,0.5522388,0,0.0,0.0,0.0,0.0,0.0,0,0,0.0,0.0,0,0,42.0,0.0,0.0,4761.025641025642,3959.48717948718,4704.102564102564,4413.333333333334,4261.025641025642,4577.948717948719,4475.384615384616,4477.435897435898,4421.538461538462,4768.717948717949,4353.333333333334,4308.717948717949,4287.179487179487,4451.794871794872
1169.0437,0.58226776,0.9608538,0.33333334,0.5522388,0,0.0,0.0,0.0,0.0,0.0,0,0,0.0,0.0,0,0,94.0,0.0,525.0,4779.48717948718,3923.076923076924,4728.717948717949,4407.6923076923085,4258.461538461539,4579.48717948718,4473.333333333334,4456.410256410257,4410.256410256411,4721.538461538462,4349.743589743591,4295.384615384616,4264.102564102564,4444.102564102564
1169.0437,0.58226776,0.9608538,0.33333334,0.5522388,0,0.0,0.0,0.0,0.0,0.0,0,0,0.0,0.0,0,0,94.0,0.0,525.0,4779.48717948718,3923.076923076924,4728.717948717949,4407.6923076923085,4258.461538461539,4579.48717948718,4473.333333333334,4456.410256410257,4410.256410256411,4721.538461538462,4349.743589743591,4295.384615384616,4264.102564102564,4444.102564102564
1169.638,0.62366116,0.8659033,0.33333334,0.5522388,0,0.0,0.0,0.0,0.0,0.039066598,0,0,0.0,0.0,0,0,41.0,0.0,0.0,4707.179487179488,3802.0512820512827,4663.076923076924,4366.666666666667,4247.6923076923085,4568.205128205129,4458.461538461539,4412.307692307693,4380.000000000001,4622.051282051282,4331.282051282052,4266.153846153847,4189.2307692307695,4391.282051282052
1169.8882,0.62366116,0.8659033,0.33333334,0.5522388,0,0.0,0.0,0.0,0.0,0.072904125,0,0,0.0,0.0,0,0,73.0,0.0,481.0,4681.025641025642,3782.564102564103,4618.461538461539,4366.153846153847,4245.641025641026,4556.410256410257,4460.000000000001,4442.564102564103,4381.538461538462,4645.128205128206,4331.794871794872,4264.102564102564,4173.846153846154,4434.358974358975
1170.1384,0.64308715,0.794441,0.33333334,0.5522388,0,0.0,0.0,0.0,0.0,0.72479314,0,0,0.0,0.0,0,0,105.0,0.0,495.0,4676.923076923077,3763.076923076924,4587.6923076923085,4363.076923076924,4248.717948717949,4555.8974358974365,4490.769230769231,4491.282051282052,4402.564102564103,4707.179487179488,4346.153846153847,4310.769230769231,4242.051282051282,4503.589743589744
1170.3887,0.64308715,0.794441,0.33333334,0.5522388,0,0.0,0.0,0.0,0.0,0.1845744,0,0,0.0,0.0,0,0,8.0,0.0,375.0,4651.282051282052,3786.1538461538466,4546.666666666667,4368.717948717949,4233.846153846154,4542.051282051282,4493.333333333334,4503.589743589744,4413.333333333334,4720.512820512821,4348.205128205129,4326.153846153847,4262.564102564103,4497.435897435898
1170.6388,0.6288699,0.7140925,0.33333334,0.5522388,0,0.0,0.0,0.0,0.0,0.14258707,0,0,0.0,0.0,0,0,40.0,0.0,0.0,4611.282051282052,3845.1282051282055,4489.743589743591,4387.6923076923085,4248.205128205129,4545.641025641026,4445.641025641026,4441.025641025642,4379.48717948718,4657.948717948719,4331.282051282052,4270.769230769231,4116.923076923077,4423.076923076924
1170.889,0.6288699,0.7140925,0.33333334,0.5522388,0,0.0,0.0,0.0,0.0,0.289088,0,0,0.0,0.0,0,0,72.0,0.0,375.0,4584.102564102564,3830.7692307692314,4446.153846153847,4382.051282051282,4245.128205128206,4545.128205128206,4458.461538461539,4438.974358974359,4372.820512820514,4669.743589743591,4330.256410256411,4261.538461538462,4108.205128205129,4361.538461538462
1171.1393,0.62397176,0.6099588,0.33333334,0.5522388,0,0.0,0.0,0.0,0.0,0.7968535,0,0,0.0,0.0,0,0,104.0,0.0,51.0,4583.589743589744,3855.8974358974365,4433.846153846154,4394.871794871796,4250.769230769231,4548.717948717949,4458.974358974359,4445.128205128206,4375.384615384616,4682.564102564103,4330.256410256411,4264.102564102564,4087.692307692308,4293.333333333334
1171.3895,0.62397176,0.6099588,0.33333334,0.5522388,0,0.0,0.0,0.0,0.0,1.0,0,0,0.0,0.0,0,0,7.0,0.0,466.0,4583.076923076924,3879.48717948718,4417.948717948719,4414.871794871796,4261.538461538462,4555.8974358974365,4456.923076923077,4430.769230769231,4381.025641025642,4696.410256410257,4329.2307692307695,4264.102564102564,4104.102564102564,4237.435897435898
1171.6396,0.5499871,0.52441,0.33333334,0.5522388,0,0.0,0.0,0.0,0.0,0.92087305,0,0,0.0,0.0,0,0,39.0,0.0,0.0,4557.948717948719,3877.9487179487182,4396.923076923077,4409.743589743591,4254.871794871796,4555.384615384616,4448.205128205129,4427.6923076923085,4381.025641025642,4712.307692307693,4330.256410256411,4261.538461538462,4106.153846153847,4225.641025641026
1171.8899,0.5499871,0.52441,0.33333334,0.5522388,0,0.0,0.0,0.0,0.0,0.17179799,0,0,0.0,0.0,0,0,71.0,0.0,466.0,4556.923076923077,3910.7692307692314,4394.871794871796,4423.589743589744,4263.076923076924,4557.435897435898,4442.051282051282,4413.333333333334,4382.051282051282,4708.717948717949,4328.717948717949,4267.6923076923085,4122.564102564103,4278.974358974359
1172.1401,0.50942284,0.4629754,0.33333334,0.5522388,0,0.0,0.0,0.0,0.0,0.37660784,0,0,0.0,0.0,0,0,103.0,0.0,470.0,4553.846153846154,3928.205128205129,4382.051282051282,4430.769230769231,4265.128205128206,4564.102564102564,4449.2307692307695,4421.538461538462,4390.256410256411,4720.000000000001,4332.820512820514,4265.128205128206,4125.128205128206,4313.333333333334
1172.3904,0.50942284,0.4629754,0.33333334,0.5522388,0,0.0,0.0,0.0,0.0,0.24419574,0,0,0.0,0.0,0,0,6.0,0.0,551.0,4585.641025641026,4006.1538461538466,4395.8974358974365,4450.769230769231,4273.846153846154,4569.743589743591,4451.794871794872,4412.307692307693,4378.974358974359,4729.2307692307695,4331.794871794872,4279.48717948718,4151.794871794872,4376.410256410257
1172.6405,0.5915625,0.4135929,0.33333334,0.5522388,0,0.0,0.0,0.0,0.0,0.15232307,0,0,0.0,0.0,1,0,38.0,0.0,0.0,4555.8974358974365,3957.435897435898,4375.8974358974365,4442.564102564103,4255.384615384616,4554.871794871796,4443.076923076924,4415.384615384616,4378.461538461539,4739.48717948718,4337.948717948719,4255.8974358974365,4146.666666666667,4365.641025641026
1172.8907,0.5915625,0.4135929,0.33333334,0.5522388,0,0.0,0.0,0.0,0.0,0.13601622,0,0,0.0,0.0,0,0,70.0,0.0,551.0,4526.666666666667,3934.358974358975,4372.820512820514,4443.589743589744,4262.564102564103,4555.8974358974365,4458.461538461539,4426.153846153847,4384.102564102564,4756.923076923077,4338.974358974359,4246.666666666667,4141.025641025642,4368.205128205129
1173.141,0.55820996,0.3992091,0.33333334,0.5522388,0,0.0,0.0,0.0,0.0,0.081556536,0,0,0.0,0.0,0,0,102.0,0.0,525.0,4532.307692307693,3928.717948717949,4380.000000000001,4442.051282051282,4259.48717948718,4553.333333333334,4453.846153846154,4408.205128205129,4382.564102564103,4751.282051282052,4333.846153846154,4237.435897435898,4135.8974358974365,4381.025641025642
1173.3912,0.55820996,0.3992091,0.33333334,0.5522388,0,0.0,0.0,0.0,0.0,0.0,0,0,0.0,0.0,0,0,5.0,0.0,552.0,4540.000000000001,3923.589743589744,4403.076923076924,4425.641025641026,4249.74358974359,4547.179487179488,4455.8974358974365,4409.2307692307695,4380.000000000001,4732.307692307693,4330.256410256411,4245.641025641026,4130.256410256411,4401.025641025642
1173.5476,0.5533745,0.40085426,0.33333334,0.5522388,0,0.0,0.0,0.0,0.0,0.0,0,0,0.0,0.0,0,0,25.0,0.0,0.0,4576.923076923077,3945.6410256410263,4449.743589743591,4430.769230769231,4256.410256410257,4556.410256410257,4481.538461538462,4482.564102564103,4417.435897435898,4805.641025641026,4352.307692307693,4288.717948717949,4232.820512820514,4457.435897435898
1173.5476,0.5533745,0.40085426,0.33333334,0.5522388,0,0.0,0.0,0.0,0.0,0.0,0,0,0.0,0.0,0,0,25.0,0.0,0.0,4576.923076923077,3945.6410256410263,4449.743589743591,4430.769230769231,4256.410256410257,4556.410256410257,4481.538461538462,4482.564102564103,4417.435897435898,4805.641025641026,4352.307692307693,4288.717948717949,4232.820512820514,4457.435897435898
1174.048,0.6016185,0.42535242,0.33333334,0.5522388,0,0.0,0.0,0.0,0.0,0.0,0,0,0.0,0.0,0,0,89.0,0.0,495.0,4641.538461538462,3916.9230769230776,4609.2307692307695,4409.743589743591,4260.512820512821,4569.2307692307695,4491.282051282052,4494.871794871796,4429.743589743591,4833.333333333334,4364.615384615385,4326.153846153847,4285.128205128206,4509.743589743591
1174.3921,0.6016185,0.42535242,0.33333334,0.5522388,0,0.0,0.0,0.0,0.0,0.042894248,0,0,0.0,0.0,0,0,4.0,0.0,556.0,4612.307692307693,3943.589743589744,4607.179487179488,4420.000000000001,4261.538461538462,4568.205128205129,4452.820512820514,4432.307692307693,4383.589743589744,4741.538461538462,4344.615384615385,4249.2307692307695,4171.282051282052,4472.820512820514
1174.6423,0.59684676,0.40736,0.33333334,0.5522388,0,0.0,0.0,0.0,0.0,0.20718926,0,0,0.0,0.0,0,0,36.0,0.0,0.0,4594.871794871796,3901.538461538462,4602.564102564103,4406.153846153847,4250.769230769231,4558.461538461539,4449.743589743591,4428.717948717949,4372.307692307693,4695.8974358974365,4338.974358974359,4220.000000000001,4130.256410256411,4413.846153846154
1174.7673,0.59684676,0.40736,0.33333334,0.5522388,0,0.0,0.0,0.0,0.0,0.0,0,0,0.0,0.0,0,0,52.0,0.0,0.0,4630.769230769231,3911.2820512820517,4612.820512820514,4406.153846153847,4247.6923076923085,4557.435897435898,4451.282051282052,4431.794871794872,4384.102564102564,4713.846153846154,4341.025641025642,4249.2307692307695,4156.923076923077,4410.256410256411
1175.1427,0.53917176,0.40275577,0.33333334,0.5522388,0,0.0,0.0,0.0,0.0,0.24505344,0,0,0.0,0.0,0,0,100.0,0.0,51.0,4715.8974358974365,3870.7692307692314,4672.307692307693,4384.615384615385,4234.358974358975,4566.153846153847,4488.205128205129,4474.871794871796,4412.307692307693,4771.794871794872,4358.461538461539,4311.794871794872,4279.48717948718,4457.435897435898
1175.393,0.53917176,0.40275577,0.33333334,0.5522388,0,0.0,0.0,0.0,0.0,0.4715094,0,0,0.0,0.0,0,0,3.0,0.0,499.0,4763.589743589744,3877.435897435898,4705.641025641026,4390.769230769231,4227.179487179487,4568.717948717949,4498.461538461539,4500.000000000001,4426.153846153847,4751.282051282052,4364.615384615385,4312.307692307693,4292.820512820514,4433.333333333334
1175.6432,0.47179532,0.40114304,0.33333334,0.5522388,0,0.0,0.0,0.0,0.0,0.14845596,0,0,0.0,0.0,0,0,35.0,0.0,0.0,4778.974358974359,3867.1794871794878,4711.794871794872,4386.666666666667,4198.974358974359,4554.358974358975,4511.282051282052,4486.666666666667,4411.794871794872,4705.641025641026,4361.025641025642,4324.615384615385,4298.461538461539,4425.641025641026
1175.7996,0.47179532,0.40114304,0.33333334,0.5522388,0,0.0,0.0,0.0,0.0,0.0,0,0,0.0,0.0,0,1,55.0,0.0,0.0,4792.820512820514,3828.205128205129,4719.48717948718,4381.538461538462,4184.615384615385,4546.666666666667,4542.564102564103,4536.410256410257,4431.282051282052,4734.871794871796,4372.820512820514,4364.102564102564,4351.282051282052,4456.410256410257
1176.1436,0.53298867,0.3996635,0.33333334,0.5522388,0,0.0,0.0,0.0,0.0,0.0,0,0,0.0,0.0,0,0,99.0,0.0,471.0,4730.256410256411,3736.410256410257,4656.410256410257,4346.666666666667,4190.769230769231,4554.358974358975,4519.48717948718,4511.794871794872,4409.2307692307695,4646.153846153847,4350.769230769231,4291.282051282052,4232.307692307693,4364.615384615385
1176.1436,0.53298867,0.3996635,0.33333334,0.5522388,0,0.0,0.0,0.0,0.0,0.0,0,0,0.0,0.0,0,0,99.0,0.0,471.0,4730.256410256411,3736.410256410257,4656.410256410257,4346.666666666667,4190.769230769231,4554.358974358975,4519.48717948718,4511.794871794872,4409.2307692307695,4646.153846153847,4350.769230769231,4291.282051282052,4232.307692307693,4364.615384615385
1176.5502,0.63730913,0.3983319,0.33333334,0.5522388,0,0.0,0.0,0.0,0.0,0.0,0,0,0.0,0.0,0,0,22.0,0.0,0.0,4663.076923076924,3675.3846153846157,4579.48717948718,4319.48717948718,4208.717948717949,4552.820512820514,4522.564102564103,4485.128205128206,4378.974358974359,4627.179487179488,4341.025641025642,4277.948717948719,4202.564102564103,4348.717948717949
1176.5502,0.63730913,0.3983319,0.33333334,0.5522388,0,0.0,0.0,0.0,0.0,0.0,0,0,0.0,0.0,0,0,22.0,0.0,0.0,4663.076923076924,3675.3846153846157,4579.48717948718,4319.48717948718,4208.717948717949,4552.820512820514,4522.564102564103,4485.128205128206,4378.974358974359,4627.179487179488,4341.025641025642,4277.948717948719,4202.564102564103,4348.717948717949
1177.0505,0.6839664,0.3971335,0.33333334,0.5522388,0,0.0,0.0,0.0,0.0,0.0,0,0,0.0,0.0,0,0,86.0,0.0,525.0,4647.6923076923085,3710.7692307692314,4513.846153846154,4340.000000000001,4231.282051282052,4555.384615384616,4521.025641025642,4507.179487179488,4401.025641025642,4724.615384615386,4359.48717948718,4334.871794871796,4270.769230769231,4416.923076923077
1177.3947,0.6839664,0.3971335,0.33333334,0.5522388,0,0.0,0.0,0.0,0.0,0.13061588,0,0,0.0,0.0,0,0,1.0,0.0,449.0,4600.000000000001,3768.717948717949,4462.051282051282,4363.589743589744,4244.615384615385,4553.333333333334,4490.256410256411,4486.666666666667,4395.8974358974365,4706.153846153847,4350.256410256411,4294.871794871796,4165.128205128206,4415.8974358974365
1177.6449,0.595941,0.3960549,0.33333334,0.5522388,0,0.0,0.0,0.0,0.0,0.10237577,0,0,0.0,0.0,0,0,33.0,0.0,0.0,4583.076923076924,3800.0000000000005,4436.923076923077,4376.923076923077,4248.717948717949,4554.871794871796,4492.820512820514,4455.384615384616,4389.743589743591,4716.923076923077,4348.717948717949,4273.846153846154,4157.435897435898,4427.6923076923085
1177.895,0.595941,0.3960549,0.33333334,0.5522388,0,0.0,0.0,0.0,0.0,0.13285583,0,0,0.0,0.0,0,0,65.0,0.0,449.0,4572.820512820514,3810.2564102564106,4430.256410256411,4380.512820512821,4257.948717948719,4557.948717948719,4482.051282051282,4452.307692307693,4406.666666666667,4751.794871794872,4351.794871794872,4281.538461538462,4195.8974358974365,4419.48717948718
1178.1453,0.46662,0.3305257,0.33333334,0.5522388,0,0.0,0.0,0.0,0.0,0.09570671,0,0,0.0,0.0,0,0,97.0,0.0,495.0,4672.307692307693,4020.5128205128212,4462.051282051282,4420.000000000001,4263.076923076924,4556.923076923077,4468.205128205129,4426.666666666667,4397.948717948719,4749.743589743591,4361.025641025642,4356.923076923077,4294.358974358975,4572.820512820514
1178.3955,0.46662,0.3305257,0.33333334,0.5522388,0,0.0,0.0,0.0,0.0,0.12026538,0,0,0.0,0.0,1,0,0.0,0.0,478.0,4552.820512820514,3847.1794871794878,4400.000000000001,4386.666666666667,4262.051282051282,4556.410256410257,4477.435897435898,4446.666666666667,4413.333333333334,4767.6923076923085,4358.461538461539,4257.948717948719,4182.051282051282,4403.589743589744
1178.6458,0.45148152,0.28413197,0.33333334,0.5522388,0,0.0,0.0,0.0,0.0,0.21929397,0,0,0.0,0.0,0,0,32.0,0.0,0.0,4561.538461538462,3875.3846153846157,4410.256410256411,4402.051282051282,4256.923076923077,4554.358974358975,4476.410256410257,4442.564102564103,4421.025641025642,4801.025641025642,4365.641025641026,4278.974358974359,4227.179487179487,4441.025641025642
1178.8959,0.45148152,0.28413197,0.33333334,0.5522388,0,0.0,0.0,0.0,0.0,0.14244822,0,0,0.0,0.0,0,1,64.0,0.0,478.0,4716.410256410257,4086.666666666667,4488.717948717949,4443.589743589744,4264.102564102564,4553.846153846154,4477.435897435898,4444.615384615385,4430.256410256411,4846.666666666667,4391.282051282052,4428.717948717949,4435.8974358974365,4648.717948717949
1179.1461,0.5969915,0.24228337,0.33333334,0.5522388,0,0.0,0.0,0.0,0.0,0.19876564,0,0,0.0,0.0,0,1,96.0,0.0,51.0,4508.205128205129,3895.8974358974365,4380.000000000001,4420.512820512821,4261.025641025642,4551.794871794872,4442.564102564103,4381.538461538462,4380.512820512821,4716.923076923077,4349.743589743591,4201.025641025642,4053.333333333334,4367.6923076923085
1179.3964,0.5969915,0.24228337,0.33333334,0.5522388,0,0.0,0.0,0.0,0.0,0.15461831,0,0,0.0,0.0,0,0,128.0,0.0,51.0,4505.641025641026,3897.435897435898,4394.871794871796,4430.769230769231,4263.589743589744,4552.820512820514,4445.641025641026,4431.794871794872,4417.435897435898,4755.8974358974365,4358.461538461539,4217.435897435898,4078.9743589743593,4436.410256410257
1179.6466,0.6879851,0.20461965,0.33333334,0.5522388,0,0.0,0.0,0.0,0.0,0.7729108,0,0,0.0,0.0,0,0,31.0,0.0,0.0,4510.256410256411,3923.589743589744,4395.8974358974365,4437.948717948719,4250.256410256411,4541.025641025642,4443.076923076924,4427.6923076923085,4411.794871794872,4767.179487179488,4357.948717948719,4228.205128205129,4136.410256410257,4520.512820512821
1179.8969,0.6879851,0.20461965,0.33333334,0.5522388,0,0.0,0.0,0.0,0.0,0.35465667,0,0,0.0,0.0,0,0,63.0,0.0,0.0,4524.102564102564,3937.435897435898,4413.846153846154,4440.512820512821,4249.74358974359,4540.512820512821,4445.128205128206,4451.794871794872,4409.2307692307695,4774.358974358975,4362.051282051282,4246.153846153847,4157.948717948719,4538.974358974359
1180.147,0.7358166,0.17072229,0.33333334,0.5522388,1,0.0,0.0,0.0,0.0,0.16884947,0,0,0.0,0.0,0,0,95.0,0.0,471.0,4550.256410256411,3937.435897435898,4425.128205128206,4442.051282051282,4247.179487179487,4540.000000000001,4457.435897435898,4448.717948717949,4423.076923076924,4794.871794871796,4367.6923076923085,4261.538461538462,4198.974358974359,4549.2307692307695
1180.3972,0.7358166,0.17072229,0.33333334,0.5522388,0,0.0,0.0,0.0,0.0,0.20444553,0,0,0.0,0.0,0,0,127.0,0.0,471.0,4540.000000000001,3972.307692307693,4422.051282051282,4462.564102564103,4254.871794871796,4553.846153846154,4456.923076923077,4433.846153846154,4396.923076923077,4733.333333333334,4357.948717948719,4215.8974358974365,4089.23076923077,4503.589743589744
1180.6475,0.7485969,0.14021467,0.33333334,0.5522388,0,0.0,0.0,0.0,0.0,0.19675216,0,0,0.0,0.0,0,0,30.0,0.0,0.0,4516.923076923077,3974.358974358975,4408.205128205129,4458.974358974359,4261.538461538462,4555.384615384616,4440.000000000001,4400.512820512821,4388.205128205129,4695.384615384616,4347.179487179487,4188.717948717949,4043.589743589744,4449.2307692307695
1180.8977,0.7485969,0.14021467,0.33333334,0.5522388,0,0.0,0.0,0.0,0.0,0.24038906,0,0,0.0,0.0,0,0,62.0,0.0,0.0,4544.102564102564,3978.461538461539,4415.384615384616,4459.48717948718,4246.666666666667,4543.076923076924,4424.102564102564,4393.333333333334,4384.102564102564,4717.948717948719,4351.794871794872,4223.076923076924,4139.48717948718,4476.410256410257
1181.1478,0.772519,0.11275782,0.33333334,0.5522388,0,0.0,0.0,0.0,0.0,0.07105564,0,0,0.0,0.0,0,0,94.0,0.0,525.0,4564.615384615385,3959.48717948718,4427.6923076923085,4445.128205128206,4247.6923076923085,4541.025641025642,4446.153846153847,4440.512820512821,4393.333333333334,4744.615384615386,4354.358974358975,4250.256410256411,4169.2307692307695,4476.410256410257
1181.3981,0.772519,0.11275782,0.33333334,0.5522388,0,0.0,0.0,0.0,0.0,0.12048518,0,0,0.0,0.0,0,0,126.0,0.0,525.0,4563.589743589744,3942.0512820512827,4438.461538461539,4443.076923076924,4245.641025641026,4542.051282051282,4458.974358974359,4459.48717948718,4400.000000000001,4753.846153846154,4365.641025641026,4262.564102564103,4215.384615384616,4522.564102564103
1181.6561,0.69507235,0.08804664,0.33333334,0.5522388,0,0.0,0.0,0.0,0.0,0.33873954,0,0,0.0,0.0,0,0,29.0,0.0,0.0,4552.820512820514,3956.410256410257,4442.051282051282,4443.589743589744,4246.153846153847,4541.025641025642,4445.128205128206,4444.102564102564,4390.256410256411,4717.435897435898,4355.8974358974365,4234.871794871796,4154.358974358975,4537.435897435898
1181.9064,0.69507235,0.08804664,0.33333334,0.5522388,0,0.0,0.0,0.0,0.0,0.22024506,0,0,0.0,0.0,0,0,61.0,0.0,0.0,4611.794871794872,3945.6410256410263,4526.153846153847,4441.538461538462,4251.282051282052,4557.435897435898,4461.538461538462,4463.589743589744,4402.051282051282,4770.256410256411,4362.051282051282,4282.051282051282,4241.025641025642,4605.641025641026
1182.1565,0.6020864,0.11662409,0.33333334,0.5522388,1,0.0,0.0,0.0,0.0,0.13471326,0,0,0.0,0.0,0,0,93.0,0.0,495.0,4673.333333333334,3938.461538461539,4647.6923076923085,4416.923076923077,4244.102564102564,4553.846153846154,4456.410256410257,4458.461538461539,4402.564102564103,4766.666666666667,4365.641025641026,4296.410256410257,4263.589743589744,4631.794871794872
1182.4067,0.6020864,0.11662409,0.33333334,0.5522388,0,0.0,0.0,0.0,0.0,0.1273012,0,0,0.0,0.0,0,0,125.0,0.0,495.0,4660.000000000001,3830.7692307692314,4686.666666666667,4376.923076923077,4228.717948717949,4551.282051282052,4465.128205128206,4481.538461538462,4411.282051282052,4778.461538461539,4370.769230769231,4283.076923076924,4261.538461538462,4603.076923076924
1182.657,0.5851885,0.14427073,0.33333334,0.5522388,0,0.0,0.0,0.0,0.0,0.12222857,0,0,0.0,0.0,0,0,28.0,0.0,0.0,4737.435897435898,3915.3846153846157,4733.333333333334,4374.358974358975,4230.769230769231,4566.666666666667,4482.051282051282,4487.6923076923085,4405.128205128206,4738.974358974359,4369.743589743591,4317.435897435898,4273.846153846154,4683.076923076924
1182.9072,0.5851885,0.14427073,0.33333334,0.5522388,1,0.0,0.0,0.0,0.0,0.19458517,0,0,0.0,0.0,0,0,60.0,0.0,0.0,4685.128205128206,3806.666666666667,4705.128205128206,4377.948717948719,4228.717948717949,4562.051282051282,4471.282051282052,4491.794871794872,4415.8974358974365,4722.051282051282,4370.256410256411,4248.717948717949,4220.000000000001,4643.589743589744
1183.1573,0.6729302,0.1688851,0.33333334,0.5522388,0,0.0,0.0,0.0,0.0,0.08177055,0,0,0.0,0.0,0,0,92.0,0.0,51.0,4692.820512820514,3794.8717948717954,4672.307692307693,4373.846153846154,4215.384615384616,4553.333333333334,4487.179487179488,4497.435897435898,4400.512820512821,4705.641025641026,4366.153846153847,4267.6923076923085,4226.153846153847,4649.2307692307695
1183.4076,0.6729302,0.1688851,0.33333334,0.5522388,0,0.0,0.0,0.0,0.0,0.0,0,0,0.0,0.0,0,0,124.0,0.0,51.0,4695.8974358974365,3800.0000000000005,4647.6923076923085,4371.282051282052,4215.8974358974365,4540.512820512821,4505.641025641026,4532.820512820514,4420.000000000001,4721.025641025642,4367.6923076923085,4286.666666666667,4249.2307692307695,4648.717948717949
1183.564,0.5858261,0.19103803,0.33333334,0.5522388,0,0.0,0.0,0.0,0.0,0.0,0,0,0.0,0.0,0,0,15.0,0.0,470.0,4685.641025641026,3798.9743589743593,4616.410256410257,4364.615384615385,4207.179487179487,4537.948717948719,4508.717948717949,4533.846153846154,4416.410256410257,4690.769230769231,4364.102564102564,4289.74358974359,4237.948717948719,4615.8974358974365
1183.564,0.5858261,0.19103803,0.33333334,0.5522388,0,0.0,0.0,0.0,0.0,0.0,0,0,0.0,0.0,0,0,15.0,0.0,470.0,4685.641025641026,3798.9743589743593,4616.410256410257,4364.615384615385,4207.179487179487,4537.948717948719,4508.717948717949,4533.846153846154,4416.410256410257,4690.769230769231,4364.102564102564,4289.74358974359,4237.948717948719,4615.8974358974365
1184.0645,0.61135846,0.21097566,0.33333334,0.5522388,0,0.0,0.0,0.0,0.0,0.0,0,0,0.0,0.0,0,0,79.0,0.0,470.0,4675.8974358974365,3757.435897435898,4534.358974358975,4365.641025641026,4206.153846153847,4524.102564102564,4507.179487179488,4508.717948717949,4400.000000000001,4698.974358974359,4360.512820512821,4311.794871794872,4237.435897435898,4598.461538461539
1184.4084,0.61135846,0.21097566,0.33333334,0.5522388,0,0.0,0.0,0.0,0.0,0.8776725,0,0,0.0,0.0,0,0,123.0,0.0,470.0,4784.102564102564,3782.564102564103,4586.153846153847,4367.6923076923085,4231.282051282052,4556.410256410257,4560.000000000001,4573.846153846154,4435.8974358974365,4781.538461538462,4387.179487179487,4371.794871794872,4338.461538461539,4752.820512820514
1184.6587,0.6777551,0.22891952,0.33333334,0.5522388,0,0.0,0.0,0.0,0.0,1.0,0,0,0.0,0.0,0,0,26.0,0.0,0.0,4794.358974358975,3757.435897435898,4570.256410256411,4365.641025641026,4201.538461538462,4537.435897435898,4551.282051282052,4557.948717948719,4423.589743589744,4751.794871794872,4377.435897435898,4343.589743589744,4311.794871794872,4649.2307692307695
1184.9089,0.6777551,0.22891952,0.33333334,0.5522388,0,0.0,0.0,0.0,0.0,0.8710702,0,0,0.0,0.0,0,0,58.0,0.0,0.0,4768.205128205129,3783.589743589744,4545.641025641026,4387.179487179487,4201.025641025642,4539.48717948718,4540.000000000001,4521.025641025642,4390.256410256411,4709.743589743591,4366.153846153847,4311.794871794872,4252.820512820514,4578.974358974359
1185.1592,0.7666741,0.23601824,0.33333334,0.5522388,0,0.0,0.0,0.0,0.0,0.7003144,0,0,0.0,0.0,0,0,90.0,0.0,525.0,4706.666666666667,3793.333333333334,4513.333333333334,4397.435897435898,4181.025641025642,4537.435897435898,4537.948717948719,4527.179487179488,4387.179487179487,4691.794871794872,4359.48717948718,4267.6923076923085,4168.717948717949,4472.820512820514
1185.4093,0.7666741,0.23601824,0.33333334,0.5522388,0,0.0,0.0,0.0,0.0,0.4676038,0,0,0.0,0.0,0,0,122.0,0.0,525.0,4701.538461538462,3829.7435897435903,4515.384615384616,4411.282051282052,4180.000000000001,4537.435897435898,4530.769230769231,4498.974358974359,4374.358974358975,4670.256410256411,4347.6923076923085,4264.615384615385,4152.820512820514,4427.6923076923085
1185.6595,0.80969334,0.23434192,0.33333334,0.5522388,0,0.0,0.0,0.0,0.0,0.24501318,0,0,0.0,0.0,0,0,25.0,0.0,0.0,4665.128205128206,3806.1538461538466,4494.358974358975,4395.384615384616,4187.179487179487,4540.000000000001,4518.974358974359,4474.358974358975,4366.666666666667,4663.076923076924,4344.102564102564,4263.076923076924,4138.461538461539,4384.615384615385
1185.9098,0.80969334,0.23434192,0.33333334,0.5522388,0,0.0,0.0,0.0,0.0,0.17458943,0,0,0.0,0.0,0,0,57.0,0.0,0.0,4683.589743589744,3821.538461538462,4461.025641025642,4410.256410256411,4214.871794871796,4550.256410256411,4540.000000000001,4504.102564102564,4380.512820512821,4718.461538461539,4353.846153846154,4314.358974358975,4206.153846153847,4428.205128205129
1186.0662,0.8158851,0.23266001,0.33333334,0.5522388,0,0.0,0.0,0.0,0.0,0.0,0,0,0.0,0.0,0,0,77.0,0.0,495.0,4656.923076923077,3814.358974358975,4426.666666666667,4395.384615384616,4217.948717948719,4540.512820512821,4520.000000000001,4463.589743589744,4370.256410256411,4708.205128205129,4347.6923076923085,4308.717948717949,4198.461538461539,4395.384615384616
1186.285,0.8158851,0.23266001,0.33333334,0.5522388,1,0.0,0.0,0.0,0.0,0.0,0,0,0.0,0.0,0,0,105.0,0.0,495.0,4717.948717948719,3909.7435897435903,4476.923076923077,4414.358974358975,4245.128205128206,4562.051282051282,4547.179487179488,4505.128205128206,4399.48717948718,4745.641025641026,4366.666666666667,4402.564102564103,4279.48717948718,4465.128205128206
1186.6604,0.8401702,0.21861644,0.33333334,0.5522388,0,0.0,0.0,0.0,0.0,0.9853435,0,0,0.0,0.0,0,0,24.0,0.0,0.0,4657.948717948719,3910.2564102564106,4466.153846153847,4407.179487179487,4245.641025641026,4552.307692307693,4506.153846153847,4460.000000000001,4385.128205128206,4748.717948717949,4360.000000000001,4383.076923076924,4260.000000000001,4371.794871794872
1186.9106,0.8401702,0.21861644,0.33333334,0.5522388,0,0.0,0.0,0.0,0.0,1.0,0,0,0.0,0.0,0,0,56.0,0.0,0.0,4624.102564102564,3913.8461538461543,4440.000000000001,4414.871794871796,4249.2307692307695,4552.820512820514,4494.871794871796,4456.410256410257,4401.538461538462,4770.256410256411,4363.076923076924,4355.8974358974365,4233.333333333334,4310.256410256411
1187.1609,0.79333174,0.18912916,0.33333334,0.5522388,0,0.0,0.0,0.0,0.0,0.29467762,0,0,0.0,0.0,0,0,88.0,0.0,51.0,4594.358974358975,3895.3846153846157,4424.615384615385,4413.333333333334,4256.410256410257,4553.846153846154,4489.2307692307695,4441.025641025642,4394.358974358975,4763.589743589744,4360.512820512821,4334.871794871796,4207.6923076923085,4290.769230769231
1187.411,0.79333174,0.18912916,0.33333334,0.5522388,0,0.0,0.0,0.0,0.0,0.054995026,0,0,0.0,0.0,0,0,120.0,0.0,51.0,4571.794871794872,3918.9743589743593,4407.6923076923085,4427.179487179487,4262.564102564103,4554.358974358975,4458.461538461539,4410.256410256411,4388.205128205129,4751.282051282052,4354.871794871796,4302.051282051282,4187.6923076923085,4282.564102564103
1187.6613,0.7946298,0.16706085,0.33333334,0.5522388,0,0.0,0.0,0.0,0.0,0.037343387,0,0,0.0,0.0,0,0,23.0,0.0,0.0,4558.974358974359,3940.0000000000005,4397.435897435898,4416.923076923077,4260.512820512821,4551.794871794872,4440.512820512821,4394.358974358975,4374.358974358975,4748.205128205129,4351.282051282052,4294.358974358975,4185.641025641026,4264.102564102564
1187.9115,0.7946298,0.16706085,0.33333334,0.5522388,0,0.0,0.0,0.0,0.0,0.032046106,0,0,0.0,0.0,0,0,55.0,0.0,0.0,4564.102564102564,3958.461538461539,4407.179487179487,4425.641025641026,4261.538461538462,4554.358974358975,4456.923076923077,4415.8974358974365,4387.6923076923085,4764.615384615386,4354.358974358975,4293.846153846154,4201.538461538462,4286.153846153847
1188.1617,0.9092742,0.14554521,0.33333334,0.5522388,0,0.0,0.0,0.0,0.0,0.06515876,0,0,0.0,0.0,0,0,87.0,0.0,472.0,4558.461538461539,3993.333333333334,4397.948717948719,4429.2307692307695,4271.282051282052,4567.6923076923085,4440.000000000001,4395.8974358974365,4379.48717948718,4750.256410256411,4349.743589743591,4280.512820512821,4159.48717948718,4311.282051282052
1188.4119,0.9092742,0.14554521,0.33333334,0.5522388,0,0.0,0.0,0.0,0.0,0.10200957,0,0,0.0,0.0,0,0,119.0,0.0,472.0,4534.871794871796,3985.6410256410263,4384.102564102564,4413.846153846154,4271.282051282052,4568.717948717949,4428.717948717949,4370.256410256411,4370.769230769231,4727.179487179488,4345.641025641026,4250.769230769231,4140.000000000001,4307.6923076923085
1188.6621,0.8779059,0.124046415,0.33333334,0.5522388,0,0.0,0.0,0.0,0.0,0.41922748,0,0,0.0,0.0,0,0,22.0,0.0,0.0,4461.025641025642,3926.1538461538466,4354.358974358975,4426.666666666667,4274.871794871796,4569.2307692307695,4414.358974358975,4354.871794871796,4369.2307692307695,4721.025641025642,4337.435897435898,4182.051282051282,4079.48717948718,4231.794871794872
1188.9124,0.8779059,0.124046415,0.33333334,0.5522388,0,0.0,0.0,0.0,0.0,0.34366024,0,0,0.0,0.0,0,0,54.0,0.0,0.0,4476.923076923077,3943.076923076924,4384.615384615385,4442.051282051282,4279.48717948718,4575.8974358974365,4429.743589743591,4388.717948717949,4385.641025641026,4783.589743589744,4347.6923076923085,4213.846153846154,4141.538461538462,4267.6923076923085
1189.1626,0.892561,0.10919939,0.33333334,0.5522388,0,0.0,0.0,0.0,0.0,0.054793913,0,0,0.0,0.0,0,0,86.0,0.0,525.0,4482.051282051282,3944.615384615385,4390.769230769231,4439.48717948718,4274.358974358975,4569.743589743591,4408.205128205129,4350.769230769231,4373.333333333334,4748.205128205129,4342.051282051282,4200.000000000001,4120.000000000001,4277.948717948719
1189.4128,0.892561,0.10919939,0.33333334,0.5522388,0,0.0,0.0,0.0,0.0,0.2177104,0,0,0.0,0.0,0,0,118.0,0.0,525.0,4506.153846153847,3970.7692307692314,4411.282051282052,4443.589743589744,4275.8974358974365,4571.794871794872,4413.846153846154,4365.128205128206,4366.666666666667,4725.128205128206,4341.538461538462,4211.794871794872,4111.282051282052,4318.461538461539
1189.663,0.8222497,0.11012506,0.33333334,0.5522388,0,0.0,0.0,0.0,0.0,0.47481656,0,0,0.0,0.0,0,0,21.0,0.0,0.0,4635.384615384616,4071.2820512820517,4475.384615384616,4451.794871794872,4278.461538461539,4576.410256410257,4426.666666666667,4377.435897435898,4368.205128205129,4749.743589743591,4355.8974358974365,4314.871794871796,4234.358974358975,4509.2307692307695
1189.9132,0.8222497,0.11012506,0.33333334,0.5522388,0,0.0,0.0,0.0,0.0,0.7440759,0,0,0.0,0.0,0,0,53.0,0.0,0.0,4630.256410256411,4062.0512820512827,4476.410256410257,4450.256410256411,4283.589743589744,4585.641025641026,4441.538461538462,4414.358974358975,4394.358974358975,4771.794871794872,4361.538461538462,4314.871794871796,4232.820512820514,4557.435897435898
1190.1635,0.8641588,0.13507281,0.33333334,0.5522388,0,0.0,0.0,0.0,0.0,0.2247097,0,0,0.0,0.0,0,0,85.0,0.0,495.0,4694.358974358975,4129.2307692307695,4507.6923076923085,4460.512820512821,4284.615384615385,4586.153846153847,4443.589743589744,4395.8974358974365,4383.076923076924,4764.615384615386,4368.205128205129,4354.358974358975,4288.205128205129,4633.333333333334
1190.4137,0.8641588,0.13507281,0.33333334,0.5522388,0,0.0,0.0,0.0,0.0,0.16550149,0,0,0.0,0.0,0,0,117.0,0.0,495.0,4604.102564102564,3997.9487179487182,4460.000000000001,4444.615384615385,4278.461538461539,4574.358974358975,4432.820512820514,4388.717948717949,4382.564102564103,4753.333333333334,4355.8974358974365,4276.923076923077,4215.384615384616,4524.615384615385
1190.6638,0.8769647,0.21648665,0.33333334,0.5522388,0,0.0,0.0,0.0,0.0,0.17925389,0,0,0.0,0.0,0,0,20.0,0.0,0.0,4585.641025641026,3987.1794871794878,4450.769230769231,4463.589743589744,4278.974358974359,4576.923076923077,4430.256410256411,4379.48717948718,4382.564102564103,4717.948717948719,4353.333333333334,4246.666666666667,4154.871794871796,4494.871794871796
1190.9141,0.8769647,0.21648665,0.33333334,0.5522388,0,0.0,0.0,0.0,0.0,0.10606741,0,0,0.0,0.0,0,0,52.0,0.0,0.0,4594.358974358975,3980.5128205128212,4461.538461538462,4457.948717948719,4281.025641025642,4582.051282051282,4439.48717948718,4385.128205128206,4377.435897435898,4734.358974358975,4350.256410256411,4253.846153846154,4160.512820512821,4473.333333333334
1191.1643,0.78987753,0.3113168,0.33333334,0.5522388,1,0.0,0.0,0.0,0.0,0.0,0,0,0.0,0.0,0,0,84.0,0.0,51.0,4589.743589743591,3966.1538461538466,4463.076923076924,4445.128205128206,4269.2307692307695,4567.6923076923085,4423.076923076924,4385.128205128206,4369.2307692307695,4727.179487179488,4346.666666666667,4249.74358974359,4156.410256410257,4476.410256410257
1191.2582,0.78987753,0.3113168,0.33333334,0.5522388,0,0.0,0.0,0.0,0.0,0.0,0,0,0.0,0.0,0,0,96.0,0.0,51.0,4587.6923076923085,3961.538461538462,4462.051282051282,4444.615384615385,4264.102564102564,4566.153846153847,4440.000000000001,4390.256410256411,4383.589743589744,4733.846153846154,4343.589743589744,4243.076923076924,4167.6923076923085,4460.000000000001
1191.6647,0.75876176,0.5321265,0.33333334,0.5522388,0,0.0,0.0,0.0,0.0,0.08868705,0,0,0.0,0.0,0,0,19.0,0.0,0.0,4589.743589743591,3978.461538461539,4461.538461538462,4443.589743589744,4266.153846153847,4565.641025641026,4433.333333333334,4411.794871794872,4371.794871794872,4704.615384615386,4345.128205128206,4245.641025641026,4155.8974358974365,4493.333333333334
1191.9149,0.75876176,0.5321265,0.33333334,0.5522388,0,0.0,0.0,0.0,0.0,0.22266024,0,0,0.0,0.0,0,0,51.0,0.0,0.0,4741.025641025642,4187.6923076923085,4542.564102564103,4463.076923076924,4267.179487179487,4570.769230769231,4440.512820512821,4394.358974358975,4367.6923076923085,4711.282051282052,4355.384615384616,4371.282051282052,4321.025641025642,4715.8974358974365
1192.1652,0.6896757,0.72618973,0.33333334,0.5522388,0,0.0,0.0,0.0,0.0,0.17420493,0,0,0.0,0.0,0,0,83.0,0.0,472.0,4601.538461538462,3947.692307692308,4468.717948717949,4437.948717948719,4261.538461538462,4556.410256410257,4446.666666666667,4427.6923076923085,4383.076923076924,4718.974358974359,4348.205128205129,4255.8974358974365,4185.641025641026,4540.512820512821
1192.4154,0.6896757,0.72618973,0.33333334,0.5522388,0,0.0,0.0,0.0,0.0,0.122728765,0,0,0.0,0.0,0,0,115.0,0.0,472.0,4595.8974358974365,3937.435897435898,4455.8974358974365,4433.333333333334,4251.282051282052,4550.256410256411,4442.564102564103,4411.282051282052,4376.410256410257,4718.974358974359,4343.076923076924,4248.205128205129,4172.307692307693,4538.974358974359
1192.6655,0.617116,0.72703063,0.33333334,0.5522388,0,0.0,0.0,0.0,0.0,0.111913234,0,0,0.0,0.0,0,0,18.0,0.0,0.0,4588.205128205129,3943.589743589744,4453.846153846154,4442.564102564103,4249.74358974359,4546.153846153847,4431.794871794872,4408.205128205129,4379.48717948718,4713.333333333334,4344.102564102564,4241.025641025642,4184.102564102564,4541.025641025642
1192.9158,0.617116,0.72703063,0.33333334,0.5522388,0,0.0,0.0,0.0,0.0,0.0,0,0,0.0,0.0,0,0,50.0,0.0,0.0,4607.6923076923085,3942.0512820512827,4473.846153846154,4439.48717948718,4249.74358974359,4551.282051282052,4454.871794871796,4421.538461538462,4388.205128205129,4736.923076923077,4351.794871794872,4275.8974358974365,4231.282051282052,4571.282051282052
1193.0721,0.59557295,0.76340854,0.33333334,0.5522388,0,0.0,0.0,0.0,0.0,0.0,0,0,0.0,0.0,0,0,70.0,0.0,548.0,4606.666666666667,3952.820512820513,4473.846153846154,4446.666666666667,4253.333333333334,4554.871794871796,4460.000000000001,4423.076923076924,4397.435897435898,4738.461538461539,4347.6923076923085,4263.076923076924,4217.435897435898,4564.615384615385
1193.4163,0.59557295,0.76340854,0.33333334,0.5522388,0,0.0,0.0,0.0,0.0,0.05709518,0,0,0.0,0.0,0,0,114.0,0.0,527.0,4587.179487179488,3965.6410256410263,4462.051282051282,4441.538461538462,4247.6923076923085,4541.538461538462,4442.051282051282,4390.769230769231,4363.076923076924,4683.589743589744,4336.410256410257,4233.333333333334,4128.717948717949,4534.358974358975
1193.6664,0.56151783,0.72694325,0.33333334,0.5522388,0,0.0,0.0,0.0,0.0,0.055290483,0,0,0.0,0.0,0,0,17.0,0.0,0.0,4703.076923076924,4044.615384615385,4590.769230769231,4526.666666666667,4356.410256410257,4650.256410256411,4556.410256410257,4516.410256410257,4441.538461538462,4858.461538461539,4377.435897435898,4374.871794871796,4316.410256410257,4645.128205128206
1193.9166,0.56151783,0.72694325,0.33333334,0.5522388,1,0.0,0.0,0.0,0.0,0.14099085,0,0,0.0,0.0,0,0,49.0,0.0,0.0,4687.179487179488,4061.0256410256416,4639.48717948718,4537.435897435898,4352.307692307693,4649.743589743591,4556.923076923077,4511.282051282052,4428.717948717949,4847.6923076923085,4388.717948717949,4355.384615384616,4310.256410256411,4603.076923076924
1194.1669,0.70413566,0.6913764,0.33333334,0.5522388,0,0.0,0.0,0.0,0.0,0.4549055,0,0,0.0,0.0,0,0,81.0,0.0,495.0,4677.948717948719,4052.820512820513,4696.410256410257,4521.538461538462,4326.153846153847,4634.358974358975,4540.512820512821,4492.307692307693,4431.282051282052,4794.871794871796,4378.461538461539,4321.025641025642,4219.48717948718,4539.48717948718
1194.4171,0.70413566,0.6913764,0.33333334,0.5522388,0,0.0,0.0,0.0,0.0,0.45778957,0,0,0.0,0.0,0,0,113.0,0.0,495.0,4687.6923076923085,4016.9230769230776,4716.410256410257,4493.333333333334,4294.358974358975,4609.2307692307695,4508.717948717949,4469.743589743591,4412.820512820514,4783.076923076924,4371.794871794872,4324.615384615385,4232.307692307693,4503.589743589744
1194.6674,0.80948246,0.664938,0.33333334,0.5522388,0,0.0,0.0,0.0,0.0,0.12104472,0,0,0.0,0.0,0,0,16.0,0.0,0.0,4677.948717948719,3984.615384615385,4680.512820512821,4474.871794871796,4271.282051282052,4593.333333333334,4506.153846153847,4467.6923076923085,4409.2307692307695,4765.641025641026,4369.2307692307695,4314.358974358975,4217.435897435898,4490.256410256411
1194.9175,0.80948246,0.664938,0.33333334,0.5522388,0,0.0,0.0,0.0,0.0,0.05038845,0,0,0.0,0.0,0,0,48.0,0.0,0.0,4653.846153846154,3944.1025641025644,4633.333333333334,4462.051282051282,4256.410256410257,4576.410256410257,4492.307692307693,4440.000000000001,4401.025641025642,4761.538461538462,4365.641025641026,4311.282051282052,4212.820512820514,4489.743589743591
1195.0739,0.81378984,0.62850916,0.33333334,0.5522388,0,0.0,0.0,0.0,0.0,0.0,0,0,0.0,0.0,0,0,68.0,0.0,556.0,4645.641025641026,3923.589743589744,4599.48717948718,4458.974358974359,4250.256410256411,4571.794871794872,4491.794871794872,4441.538461538462,4396.410256410257,4752.307692307693,4364.615384615385,4296.923076923077,4205.128205128206,4488.717948717949
1195.0739,0.81378984,0.62850916,0.33333334,0.5522388,0,0.0,0.0,0.0,0.0,0.0,0,0,0.0,0.0,0,0,68.0,0.0,556.0,4645.641025641026,3923.589743589744,4599.48717948718,4458.974358974359,4250.256410256411,4571.794871794872,4491.794871794872,4441.538461538462,4396.410256410257,4752.307692307693,4364.615384615385,4296.923076923077,4205.128205128206,4488.717948717949
1195.5743,0.76342267,0.5857345,0.33333334,0.5522388,0,0.0,0.0,0.0,0.0,0.0,0,0,0.0,0.0,0,0,3.0,0.0,499.0,4640.000000000001,3896.410256410257,4524.615384615385,4442.051282051282,4234.871794871796,4553.846153846154,4488.717948717949,4445.128205128206,4404.615384615385,4764.615384615386,4362.564102564103,4313.333333333334,4203.076923076924,4505.641025641026
1195.5743,0.76342267,0.5857345,0.33333334,0.5522388,0,0.0,0.0,0.0,0.0,0.0,0,0,0.0,0.0,0,0,3.0,0.0,499.0,4640.000000000001,3896.410256410257,4524.615384615385,4442.051282051282,4234.871794871796,4553.846153846154,4488.717948717949,4445.128205128206,4404.615384615385,4764.615384615386,4362.564102564103,4313.333333333334,4203.076923076924,4505.641025641026
1196.0747,0.6902597,0.5223288,0.33333334,0.5522388,0,0.0,0.0,0.0,0.0,0.0,0,0,0.0,0.0,0,0,67.0,0.0,499.0,4625.641025641026,3912.820512820513,4459.48717948718,4432.820512820514,4232.820512820514,4540.000000000001,4473.846153846154,4447.179487179487,4388.205128205129,4744.615384615386,4358.461538461539,4300.000000000001,4175.8974358974365,4486.153846153847
1196.0747,0.6902597,0.5223288,0.33333334,0.5522388,0,0.0,0.0,0.0,0.0,0.0,0,0,0.0,0.0,0,0,67.0,0.0,499.0,4625.641025641026,3912.820512820513,4459.48717948718,4432.820512820514,4232.820512820514,4540.000000000001,4473.846153846154,4447.179487179487,4388.205128205129,4744.615384615386,4358.461538461539,4300.000000000001,4175.8974358974365,4486.153846153847
1196.6691,0.65078753,0.45837253,0.33333334,0.5522388,0,0.0,0.0,0.0,0.0,0.48970082,0,0,0.0,0.0,0,0,14.0,0.0,527.0,4601.025641025642,3943.589743589744,4408.205128205129,4441.538461538462,4234.358974358975,4538.974358974359,4461.025641025642,4433.846153846154,4389.743589743591,4752.307692307693,4357.435897435898,4280.512820512821,4157.948717948719,4396.923076923077
1196.9192,0.65078753,0.45837253,0.33333334,0.5522388,0,0.0,0.0,0.0,0.0,0.65544826,0,0,0.0,0.0,0,0,46.0,0.0,0.0,4590.256410256411,3958.461538461539,4403.076923076924,4437.435897435898,4246.153846153847,4538.974358974359,4443.589743589744,4382.564102564103,4366.666666666667,4728.717948717949,4349.743589743591,4266.666666666667,4154.358974358975,4350.256410256411
1197.1694,0.6059015,0.40814033,0.33333334,0.5522388,0,0.0,0.0,0.0,0.0,0.11408206,0,0,0.0,0.0,0,0,78.0,0.0,527.0,4561.025641025642,3961.0256410256416,4407.6923076923085,4434.358974358975,4245.641025641026,4541.025641025642,4442.564102564103,4390.256410256411,4373.846153846154,4708.717948717949,4346.153846153847,4242.564102564103,4124.102564102564,4330.256410256411
1197.4197,0.6059015,0.40814033,0.33333334,0.5522388,0,0.0,0.0,0.0,0.0,0.18209846,0,0,0.0,0.0,1,0,110.0,0.0,527.0,4594.871794871796,4017.9487179487182,4431.282051282052,4447.179487179487,4248.717948717949,4548.717948717949,4447.179487179487,4412.820512820514,4380.512820512821,4733.846153846154,4351.282051282052,4267.6923076923085,4165.128205128206,4398.974358974359
1197.6699,0.61237925,0.3937785,0.33333334,0.5522388,0,0.0,0.0,0.0,0.0,0.12395328,0,0,0.0,0.0,1,0,13.0,0.0,495.0,4612.820512820514,4058.9743589743593,4457.435897435898,4457.948717948719,4256.410256410257,4552.820512820514,4443.589743589744,4396.410256410257,4376.410256410257,4722.051282051282,4351.794871794872,4278.974358974359,4174.871794871796,4445.128205128206
1197.92,0.61237925,0.3937785,0.33333334,0.5522388,0,0.0,0.0,0.0,0.0,0.14454216,0,0,0.0,0.0,0,1,45.0,0.0,0.0,4773.846153846154,4261.025641025642,4544.102564102564,4482.564102564103,4264.615384615385,4558.974358974359,4439.48717948718,4375.384615384616,4356.410256410257,4744.102564102564,4365.128205128206,4425.128205128206,4381.538461538462,4648.717948717949
1198.1703,0.64426094,0.38082013,0.33333334,0.5522388,0,0.0,0.0,0.0,0.0,0.10731554,0,0,0.0,0.0,0,1,77.0,0.0,495.0,4660.512820512821,4216.410256410257,4485.641025641026,4481.538461538462,4251.282051282052,4542.051282051282,4409.2307692307695,4350.769230769231,4349.2307692307695,4644.615384615385,4344.102564102564,4274.358974358975,4143.589743589744,4540.000000000001
1198.4205,0.64426094,0.38082013,0.33333334,0.5522388,0,0.0,0.0,0.0,0.0,0.10477421,0,0,0.0,0.0,0,0,109.0,0.0,495.0,4497.948717948719,3880.0000000000005,4422.564102564103,4438.974358974359,4244.615384615385,4536.923076923077,4430.769230769231,4392.820512820514,4356.923076923077,4705.641025641026,4336.923076923077,4170.256410256411,4090.2564102564106,4356.410256410257
1198.6708,0.6437861,0.36915755,0.33333334,0.5522388,0,0.0,0.0,0.0,0.0,0.11573092,0,0,0.0,0.0,0,0,12.0,0.0,51.0,4522.564102564103,3892.307692307693,4445.641025641026,4442.564102564103,4250.769230769231,4549.2307692307695,4447.6923076923085,4422.564102564103,4396.923076923077,4731.794871794872,4345.641025641026,4208.717948717949,4155.384615384616,4378.461538461539
1198.9209,0.6437861,0.36915755,0.33333334,0.5522388,0,0.0,0.0,0.0,0.0,0.09021283,0,0,0.0,0.0,0,0,44.0,0.0,0.0,4541.025641025642,3909.2307692307695,4465.128205128206,4443.076923076924,4250.256410256411,4550.769230769231,4446.153846153847,4430.769230769231,4397.435897435898,4760.512820512821,4350.256410256411,4233.333333333334,4205.641025641026,4424.102564102564
1199.1711,0.72485405,0.35866126,0.33333334,0.5522388,0,0.0,0.0,0.0,0.0,0.0,0,0,0.0,0.0,0,0,76.0,0.0,51.0,4524.615384615385,3941.538461538462,4455.8974358974365,4455.384615384616,4252.820512820514,4549.743589743591,4426.666666666667,4388.717948717949,4356.923076923077,4679.48717948718,4333.846153846154,4187.179487179487,4103.076923076924,4362.051282051282
1199.4214,0.72485405,0.35866126,0.33333334,0.5522388,0,0.0,0.0,0.0,0.0,0.1298919,0,0,0.0,0.0,1,0,89.0,0.0,495.0,4536.410256410257,3958.461538461539,4457.948717948719,4458.461538461539,4248.205128205129,4536.923076923077,4425.128205128206,4378.974358974359,4362.564102564103,4692.307692307693,4334.871794871796,4201.025641025642,4123.589743589744,4374.358974358975
1199.6716,0.6591927,0.34921458,0.33333334,0.5522388,0,0.0,0.0,0.0,0.0,0.21408962,0,0,0.0,0.0,1,0,11.0,0.0,472.0,4439.48717948718,3816.410256410257,4409.2307692307695,4442.564102564103,4244.102564102564,4535.8974358974365,4418.461538461539,4381.025641025642,4371.794871794872,4715.8974358974365,4325.128205128206,4134.358974358975,4098.974358974359,4265.128205128206
1199.9218,0.6591927,0.34921458,0.33333334,0.5522388,0,0.0,0.0,0.0,0.0,0.07366803,0,0,0.0,0.0,0,0,43.0,0.0,0.0,4505.641025641026,3880.0000000000005,4467.179487179487,4468.205128205129,4279.48717948718,4572.307692307693,4455.8974358974365,4434.871794871796,4392.307692307693,4761.025641025642,4340.512820512821,4188.205128205129,4156.410256410257,4305.641025641026
1200.172,0.7900896,0.32662252,0.33333334,0.5522388,0,0.0,0.0,0.0,0.0,0.0,0,0,0.0,0.0,0,0,75.0,0.0,472.0,4523.589743589744,3894.8717948717954,4505.128205128206,4483.076923076924,4280.000000000001,4579.48717948718,4457.948717948719,4435.8974358974365,4380.000000000001,4765.128205128206,4342.051282051282,4204.102564102564,4170.256410256411,4340.512820512821
1200.172,0.7900896,0.32662252,0.33333334,0.5522388,0,0.0,0.0,0.0,0.0,0.0,0,0,0.0,0.0,0,0,75.0,0.0,472.0,4523.589743589744,3894.8717948717954,4505.128205128206,4483.076923076924,4280.000000000001,4579.48717948718,4457.948717948719,4435.8974358974365,4380.000000000001,4765.128205128206,4342.051282051282,4204.102564102564,4170.256410256411,4340.512820512821
1200.5786,0.7808259,0.32767698,0.33333334,0.5522388,0,0.0,0.0,0.0,0.0,0.0,0,0,0.0,0.0,0,0,127.0,0.0,472.0,4551.282051282052,3898.461538461539,4547.179487179488,4473.846153846154,4280.512820512821,4581.538461538462,4478.461538461539,4465.128205128206,4395.8974358974365,4752.307692307693,4346.666666666667,4230.769230769231,4196.923076923077,4364.102564102564
1200.5786,0.7808259,0.32767698,0.33333334,0.5522388,0,0.0,0.0,0.0,0.0,0.0,0,0,0.0,0.0,0,0,127.0,0.0,472.0,4551.282051282052,3898.461538461539,4547.179487179488,4473.846153846154,4280.512820512821,4581.538461538462,4478.461538461539,4465.128205128206,4395.8974358974365,4752.307692307693,4346.666666666667,4230.769230769231,4196.923076923077,4364.102564102564
1201.1729,0.69633186,0.3159219,0.33333334,0.5522388,0,0.0,0.0,0.0,0.0,0.08039167,0,0,0.0,0.0,0,0,74.0,0.0,527.0,4573.333333333334,3910.2564102564106,4536.923076923077,4474.358974358975,4275.384615384616,4570.256410256411,4476.410256410257,4462.564102564103,4397.948717948719,4768.205128205129,4351.282051282052,4248.205128205129,4201.538461538462,4408.717948717949
1201.298,0.69633186,0.3159219,0.33333334,0.5522388,0,0.0,0.0,0.0,0.0,0.0,0,0,0.0,0.0,0,0,90.0,0.0,527.0,4569.743589743591,3917.9487179487182,4525.128205128206,4481.025641025642,4274.358974358975,4567.179487179488,4455.8974358974365,4441.025641025642,4390.769230769231,4767.179487179488,4348.205128205129,4249.74358974359,4187.6923076923085,4406.153846153847
1201.5795,0.6336231,0.2888338,0.33333334,0.5522388,0,0.0,0.0,0.0,0.0,0.0,0,0,0.0,0.0,0,0,126.0,0.0,527.0,4591.794871794872,3929.7435897435903,4524.615384615385,4463.076923076924,4275.384615384616,4572.307692307693,4475.8974358974365,4458.461538461539,4386.153846153847,4750.256410256411,4350.769230769231,4261.025641025642,4169.74358974359,4400.512820512821
1201.5795,0.6336231,0.2888338,0.33333334,0.5522388,0,0.0,0.0,0.0,0.0,0.0,0,0,0.0,0.0,0,0,126.0,0.0,527.0,4591.794871794872,3929.7435897435903,4524.615384615385,4463.076923076924,4275.384615384616,4572.307692307693,4475.8974358974365,4458.461538461539,4386.153846153847,4750.256410256411,4350.769230769231,4261.025641025642,4169.74358974359,4400.512820512821
1202.08,0.55364335,0.26353124,0.33333334,0.5522388,0,0.0,0.0,0.0,0.0,0.0,0,0,0.0,0.0,0,0,61.0,0.0,0.0,4620.000000000001,3943.076923076924,4515.384615384616,4476.410256410257,4262.051282051282,4561.538461538462,4460.000000000001,4454.358974358975,4391.794871794872,4766.153846153847,4352.307692307693,4281.025641025642,4215.8974358974365,4435.8974358974365
1202.08,0.55364335,0.26353124,0.33333334,0.5522388,0,0.0,0.0,0.0,0.0,0.0,0,0,0.0,0.0,0,0,61.0,0.0,0.0,4620.000000000001,3943.076923076924,4515.384615384616,4476.410256410257,4262.051282051282,4561.538461538462,4460.000000000001,4454.358974358975,4391.794871794872,4766.153846153847,4352.307692307693,4281.025641025642,4215.8974358974365,4435.8974358974365
1202.5803,0.48045382,0.24034412,0.33333334,0.5522388,0,0.0,0.0,0.0,0.0,0.099487044,0,0,0.0,0.0,0,0,125.0,0.0,495.0,4645.641025641026,3928.205128205129,4576.923076923077,4463.076923076924,4260.512820512821,4555.8974358974365,4460.000000000001,4461.025641025642,4397.948717948719,4807.6923076923085,4360.512820512821,4284.102564102564,4245.641025641026,4424.102564102564
1202.9244,0.48045382,0.24034412,0.33333334,0.5522388,0,0.0,0.0,0.0,0.0,0.37501502,0,0,0.0,0.0,0,0,16.0,0.0,0.0,4656.923076923077,3910.7692307692314,4620.000000000001,4456.923076923077,4259.48717948718,4556.410256410257,4465.128205128206,4471.794871794872,4396.923076923077,4804.615384615386,4362.051282051282,4281.025641025642,4243.076923076924,4446.153846153847
1203.0808,0.45356628,0.22703135,0.33333334,0.5522388,0,0.0,0.0,0.0,0.0,0.62373954,0,0,0.0,0.0,0,0,60.0,0.0,0.0,4717.435897435898,3893.333333333334,4666.666666666667,4434.358974358975,4201.025641025642,4601.025641025642,4458.461538461539,4437.948717948719,4407.6923076923085,4801.538461538462,4366.153846153847,4270.256410256411,4240.000000000001,4572.820512820514
1203.4248,0.45356628,0.22703135,0.33333334,0.5522388,0,0.0,0.0,0.0,0.0,0.3906421,0,0,0.0,0.0,0,0,96.0,0.0,51.0,4785.641025641026,3846.666666666667,4674.358974358975,4422.051282051282,4172.307692307693,4583.589743589744,4480.512820512821,4469.743589743591,4423.076923076924,4796.923076923077,4375.384615384616,4281.025641025642,4273.333333333334,4564.615384615385
1203.5812,0.41118237,0.214908,0.33333334,0.5522388,0,0.0,0.0,0.0,0.0,0.3616593,0,0,0.0,0.0,0,0,124.0,0.0,51.0,4985.128205128206,4108.717948717949,4736.923076923077,4471.794871794872,4167.6923076923085,4572.307692307693,4475.8974358974365,4487.6923076923085,4401.025641025642,4718.974358974359,4380.512820512821,4398.974358974359,4395.8974358974365,4733.846153846154
1203.8002,0.41118237,0.214908,0.33333334,0.5522388,0,0.0,0.0,0.0,0.0,0.38495332,0,0,0.0,0.0,1,0,23.0,0.0,0.0,4930.256410256411,3976.410256410257,4674.871794871796,4458.974358974359,4160.000000000001,4570.256410256411,4490.769230769231,4483.076923076924,4412.307692307693,4649.743589743591,4368.717948717949,4322.051282051282,4282.051282051282,4559.48717948718
1204.0817,0.5652463,0.203997,0.33333334,0.5522388,0,0.0,0.0,0.0,0.0,0.22861966,0,0,0.0,0.0,0,0,59.0,0.0,0.0,4863.076923076924,3873.8461538461543,4585.128205128206,4443.076923076924,4124.615384615385,4552.307692307693,4473.333333333334,4387.179487179487,4337.435897435898,4539.48717948718,4335.8974358974365,4254.358974358975,4200.000000000001,4383.076923076924
1204.3005,0.5652463,0.203997,0.33333334,0.5522388,0,0.0,0.0,0.0,0.0,0.20317544,0,0,0.0,0.0,0,0,87.0,0.0,471.0,4834.358974358975,3843.076923076924,4585.641025641026,4429.2307692307695,4120.512820512821,4550.256410256411,4504.102564102564,4443.076923076924,4365.641025641026,4551.794871794872,4342.564102564103,4279.48717948718,4220.000000000001,4364.615384615385
1204.582,0.704264,0.1941771,0.33333334,0.5522388,0,0.0,0.0,0.0,0.0,0.13242441,0,0,0.0,0.0,0,0,123.0,0.0,471.0,4749.743589743591,3802.0512820512827,4587.6923076923085,4401.538461538462,4121.025641025642,4537.948717948719,4526.666666666667,4427.179487179487,4348.717948717949,4533.846153846154,4325.128205128206,4248.717948717949,4153.333333333334,4349.2307692307695
1204.801,0.704264,0.1941771,0.33333334,0.5522388,0,0.0,0.0,0.0,0.0,0.17359541,0,0,0.0,0.0,0,0,22.0,0.0,0.0,4704.615384615386,3784.1025641025644,4592.820512820514,4386.666666666667,4128.205128205129,4524.615384615385,4541.538461538462,4474.358974358975,4364.615384615385,4566.666666666667,4331.282051282052,4269.2307692307695,4167.6923076923085,4336.410256410257
1205.0825,0.73234224,0.18533918,0.33333334,0.5522388,0,0.0,0.0,0.0,0.0,0.1975689,0,0,0.0,0.0,0,0,58.0,0.0,0.0,4664.615384615386,3825.6410256410263,4539.48717948718,4387.179487179487,4153.846153846154,4527.179487179488,4526.153846153847,4456.923076923077,4361.025641025642,4616.923076923077,4330.256410256411,4277.948717948719,4163.589743589744,4343.589743589744
1205.3014,0.73234224,0.18533918,0.33333334,0.5522388,0,0.0,0.0,0.0,0.0,0.21397044,0,0,0.0,0.0,0,0,86.0,0.0,527.0,4629.743589743591,3849.2307692307695,4515.384615384616,4385.641025641026,4185.128205128206,4537.948717948719,4528.717948717949,4490.769230769231,4383.589743589744,4656.410256410257,4336.410256410257,4282.564102564103,4154.358974358975,4327.179487179487
1205.5829,0.5959978,0.17738506,0.33333334,0.5522388,0,0.0,0.0,0.0,0.0,0.40579012,0,0,0.0,0.0,0,0,122.0,0.0,527.0,4595.8974358974365,3862.0512820512827,4469.743589743591,4403.076923076924,4197.948717948719,4523.076923076924,4521.025641025642,4491.282051282052,4390.769230769231,4697.948717948719,4338.461538461539,4275.384615384616,4141.025641025642,4276.410256410257
1205.8019,0.5959978,0.17738506,0.33333334,0.5522388,0,0.0,0.0,0.0,0.0,0.0,0,0,0.0,0.0,0,0,21.0,0.0,0.0,4601.025641025642,3875.8974358974365,4463.589743589744,4401.538461538462,4197.948717948719,4518.974358974359,4510.256410256411,4485.641025641026,4397.948717948719,4721.025641025642,4342.051282051282,4293.846153846154,4183.589743589744,4292.307692307693
1206.0834,0.6174016,0.1362655,0.33333334,0.5522388,0,0.0,0.0,0.0,0.0,0.0,0,0,0.0,0.0,0,0,57.0,0.0,0.0,4587.179487179488,3898.9743589743593,4435.384615384616,4408.717948717949,4211.282051282052,4522.564102564103,4491.282051282052,4473.846153846154,4397.435897435898,4744.615384615386,4345.641025641026,4277.435897435898,4180.512820512821,4329.743589743591
1206.0834,0.6174016,0.1362655,0.33333334,0.5522388,0,0.0,0.0,0.0,0.0,0.0,0,0,0.0,0.0,0,0,57.0,0.0,0.0,4587.179487179488,3898.9743589743593,4435.384615384616,4408.717948717949,4211.282051282052,4522.564102564103,4491.282051282052,4473.846153846154,4397.435897435898,4744.615384615386,4345.641025641026,4277.435897435898,4180.512820512821,4329.743589743591
1206.5837,0.69255507,0.09856442,0.33333334,0.5522388,0,0.0,0.0,0.0,0.0,0.6239962,0,0,0.0,0.0,0,0,121.0,0.0,495.0,4485.641025641026,3878.461538461539,4371.282051282052,4428.717948717949,4226.666666666667,4526.666666666667,4457.435897435898,4450.769230769231,4399.48717948718,4738.461538461539,4334.358974358975,4194.358974358975,4069.23076923077,4217.948717948719
1206.8027,0.69255507,0.09856442,0.33333334,0.5522388,0,0.0,0.0,0.0,0.0,0.037953135,0,0,0.0,0.0,0,0,20.0,0.0,0.0,4494.871794871796,3909.7435897435903,4381.538461538462,4433.846153846154,4231.794871794872,4524.615384615385,4433.333333333334,4430.769230769231,4403.076923076924,4738.461538461539,4330.256410256411,4203.076923076924,4077.435897435898,4250.769230769231
1207.0842,0.73535687,0.07445101,0.33333334,0.5522388,0,0.0,0.0,0.0,0.0,0.07159913,0,0,0.0,0.0,0,0,56.0,0.0,0.0,4504.102564102564,3926.1538461538466,4408.205128205129,4437.435897435898,4237.948717948719,4537.948717948719,4429.743589743591,4425.641025641026,4411.282051282052,4772.307692307693,4337.948717948719,4231.282051282052,4137.435897435898,4293.846153846154
1207.3031,0.73535687,0.07445101,0.33333334,0.5522388,0,0.0,0.0,0.0,0.0,0.052569784,0,0,0.0,0.0,0,0,84.0,0.0,51.0,4507.179487179488,3961.538461538462,4398.461538461539,4445.128205128206,4250.256410256411,4541.025641025642,4412.307692307693,4405.128205128206,4399.48717948718,4754.871794871796,4337.948717948719,4218.974358974359,4137.435897435898,4304.102564102564
1207.5846,0.6915102,0.062060967,0.33333334,0.5522388,0,0.0,0.0,0.0,0.0,0.032086913,0,0,0.0,0.0,0,0,120.0,0.0,51.0,4522.051282051282,3988.717948717949,4416.923076923077,4459.48717948718,4264.102564102564,4558.974358974359,4423.076923076924,4425.128205128206,4414.871794871796,4770.256410256411,4343.589743589744,4229.74358974359,4158.461538461539,4344.615384615385
1207.8036,0.6915102,0.062060967,0.33333334,0.5522388,0,0.0,0.0,0.0,0.0,0.098896265,0,0,0.0,0.0,0,0,19.0,0.0,0.0,4526.153846153847,4020.5128205128212,4431.282051282052,4472.307692307693,4276.923076923077,4569.743589743591,4413.333333333334,4411.794871794872,4394.358974358975,4745.128205128206,4338.974358974359,4215.384615384616,4121.538461538462,4343.589743589744
1208.0851,0.66885793,0.059647415,0.33333334,0.5522388,1,0.0,0.0,0.0,0.0,0.27260882,0,0,0.0,0.0,0,0,55.0,0.0,0.0,4620.512820512821,4089.7435897435903,4494.871794871796,4474.358974358975,4266.153846153847,4566.153846153847,4409.743589743591,4409.743589743591,4395.8974358974365,4779.48717948718,4354.871794871796,4311.794871794872,4235.8974358974365,4489.2307692307695
1208.3041,0.66885793,0.059647415,0.33333334,0.5522388,0,0.0,0.0,0.0,0.0,0.43414992,0,0,0.0,0.0,0,0,83.0,0.0,474.0,4625.641025641026,4065.1282051282055,4506.666666666667,4474.358974358975,4268.205128205129,4568.717948717949,4429.2307692307695,4426.153846153847,4424.102564102564,4798.974358974359,4361.025641025642,4320.000000000001,4267.179487179487,4532.820512820514
1208.5854,0.67826337,0.08259022,0.33333334,0.5522388,0,0.0,0.0,0.0,0.0,0.3420521,0,0,0.0,0.0,0,0,119.0,0.0,474.0,4587.6923076923085,4063.076923076924,4489.743589743591,4473.333333333334,4277.435897435898,4569.743589743591,4397.948717948719,4367.6923076923085,4391.794871794872,4745.128205128206,4350.256410256411,4265.128205128206,4171.282051282052,4521.025641025642
1208.8044,0.67826337,0.08259022,0.33333334,0.5522388,0,0.0,0.0,0.0,0.0,0.04413031,0,0,0.0,0.0,0,0,18.0,0.0,0.0,4589.2307692307695,4033.333333333334,4510.769230769231,4461.025641025642,4276.410256410257,4568.205128205129,4420.000000000001,4412.820512820514,4400.000000000001,4771.794871794872,4355.384615384616,4270.256410256411,4204.615384615385,4505.128205128206
1209.0859,0.54214984,0.107221685,0.33333334,0.5522388,0,0.0,0.0,0.0,0.0,0.38831797,0,0,0.0,0.0,0,0,54.0,0.0,0.0,4581.025641025642,4042.564102564103,4556.923076923077,4473.846153846154,4277.435897435898,4572.307692307693,4407.6923076923085,4373.333333333334,4381.538461538462,4742.564102564103,4346.153846153847,4242.564102564103,4153.846153846154,4411.282051282052
1209.3049,0.54214984,0.107221685,0.33333334,0.5522388,0,0.0,0.0,0.0,0.0,0.6109538,0,0,0.0,0.0,0,0,82.0,0.0,527.0,4603.589743589744,3985.1282051282055,4607.179487179488,4454.358974358975,4264.615384615385,4572.820512820514,4413.846153846154,4385.128205128206,4377.435897435898,4748.717948717949,4347.6923076923085,4245.128205128206,4173.333333333334,4398.974358974359
1209.5864,0.5057479,0.14366688,0.33333334,0.5522388,0,0.0,0.0,0.0,0.0,0.18734322,0,0,0.0,0.0,0,0,118.0,0.0,527.0,4649.743589743591,3926.1538461538466,4648.717948717949,4444.102564102564,4248.205128205129,4571.282051282052,4427.179487179487,4423.589743589744,4399.48717948718,4785.641025641026,4359.48717948718,4283.076923076924,4271.282051282052,4416.410256410257
1209.8679,0.5057479,0.14366688,0.33333334,0.5522388,1,0.0,0.0,0.0,0.0,0.208185,0,0,0.0,0.0,0,0,25.0,0.0,0.0,4692.307692307693,3955.3846153846157,4646.666666666667,4430.769230769231,4246.666666666667,4570.256410256411,4436.410256410257,4428.205128205129,4387.179487179487,4737.948717948719,4354.871794871796,4293.333333333334,4280.000000000001,4406.666666666667
1210.0868,0.47656673,0.17620249,0.33333334,0.5522388,0,0.0,0.0,0.0,0.0,0.15954405,0,0,0.0,0.0,0,0,53.0,0.0,0.0,4640.512820512821,3896.410256410257,4603.589743589744,4428.205128205129,4247.6923076923085,4571.282051282052,4446.666666666667,4436.410256410257,4391.794871794872,4721.025641025642,4352.820512820514,4250.769230769231,4252.307692307693,4365.641025641026
1210.3058,0.47656673,0.17620249,0.33333334,0.5522388,0,0.0,0.0,0.0,0.0,0.12426725,0,0,0.0,0.0,0,0,81.0,0.0,495.0,4609.743589743591,3881.538461538462,4554.871794871796,4421.025641025642,4232.820512820514,4557.435897435898,4426.666666666667,4415.8974358974365,4384.615384615385,4708.717948717949,4345.128205128206,4230.769230769231,4221.025641025642,4384.615384615385
1210.5873,0.43357897,0.20548455,0.33333334,0.5522388,0,0.0,0.0,0.0,0.0,1.0,0,0,0.0,0.0,0,0,117.0,0.0,495.0,4614.358974358975,3878.9743589743593,4551.794871794872,4421.025641025642,4248.205128205129,4571.282051282052,4452.820512820514,4438.461538461539,4396.410256410257,4725.128205128206,4348.717948717949,4264.615384615385,4265.641025641026,4494.358974358975
1210.5873,0.43357897,0.20548455,0.33333334,0.5522388,0,0.0,0.0,0.0,0.0,1.0,0,0,0.0,0.0,0,0,117.0,0.0,495.0,4614.358974358975,3878.9743589743593,4551.794871794872,4421.025641025642,4248.205128205129,4571.282051282052,4452.820512820514,4438.461538461539,4396.410256410257,4725.128205128206,4348.717948717949,4264.615384615385,4265.641025641026,4494.358974358975
1211.1189,0.3757835,0.23183839,0.33333334,0.5522388,1,0.0,0.0,0.0,0.0,0.3130915,0,0,0.0,0.0,0,0,56.0,0.0,0.0,4613.333333333334,3954.358974358975,4492.820512820514,4430.769230769231,4261.538461538462,4570.769230769231,4444.102564102564,4424.102564102564,4395.384615384616,4704.102564102564,4349.2307692307695,4262.051282051282,4212.307692307693,4602.051282051282
1211.3066,0.3757835,0.23183839,0.33333334,0.5522388,0,0.0,0.0,0.0,0.0,0.2261465,0,0,0.0,0.0,0,0,80.0,0.0,51.0,4494.871794871796,3787.1794871794878,4415.8974358974365,4414.358974358975,4246.666666666667,4554.871794871796,4451.794871794872,4445.641025641026,4410.256410256411,4748.717948717949,4346.666666666667,4200.000000000001,4201.538461538462,4520.512820512821
1211.5881,0.33400285,0.25555685,0.33333334,0.5522388,0,0.0,0.0,0.0,0.0,0.18745506,0,0,0.0,0.0,0,0,116.0,0.0,51.0,4489.743589743591,3838.9743589743593,4410.256410256411,4428.717948717949,4265.128205128206,4567.6923076923085,4444.102564102564,4402.051282051282,4389.2307692307695,4690.256410256411,4334.871794871796,4182.051282051282,4120.512820512821,4505.641025641026
1211.807,0.33400285,0.25555685,0.33333334,0.5522388,0,0.0,0.0,0.0,0.0,0.06841574,0,0,0.0,0.0,0,0,15.0,0.0,472.0,4490.769230769231,3875.8974358974365,4410.769230769231,4441.538461538462,4261.538461538462,4554.871794871796,4442.564102564103,4412.307692307693,4395.8974358974365,4743.076923076924,4343.589743589744,4199.48717948718,4137.435897435898,4478.974358974359
1212.0885,0.2942244,0.2639415,0.33333334,0.5522388,0,0.0,0.0,0.0,0.0,0.82878876,0,0,0.0,0.0,0,0,51.0,0.0,0.0,4507.179487179488,3894.8717948717954,4427.6923076923085,4451.794871794872,4263.589743589744,4554.871794871796,4442.051282051282,4419.48717948718,4397.948717948719,4763.589743589744,4344.102564102564,4217.435897435898,4140.000000000001,4414.871794871796
1212.1824,0.2942244,0.2639415,0.33333334,0.5522388,0,0.0,0.0,0.0,0.0,1.0,0,0,0.0,0.0,0,0,63.0,0.0,0.0,4515.8974358974365,3897.435897435898,4434.358974358975,4458.461538461539,4265.128205128206,4556.923076923077,4457.948717948719,4448.205128205129,4408.717948717949,4765.641025641026,4346.153846153847,4223.076923076924,4142.051282051282,4385.128205128206
1212.6202,0.35614243,0.2713821,0.33333334,0.5522388,0,0.0,0.0,0.0,0.0,0.17006302,0,0,0.0,0.0,1,0,119.0,0.0,472.0,4683.589743589744,4159.48717948718,4543.076923076924,4476.923076923077,4300.000000000001,4588.205128205129,4477.435897435898,4438.461538461539,4407.179487179487,4777.435897435898,4364.615384615385,4370.256410256411,4241.025641025642,4543.076923076924
1212.8079,0.35614243,0.2713821,0.33333334,0.5522388,0,0.0,0.0,0.0,0.0,0.23206423,0,0,0.0,0.0,1,0,14.0,0.0,527.0,4625.641025641026,4076.410256410257,4516.410256410257,4477.435897435898,4308.717948717949,4593.846153846154,4485.128205128206,4448.205128205129,4402.564102564103,4782.051282051282,4363.589743589744,4326.153846153847,4198.461538461539,4481.025641025642
1213.0894,0.3634102,0.27807865,0.33333334,0.5522388,0,0.0,0.0,0.0,0.0,0.1150011,0,0,0.0,0.0,0,0,50.0,0.0,0.0,4633.333333333334,4074.8717948717954,4511.794871794872,4475.384615384616,4309.2307692307695,4600.000000000001,4474.871794871796,4463.589743589744,4409.2307692307695,4790.769230769231,4367.6923076923085,4325.128205128206,4190.256410256411,4525.128205128206
1213.3708,0.3634102,0.27807865,0.33333334,0.5522388,1,0.0,0.0,0.0,0.0,0.24342285,0,0,0.0,0.0,0,0,86.0,0.0,527.0,4641.538461538462,4105.641025641026,4506.666666666667,4459.48717948718,4295.384615384616,4592.307692307693,4449.743589743591,4458.974358974359,4399.48717948718,4768.717948717949,4360.000000000001,4323.589743589744,4215.384615384616,4643.589743589744
1213.5898,0.32896003,0.28410554,0.33333334,0.5522388,0,0.0,0.0,0.0,0.0,0.20916939,0,0,0.0,0.0,0,0,114.0,0.0,527.0,4605.128205128206,4035.8974358974365,4488.717948717949,4451.282051282052,4277.435897435898,4581.538461538462,4459.48717948718,4474.358974358975,4403.589743589744,4789.743589743591,4366.153846153847,4295.8974358974365,4189.2307692307695,4649.2307692307695
1213.8087,0.32896003,0.28410554,0.33333334,0.5522388,0,0.0,0.0,0.0,0.0,0.092376426,0,0,0.0,0.0,0,0,13.0,0.0,495.0,4585.641025641026,4012.820512820513,4477.948717948719,4444.102564102564,4274.358974358975,4572.307692307693,4446.666666666667,4456.923076923077,4396.923076923077,4770.256410256411,4362.051282051282,4282.564102564103,4186.153846153847,4635.8974358974365
1214.0902,0.39620733,0.28952974,0.33333334,0.5522388,0,0.0,0.0,0.0,0.0,0.0848835,0,0,0.0,0.0,0,0,49.0,0.0,0.0,4598.461538461539,4036.410256410257,4487.179487179488,4460.000000000001,4275.8974358974365,4569.743589743591,4443.589743589744,4460.000000000001,4395.8974358974365,4765.128205128206,4356.410256410257,4292.820512820514,4171.282051282052,4606.666666666667
1214.403,0.39620733,0.28952974,0.33333334,0.5522388,0,0.0,0.0,0.0,0.0,0.15900575,0,0,0.0,0.0,0,0,89.0,0.0,495.0,4566.153846153847,4003.589743589744,4472.307692307693,4446.666666666667,4263.589743589744,4559.48717948718,4451.794871794872,4461.538461538462,4396.923076923077,4748.717948717949,4352.820512820514,4265.641025641026,4170.256410256411,4500.512820512821
1214.5907,0.39344427,0.7470887,0.33333334,0.5522388,0,0.0,0.0,0.0,0.0,0.28799868,0,0,0.0,0.0,0,0,113.0,0.0,495.0,4586.153846153847,4003.076923076924,4481.025641025642,4458.461538461539,4263.076923076924,4555.384615384616,4441.538461538462,4450.769230769231,4385.128205128206,4755.384615384616,4352.307692307693,4284.615384615385,4188.717948717949,4477.435897435898
1214.8096,0.39344427,0.7470887,0.33333334,0.5522388,0,0.0,0.0,0.0,0.0,0.34479156,0,0,0.0,0.0,0,0,12.0,0.0,51.0,4576.923076923077,3998.9743589743593,4476.923076923077,4457.435897435898,4262.051282051282,4556.410256410257,4443.589743589744,4450.256410256411,4394.871794871796,4735.384615384616,4350.769230769231,4265.641025641026,4188.717948717949,4466.153846153847
1215.0911,0.29160097,0.7953743,0.33333334,0.5522388,0,0.0,0.0,0.0,0.0,0.0,0,0,0.0,0.0,0,0,48.0,0.0,0.0,4587.6923076923085,3991.7948717948725,4490.769230769231,4452.307692307693,4259.48717948718,4555.8974358974365,4443.076923076924,4451.794871794872,4397.948717948719,4741.538461538462,4350.769230769231,4267.179487179487,4203.589743589744,4458.461538461539
1215.0911,0.29160097,0.7953743,0.33333334,0.5522388,0,0.0,0.0,0.0,0.0,0.0,0,0,0.0,0.0,0,0,48.0,0.0,0.0,4587.6923076923085,3991.7948717948725,4490.769230769231,4452.307692307693,4259.48717948718,4555.8974358974365,4443.076923076924,4451.794871794872,4397.948717948719,4741.538461538462,4350.769230769231,4267.179487179487,4203.589743589744,4458.461538461539
1215.5916,0.18421783,0.74562484,0.33333334,0.5522388,0,0.0,0.0,0.0,0.0,0.09207114,0,0,0.0,0.0,0,0,112.0,0.0,51.0,4590.256410256411,3970.7692307692314,4490.769230769231,4448.205128205129,4251.282051282052,4557.435897435898,4446.666666666667,4450.256410256411,4409.743589743591,4755.8974358974365,4351.794871794872,4274.871794871796,4230.769230769231,4441.025641025642
1215.6853,0.18421783,0.74562484,0.33333334,0.5522388,0,0.0,0.0,0.0,0.0,0.0,0,0,0.0,0.0,0,0,124.0,0.0,51.0,4595.384615384616,3974.358974358975,4492.307692307693,4445.641025641026,4261.538461538462,4557.435897435898,4446.153846153847,4452.307692307693,4409.2307692307695,4752.820512820514,4352.820512820514,4280.000000000001,4232.820512820514,4451.282051282052
1216.0919,0.13634959,0.6957499,0.33333334,0.5522388,0,0.0,0.0,0.0,0.0,0.0,0,0,0.0,0.0,0,0,47.0,0.0,0.0,4607.6923076923085,3954.8717948717954,4487.6923076923085,4446.153846153847,4258.461538461539,4554.871794871796,4459.48717948718,4457.948717948719,4413.846153846154,4748.717948717949,4351.794871794872,4279.48717948718,4249.2307692307695,4445.641025641026
1216.3109,0.13634959,0.6957499,0.33333334,0.5522388,0,0.0,0.0,0.0,0.0,0.2684489,0,0,0.0,0.0,0,0,75.0,0.0,471.0,4607.179487179488,3988.205128205129,4488.205128205129,4461.025641025642,4265.128205128206,4559.48717948718,4455.8974358974365,4447.179487179487,4396.410256410257,4717.435897435898,4348.717948717949,4262.051282051282,4203.076923076924,4485.128205128206
1216.6549,0.08368006,0.6184263,0.33333334,0.5522388,1,0.0,0.0,0.0,0.0,0.36642417,0,0,0.0,0.0,0,0,119.0,0.0,471.0,4643.589743589744,4018.9743589743593,4500.512820512821,4462.564102564103,4250.769230769231,4553.846153846154,4442.051282051282,4427.179487179487,4382.564102564103,4721.538461538462,4346.153846153847,4295.8974358974365,4242.564102564103,4566.153846153847
1216.8113,0.08368006,0.6184263,0.33333334,0.5522388,0,0.0,0.0,0.0,0.0,0.18718342,0,0,0.0,0.0,0,0,10.0,0.0,527.0,4616.923076923077,3968.205128205129,4488.717948717949,4458.974358974359,4252.307692307693,4555.8974358974365,4461.025641025642,4454.871794871796,4397.435897435898,4728.205128205129,4347.179487179487,4271.794871794872,4207.6923076923085,4528.205128205129
1217.1241,0.08005387,0.5559485,0.33333334,0.5522388,1,0.0,0.0,0.0,0.0,0.14999378,0,0,0.0,0.0,0,0,50.0,0.0,0.0,4614.358974358975,3986.666666666667,4497.948717948719,4477.948717948719,4257.948717948719,4549.743589743591,4453.333333333334,4460.000000000001,4402.051282051282,4743.076923076924,4349.2307692307695,4286.153846153847,4220.000000000001,4554.358974358975
1217.3118,0.08005387,0.5559485,0.33333334,0.5522388,0,0.0,0.0,0.0,0.0,0.10999728,0,0,0.0,0.0,0,0,74.0,0.0,527.0,4591.282051282052,3928.205128205129,4476.410256410257,4477.948717948719,4249.2307692307695,4541.025641025642,4442.564102564103,4437.948717948719,4383.589743589744,4704.615384615386,4342.564102564103,4259.48717948718,4198.461538461539,4542.051282051282
1217.5933,0.05201818,0.54186046,0.33333334,0.5522388,0,0.0,0.0,0.0,0.0,0.11530894,0,0,0.0,0.0,0,0,110.0,0.0,527.0,4584.102564102564,3913.333333333334,4485.641025641026,4485.641025641026,4247.179487179487,4540.000000000001,4460.000000000001,4475.8974358974365,4399.48717948718,4734.358974358975,4343.076923076924,4262.051282051282,4186.153846153847,4566.153846153847
1217.8121,0.05201818,0.54186046,0.33333334,0.5522388,0,0.0,0.0,0.0,0.0,0.07546124,0,0,0.0,0.0,0,0,9.0,0.0,481.0,4598.974358974359,3917.435897435898,4477.435897435898,4485.641025641026,4253.333333333334,4556.410256410257,4457.948717948719,4461.538461538462,4401.025641025642,4722.564102564103,4339.48717948718,4264.102564102564,4188.205128205129,4570.769230769231
1218.0936,0.030033397,0.53989613,0.33333334,0.5522388,0,0.0,0.0,0.0,0.0,0.23236032,0,0,0.0,0.0,0,0,45.0,0.0,0.0,4615.8974358974365,3934.358974358975,4491.794871794872,4474.871794871796,4252.307692307693,4566.153846153847,4467.179487179487,4469.2307692307695,4394.871794871796,4726.666666666667,4341.025641025642,4254.871794871796,4163.589743589744,4571.794871794872
1218.3126,0.030033397,0.53989613,0.33333334,0.5522388,0,0.0,0.0,0.0,0.0,0.15298608,0,0,0.0,0.0,0,0,73.0,0.0,481.0,4616.923076923077,3903.589743589744,4501.538461538462,4464.102564102564,4256.410256410257,4569.743589743591,4460.512820512821,4424.615384615385,4380.000000000001,4708.717948717949,4332.820512820514,4247.6923076923085,4125.128205128206,4542.051282051282
1218.6254,0.009852683,0.5212622,0.33333334,0.5522388,1,0.0,0.0,0.0,0.0,0.121921994,0,0,0.0,0.0,0,0,113.0,0.0,495.0,4686.666666666667,3992.820512820513,4583.589743589744,4472.307692307693,4266.153846153847,4586.666666666667,4463.589743589744,4442.051282051282,4388.205128205129,4729.2307692307695,4338.461538461539,4282.564102564103,4152.820512820514,4588.205128205129
1218.813,0.009852683,0.5212622,0.33333334,0.5522388,0,0.0,0.0,0.0,0.0,0.18059063,0,0,0.0,0.0,0,0,8.0,0.0,375.0,4644.102564102564,3924.1025641025644,4573.846153846154,4448.205128205129,4251.282051282052,4575.384615384616,4459.48717948718,4421.025641025642,4381.538461538462,4721.025641025642,4330.256410256411,4245.641025641026,4123.589743589744,4520.000000000001
1219.0945,0.07141422,0.49163124,0.33333334,0.5522388,0,0.0,0.0,0.0,0.0,0.3327573,0,0,0.0,0.0,0,0,44.0,0.0,0.0,4646.666666666667,3905.1282051282055,4576.410256410257,4445.641025641026,4249.2307692307695,4573.333333333334,4460.000000000001,4444.615384615385,4400.512820512821,4750.256410256411,4341.538461538462,4245.128205128206,4154.358974358975,4488.717948717949
1219.4073,0.07141422,0.49163124,0.33333334,0.5522388,0,0.0,0.0,0.0,0.0,0.14691469,0,0,0.0,0.0,0,0,84.0,0.0,51.0,4662.051282051282,3882.564102564103,4566.153846153847,4411.282051282052,4244.102564102564,4568.205128205129,4455.384615384616,4430.769230769231,4392.307692307693,4717.435897435898,4335.8974358974365,4238.461538461539,4150.256410256411,4488.205128205129
1219.595,0.09284381,0.48651788,0.33333334,0.5522388,0,0.0,0.0,0.0,0.0,0.11093643,0,0,0.0,0.0,0,0,108.0,0.0,51.0,4649.2307692307695,3870.7692307692314,4552.820512820514,4397.435897435898,4240.512820512821,4558.974358974359,4465.641025641026,4429.2307692307695,4394.358974358975,4707.6923076923085,4332.307692307693,4243.076923076924,4145.641025641026,4476.923076923077
1219.814,0.09284381,0.48651788,0.33333334,0.5522388,0,0.0,0.0,0.0,0.0,0.048590757,0,0,0.0,0.0,0,0,7.0,0.0,466.0,4634.358974358975,3878.461538461539,4520.512820512821,4405.641025641026,4247.179487179487,4560.000000000001,4465.128205128206,4430.256410256411,4390.256410256411,4680.000000000001,4329.2307692307695,4220.512820512821,4105.641025641026,4461.025641025642
1220.0955,0.10735987,0.48415563,0.33333334,0.5522388,0,0.0,0.0,0.0,0.0,0.10287105,0,0,0.0,0.0,0,0,43.0,0.0,0.0,4647.179487179488,3915.8974358974365,4505.128205128206,4427.6923076923085,4265.128205128206,4570.769230769231,4477.948717948719,4443.589743589744,4389.2307692307695,4697.435897435898,4337.435897435898,4233.333333333334,4107.6923076923085,4429.743589743591
1220.3143,0.10735987,0.48415563,0.33333334,0.5522388,0,0.0,0.0,0.0,0.0,0.640522,0,0,0.0,0.0,0,0,71.0,0.0,466.0,4663.076923076924,3932.307692307693,4493.333333333334,4432.307692307693,4252.307692307693,4567.6923076923085,4486.153846153847,4432.820512820514,4383.589743589744,4677.435897435898,4330.769230769231,4243.589743589744,4095.3846153846157,4381.538461538462
1220.5958,0.15601808,0.47716916,0.33333334,0.5522388,0,0.0,0.0,0.0,0.0,0.39199597,0,0,0.0,0.0,0,0,107.0,0.0,471.0,4629.743589743591,3931.7948717948725,4471.282051282052,4427.6923076923085,4249.2307692307695,4554.358974358975,4474.358974358975,4411.794871794872,4381.025641025642,4669.743589743591,4322.051282051282,4231.794871794872,4086.666666666667,4357.948717948719
1220.8148,0.15601808,0.47716916,0.33333334,0.5522388,0,0.0,0.0,0.0,0.0,0.08305717,0,0,0.0,0.0,0,0,6.0,0.0,548.0,4636.410256410257,3959.48717948718,4484.102564102564,4445.128205128206,4251.282051282052,4555.384615384616,4474.871794871796,4428.205128205129,4378.461538461539,4694.871794871796,4328.205128205129,4250.256410256411,4105.128205128206,4386.666666666667
1221.0963,0.17606741,0.43214524,0.33333334,0.5522388,0,0.0,0.0,0.0,0.0,0.0,0,0,0.0,0.0,0,0,42.0,0.0,0.0,4600.512820512821,3926.1538461538466,4445.641025641026,4442.051282051282,4243.076923076924,4537.948717948719,4460.000000000001,4420.000000000001,4370.256410256411,4706.666666666667,4327.6923076923085,4232.820512820514,4091.7948717948725,4366.153846153847
1221.0963,0.17606741,0.43214524,0.33333334,0.5522388,0,0.0,0.0,0.0,0.0,0.0,0,0,0.0,0.0,0,0,42.0,0.0,0.0,4600.512820512821,3926.1538461538466,4445.641025641026,4442.051282051282,4243.076923076924,4537.948717948719,4460.000000000001,4420.000000000001,4370.256410256411,4706.666666666667,4327.6923076923085,4232.820512820514,4091.7948717948725,4366.153846153847
1221.5967,0.20656914,0.37798998,0.33333334,0.5522388,0,0.0,0.0,0.0,0.0,0.6214693,0,0,0.0,0.0,0,0,106.0,0.0,527.0,4617.435897435898,3988.205128205129,4480.512820512821,4477.435897435898,4271.282051282052,4562.564102564103,4465.128205128206,4436.410256410257,4387.6923076923085,4732.307692307693,4333.846153846154,4247.6923076923085,4111.282051282052,4488.205128205129
1221.8157,0.20656914,0.37798998,0.33333334,0.5522388,0,0.0,0.0,0.0,0.0,0.31625125,0,0,0.0,0.0,0,0,5.0,0.0,552.0,4613.846153846154,3989.7435897435903,4471.794871794872,4470.256410256411,4249.74358974359,4551.282051282052,4454.871794871796,4415.384615384616,4373.846153846154,4716.410256410257,4331.794871794872,4242.564102564103,4106.666666666667,4517.435897435898
1222.0972,0.16420922,0.3315727,0.33333334,0.5522388,0,0.0,0.0,0.0,0.0,0.24084522,0,0,0.0,0.0,0,0,41.0,0.0,0.0,4606.153846153847,3986.1538461538466,4458.461538461539,4459.48717948718,4246.153846153847,4540.000000000001,4443.589743589744,4392.820512820514,4357.435897435898,4706.666666666667,4325.641025641026,4237.435897435898,4097.435897435898,4549.743589743591
1222.316,0.16420922,0.3315727,0.33333334,0.5522388,0,0.0,0.0,0.0,0.0,0.3434002,0,0,0.0,0.0,0,0,69.0,0.0,552.0,4604.615384615385,4001.0256410256416,4458.461538461539,4473.333333333334,4249.2307692307695,4539.48717948718,4443.589743589744,4403.589743589744,4371.794871794872,4715.8974358974365,4330.256410256411,4236.410256410257,4105.128205128206,4550.769230769231
1222.5975,0.15577035,0.29408592,0.33333334,0.5522388,0,0.0,0.0,0.0,0.0,0.27630648,0,0,0.0,0.0,0,0,105.0,0.0,495.0,4631.282051282052,4021.538461538462,4508.717948717949,4506.666666666667,4280.000000000001,4569.743589743591,4476.923076923077,4450.256410256411,4398.974358974359,4795.8974358974365,4345.641025641026,4295.384615384616,4198.974358974359,4568.717948717949
1222.8165,0.15577035,0.29408592,0.33333334,0.5522388,0,0.0,0.0,0.0,0.0,0.0,0,0,0.0,0.0,0,0,4.0,0.0,556.0,4610.256410256411,4010.7692307692314,4494.871794871796,4504.615384615385,4277.948717948719,4570.256410256411,4474.871794871796,4455.8974358974365,4397.435897435898,4780.512820512821,4344.615384615385,4274.871794871796,4166.666666666667,4526.153846153847
1223.098,0.18683809,0.27968067,0.33333334,0.5522388,0,0.0,0.0,0.0,0.0,0.0,0,0,0.0,0.0,0,0,40.0,0.0,0.0,4634.871794871796,4045.6410256410263,4513.333333333334,4503.076923076924,4281.538461538462,4571.794871794872,4458.974358974359,4446.666666666667,4389.2307692307695,4741.538461538462,4343.076923076924,4278.461538461539,4140.512820512821,4526.153846153847
1223.3169,0.18683809,0.27968067,0.33333334,0.5522388,0,0.0,0.0,0.0,0.0,0.17395048,0,0,0.0,0.0,0,0,68.0,0.0,556.0,4630.769230769231,4013.8461538461543,4512.820512820514,4497.948717948719,4271.794871794872,4563.076923076924,4462.051282051282,4447.6923076923085,4380.512820512821,4764.615384615386,4341.538461538462,4281.538461538462,4180.000000000001,4492.307692307693
1223.5984,0.0853634,0.27571368,0.33333334,0.5522388,0,0.0,0.0,0.0,0.0,0.14603932,0,0,0.0,0.0,0,0,104.0,0.0,51.0,4626.666666666667,4016.9230769230776,4512.307692307693,4490.256410256411,4265.641025641026,4554.358974358975,4457.948717948719,4441.025641025642,4380.512820512821,4743.076923076924,4336.923076923077,4276.923076923077,4166.153846153847,4457.948717948719
1223.8174,0.0853634,0.27571368,0.33333334,0.5522388,0,0.0,0.0,0.0,0.0,0.0,0,0,0.0,0.0,0,0,3.0,0.0,500.0,4617.948717948719,3994.358974358975,4519.48717948718,4481.538461538462,4262.051282051282,4555.384615384616,4459.48717948718,4456.923076923077,4388.205128205129,4755.384615384616,4343.589743589744,4264.102564102564,4162.051282051282,4421.025641025642
