timestamp,excitement,frustration,meditation,engagementBoredom,blink,clench,laugh,smile,eyebrow,furrowBrow,lookLeft,lookRight,smirkLeft,smirkRight,winkLeft,winkRight,eeg0,eeg1,eeg2,eeg3,eeg4,eeg5,eeg6,eeg7,eeg8,eeg9,eeg10,eeg11,eeg12,eeg13,eeg14,eeg15,eeg16
18.265697,0.7391249,1.0,0.41779646,0.6952588,0,0.0,0.0,0.0,0.0,0.0,0,0,0.0,0.0,0,0,80.0,0.0,439.0,4607.179487179488,3911.2820512820517,4437.435897435898,4316.410256410257,4191.282051282052,4507.179487179488,4427.179487179487,4392.820512820514,4296.410256410257,4706.153846153847,4310.769230769231,4171.282051282052,4087.692307692308,4493.846153846154
18.64102,0.7304526,1.0,0.42438594,0.69703484,0,0.0,0.0,0.0,0.0,0.11127223,0,0,0.0,0.0,0,0,128.0,0.0,439.0,4654.871794871796,3961.0256410256416,4457.948717948719,4325.641025641026,4238.974358974359,4561.538461538462,4475.8974358974365,4441.025641025642,4311.794871794872,4736.923076923077,4334.358974358975,4185.128205128206,4088.205128205129,4518.974358974359
18.891235,0.7304526,1.0,0.42438594,0.69703484,0,0.0,0.0,0.0,0.0,0.11521538,0,0,0.0,0.0,0,0,31.0,0.0,0.0,4573.846153846154,3864.1025641025644,4415.384615384616,4267.6923076923085,4230.256410256411,4553.333333333334,4457.435897435898,4425.641025641026,4310.769230769231,4764.615384615386,4343.589743589744,4135.384615384616,4102.051282051282,4441.538461538462
19.141449,0.7137014,1.0,0.42635557,0.69860184,0,0.0,0.0,0.0,0.0,0.22620583,0,0,0.0,0.0,0,0,63.0,0.0,0.0,4567.6923076923085,3894.8717948717954,4407.6923076923085,4278.461538461539,4215.8974358974365,4540.000000000001,4426.666666666667,4408.717948717949,4295.8974358974365,4714.358974358975,4300.512820512821,4105.128205128206,4044.615384615385,4418.974358974359
19.391665,0.7137014,1.0,0.42635557,0.69860184,1,0.0,0.0,0.0,0.0,0.16849983,0,0,0.0,0.0,0,0,95.0,0.0,475.0,4624.102564102564,3942.0512820512827,4421.025641025642,4292.820512820514,4183.076923076924,4514.871794871796,4405.641025641026,4388.205128205129,4280.512820512821,4657.435897435898,4292.820512820514,4134.871794871796,4048.717948717949,4485.128205128206
19.64188,0.52105254,0.90559006,0.4236532,0.6999808,0,0.0,0.0,0.0,0.0,0.17179295,0,0,0.0,0.0,0,0,127.0,0.0,475.0,4503.076923076924,3863.076923076924,4375.8974358974365,4241.538461538462,4152.307692307693,4475.384615384616,4368.717948717949,4369.2307692307695,4262.051282051282,4633.846153846154,4268.205128205129,4081.538461538462,4011.2820512820517,4377.948717948719
19.892096,0.52105254,0.90559006,0.4236532,0.6999808,0,0.0,0.0,0.0,0.0,0.5306591,0,0,0.0,0.0,0,0,30.0,0.0,0.0,4512.307692307693,3833.333333333334,4351.282051282052,4247.6923076923085,4152.307692307693,4473.846153846154,4358.974358974359,4365.128205128206,4260.512820512821,4621.025641025642,4276.410256410257,4103.076923076924,4022.564102564103,4350.769230769231
20.14231,0.522192,0.8552657,0.4256662,0.7039412,0,0.0,0.0,0.0,0.0,0.57108784,0,0,0.0,0.0,0,0,62.0,0.0,0.0,4582.051282051282,3869.2307692307695,4377.948717948719,4276.410256410257,4174.358974358975,4506.153846153847,4384.615384615385,4394.871794871796,4285.641025641026,4669.2307692307695,4310.256410256411,4152.307692307693,4057.9487179487182,4462.051282051282
20.392525,0.522192,0.8552657,0.4256662,0.7039412,0,0.0,0.0,0.0,0.0,0.3472892,0,0,0.0,0.0,0,0,94.0,0.0,516.0,4538.974358974359,3818.461538461539,4344.102564102564,4231.282051282052,4123.589743589744,4442.564102564103,4341.538461538462,4362.564102564103,4266.666666666667,4637.435897435898,4289.2307692307695,4136.923076923077,4044.615384615385,4440.512820512821
20.64274,0.51705545,0.82688326,0.42826393,0.70343876,0,0.0,0.0,0.0,0.0,0.0,0,0,0.0,0.0,0,0,126.0,0.0,516.0,4546.153846153847,3845.1282051282055,4361.025641025642,4255.384615384616,4136.923076923077,4446.153846153847,4350.256410256411,4376.410256410257,4280.000000000001,4669.743589743591,4293.333333333334,4136.410256410257,4048.717948717949,4426.666666666667
20.64274,0.51705545,0.82688326,0.42826393,0.70343876,0,0.0,0.0,0.0,0.0,0.0,0,0,0.0,0.0,0,0,126.0,0.0,516.0,4546.153846153847,3845.1282051282055,4361.025641025642,4255.384615384616,4136.923076923077,4446.153846153847,4350.256410256411,4376.410256410257,4280.000000000001,4669.743589743591,4293.333333333334,4136.410256410257,4048.717948717949,4426.666666666667
21.14317,0.5081138,0.7874086,0.42934516,0.70296043,0,0.0,0.0,0.0,0.0,0.07057016,0,0,0.0,0.0,0,0,61.0,0.0,0.0,4601.538461538462,3876.410256410257,4426.153846153847,4295.8974358974365,4164.615384615385,4470.769230769231,4368.205128205129,4389.2307692307695,4304.615384615385,4732.307692307693,4330.769230769231,4202.051282051282,4094.8717948717954,4476.410256410257
21.268278,0.5081138,0.7874086,0.42934516,0.70296043,0,0.0,0.0,0.0,0.0,0.0,0,0,0.0,0.0,0,0,77.0,0.0,489.0,4606.666666666667,3895.3846153846157,4427.179487179487,4302.051282051282,4155.384615384616,4459.48717948718,4372.820512820514,4405.641025641026,4300.512820512821,4881.538461538462,4316.923076923077,4208.717948717949,4073.333333333334,4505.128205128206
21.6436,0.49789855,0.74586153,0.42774823,0.7050672,0,0.0,0.0,0.0,0.0,0.048474625,0,0,0.0,0.0,0,0,125.0,0.0,489.0,4598.974358974359,3844.615384615385,4408.205128205129,4277.948717948719,4142.564102564103,4438.461538461539,4374.871794871796,4423.589743589744,4318.461538461539,4875.384615384616,4326.153846153847,4187.6923076923085,4093.333333333334,4508.205128205129
21.893816,0.49789855,0.74586153,0.42774823,0.7050672,0,0.0,0.0,0.0,0.0,0.10605867,0,0,0.0,0.0,0,0,28.0,0.0,0.0,4617.435897435898,3887.692307692308,4416.923076923077,4249.74358974359,4152.307692307693,4431.282051282052,4336.923076923077,4373.846153846154,4309.743589743591,4822.564102564103,4290.769230769231,4175.8974358974365,4083.076923076924,4492.820512820514
22.14403,0.48288155,0.7210486,0.426292,0.6996653,0,0.0,0.0,0.0,0.0,0.14205535,0,0,0.0,0.0,0,0,60.0,0.0,0.0,4699.48717948718,4029.7435897435903,4497.948717948719,4342.051282051282,4197.435897435898,4488.717948717949,4364.102564102564,4402.051282051282,4307.6923076923085,4850.256410256411,4378.461538461539,4281.538461538462,4194.871794871796,4655.384615384616
22.394245,0.48288155,0.7210486,0.426292,0.6996653,0,0.0,0.0,0.0,0.0,0.18362695,0,0,0.0,0.0,0,1,92.0,0.0,439.0,4592.307692307693,3860.512820512821,4447.179487179487,4290.769230769231,4198.461538461539,4505.641025641026,4394.358974358975,4434.358974358975,4326.666666666667,4850.256410256411,4294.358974358975,4205.128205128206,4123.589743589744,4473.846153846154
22.64446,0.47595373,0.7125678,0.42516553,0.68755543,0,0.0,0.0,0.0,0.0,0.18395698,0,0,0.0,0.0,0,0,124.0,0.0,439.0,4645.641025641026,3911.2820512820517,4484.102564102564,4327.6923076923085,4215.8974358974365,4522.051282051282,4418.461538461539,4465.128205128206,4334.358974358975,4878.461538461539,4359.48717948718,4247.6923076923085,4168.717948717949,4510.769230769231
22.894674,0.47595373,0.7125678,0.42516553,0.68755543,0,0.0,0.0,0.0,0.0,0.18234922,0,0,0.0,0.0,0,0,27.0,0.0,0.0,4586.666666666667,3908.717948717949,4435.384615384616,4312.307692307693,4183.589743589744,4488.205128205129,4372.307692307693,4397.948717948719,4309.2307692307695,4767.179487179488,4291.282051282052,4169.2307692307695,4069.7435897435903,4403.076923076924
23.14489,0.48068234,0.7049351,0.41725874,0.6738669,0,0.0,0.0,0.0,0.0,0.13738623,0,0,0.0,0.0,0,0,59.0,0.0,0.0,4611.282051282052,3908.205128205129,4472.820512820514,4320.000000000001,4212.820512820514,4510.256410256411,4411.794871794872,4424.102564102564,4329.2307692307695,4786.666666666667,4325.128205128206,4207.6923076923085,4107.6923076923085,4449.743589743591
23.395105,0.48068234,0.7049351,0.41725874,0.6738669,0,0.0,0.0,0.0,0.0,0.14841835,0,0,0.0,0.0,0,0,91.0,0.0,476.0,4630.769230769231,3898.9743589743593,4496.410256410257,4329.2307692307695,4215.384615384616,4524.102564102564,4416.410256410257,4447.179487179487,4344.102564102564,4834.358974358975,4386.153846153847,4244.615384615385,4183.589743589744,4492.820512820514
23.64532,0.47547925,0.69806564,0.40868664,0.6615383,0,0.0,0.0,0.0,0.0,0.076955654,0,0,0.0,0.0,0,0,122.0,0.0,516.0,4638.974358974359,3926.666666666667,4498.974358974359,4335.8974358974365,4221.025641025642,4524.102564102564,4415.384615384616,4402.564102564103,4328.205128205129,4790.256410256411,4366.153846153847,4236.923076923077,4169.2307692307695,4510.256410256411
23.895535,0.47547925,0.69806564,0.40868664,0.6615383,0,0.0,0.0,0.0,0.0,0.046402648,0,0,0.0,0.0,0,0,26.0,0.0,0.0,4616.923076923077,3930.7692307692314,4483.589743589744,4337.435897435898,4203.589743589744,4492.820512820514,4385.128205128206,4373.846153846154,4309.2307692307695,4750.256410256411,4331.794871794872,4212.820512820514,4122.051282051282,4476.410256410257
24.14575,0.46169004,0.69188315,0.4009593,0.65046895,0,0.0,0.0,0.0,0.0,0.17292452,0,0,0.0,0.0,0,0,58.0,0.0,0.0,4598.974358974359,3901.538461538462,4485.641025641026,4327.6923076923085,4200.512820512821,4492.307692307693,4396.410256410257,4375.384615384616,4313.333333333334,4777.435897435898,4364.615384615385,4229.2307692307695,4182.051282051282,4458.461538461539
24.395966,0.46169004,0.69188315,0.4009593,0.65046895,0,0.0,0.0,0.0,0.0,0.07371022,0,0,0.0,0.0,0,0,90.0,0.0,516.0,4588.717948717949,3904.615384615385,4470.769230769231,4317.435897435898,4184.102564102564,4471.794871794872,4378.974358974359,4362.564102564103,4300.512820512821,4741.538461538462,4334.358974358975,4201.538461538462,4138.461538461539,4432.307692307693
24.646181,0.4493436,0.67780703,0.39399323,0.6405086,0,0.0,0.0,0.0,0.0,0.051697403,0,0,0.0,0.0,0,0,119.0,0.0,476.0,4573.333333333334,3898.461538461539,4460.512820512821,4310.769230769231,4188.205128205129,4472.307692307693,4386.666666666667,4366.666666666667,4311.282051282052,4724.102564102564,4312.820512820514,4182.051282051282,4108.205128205129,4419.48717948718
24.896395,0.4493436,0.67780703,0.39399323,0.6405086,0,0.0,0.0,0.0,0.0,0.13108447,0,0,0.0,0.0,0,0,24.0,0.0,0.0,4583.589743589744,3889.2307692307695,4469.2307692307695,4309.743589743591,4196.923076923077,4478.461538461539,4397.435897435898,4375.384615384616,4311.282051282052,4746.666666666667,4340.000000000001,4197.948717948719,4152.820512820514,4456.410256410257
25.14661,0.43418637,0.65843654,0.38774616,0.6315443,0,0.0,0.0,0.0,0.0,0.06730284,0,0,0.0,0.0,0,0,57.0,0.0,0.0,4593.846153846154,3897.435897435898,4474.871794871796,4329.2307692307695,4199.48717948718,4491.282051282052,4390.256410256411,4348.205128205129,4298.461538461539,4733.333333333334,4343.076923076924,4214.358974358975,4168.717948717949,4477.435897435898
25.396826,0.43418637,0.65843654,0.38774616,0.6315443,1,0.0,0.0,0.0,0.0,0.17687197,0,0,0.0,0.0,0,0,82.0,0.0,516.0,4731.794871794872,4092.307692307693,4537.435897435898,4435.384615384616,4215.384615384616,4505.128205128206,4394.358974358975,4373.846153846154,4317.435897435898,4755.384615384616,4404.102564102564,4328.717948717949,4274.871794871796,4676.923076923077
25.584486,0.43792522,0.6472752,0.38436753,0.6403964,1,0.0,0.0,0.0,0.0,0.17393143,0,0,0.0,0.0,0,0,113.0,0.0,491.0,4677.948717948719,3988.205128205129,4551.794871794872,4427.179487179487,4293.846153846154,4573.333333333334,4476.923076923077,4455.8974358974365,4356.410256410257,4822.564102564103,4409.2307692307695,4305.641025641026,4229.74358974359,4585.128205128206
25.772148,0.43792522,0.6472752,0.38436753,0.6403964,0,0.0,0.0,0.0,0.0,0.115130514,0,0,0.0,0.0,0,0,8.0,0.0,348.0,4649.2307692307695,3983.076923076924,4529.2307692307695,4409.743589743591,4279.48717948718,4555.8974358974365,4469.2307692307695,4441.538461538462,4356.923076923077,4779.48717948718,4361.538461538462,4261.025641025642,4156.410256410257,4538.974358974359
26.022364,0.4511629,0.63723,0.384369,0.6500161,0,0.0,0.0,0.0,0.0,0.062132366,0,0,0.0,0.0,0,0,40.0,0.0,0.0,4674.871794871796,3991.7948717948725,4547.6923076923085,4423.076923076924,4280.512820512821,4566.666666666667,4475.384615384616,4467.6923076923085,4367.179487179487,4823.076923076924,4410.769230769231,4302.564102564103,4226.666666666667,4592.820512820514
26.272577,0.4511629,0.63723,0.384369,0.6500161,0,0.0,0.0,0.0,0.0,0.052760486,0,0,0.0,0.0,0,0,72.0,0.0,348.0,4626.153846153847,3949.2307692307695,4516.923076923077,4386.666666666667,4249.74358974359,4537.435897435898,4448.205128205129,4476.410256410257,4367.179487179487,4783.076923076924,4371.794871794872,4248.717948717949,4169.74358974359,4546.153846153847
26.522793,0.46568152,0.62818927,0.38538855,0.65972155,0,0.0,0.0,0.0,0.0,0.0,0,0,0.0,0.0,0,0,104.0,0.0,439.0,4631.794871794872,3946.1538461538466,4515.384615384616,4390.256410256411,4247.179487179487,4526.666666666667,4437.435897435898,4446.153846153847,4342.051282051282,4762.051282051282,4364.102564102564,4245.641025641026,4150.769230769231,4521.538461538462
26.522793,0.46568152,0.62818927,0.38538855,0.65972155,0,0.0,0.0,0.0,0.0,0.0,0,0,0.0,0.0,0,0,104.0,0.0,439.0,4631.794871794872,3946.1538461538466,4515.384615384616,4390.256410256411,4247.179487179487,4526.666666666667,4437.435897435898,4446.153846153847,4342.051282051282,4762.051282051282,4364.102564102564,4245.641025641026,4150.769230769231,4521.538461538462
27.023224,0.45100066,0.62005264,0.38724396,0.6847554,0,0.0,0.0,0.0,0.0,0.0,0,0,0.0,0.0,0,0,39.0,0.0,0.0,4623.589743589744,3953.8461538461543,4514.358974358975,4398.461538461539,4258.974358974359,4539.48717948718,4443.589743589744,4469.743589743591,4350.769230769231,4766.153846153847,4371.282051282052,4243.076923076924,4150.256410256411,4509.2307692307695
27.023224,0.45100066,0.62005264,0.38724396,0.6847554,0,0.0,0.0,0.0,0.0,0.0,0,0,0.0,0.0,0,0,39.0,0.0,0.0,4623.589743589744,3953.8461538461543,4514.358974358975,4398.461538461539,4258.974358974359,4539.48717948718,4443.589743589744,4469.743589743591,4350.769230769231,4766.153846153847,4371.282051282052,4243.076923076924,4150.256410256411,4509.2307692307695
27.523653,0.43223372,0.6118678,0.38890314,0.7038545,0,0.0,0.0,0.0,0.0,0.0,0,0,0.0,0.0,0,0,103.0,0.0,476.0,4600.000000000001,3940.5128205128212,4489.2307692307695,4397.948717948719,4231.282051282052,4508.717948717949,4425.641025641026,4463.589743589744,4330.769230769231,4730.256410256411,4334.358974358975,4216.410256410257,4106.153846153847,4483.589743589744
27.773869,0.43223372,0.6118678,0.38890314,0.7038545,0,0.0,0.0,0.0,0.0,0.11160314,0,0,0.0,0.0,0,0,6.0,0.0,543.0,4608.717948717949,3917.435897435898,4482.564102564103,4387.179487179487,4217.948717948719,4500.000000000001,4416.923076923077,4460.000000000001,4343.076923076924,4753.846153846154,4360.000000000001,4239.48717948718,4157.948717948719,4489.743589743591
28.024084,0.40284055,0.6075369,0.39038545,0.7067927,0,0.0,0.0,0.0,0.0,0.02685218,0,0,0.0,0.0,0,0,38.0,0.0,0.0,4595.384615384616,3943.076923076924,4470.769230769231,4387.6923076923085,4228.205128205129,4505.641025641026,4408.205128205129,4414.871794871796,4324.615384615385,4700.512820512821,4313.846153846154,4206.153846153847,4089.23076923077,4447.6923076923085
28.274298,0.40284055,0.6075369,0.39038545,0.7067927,0,0.0,0.0,0.0,0.0,0.056157727,0,0,0.0,0.0,0,0,70.0,0.0,543.0,4623.076923076924,3969.7435897435903,4501.025641025642,4402.051282051282,4233.846153846154,4521.538461538462,4426.153846153847,4434.871794871796,4338.974358974359,4732.820512820514,4339.48717948718,4238.974358974359,4123.076923076924,4467.6923076923085
28.524513,0.3952711,0.6063753,0.39281213,0.6985051,0,0.0,0.0,0.0,0.0,0.060460966,0,0,0.0,0.0,0,0,102.0,0.0,516.0,4624.102564102564,3982.0512820512827,4505.641025641026,4415.384615384616,4250.769230769231,4535.8974358974365,4441.025641025642,4442.564102564103,4342.564102564103,4728.717948717949,4320.512820512821,4232.820512820514,4110.769230769231,4458.974358974359
28.774729,0.3952711,0.6063753,0.39281213,0.6985051,0,0.0,0.0,0.0,0.0,0.0911309,0,0,0.0,0.0,0,0,5.0,0.0,549.0,4601.538461538462,3957.435897435898,4497.435897435898,4405.128205128206,4254.358974358975,4535.8974358974365,4434.871794871796,4430.769230769231,4340.512820512821,4729.743589743591,4307.6923076923085,4215.8974358974365,4106.666666666667,4428.205128205129
29.056221,0.3853992,0.6108016,0.39597377,0.70269656,1,0.0,0.0,0.0,0.0,0.106273405,0,0,0.0,0.0,0,0,41.0,0.0,0.0,4634.871794871796,3942.0512820512827,4525.641025641026,4409.2307692307695,4247.179487179487,4536.923076923077,4455.8974358974365,4468.717948717949,4357.435897435898,4774.871794871796,4368.205128205129,4278.461538461539,4206.153846153847,4488.205128205129
29.212605,0.3853992,0.6108016,0.39597377,0.70269656,0,0.0,0.0,0.0,0.0,0.0,0,0,0.0,0.0,0,0,61.0,0.0,0.0,4636.923076923077,3964.1025641025644,4512.307692307693,4404.615384615385,4234.358974358975,4521.538461538462,4443.589743589744,4448.205128205129,4338.974358974359,4748.205128205129,4355.8974358974365,4263.076923076924,4191.794871794872,4492.307692307693
29.525373,0.3830338,0.6160427,0.39733925,0.71731824,0,0.0,0.0,0.0,0.0,0.0,0,0,0.0,0.0,0,0,101.0,0.0,491.0,4606.666666666667,3947.1794871794878,4507.6923076923085,4406.153846153847,4235.384615384616,4517.948717948719,4430.256410256411,4442.051282051282,4342.051282051282,4727.6923076923085,4332.820512820514,4244.102564102564,4149.2307692307695,4474.358974358975
29.525373,0.3830338,0.6160427,0.39733925,0.71731824,0,0.0,0.0,0.0,0.0,0.0,0,0,0.0,0.0,0,0,101.0,0.0,491.0,4606.666666666667,3947.1794871794878,4507.6923076923085,4406.153846153847,4235.384615384616,4517.948717948719,4430.256410256411,4442.051282051282,4342.051282051282,4727.6923076923085,4332.820512820514,4244.102564102564,4149.2307692307695,4474.358974358975
30.025805,0.3634563,0.6169246,0.39682132,0.73038393,0,0.0,0.0,0.0,0.0,0.0,0,0,0.0,0.0,0,0,36.0,0.0,0.0,4593.846153846154,3960.0000000000005,4491.794871794872,4366.153846153847,4237.948717948719,4520.512820512821,4424.102564102564,4443.589743589744,4343.589743589744,4725.128205128206,4307.179487179487,4220.512820512821,4118.974358974359,4487.179487179488
30.276018,0.3634563,0.6169246,0.39682132,0.73038393,0,0.0,0.0,0.0,0.0,0.038075328,0,0,0.0,0.0,0,0,68.0,0.0,550.0,4590.769230769231,3949.7435897435903,4494.358974358975,4370.256410256411,4230.769230769231,4507.6923076923085,4417.948717948719,4433.333333333334,4331.794871794872,4723.076923076924,4316.923076923077,4218.974358974359,4134.871794871796,4490.256410256411
30.526234,0.34763968,0.62544936,0.39634326,0.74748075,0,0.0,0.0,0.0,0.0,0.13967268,0,0,0.0,0.0,0,1,100.0,0.0,439.0,4605.641025641026,3942.564102564103,4502.051282051282,4356.410256410257,4217.435897435898,4491.794871794872,4425.641025641026,4459.48717948718,4344.102564102564,4742.564102564103,4356.410256410257,4250.769230769231,4199.48717948718,4539.48717948718
30.807726,0.34763968,0.62544936,0.39634326,0.74748075,0,0.0,0.0,0.0,0.0,0.0804171,0,0,0.0,0.0,0,0,7.0,0.0,456.0,4615.8974358974365,3954.358974358975,4510.256410256411,4371.282051282052,4215.8974358974365,4501.025641025642,4421.538461538462,4455.384615384616,4342.051282051282,4750.769230769231,4364.615384615385,4248.717948717949,4200.000000000001,4537.948717948719
31.026663,0.3387106,0.623336,0.3961047,0.7627211,0,0.0,0.0,0.0,0.0,0.11130803,0,0,0.0,0.0,0,0,35.0,0.0,0.0,4601.538461538462,3916.9230769230776,4506.666666666667,4371.794871794872,4217.948717948719,4505.641025641026,4425.128205128206,4454.871794871796,4340.000000000001,4749.2307692307695,4358.974358974359,4245.641025641026,4187.179487179487,4502.564102564103
31.276878,0.3387106,0.623336,0.3961047,0.7627211,0,0.0,0.0,0.0,0.0,0.20032802,0,0,0.0,0.0,0,0,67.0,0.0,471.0,4589.2307692307695,3915.3846153846157,4502.051282051282,4375.8974358974365,4223.589743589744,4508.205128205129,4431.794871794872,4460.000000000001,4346.666666666667,4747.6923076923085,4354.871794871796,4235.384615384616,4178.461538461539,4495.384615384616
31.527094,0.31331453,0.6211835,0.39587823,0.77627945,0,0.0,0.0,0.0,0.0,0.11523269,0,0,0.0,0.0,0,0,99.0,0.0,476.0,4639.48717948718,3982.564102564103,4525.128205128206,4427.6923076923085,4244.102564102564,4525.128205128206,4443.589743589744,4455.8974358974365,4350.769230769231,4731.794871794872,4343.076923076924,4251.282051282052,4148.205128205129,4532.820512820514
31.77731,0.31331453,0.6211835,0.39587823,0.77627945,0,0.0,0.0,0.0,0.0,0.1448059,0,0,0.0,0.0,0,0,2.0,0.0,462.0,4660.512820512821,3973.8461538461543,4542.051282051282,4423.589743589744,4236.410256410257,4522.564102564103,4445.641025641026,4449.743589743591,4347.6923076923085,4747.179487179488,4363.076923076924,4270.256410256411,4185.128205128206,4554.358974358975
32.121353,0.31802183,0.6219829,0.39566272,0.78803706,1,0.0,0.0,0.0,0.0,0.13737248,0,0,0.0,0.0,0,0,46.0,0.0,0.0,4705.128205128206,4028.205128205129,4552.307692307693,4438.461538461539,4234.871794871796,4525.641025641026,4450.256410256411,4454.871794871796,4364.102564102564,4758.974358974359,4379.48717948718,4293.846153846154,4218.461538461539,4618.461538461539
32.27774,0.31802183,0.6219829,0.39566272,0.78803706,0,0.0,0.0,0.0,0.0,0.13516767,0,0,0.0,0.0,0,0,66.0,0.0,462.0,4662.564102564103,3960.5128205128212,4540.512820512821,4398.974358974359,4237.948717948719,4536.410256410257,4460.512820512821,4459.48717948718,4357.435897435898,4756.923076923077,4349.2307692307695,4254.358974358975,4171.282051282052,4553.846153846154
32.527954,0.32713217,0.6227023,0.39456257,0.81045425,1,0.0,0.0,0.0,0.0,0.107179336,0,0,0.0,0.0,0,0,98.0,0.0,516.0,4717.948717948719,4014.8717948717954,4611.794871794872,4473.333333333334,4333.846153846154,4620.512820512821,4539.48717948718,4536.410256410257,4397.435897435898,4857.948717948719,4439.48717948718,4339.48717948718,4261.025641025642,4644.615384615385
32.778168,0.32713217,0.6227023,0.39456257,0.81045425,0,0.0,0.0,0.0,0.0,0.08150735,0,0,0.0,0.0,0,0,1.0,0.0,432.0,4732.820512820514,4003.076923076924,4608.717948717949,4460.000000000001,4325.128205128206,4609.2307692307695,4527.6923076923085,4542.051282051282,4410.256410256411,4882.051282051283,4462.051282051282,4356.410256410257,4318.461538461539,4668.717948717949
33.028385,0.34777373,0.6233497,0.396194,0.8174968,0,0.0,0.0,0.0,0.0,0.0,0,0,0.0,0.0,0,0,33.0,0.0,0.0,4687.6923076923085,3977.9487179487182,4566.666666666667,4426.666666666667,4307.6923076923085,4586.153846153847,4504.615384615385,4520.000000000001,4392.820512820514,4848.205128205129,4424.102564102564,4301.538461538462,4275.384615384616,4611.794871794872
33.028385,0.34777373,0.6233497,0.396194,0.8174968,0,0.0,0.0,0.0,0.0,0.0,0,0,0.0,0.0,0,0,33.0,0.0,0.0,4687.6923076923085,3977.9487179487182,4566.666666666667,4426.666666666667,4307.6923076923085,4586.153846153847,4504.615384615385,4520.000000000001,4392.820512820514,4848.205128205129,4424.102564102564,4301.538461538462,4275.384615384616,4611.794871794872
33.528812,0.37218314,0.6239325,0.40521705,0.8131278,0,0.0,0.0,0.0,0.0,0.0,0,0,0.0,0.0,0,0,97.0,0.0,491.0,4638.974358974359,3957.435897435898,4517.435897435898,4392.820512820514,4247.6923076923085,4524.102564102564,4453.846153846154,4457.948717948719,4390.256410256411,4734.871794871796,4327.6923076923085,4234.358974358975,4136.923076923077,4550.769230769231
33.77903,0.37218314,0.6239325,0.40521705,0.8131278,0,0.0,0.0,0.0,0.0,0.036205225,0,0,0.0,0.0,0,0,0.0,0.0,467.0,4685.128205128206,4023.589743589744,4565.128205128206,4446.666666666667,4306.153846153847,4583.076923076924,4496.923076923077,4495.8974358974365,4411.282051282052,4777.948717948719,4365.641025641026,4278.974358974359,4169.74358974359,4592.307692307693
34.029243,0.3739735,0.62445694,0.4133214,0.81525886,0,0.0,0.0,0.0,0.0,0.0,0,0,0.0,0.0,0,0,32.0,0.0,0.0,4709.743589743591,4005.6410256410263,4578.974358974359,4460.000000000001,4294.871794871796,4572.307692307693,4498.461538461539,4506.666666666667,4427.179487179487,4810.769230769231,4410.769230769231,4309.743589743591,4229.74358974359,4622.564102564103
34.029243,0.3739735,0.62445694,0.4133214,0.81525886,0,0.0,0.0,0.0,0.0,0.0,0,0,0.0,0.0,0,0,32.0,0.0,0.0,4709.743589743591,4005.6410256410263,4578.974358974359,4460.000000000001,4294.871794871796,4572.307692307693,4498.461538461539,4506.666666666667,4427.179487179487,4810.769230769231,4410.769230769231,4309.743589743591,4229.74358974359,4622.564102564103
34.529675,0.37375575,0.62121415,0.4143647,0.833879,0,0.0,0.0,0.0,0.0,0.05302556,0,0,0.0,0.0,0,0,96.0,0.0,439.0,4667.6923076923085,3989.23076923077,4538.461538461539,4432.307692307693,4260.000000000001,4534.871794871796,4445.128205128206,4442.564102564103,4393.846153846154,4735.8974358974365,4371.794871794872,4264.102564102564,4154.358974358975,4554.871794871796
34.77989,0.37375575,0.62121415,0.4143647,0.833879,0,0.0,0.0,0.0,0.0,0.0,0,0,0.0,0.0,0,0,128.0,0.0,439.0,4608.205128205129,3913.8461538461543,4490.769230769231,4377.435897435898,4217.435897435898,4492.307692307693,4417.435897435898,4419.48717948718,4373.846153846154,4696.410256410257,4335.384615384616,4209.74358974359,4110.769230769231,4476.923076923077
35.030106,0.40348324,0.61085427,0.41370082,0.8623061,0,0.0,0.0,0.0,0.0,0.0,0,0,0.0,0.0,0,0,31.0,0.0,0.0,4616.410256410257,3896.410256410257,4504.102564102564,4373.846153846154,4228.717948717949,4504.102564102564,4436.410256410257,4430.256410256411,4391.794871794872,4736.923076923077,4377.435897435898,4240.512820512821,4177.435897435898,4519.48717948718
35.28032,0.40348324,0.61085427,0.41370082,0.8623061,0,0.0,0.0,0.0,0.0,0.13009508,0,0,0.0,0.0,0,0,63.0,0.0,0.0,4599.48717948718,3898.461538461539,4483.589743589744,4366.666666666667,4203.589743589744,4478.461538461539,4399.48717948718,4406.153846153847,4375.384615384616,4710.769230769231,4348.717948717949,4213.846153846154,4142.051282051282,4521.025641025642
35.530533,0.4165592,0.5982021,0.4130885,0.88230526,0,0.0,0.0,0.0,0.0,0.05549943,0,0,0.0,0.0,0,0,95.0,0.0,476.0,4616.410256410257,3926.666666666667,4493.333333333334,4376.923076923077,4224.615384615385,4493.333333333334,4424.615384615385,4415.8974358974365,4381.538461538462,4721.538461538462,4354.871794871796,4227.6923076923085,4153.333333333334,4537.435897435898
35.78075,0.4165592,0.5982021,0.4130885,0.88230526,0,0.0,0.0,0.0,0.0,0.267639,0,0,0.0,0.0,0,0,127.0,0.0,476.0,4663.589743589744,3946.666666666667,4529.2307692307695,4410.769230769231,4232.820512820514,4507.6923076923085,4443.589743589744,4448.205128205129,4396.923076923077,4749.2307692307695,4398.461538461539,4278.461538461539,4201.025641025642,4603.076923076924
36.030964,0.42285734,0.5781861,0.41116622,0.8998103,0,0.0,0.0,0.0,0.0,0.1795722,0,0,0.0,0.0,0,0,30.0,0.0,0.0,4656.923076923077,3949.7435897435903,4530.256410256411,4420.512820512821,4246.666666666667,4524.615384615385,4449.2307692307695,4450.256410256411,4386.153846153847,4772.820512820514,4396.923076923077,4276.923076923077,4201.538461538462,4588.205128205129
36.281178,0.42285734,0.5781861,0.41116622,0.8998103,0,0.0,0.0,0.0,0.0,0.043390714,0,0,0.0,0.0,0,0,62.0,0.0,0.0,4654.358974358975,3964.1025641025644,4533.333333333334,4425.128205128206,4240.000000000001,4520.000000000001,4447.6923076923085,4453.333333333334,4382.051282051282,4766.153846153847,4380.000000000001,4278.461538461539,4189.2307692307695,4573.846153846154
36.531395,0.4072152,0.56441784,0.4079921,0.9150571,0,0.0,0.0,0.0,0.0,0.1342411,0,0,0.0,0.0,0,0,94.0,0.0,517.0,4635.8974358974365,3971.2820512820517,4518.461538461539,4430.769230769231,4234.358974358975,4508.717948717949,4426.153846153847,4414.358974358975,4357.435897435898,4712.820512820514,4334.871794871796,4238.974358974359,4115.8974358974365,4526.153846153847
36.78161,0.4072152,0.56441784,0.4079921,0.9150571,0,0.0,0.0,0.0,0.0,0.096044175,0,0,0.0,0.0,0,0,126.0,0.0,517.0,4610.769230769231,3948.205128205129,4503.076923076924,4409.2307692307695,4228.717948717949,4502.564102564103,4421.538461538462,4409.2307692307695,4347.179487179487,4678.974358974359,4302.564102564103,4212.307692307693,4089.7435897435903,4489.2307692307695
37.031826,0.40390193,0.55132145,0.4041397,0.9280196,0,0.0,0.0,0.0,0.0,0.03555024,0,0,0.0,0.0,0,0,29.0,0.0,0.0,4618.974358974359,3947.1794871794878,4508.717948717949,4411.282051282052,4232.820512820514,4505.641025641026,4430.769230769231,4440.512820512821,4359.48717948718,4705.128205128206,4310.256410256411,4217.435897435898,4110.256410256411,4494.358974358975
37.156933,0.40390193,0.55132145,0.4041397,0.9280196,0,0.0,0.0,0.0,0.0,0.0,0,0,0.0,0.0,0,0,45.0,0.0,0.0,4616.923076923077,3940.0000000000005,4507.179487179488,4397.435897435898,4226.666666666667,4494.871794871796,4416.410256410257,4430.769230769231,4351.282051282052,4686.153846153847,4301.025641025642,4209.2307692307695,4091.2820512820517,4480.512820512821
37.56353,0.4050539,0.5396044,0.40047485,0.93753785,1,0.0,0.0,0.0,0.0,0.0,0,0,0.0,0.0,0,0,97.0,0.0,491.0,4654.358974358975,3895.8974358974365,4531.282051282052,4383.589743589744,4230.256410256411,4506.666666666667,4482.564102564103,4521.538461538462,4390.769230769231,4800.512820512821,4396.410256410257,4278.974358974359,4262.051282051282,4552.307692307693
37.719917,0.4050539,0.5396044,0.40047485,0.93753785,0,0.0,0.0,0.0,0.0,0.0,0,0,0.0,0.0,0,0,117.0,0.0,491.0,4646.153846153847,3893.8461538461543,4515.384615384616,4366.666666666667,4212.820512820514,4491.282051282052,4441.538461538462,4494.871794871796,4378.461538461539,4774.358974358975,4378.974358974359,4264.615384615385,4238.974358974359,4539.48717948718
38.032684,0.4053822,0.5322888,0.39698145,0.9445631,0,0.0,0.0,0.0,0.0,0.0,0,0,0.0,0.0,0,0,28.0,0.0,0.0,4617.948717948719,3871.7948717948725,4494.358974358975,4361.538461538462,4202.051282051282,4478.974358974359,4441.025641025642,4476.923076923077,4366.666666666667,4777.435897435898,4368.205128205129,4243.076923076924,4229.74358974359,4509.2307692307695
38.282898,0.4053822,0.5322888,0.39698145,0.9445631,0,0.0,0.0,0.0,0.0,0.035224456,0,0,0.0,0.0,0,0,60.0,0.0,0.0,4652.307692307693,3930.7692307692314,4505.128205128206,4393.846153846154,4205.128205128206,4478.974358974359,4400.512820512821,4450.256410256411,4353.333333333334,4760.512820512821,4358.461538461539,4254.358974358975,4211.794871794872,4530.256410256411
38.533115,0.38746312,0.53397685,0.39404455,0.940698,0,0.0,0.0,0.0,0.0,0.10214536,0,0,0.0,0.0,0,0,92.0,0.0,439.0,4627.6923076923085,3918.9743589743593,4491.794871794872,4383.076923076924,4198.974358974359,4474.358974358975,4415.8974358974365,4462.051282051282,4349.743589743591,4725.641025641026,4313.333333333334,4212.820512820514,4149.2307692307695,4487.6923076923085
38.78333,0.38746312,0.53397685,0.39404455,0.940698,0,0.0,0.0,0.0,0.0,0.099559665,0,0,0.0,0.0,0,0,124.0,0.0,439.0,4643.589743589744,3958.9743589743593,4490.769230769231,4408.205128205129,4218.461538461539,4489.743589743591,4402.564102564103,4443.076923076924,4340.512820512821,4686.666666666667,4281.025641025642,4208.205128205129,4102.051282051282,4473.846153846154
39.033546,0.36218196,0.572808,0.3913911,0.94672465,0,0.0,0.0,0.0,0.0,0.09837172,0,0,0.0,0.0,0,0,27.0,0.0,0.0,4653.846153846154,3920.5128205128212,4508.205128205129,4396.410256410257,4213.333333333334,4489.743589743591,4426.153846153847,4469.2307692307695,4360.512820512821,4757.435897435898,4347.6923076923085,4249.2307692307695,4208.205128205129,4508.205128205129
39.28376,0.36218196,0.572808,0.3913911,0.94672465,0,0.0,0.0,0.0,0.0,0.104939215,0,0,0.0,0.0,0,0,59.0,0.0,0.0,4647.6923076923085,3928.205128205129,4513.846153846154,4412.820512820514,4230.256410256411,4507.179487179488,4451.282051282052,4481.538461538462,4363.589743589744,4765.641025641026,4351.282051282052,4247.6923076923085,4204.615384615385,4492.307692307693
39.533974,0.34248275,0.58989936,0.39196324,0.9411643,0,0.0,0.0,0.0,0.0,0.05724821,0,0,0.0,0.0,0,0,91.0,0.0,476.0,4617.948717948719,3912.820512820513,4486.666666666667,4388.717948717949,4201.538461538462,4478.461538461539,4415.8974358974365,4437.435897435898,4338.461538461539,4711.794871794872,4310.256410256411,4206.153846153847,4133.333333333334,4464.615384615385
39.78419,0.34248275,0.58989936,0.39196324,0.9411643,0,0.0,0.0,0.0,0.0,0.07111835,0,0,0.0,0.0,0,0,123.0,0.0,476.0,4573.333333333334,3877.435897435898,4467.179487179487,4361.025641025642,4183.076923076924,4464.615384615385,4409.2307692307695,4427.179487179487,4334.358974358975,4687.6923076923085,4277.435897435898,4176.923076923077,4087.1794871794878,4440.512820512821
40.034405,0.34841067,0.58868325,0.39716467,0.9279875,0,0.0,0.0,0.0,0.0,0.25159594,0,0,0.0,0.0,0,0,26.0,0.0,0.0,4643.589743589744,3950.2564102564106,4499.48717948718,4406.666666666667,4213.846153846154,4489.743589743591,4412.307692307693,4437.948717948719,4336.923076923077,4724.102564102564,4326.153846153847,4232.820512820514,4160.512820512821,4526.153846153847
40.28462,0.34841067,0.58868325,0.39716467,0.9279875,0,0.0,0.0,0.0,0.0,0.07222304,0,0,0.0,0.0,0,0,58.0,0.0,0.0,4625.128205128206,3945.6410256410263,4486.153846153847,4400.000000000001,4207.6923076923085,4489.2307692307695,4407.6923076923085,4415.384615384616,4323.076923076924,4676.923076923077,4295.384615384616,4199.48717948718,4110.256410256411,4478.974358974359
40.534836,0.33741626,0.5877569,0.40183344,0.9161387,0,0.0,0.0,0.0,0.0,0.1224907,0,0,0.0,0.0,0,0,90.0,0.0,518.0,4617.948717948719,3919.48717948718,4478.974358974359,4400.512820512821,4203.589743589744,4476.923076923077,4400.512820512821,4405.128205128206,4313.846153846154,4656.410256410257,4265.128205128206,4185.128205128206,4071.2820512820517,4456.923076923077
40.78505,0.33741626,0.5877569,0.40183344,0.9161387,0,0.0,0.0,0.0,0.0,0.12910199,0,0,0.0,0.0,0,0,122.0,0.0,518.0,4592.820512820514,3912.307692307693,4468.717948717949,4384.615384615385,4194.358974358975,4473.846153846154,4385.641025641026,4386.666666666667,4309.743589743591,4654.358974358975,4262.564102564103,4170.256410256411,4062.0512820512827,4437.435897435898
41.035263,0.35233888,0.5683414,0.40602195,0.9162191,0,0.0,0.0,0.0,0.0,0.13499437,0,0,0.0,0.0,0,0,25.0,0.0,0.0,4626.153846153847,3894.8717948717954,4487.6923076923085,4387.6923076923085,4210.256410256411,4489.743589743591,4415.384615384616,4424.102564102564,4324.615384615385,4711.794871794872,4324.102564102564,4212.307692307693,4166.153846153847,4488.717948717949
41.28548,0.35233888,0.5683414,0.40602195,0.9162191,0,0.0,0.0,0.0,0.0,0.10585105,0,0,0.0,0.0,0,0,57.0,0.0,0.0,4644.615384615385,3927.692307692308,4502.051282051282,4404.615384615385,4232.307692307693,4509.743589743591,4425.128205128206,4441.025641025642,4334.358974358975,4733.333333333334,4331.794871794872,4232.307692307693,4170.256410256411,4517.435897435898
41.535694,0.34993327,0.5629129,0.4067685,0.9192521,0,0.0,0.0,0.0,0.0,0.048596203,0,0,0.0,0.0,0,0,89.0,0.0,491.0,4662.564102564103,3938.461538461539,4502.564102564103,4414.871794871796,4232.820512820514,4511.794871794872,4426.666666666667,4447.179487179487,4326.153846153847,4745.128205128206,4343.589743589744,4245.641025641026,4169.2307692307695,4532.820512820514
41.87974,0.34993327,0.5629129,0.4067685,0.9192521,0,0.0,0.0,0.0,0.0,0.15692338,0,0,0.0,0.0,0,0,4.0,0.0,550.0,4633.846153846154,3891.2820512820517,4470.769230769231,4389.743589743591,4215.384615384616,4506.153846153847,4427.6923076923085,4448.205128205129,4329.2307692307695,4724.102564102564,4338.461538461539,4213.846153846154,4154.358974358975,4504.102564102564
42.036125,0.33354104,0.59550846,0.4059502,0.91873837,0,0.0,0.0,0.0,0.0,0.1356856,0,0,0.0,0.0,0,0,24.0,0.0,0.0,4704.615384615386,3957.435897435898,4542.564102564103,4453.846153846154,4286.153846153847,4571.794871794872,4493.846153846154,4506.666666666667,4352.307692307693,4802.564102564103,4398.974358974359,4298.974358974359,4224.615384615385,4571.282051282052
42.28634,0.33354104,0.59550846,0.4059502,0.91873837,0,0.0,0.0,0.0,0.0,0.048864134,0,0,0.0,0.0,0,0,56.0,0.0,0.0,4730.769230769231,4012.820512820513,4566.666666666667,4489.2307692307695,4330.769230769231,4612.820512820514,4525.641025641026,4537.435897435898,4373.846153846154,4818.974358974359,4409.743589743591,4317.948717948719,4230.769230769231,4600.512820512821
42.536556,0.4055892,0.6370639,0.4052011,0.9180604,0,0.0,0.0,0.0,0.0,0.08404757,0,0,0.0,0.0,0,0,88.0,0.0,440.0,4716.923076923077,3972.307692307693,4545.641025641026,4468.205128205129,4299.48717948718,4587.179487179488,4526.153846153847,4551.282051282052,4381.538461538462,4832.820512820514,4427.179487179487,4328.717948717949,4258.461538461539,4609.2307692307695
42.849323,0.4055892,0.6370639,0.4052011,0.9180604,1,0.0,0.0,0.0,0.0,0.040287096,0,0,0.0,0.0,0,0,128.0,0.0,440.0,4742.564102564103,4012.307692307693,4569.743589743591,4498.461538461539,4334.871794871796,4616.923076923077,4531.794871794872,4554.358974358975,4387.179487179487,4838.461538461539,4422.051282051282,4339.48717948718,4241.025641025642,4617.435897435898
43.036983,0.45142224,0.6817616,0.40451452,0.9172392,0,0.0,0.0,0.0,0.0,0.052258693,0,0,0.0,0.0,0,0,23.0,0.0,0.0,4724.615384615386,4031.7948717948725,4556.410256410257,4497.948717948719,4313.846153846154,4594.358974358975,4496.923076923077,4528.205128205129,4374.871794871796,4801.538461538462,4396.923076923077,4319.48717948718,4215.8974358974365,4601.025641025642
43.2872,0.45142224,0.6817616,0.40451452,0.9172392,0,0.0,0.0,0.0,0.0,0.05203,0,0,0.0,0.0,0,0,55.0,0.0,0.0,4691.794871794872,3966.1538461538466,4531.282051282052,4460.000000000001,4276.410256410257,4562.564102564103,4479.48717948718,4517.948717948719,4380.512820512821,4807.179487179488,4401.538461538462,4301.025641025642,4243.076923076924,4594.871794871796
43.537415,0.46382633,0.71291864,0.40388432,0.91629326,0,0.0,0.0,0.0,0.0,0.0,0,0,0.0,0.0,0,0,87.0,0.0,476.0,4651.794871794872,3948.205128205129,4511.794871794872,4441.538461538462,4264.615384615385,4548.717948717949,4467.179487179487,4490.256410256411,4366.666666666667,4752.820512820514,4353.333333333334,4248.205128205129,4170.769230769231,4542.051282051282
43.537415,0.46382633,0.71291864,0.40388432,0.91629326,0,0.0,0.0,0.0,0.0,0.0,0,0,0.0,0.0,0,0,87.0,0.0,476.0,4651.794871794872,3948.205128205129,4511.794871794872,4441.538461538462,4264.615384615385,4548.717948717949,4467.179487179487,4490.256410256411,4366.666666666667,4752.820512820514,4353.333333333334,4248.205128205129,4170.769230769231,4542.051282051282
44.037846,0.42657575,0.72432745,0.40512085,0.91257334,0,0.0,0.0,0.0,0.0,0.0,0,0,0.0,0.0,0,0,22.0,0.0,0.0,4671.282051282052,3955.8974358974365,4512.307692307693,4424.102564102564,4233.846153846154,4521.538461538462,4444.615384615385,4460.000000000001,4351.282051282052,4737.435897435898,4342.564102564103,4257.435897435898,4170.256410256411,4570.769230769231
44.28806,0.42657575,0.72432745,0.40512085,0.91257334,0,0.0,0.0,0.0,0.0,0.06797458,0,0,0.0,0.0,0,0,54.0,0.0,0.0,4693.846153846154,3954.8717948717954,4545.128205128206,4442.564102564103,4270.256410256411,4556.410256410257,4491.282051282052,4508.205128205129,4378.461538461539,4796.410256410257,4395.384615384616,4301.538461538462,4247.6923076923085,4615.8974358974365
44.538277,0.41286954,0.7156562,0.40703568,0.901293,0,0.0,0.0,0.0,0.0,0.05555717,0,0,0.0,0.0,0,0,86.0,0.0,518.0,4660.000000000001,3938.461538461539,4515.8974358974365,4415.384615384616,4251.282051282052,4540.000000000001,4444.102564102564,4492.820512820514,4367.6923076923085,4764.102564102564,4365.128205128206,4260.512820512821,4203.589743589744,4585.641025641026
44.78849,0.41286954,0.7156562,0.40703568,0.901293,0,0.0,0.0,0.0,0.0,0.043417737,0,0,0.0,0.0,0,0,118.0,0.0,518.0,4688.205128205129,4014.358974358975,4537.435897435898,4465.641025641026,4294.871794871796,4572.307692307693,4469.743589743591,4474.358974358975,4368.717948717949,4742.564102564103,4333.846153846154,4260.512820512821,4149.74358974359,4602.051282051282
45.038704,0.37660947,0.704208,0.40874562,0.88856196,0,0.0,0.0,0.0,0.0,0.055584915,0,0,0.0,0.0,0,0,21.0,0.0,0.0,4672.820512820514,3988.717948717949,4530.256410256411,4447.179487179487,4265.128205128206,4549.743589743591,4458.461538461539,4491.282051282052,4382.051282051282,4774.871794871796,4370.769230769231,4277.948717948719,4218.461538461539,4632.307692307693
45.28892,0.37660947,0.704208,0.40874562,0.88856196,0,0.0,0.0,0.0,0.0,0.19595568,0,0,0.0,0.0,0,0,53.0,0.0,0.0,4700.000000000001,3953.333333333334,4549.2307692307695,4435.8974358974365,4260.000000000001,4549.2307692307695,4489.743589743591,4503.076923076924,4381.025641025642,4809.2307692307695,4413.333333333334,4315.8974358974365,4288.205128205129,4665.128205128206
45.539135,0.37055165,0.700114,0.40872362,0.877121,0,0.0,0.0,0.0,0.0,0.057134237,0,0,0.0,0.0,0,0,85.0,0.0,491.0,4682.051282051282,3934.8717948717954,4537.435897435898,4423.589743589744,4251.282051282052,4536.410256410257,4475.384615384616,4491.794871794872,4383.589743589744,4796.410256410257,4400.000000000001,4294.358974358975,4255.8974358974365,4634.358974358975
45.78935,0.37055165,0.700114,0.40872362,0.877121,0,0.0,0.0,0.0,0.0,0.23246966,0,0,0.0,0.0,0,0,117.0,0.0,491.0,4656.923076923077,3941.538461538462,4506.153846153847,4416.923076923077,4232.307692307693,4522.051282051282,4441.025641025642,4458.974358974359,4375.8974358974365,4746.153846153847,4358.974358974359,4262.564102564103,4185.641025641026,4588.205128205129
46.039566,0.37259683,0.6903326,0.40869078,0.88330334,0,0.0,0.0,0.0,0.0,0.06356703,0,0,0.0,0.0,0,0,20.0,0.0,0.0,4634.358974358975,3960.0000000000005,4490.769230769231,4424.102564102564,4231.794871794872,4511.282051282052,4428.205128205129,4429.743589743591,4361.025641025642,4688.205128205129,4311.794871794872,4219.48717948718,4127.179487179487,4555.8974358974365
46.28978,0.37259683,0.6903326,0.40869078,0.88330334,0,0.0,0.0,0.0,0.0,0.050916635,0,0,0.0,0.0,0,0,52.0,0.0,0.0,4635.8974358974365,3973.8461538461543,4488.717948717949,4443.076923076924,4232.307692307693,4518.974358974359,4425.641025641026,4413.846153846154,4355.8974358974365,4685.641025641026,4295.8974358974365,4217.435897435898,4107.6923076923085,4556.923076923077
46.539997,0.40326387,0.67960006,0.40864825,0.8937092,0,0.0,0.0,0.0,0.0,0.12464103,0,0,0.0,0.0,0,0,84.0,0.0,440.0,4672.820512820514,3974.8717948717954,4521.538461538462,4457.435897435898,4251.282051282052,4541.538461538462,4461.538461538462,4455.384615384616,4377.948717948719,4738.974358974359,4329.2307692307695,4256.410256410257,4148.205128205129,4586.666666666667
46.79021,0.40326387,0.67960006,0.40864825,0.8937092,0,0.0,0.0,0.0,0.0,0.10193412,0,0,0.0,0.0,0,0,116.0,0.0,440.0,4665.128205128206,3939.48717948718,4508.717948717949,4430.256410256411,4238.974358974359,4524.102564102564,4460.000000000001,4461.538461538462,4381.025641025642,4781.025641025642,4370.256410256411,4277.435897435898,4231.794871794872,4611.282051282052
47.040424,0.385317,0.6623218,0.40648627,0.9188622,0,0.0,0.0,0.0,0.0,0.11232857,0,0,0.0,0.0,0,0,19.0,0.0,0.0,4648.717948717949,3924.1025641025644,4501.538461538462,4411.794871794872,4236.410256410257,4523.589743589744,4457.948717948719,4460.000000000001,4375.8974358974365,4746.153846153847,4355.384615384616,4248.717948717949,4191.282051282052,4572.307692307693
47.29064,0.385317,0.6623218,0.40648627,0.9188622,0,0.0,0.0,0.0,0.0,0.10931405,0,0,0.0,0.0,0,0,51.0,0.0,0.0,4642.564102564103,3940.0000000000005,4496.923076923077,4427.179487179487,4246.153846153847,4525.641025641026,4455.384615384616,4443.589743589744,4376.410256410257,4738.461538461539,4351.282051282052,4248.717948717949,4175.8974358974365,4569.2307692307695
47.540855,0.34834477,0.6238201,0.4020985,0.9425329,0,0.0,0.0,0.0,0.0,0.05735146,0,0,0.0,0.0,0,0,83.0,0.0,476.0,4647.179487179488,3941.0256410256416,4509.2307692307695,4429.2307692307695,4261.538461538462,4539.48717948718,4460.512820512821,4450.256410256411,4367.179487179487,4753.846153846154,4356.410256410257,4255.384615384616,4186.666666666667,4572.307692307693
47.822346,0.34834477,0.6238201,0.4020985,0.9425329,1,0.0,0.0,0.0,0.0,0.0,0,0,0.0,0.0,0,0,119.0,0.0,476.0,4691.282051282052,3973.333333333334,4528.717948717949,4451.282051282052,4251.794871794872,4536.923076923077,4457.435897435898,4454.871794871796,4378.461538461539,4757.435897435898,4372.820512820514,4293.846153846154,4215.384615384616,4631.282051282052
48.041286,0.324756,0.59537446,0.3983467,0.96306324,0,0.0,0.0,0.0,0.0,0.0,0,0,0.0,0.0,0,0,18.0,0.0,0.0,4671.282051282052,3944.615384615385,4518.461538461539,4440.512820512821,4252.820512820514,4537.948717948719,4473.333333333334,4466.153846153847,4376.410256410257,4756.410256410257,4351.282051282052,4268.717948717949,4173.333333333334,4602.564102564103
48.2915,0.324756,0.59537446,0.3983467,0.96306324,0,0.0,0.0,0.0,0.0,0.07435353,0,0,0.0,0.0,0,0,50.0,0.0,0.0,4681.025641025642,3992.307692307693,4539.48717948718,4461.025641025642,4275.8974358974365,4554.358974358975,4474.358974358975,4461.025641025642,4373.846153846154,4744.102564102564,4352.307692307693,4280.512820512821,4167.179487179487,4628.205128205129
48.541718,0.29905233,0.56937224,0.39495993,0.9790393,0,0.0,0.0,0.0,0.0,0.064969614,0,0,0.0,0.0,0,0,82.0,0.0,518.0,4676.410256410257,3953.8461538461543,4534.871794871796,4438.974358974359,4267.179487179487,4555.8974358974365,4485.128205128206,4469.2307692307695,4375.384615384616,4769.2307692307695,4380.512820512821,4279.48717948718,4216.410256410257,4626.153846153847
48.79193,0.29905233,0.56937224,0.39495993,0.9790393,0,0.0,0.0,0.0,0.0,0.06491281,0,0,0.0,0.0,0,0,114.0,0.0,518.0,4649.743589743591,3943.076923076924,4502.051282051282,4414.358974358975,4250.256410256411,4530.256410256411,4445.641025641026,4432.307692307693,4362.051282051282,4713.333333333334,4326.666666666667,4232.820512820514,4144.615384615385,4571.794871794872
49.042145,0.2945557,0.5538013,0.39190218,0.98340946,0,0.0,0.0,0.0,0.0,0.26300934,0,0,0.0,0.0,0,0,17.0,0.0,0.0,4652.820512820514,3954.8717948717954,4513.846153846154,4420.000000000001,4264.615384615385,4538.974358974359,4458.974358974359,4448.717948717949,4367.6923076923085,4717.948717948719,4338.461538461539,4240.512820512821,4156.923076923077,4566.666666666667
49.292362,0.2945557,0.5538013,0.39190218,0.98340946,0,0.0,0.0,0.0,0.0,0.13706349,0,0,0.0,0.0,0,0,49.0,0.0,0.0,4649.743589743591,3943.589743589744,4502.564102564103,4409.743589743591,4254.358974358975,4535.8974358974365,4447.6923076923085,4445.128205128206,4356.410256410257,4731.794871794872,4332.820512820514,4233.333333333334,4167.179487179487,4552.820512820514
49.542576,0.29361263,0.53829485,0.39147732,0.9707674,0,0.0,0.0,0.0,0.0,0.0,0,0,0.0,0.0,0,0,81.0,0.0,491.0,4669.743589743591,3955.3846153846157,4528.205128205129,4420.512820512821,4263.589743589744,4541.025641025642,4468.717948717949,4470.769230769231,4369.743589743591,4756.410256410257,4358.461538461539,4264.102564102564,4196.923076923077,4570.769230769231
49.761513,0.29361263,0.53829485,0.39147732,0.9707674,1,0.0,0.0,0.0,0.0,0.0,0,0,0.0,0.0,0,0,109.0,0.0,491.0,4724.615384615386,4017.9487179487182,4547.6923076923085,4451.794871794872,4275.8974358974365,4555.384615384616,4486.666666666667,4475.8974358974365,4370.256410256411,4755.384615384616,4380.512820512821,4301.538461538462,4236.923076923077,4637.948717948719
50.043007,0.30407286,0.52453,0.3910854,0.9540271,0,0.0,0.0,0.0,0.0,0.13029248,0,0,0.0,0.0,0,0,16.0,0.0,0.0,4666.666666666667,3970.7692307692314,4521.025641025642,4428.205128205129,4266.153846153847,4555.384615384616,4473.333333333334,4461.025641025642,4358.461538461539,4724.615384615386,4323.589743589744,4236.923076923077,4137.435897435898,4537.435897435898
50.29322,0.30407286,0.52453,0.3910854,0.9540271,0,0.0,0.0,0.0,0.0,0.087917,0,0,0.0,0.0,0,0,48.0,0.0,0.0,4696.410256410257,3990.2564102564106,4542.051282051282,4445.128205128206,4288.205128205129,4573.333333333334,4489.2307692307695,4489.743589743591,4381.025641025642,4772.307692307693,4368.717948717949,4279.48717948718,4206.666666666667,4577.948717948719
50.60599,0.3236853,0.5121417,0.3929354,0.9265338,0,0.0,0.0,0.0,0.0,0.15394841,0,0,0.0,0.0,0,0,88.0,0.0,440.0,4694.871794871796,3959.48717948718,4538.974358974359,4439.48717948718,4283.076923076924,4572.820512820514,4498.974358974359,4507.179487179488,4386.666666666667,4787.179487179488,4381.025641025642,4287.6923076923085,4231.794871794872,4570.256410256411
50.79365,0.3236853,0.5121417,0.3929354,0.9265338,0,0.0,0.0,0.0,0.0,0.16422197,0,0,0.0,0.0,0,0,112.0,0.0,440.0,4666.666666666667,3932.820512820513,4509.2307692307695,4419.48717948718,4261.538461538462,4540.512820512821,4456.923076923077,4460.512820512821,4373.333333333334,4759.48717948718,4350.769230769231,4250.256410256411,4206.153846153847,4534.871794871796
51.043865,0.33819446,0.5009922,0.39611885,0.8839002,0,0.0,0.0,0.0,0.0,0.046878584,0,0,0.0,0.0,0,0,15.0,0.0,476.0,4668.205128205129,3927.692307692308,4510.256410256411,4402.051282051282,4244.615384615385,4526.666666666667,4459.48717948718,4471.794871794872,4376.410256410257,4758.974358974359,4366.153846153847,4261.025641025642,4218.974358974359,4545.128205128206
51.168972,0.33819446,0.5009922,0.39611885,0.8839002,0,0.0,0.0,0.0,0.0,0.0,0,0,0.0,0.0,0,0,31.0,0.0,0.0,4631.794871794872,3909.2307692307695,4488.717948717949,4379.48717948718,4225.128205128206,4521.538461538462,4435.384615384616,4434.871794871796,4363.076923076924,4721.025641025642,4325.128205128206,4224.102564102564,4184.615384615385,4506.666666666667
51.544296,0.3584627,0.49095765,0.40492553,0.8408154,0,0.0,0.0,0.0,0.0,0.0,0,0,0.0,0.0,0,0,79.0,0.0,476.0,4660.000000000001,3903.589743589744,4500.512820512821,4385.128205128206,4235.384615384616,4530.769230769231,4456.923076923077,4451.282051282052,4371.794871794872,4745.641025641026,4341.538461538462,4250.769230769231,4203.589743589744,4539.48717948718
51.544296,0.3584627,0.49095765,0.40492553,0.8408154,0,0.0,0.0,0.0,0.0,0.0,0,0,0.0,0.0,0,0,79.0,0.0,476.0,4660.000000000001,3903.589743589744,4500.512820512821,4385.128205128206,4235.384615384616,4530.769230769231,4456.923076923077,4451.282051282052,4371.794871794872,4745.641025641026,4341.538461538462,4250.769230769231,4203.589743589744,4539.48717948718
52.044727,0.3556683,0.5027604,0.40755138,0.80852765,0,0.0,0.0,0.0,0.0,0.0,0,0,0.0,0.0,0,0,14.0,0.0,518.0,4717.435897435898,3976.410256410257,4559.48717948718,4448.717948717949,4295.8974358974365,4583.589743589744,4491.282051282052,4502.051282051282,4334.871794871796,4794.358974358975,4397.435897435898,4310.769230769231,4250.769230769231,4587.179487179488
52.044727,0.3556683,0.5027604,0.40755138,0.80852765,0,0.0,0.0,0.0,0.0,0.0,0,0,0.0,0.0,0,0,14.0,0.0,518.0,4717.435897435898,3976.410256410257,4559.48717948718,4448.717948717949,4295.8974358974365,4583.589743589744,4491.282051282052,4502.051282051282,4334.871794871796,4794.358974358975,4397.435897435898,4310.769230769231,4250.769230769231,4587.179487179488
52.545155,0.3406412,0.48907065,0.40836576,0.7796466,0,0.0,0.0,0.0,0.0,0.0,0,0,0.0,0.0,0,0,78.0,0.0,518.0,4714.871794871796,3955.3846153846157,4551.282051282052,4469.2307692307695,4313.846153846154,4600.512820512821,4514.358974358975,4505.128205128206,4396.923076923077,4776.923076923077,4365.128205128206,4294.871794871796,4202.564102564103,4553.846153846154
52.889202,0.3406412,0.48907065,0.40836576,0.7796466,1,0.0,0.0,0.0,0.0,0.17072082,0,0,0.0,0.0,0,0,122.0,0.0,518.0,4821.538461538462,4069.23076923077,4630.769230769231,4553.333333333334,4405.641025641026,4688.717948717949,4602.564102564103,4601.025641025642,4443.076923076924,4892.820512820514,4462.051282051282,4403.076923076924,4316.410256410257,4691.794871794872
53.045586,0.41596144,0.505211,0.41054058,0.75377536,0,0.0,0.0,0.0,0.0,0.30040827,0,0,0.0,0.0,0,0,13.0,0.0,491.0,4826.666666666667,4068.717948717949,4639.48717948718,4565.128205128206,4413.333333333334,4693.333333333334,4602.051282051282,4607.179487179488,4446.666666666667,4891.794871794872,4472.820512820514,4407.6923076923085,4313.846153846154,4704.615384615386
53.295803,0.41596144,0.505211,0.41054058,0.75377536,0,0.0,0.0,0.0,0.0,0.112919874,0,0,0.0,0.0,0,0,45.0,0.0,0.0,4821.025641025642,4102.051282051282,4617.948717948719,4554.358974358975,4370.256410256411,4653.846153846154,4572.307692307693,4572.820512820514,4427.6923076923085,4830.256410256411,4434.871794871796,4386.153846153847,4275.384615384616,4703.589743589744
53.546017,0.48305318,0.5270966,0.4143108,0.7400685,0,0.0,0.0,0.0,0.0,0.117788345,0,0,0.0,0.0,0,0,77.0,0.0,491.0,4786.153846153847,4055.8974358974365,4594.358974358975,4521.538461538462,4343.589743589744,4623.589743589744,4547.6923076923085,4551.282051282052,4429.2307692307695,4811.282051282052,4410.769230769231,4347.179487179487,4252.820512820514,4646.666666666667
53.79623,0.48305318,0.5270966,0.4143108,0.7400685,0,0.0,0.0,0.0,0.0,0.084664665,0,0,0.0,0.0,0,0,109.0,0.0,491.0,4799.48717948718,4030.2564102564106,4585.641025641026,4505.641025641026,4324.102564102564,4607.6923076923085,4538.461538461539,4540.000000000001,4429.2307692307695,4809.2307692307695,4412.307692307693,4344.102564102564,4277.435897435898,4653.846153846154
54.046448,0.47358763,0.5444317,0.41586018,0.7447445,0,0.0,0.0,0.0,0.0,0.15119845,0,0,0.0,0.0,0,0,12.0,0.0,440.0,4794.358974358975,4037.435897435898,4567.179487179488,4486.666666666667,4313.333333333334,4600.000000000001,4521.025641025642,4515.384615384616,4410.256410256411,4796.410256410257,4396.923076923077,4316.923076923077,4240.000000000001,4625.641025641026
54.29666,0.47358763,0.5444317,0.41586018,0.7447445,0,0.0,0.0,0.0,0.0,0.05958733,0,0,0.0,0.0,0,0,44.0,0.0,0.0,4801.538461538462,4064.615384615385,4585.128205128206,4493.333333333334,4337.435897435898,4624.102564102564,4539.48717948718,4508.717948717949,4427.179487179487,4807.179487179488,4406.153846153847,4326.666666666667,4260.000000000001,4640.512820512821
54.64071,0.45713127,0.5600205,0.4162373,0.7503701,1,0.0,0.0,0.0,0.0,0.10927644,0,0,0.0,0.0,0,0,88.0,0.0,440.0,4828.205128205129,4088.717948717949,4600.512820512821,4496.410256410257,4334.358974358975,4614.358974358975,4535.8974358974365,4537.948717948719,4431.282051282052,4824.615384615386,4422.051282051282,4355.8974358974365,4291.282051282052,4693.333333333334
54.797092,0.45713127,0.5600205,0.4162373,0.7503701,0,0.0,0.0,0.0,0.0,0.12707244,0,0,0.0,0.0,0,0,108.0,0.0,440.0,4771.794871794872,4031.7948717948725,4572.820512820514,4456.923076923077,4318.461538461539,4599.48717948718,4526.666666666667,4541.025641025642,4434.358974358975,4813.333333333334,4401.025641025642,4319.48717948718,4260.000000000001,4636.923076923077
55.047306,0.44688925,0.5499321,0.41262597,0.76304555,0,0.0,0.0,0.0,0.0,0.10981554,0,0,0.0,0.0,0,0,11.0,0.0,474.0,4744.615384615386,4005.1282051282055,4551.282051282052,4442.564102564103,4301.538461538462,4590.256410256411,4502.564102564103,4502.564102564103,4410.769230769231,4760.000000000001,4358.974358974359,4269.74358974359,4204.102564102564,4588.717948717949
55.29752,0.44688925,0.5499321,0.41262597,0.76304555,0,0.0,0.0,0.0,0.0,0.06102554,0,0,0.0,0.0,0,0,43.0,0.0,0.0,4732.820512820514,3987.692307692308,4545.641025641026,4425.641025641026,4301.025641025642,4585.641025641026,4509.743589743591,4524.102564102564,4416.923076923077,4771.282051282052,4358.461538461539,4256.410256410257,4214.871794871796,4578.974358974359
55.547737,0.43365026,0.52856755,0.41330704,0.7731718,0,0.0,0.0,0.0,0.0,0.0,0,0,0.0,0.0,0,0,75.0,0.0,474.0,4743.076923076924,3989.23076923077,4546.666666666667,4428.717948717949,4293.846153846154,4569.743589743591,4508.205128205129,4523.589743589744,4418.974358974359,4802.564102564103,4381.025641025642,4287.179487179487,4246.666666666667,4609.2307692307695
55.547737,0.43365026,0.52856755,0.41330704,0.7731718,0,0.0,0.0,0.0,0.0,0.0,0,0,0.0,0.0,0,0,75.0,0.0,474.0,4743.076923076924,3989.23076923077,4546.666666666667,4428.717948717949,4293.846153846154,4569.743589743591,4508.205128205129,4523.589743589744,4418.974358974359,4802.564102564103,4381.025641025642,4287.179487179487,4246.666666666667,4609.2307692307695
56.04817,0.42672884,0.50786936,0.41539332,0.78183424,0,0.0,0.0,0.0,0.0,0.0,0,0,0.0,0.0,0,0,10.0,0.0,518.0,4747.179487179488,4018.9743589743593,4506.153846153847,4428.717948717949,4301.538461538462,4585.641025641026,4504.102564102564,4521.025641025642,4409.2307692307695,4792.307692307693,4380.000000000001,4264.102564102564,4244.615384615385,4615.384615384616
56.29838,0.42672884,0.50786936,0.41539332,0.78183424,0,0.0,0.0,0.0,0.0,0.032551527,0,0,0.0,0.0,0,0,42.0,0.0,0.0,4725.641025641026,4018.9743589743593,4484.102564102564,4426.666666666667,4296.923076923077,4587.179487179488,4484.102564102564,4497.435897435898,4401.025641025642,4760.512820512821,4342.564102564103,4233.333333333334,4184.102564102564,4569.2307692307695
56.642426,0.42885312,0.48498896,0.41181278,0.78228843,1,0.0,0.0,0.0,0.0,0.09098751,0,0,0.0,0.0,0,0,86.0,0.0,518.0,4762.564102564103,4018.461538461539,4515.384615384616,4448.717948717949,4323.076923076924,4617.948717948719,4526.153846153847,4513.333333333334,4361.538461538462,4809.743589743591,4413.333333333334,4277.948717948719,4277.948717948719,4643.589743589744
56.798813,0.42885312,0.48498896,0.41181278,0.78228843,0,0.0,0.0,0.0,0.0,0.17354068,0,0,0.0,0.0,0,0,106.0,0.0,518.0,4768.717948717949,4009.7435897435903,4526.666666666667,4454.358974358975,4311.794871794872,4604.102564102564,4509.2307692307695,4494.358974358975,4353.846153846154,4793.846153846154,4408.205128205129,4272.307692307693,4265.128205128206,4636.410256410257
57.049026,0.40569136,0.4733046,0.4044032,0.7782831,0,0.0,0.0,0.0,0.0,0.0,0,0,0.0,0.0,0,0,9.0,0.0,479.0,4757.435897435898,4017.9487179487182,4528.205128205129,4461.025641025642,4300.512820512821,4590.769230769231,4505.128205128206,4480.000000000001,4344.102564102564,4743.589743589744,4391.794871794872,4260.512820512821,4231.794871794872,4635.384615384616
57.049026,0.40569136,0.4733046,0.4044032,0.7782831,0,0.0,0.0,0.0,0.0,0.0,0,0,0.0,0.0,0,0,9.0,0.0,479.0,4757.435897435898,4017.9487179487182,4528.205128205129,4461.025641025642,4300.512820512821,4590.769230769231,4505.128205128206,4480.000000000001,4344.102564102564,4743.589743589744,4391.794871794872,4260.512820512821,4231.794871794872,4635.384615384616
57.549458,0.3775332,0.46497956,0.4003779,0.7746446,0,0.0,0.0,0.0,0.0,0.0,0,0,0.0,0.0,0,0,73.0,0.0,479.0,4723.076923076924,3949.2307692307695,4509.2307692307695,4422.564102564103,4273.846153846154,4548.717948717949,4490.256410256411,4459.48717948718,4404.102564102564,4742.051282051282,4400.512820512821,4247.6923076923085,4229.74358974359,4634.358974358975
57.79967,0.3775332,0.46497956,0.4003779,0.7746446,0,0.0,0.0,0.0,0.0,0.13789237,0,0,0.0,0.0,0,0,105.0,0.0,491.0,4732.820512820514,3938.461538461539,4533.333333333334,4403.589743589744,4280.000000000001,4561.025641025642,4506.153846153847,4489.2307692307695,4416.923076923077,4780.000000000001,4437.435897435898,4277.435897435898,4266.153846153847,4660.000000000001
58.04989,0.3842327,0.46422347,0.39899972,0.76837593,0,0.0,0.0,0.0,0.0,0.062117845,0,0,0.0,0.0,0,0,8.0,0.0,348.0,4728.717948717949,3933.333333333334,4534.871794871796,4408.205128205129,4292.820512820514,4568.205128205129,4502.564102564103,4485.641025641026,4414.871794871796,4786.153846153847,4438.461538461539,4283.076923076924,4274.358974358975,4672.307692307693
58.300102,0.3842327,0.46422347,0.39899972,0.76837593,0,0.0,0.0,0.0,0.0,0.11232806,1,0,0.0,0.0,0,0,40.0,0.0,0.0,4709.743589743591,3966.666666666667,4513.333333333334,4407.6923076923085,4273.333333333334,4549.2307692307695,4461.538461538462,4446.666666666667,4399.48717948718,4718.974358974359,4368.205128205129,4239.48717948718,4168.205128205129,4633.846153846154
58.550316,0.40666083,0.45486924,0.3962555,0.77325827,0,0.0,0.0,0.0,0.0,0.10401555,1,0,0.0,0.0,0,0,72.0,0.0,348.0,4754.871794871796,4021.538461538462,4532.307692307693,4444.102564102564,4262.564102564103,4539.48717948718,4457.948717948719,4425.128205128206,4381.538461538462,4700.000000000001,4369.2307692307695,4273.333333333334,4172.307692307693,4698.974358974359
58.83181,0.40666083,0.45486924,0.3962555,0.77325827,0,0.0,0.0,0.0,0.0,0.2577332,0,0,0.0,0.0,0,0,108.0,0.0,440.0,4780.000000000001,4001.538461538462,4562.051282051282,4434.358974358975,4298.461538461539,4580.000000000001,4509.2307692307695,4503.076923076924,4418.461538461539,4790.769230769231,4426.666666666667,4321.538461538462,4255.8974358974365,4717.435897435898
59.144577,0.46707648,0.44608986,0.3937763,0.7775636,0,0.0,0.0,0.0,0.0,0.048169486,0,0,0.0,0.0,0,0,19.0,0.0,0.0,4947.6923076923085,4126.153846153847,4736.923076923077,4583.076923076924,4480.512820512821,4767.179487179488,4693.846153846154,4680.000000000001,4508.717948717949,5003.076923076924,4623.589743589744,4525.128205128206,4461.025641025642,4893.846153846154
59.30096,0.46707648,0.44608986,0.3937763,0.7775636,0,0.0,0.0,0.0,0.0,0.0,0,0,0.0,0.0,0,0,39.0,0.0,0.0,4905.641025641026,4113.333333333334,4716.410256410257,4554.871794871796,4457.435897435898,4734.358974358975,4663.589743589744,4672.307692307693,4501.538461538462,5008.717948717949,4602.564102564103,4502.564102564103,4429.743589743591,4873.846153846154
59.582455,0.6423831,0.43818846,0.3916309,0.7819769,0,0.0,0.0,0.0,0.0,0.0,0,0,0.0,0.0,0,0,75.0,0.0,472.0,4845.128205128206,4080.5128205128212,4674.871794871796,4522.051282051282,4416.923076923077,4694.358974358975,4620.512820512821,4620.000000000001,4491.794871794872,4924.102564102564,4534.871794871796,4428.717948717949,4333.333333333334,4796.923076923077
59.80139,0.6423831,0.43818846,0.3916309,0.7819769,0,0.0,0.0,0.0,0.0,0.21779782,0,0,0.0,0.0,0,0,103.0,0.0,472.0,4826.666666666667,4052.307692307693,4645.128205128206,4503.589743589744,4380.512820512821,4663.076923076924,4585.641025641026,4587.179487179488,4470.769230769231,4869.2307692307695,4494.871794871796,4400.000000000001,4311.282051282052,4734.358974358975
60.05161,0.66722035,0.43107718,0.38960847,0.7825875,0,0.0,0.0,0.0,0.0,0.21237133,0,0,0.0,0.0,0,0,6.0,0.0,540.0,4815.384615384616,4038.9743589743593,4625.641025641026,4481.538461538462,4363.076923076924,4640.512820512821,4555.8974358974365,4556.410256410257,4463.076923076924,4861.025641025642,4475.384615384616,4381.538461538462,4291.282051282052,4702.051282051282
60.301823,0.66722035,0.43107718,0.38960847,0.7825875,0,0.0,0.0,0.0,0.0,0.17387357,0,0,0.0,0.0,0,0,38.0,0.0,0.0,4776.923076923077,4014.358974358975,4590.256410256411,4422.051282051282,4329.743589743591,4608.717948717949,4528.205128205129,4538.461538461539,4447.6923076923085,4829.743589743591,4430.769230769231,4342.051282051282,4231.794871794872,4632.820512820514
60.552036,0.6586858,0.424677,0.3856969,0.7710546,0,0.0,0.0,0.0,0.0,0.1547328,0,0,0.0,0.0,0,0,70.0,0.0,540.0,4771.282051282052,4036.9230769230776,4587.179487179488,4437.948717948719,4308.717948717949,4587.6923076923085,4501.538461538462,4487.6923076923085,4428.205128205129,4768.717948717949,4391.794871794872,4321.025641025642,4191.282051282052,4601.025641025642
60.802254,0.6586858,0.424677,0.3856969,0.7710546,0,0.0,0.0,0.0,0.0,0.13848335,0,0,0.0,0.0,0,0,102.0,0.0,518.0,4766.666666666667,4041.538461538462,4574.358974358975,4450.256410256411,4300.512820512821,4573.333333333334,4487.179487179488,4474.358974358975,4421.538461538462,4753.846153846154,4389.2307692307695,4323.589743589744,4188.205128205129,4587.6923076923085
61.052467,0.6715688,0.41891688,0.38037685,0.7487192,0,0.0,0.0,0.0,0.0,0.0,0,0,0.0,0.0,0,0,5.0,0.0,548.0,4789.2307692307695,4051.7948717948725,4602.051282051282,4480.512820512821,4326.666666666667,4598.461538461539,4508.717948717949,4503.076923076924,4443.589743589744,4795.384615384616,4413.846153846154,4350.769230769231,4216.923076923077,4602.564102564103
61.052467,0.6715688,0.41891688,0.38037685,0.7487192,0,0.0,0.0,0.0,0.0,0.0,0,0,0.0,0.0,0,0,5.0,0.0,548.0,4789.2307692307695,4051.7948717948725,4602.051282051282,4480.512820512821,4326.666666666667,4598.461538461539,4508.717948717949,4503.076923076924,4443.589743589744,4795.384615384616,4413.846153846154,4350.769230769231,4216.923076923077,4602.564102564103
61.5529,0.61186635,0.41228613,0.37558213,0.7286788,0,0.0,0.0,0.0,0.0,0.14007527,0,0,0.0,0.0,0,0,69.0,0.0,548.0,4722.564102564103,3948.717948717949,4551.282051282052,4427.179487179487,4262.051282051282,4540.512820512821,4474.871794871796,4476.410256410257,4427.179487179487,4783.076923076924,4401.025641025642,4311.282051282052,4237.948717948719,4600.512820512821
61.803112,0.61186635,0.41228613,0.37558213,0.7286788,0,0.0,0.0,0.0,0.0,0.103681006,0,0,0.0,0.0,0,0,101.0,0.0,488.0,4698.461538461539,3940.0000000000005,4526.666666666667,4410.256410256411,4248.205128205129,4526.153846153847,4456.923076923077,4462.564102564103,4369.743589743591,4774.871794871796,4380.000000000001,4280.512820512821,4204.615384615385,4585.641025641026
62.053326,0.6651108,0.40387508,0.37124354,0.7106842,0,0.0,0.0,0.0,0.0,0.0,0,0,1.0,0.0,0,0,4.0,0.0,550.0,4658.461538461539,3930.7692307692314,4498.974358974359,4401.025641025642,4244.102564102564,4520.000000000001,4446.666666666667,4417.948717948719,4340.000000000001,4677.948717948719,4293.333333333334,4215.384615384616,4084.615384615385,4536.923076923077
62.303543,0.6651108,0.40387508,0.37124354,0.7106842,0,0.0,0.0,0.0,0.0,0.05937566,0,0,0.0,0.0,0,0,36.0,0.0,0.0,4668.205128205129,3928.717948717949,4514.358974358975,4411.794871794872,4245.641025641026,4521.538461538462,4443.076923076924,4420.000000000001,4392.820512820514,4725.128205128206,4356.923076923077,4259.48717948718,4181.538461538462,4598.461538461539
62.553757,0.7043571,0.41310865,0.3673506,0.69810176,0,0.0,0.0,0.0,0.0,0.19235557,0,0,0.0,0.0,0,0,68.0,0.0,550.0,4685.128205128206,3914.358974358975,4527.6923076923085,4414.358974358975,4245.641025641026,4523.589743589744,4458.974358974359,4459.48717948718,4423.589743589744,4790.256410256411,4399.48717948718,4291.794871794872,4230.256410256411,4631.794871794872
62.803974,0.7043571,0.41310865,0.3673506,0.69810176,0,0.0,0.0,0.0,0.0,0.047213834,0,0,0.0,0.0,0,0,100.0,0.0,435.0,4701.025641025642,3958.9743589743593,4544.615384615385,4451.794871794872,4267.6923076923085,4554.358974358975,4475.8974358974365,4464.615384615385,4414.871794871796,4759.48717948718,4374.358974358975,4289.74358974359,4182.564102564103,4628.205128205129
63.054188,0.6453871,0.4002947,0.36397934,0.7022901,0,0.0,0.0,0.0,0.0,0.06132709,0,0,0.0,0.0,0,0,3.0,0.0,475.0,4674.358974358975,3930.2564102564106,4516.410256410257,4424.615384615385,4245.641025641026,4521.538461538462,4457.948717948719,4434.871794871796,4397.435897435898,4727.179487179488,4345.641025641026,4264.615384615385,4158.461538461539,4592.820512820514
63.3044,0.6453871,0.4002947,0.36397934,0.7022901,0,0.0,0.0,0.0,0.0,0.0,0,0,0.0,0.0,0,0,35.0,0.0,0.0,4656.410256410257,3916.9230769230776,4501.538461538462,4408.717948717949,4229.2307692307695,4507.6923076923085,4438.974358974359,4427.6923076923085,4394.871794871796,4732.820512820514,4340.512820512821,4246.666666666667,4151.794871794872,4568.205128205129
63.55462,0.684093,0.38341057,0.36243993,0.72043663,0,0.0,0.0,0.0,0.0,0.0,0,0,0.0,0.0,0,0,67.0,0.0,475.0,4690.256410256411,3945.1282051282055,4519.48717948718,4428.205128205129,4236.923076923077,4524.102564102564,4461.538461538462,4463.076923076924,4402.564102564103,4736.410256410257,4351.282051282052,4264.615384615385,4170.256410256411,4584.615384615385
63.804832,0.684093,0.38341057,0.36243993,0.72043663,0,0.0,0.0,0.0,0.0,0.03619482,0,0,0.0,0.0,0,0,99.0,0.0,472.0,4700.000000000001,3927.692307692308,4527.6923076923085,4424.102564102564,4250.769230769231,4538.461538461539,4491.282051282052,4505.128205128206,4417.435897435898,4783.589743589744,4391.282051282052,4292.307692307693,4237.948717948719,4596.923076923077
64.055046,0.6790127,0.39310256,0.36630118,0.73666674,0,0.0,0.0,0.0,0.0,0.065022364,0,0,0.0,0.0,0,0,2.0,0.0,460.0,4736.410256410257,3982.0512820512827,4550.256410256411,4466.666666666667,4283.076923076924,4561.025641025642,4486.153846153847,4458.974358974359,4396.410256410257,4742.564102564103,4366.153846153847,4294.358974358975,4171.794871794872,4588.717948717949
64.30526,0.6790127,0.39310256,0.36630118,0.73666674,1,0.0,0.0,0.0,0.0,0.09630517,0,0,0.0,0.0,0,0,34.0,0.0,0.0,4724.615384615386,3980.5128205128212,4534.871794871796,4455.8974358974365,4262.564102564103,4547.179487179488,4470.769230769231,4464.615384615385,4405.641025641026,4744.615384615386,4366.153846153847,4276.410256410257,4168.717948717949,4586.666666666667
64.55548,0.641924,0.4539685,0.37083048,0.7511612,0,0.0,0.0,0.0,0.0,0.12424891,0,0,0.0,0.0,0,0,66.0,0.0,460.0,4697.948717948719,3949.2307692307695,4528.205128205129,4445.641025641026,4274.358974358975,4553.333333333334,4476.410256410257,4455.8974358974365,4395.8974358974365,4739.48717948718,4349.743589743591,4262.051282051282,4155.384615384616,4566.666666666667
64.805695,0.641924,0.4539685,0.37083048,0.7511612,0,0.0,0.0,0.0,0.0,0.06358007,0,0,0.0,0.0,0,0,98.0,0.0,518.0,4685.128205128206,3895.8974358974365,4520.512820512821,4413.333333333334,4259.48717948718,4541.025641025642,4488.205128205129,4483.076923076924,4409.743589743591,4762.051282051282,4379.48717948718,4276.410256410257,4202.051282051282,4569.2307692307695
65.05591,0.59512335,0.4985933,0.3787446,0.760325,0,0.0,0.0,0.0,0.0,0.047224406,0,0,0.0,0.0,0,0,1.0,0.0,401.0,4663.076923076924,3908.717948717949,4507.179487179488,4415.8974358974365,4253.333333333334,4536.923076923077,4463.076923076924,4454.358974358975,4395.384615384616,4731.282051282052,4343.589743589744,4237.948717948719,4170.256410256411,4539.48717948718
65.30612,0.59512335,0.4985933,0.3787446,0.760325,0,0.0,0.0,0.0,0.0,0.07016798,0,0,0.0,0.0,0,0,33.0,0.0,0.0,4683.076923076924,3910.7692307692314,4517.948717948719,4429.743589743591,4256.410256410257,4538.974358974359,4475.8974358974365,4471.282051282052,4412.307692307693,4755.384615384616,4353.333333333334,4256.923076923077,4185.641025641026,4555.384615384616
65.556335,0.5459828,0.52302873,0.38887945,0.76443,0,0.0,0.0,0.0,0.0,0.03395136,0,0,0.0,0.0,0,0,65.0,0.0,401.0,4684.615384615386,3923.589743589744,4509.743589743591,4432.820512820514,4249.74358974359,4537.948717948719,4460.512820512821,4445.128205128206,4390.769230769231,4745.641025641026,4345.641025641026,4250.769230769231,4184.102564102564,4555.384615384616
65.68144,0.5459828,0.52302873,0.38887945,0.76443,0,0.0,0.0,0.0,0.0,0.0,0,0,0.0,0.0,0,0,81.0,0.0,488.0,4719.48717948718,3988.717948717949,4538.461538461539,4476.410256410257,4272.307692307693,4556.410256410257,4474.871794871796,4452.307692307693,4402.051282051282,4749.2307692307695,4345.641025641026,4279.48717948718,4181.538461538462,4598.974358974359
66.05677,0.5072089,0.5316924,0.396974,0.7680497,0,0.0,0.0,0.0,0.0,0.07968129,0,0,0.0,0.0,0,0,0.0,0.0,467.0,4689.2307692307695,3959.48717948718,4511.282051282052,4444.102564102564,4252.307692307693,4538.461538461539,4461.025641025642,4446.153846153847,4386.153846153847,4728.205128205129,4322.051282051282,4249.74358974359,4170.256410256411,4571.282051282052
66.306984,0.5072089,0.5316924,0.396974,0.7680497,0,0.0,0.0,0.0,0.0,0.07511368,0,0,0.0,0.0,0,0,32.0,0.0,0.0,4718.974358974359,4029.7435897435903,4533.333333333334,4486.153846153847,4278.974358974359,4562.564102564103,4471.794871794872,4437.948717948719,4378.461538461539,4701.538461538462,4306.153846153847,4257.948717948719,4156.923076923077,4585.641025641026
66.61975,0.52936906,0.5397205,0.39985016,0.7682604,0,0.0,0.0,0.0,0.0,0.15364537,0,0,0.0,0.0,0,0,72.0,0.0,349.0,4749.2307692307695,3956.410256410257,4566.153846153847,4484.102564102564,4297.948717948719,4586.666666666667,4523.076923076924,4520.512820512821,4424.102564102564,4792.820512820514,4383.076923076924,4314.871794871796,4250.769230769231,4623.076923076924
66.80741,0.52936906,0.5397205,0.39985016,0.7682604,0,0.0,0.0,0.0,0.0,0.09028774,0,0,0.0,0.0,0,0,96.0,0.0,435.0,4765.128205128206,3971.2820512820517,4572.307692307693,4510.256410256411,4272.307692307693,4589.743589743591,4540.000000000001,4553.333333333334,4405.641025641026,4824.102564102564,4402.051282051282,4333.333333333334,4278.974358974359,4656.410256410257
67.057625,0.514953,0.5469457,0.40177342,0.76729566,0,0.0,0.0,0.0,0.0,0.063881956,0,0,0.0,0.0,0,0,128.0,0.0,435.0,4769.2307692307695,3988.205128205129,4589.2307692307695,4536.410256410257,4294.871794871796,4602.051282051282,4526.666666666667,4554.358974358975,4372.307692307693,4836.923076923077,4403.589743589744,4341.025641025642,4277.948717948719,4649.743589743591
67.18274,0.514953,0.5469457,0.40177342,0.76729566,0,0.0,0.0,0.0,0.0,0.0,0,0,0.0,0.0,0,0,15.0,0.0,472.0,4770.769230769231,3975.8974358974365,4593.333333333334,4542.564102564103,4291.282051282052,4600.512820512821,4537.435897435898,4553.846153846154,4385.128205128206,4845.641025641026,4411.794871794872,4342.051282051282,4276.923076923077,4649.743589743591
67.55806,0.51071215,0.55344844,0.40948358,0.7643136,0,0.0,0.0,0.0,0.0,0.0,0,0,0.0,0.0,0,0,63.0,0.0,0.0,4733.333333333334,3971.2820512820517,4571.282051282052,4520.512820512821,4282.051282051282,4585.641025641026,4508.205128205129,4508.205128205129,4398.974358974359,4781.538461538462,4358.461538461539,4294.871794871796,4214.871794871796,4605.128205128206
67.55806,0.51071215,0.55344844,0.40948358,0.7643136,0,0.0,0.0,0.0,0.0,0.0,0,0,0.0,0.0,0,0,63.0,0.0,0.0,4733.333333333334,3971.2820512820517,4571.282051282052,4520.512820512821,4282.051282051282,4585.641025641026,4508.205128205129,4508.205128205129,4398.974358974359,4781.538461538462,4358.461538461539,4294.871794871796,4214.871794871796,4605.128205128206
68.05849,0.50871646,0.55930084,0.4149787,0.7562233,0,0.0,0.0,0.0,0.0,0.0,0,0,0.0,0.0,0,0,127.0,0.0,472.0,4735.384615384616,3941.0256410256416,4553.846153846154,4503.076923076924,4274.871794871796,4571.794871794872,4491.794871794872,4481.538461538462,4404.102564102564,4762.051282051282,4367.6923076923085,4293.333333333334,4218.461538461539,4621.025641025642
68.05849,0.50871646,0.55930084,0.4149787,0.7562233,0,0.0,0.0,0.0,0.0,0.0,0,0,0.0,0.0,0,0,127.0,0.0,472.0,4735.384615384616,3941.0256410256416,4553.846153846154,4503.076923076924,4274.871794871796,4571.794871794872,4491.794871794872,4481.538461538462,4404.102564102564,4762.051282051282,4367.6923076923085,4293.333333333334,4218.461538461539,4621.025641025642
68.55892,0.4528805,0.60066867,0.41533554,0.7448122,1,0.0,0.0,0.0,0.0,0.12915482,0,0,0.0,0.0,0,0,62.0,0.0,0.0,4717.435897435898,3925.6410256410263,4539.48717948718,4491.794871794872,4263.589743589744,4555.8974358974365,4477.435897435898,4484.615384615385,4401.538461538462,4740.000000000001,4359.48717948718,4287.179487179487,4194.871794871796,4619.48717948718
68.809135,0.4528805,0.60066867,0.41533554,0.7448122,0,0.0,0.0,0.0,0.0,0.14021924,0,0,0.0,0.0,0,0,94.0,0.0,518.0,4740.512820512821,3967.692307692308,4565.128205128206,4507.179487179488,4289.74358974359,4580.000000000001,4474.871794871796,4471.282051282052,4418.461538461539,4767.6923076923085,4377.435897435898,4312.820512820514,4205.641025641026,4632.820512820514
69.05935,0.4178244,0.62359107,0.4148025,0.73455405,0,0.0,0.0,0.0,0.0,0.027183834,0,0,0.0,0.0,0,0,126.0,0.0,518.0,4716.410256410257,3936.9230769230776,4540.000000000001,4478.461538461539,4278.461538461539,4567.179487179488,4474.871794871796,4461.025641025642,4402.051282051282,4749.2307692307695,4360.512820512821,4281.025641025642,4187.179487179487,4603.076923076924
69.30956,0.4178244,0.62359107,0.4148025,0.73455405,0,0.0,0.0,0.0,0.0,0.0,0,0,0.0,0.0,0,0,29.0,0.0,0.0,4736.410256410257,3926.1538461538466,4551.794871794872,4474.358974358975,4276.410256410257,4572.307692307693,4500.000000000001,4504.615384615385,4414.871794871796,4769.743589743591,4392.820512820514,4307.6923076923085,4230.256410256411,4631.794871794872
69.55978,0.39166784,0.66197276,0.4181086,0.7253282,0,0.0,0.0,0.0,0.0,0.0,0,0,0.0,0.0,0,0,61.0,0.0,0.0,4749.2307692307695,3982.564102564103,4570.769230769231,4505.641025641026,4310.769230769231,4596.410256410257,4503.076923076924,4489.743589743591,4405.641025641026,4768.205128205129,4378.974358974359,4308.205128205129,4191.794871794872,4638.461538461539
69.80999,0.39166784,0.66197276,0.4181086,0.7253282,0,0.0,0.0,0.0,0.0,0.052541822,0,0,0.0,0.0,0,0,93.0,0.0,489.0,4773.333333333334,3976.410256410257,4590.256410256411,4494.358974358975,4313.846153846154,4601.538461538462,4532.307692307693,4540.512820512821,4434.871794871796,4842.564102564103,4447.179487179487,4362.564102564103,4293.333333333334,4676.923076923077
70.06021,0.3980635,0.69127434,0.42030334,0.71623635,0,0.0,0.0,0.0,0.0,0.03984077,0,0,0.0,0.0,0,0,125.0,0.0,489.0,4749.743589743591,3951.7948717948725,4567.179487179488,4472.820512820514,4301.538461538462,4586.153846153847,4512.307692307693,4521.538461538462,4413.333333333334,4789.2307692307695,4413.846153846154,4324.102564102564,4247.6923076923085,4643.589743589744
70.310425,0.3980635,0.69127434,0.42030334,0.71623635,0,0.0,0.0,0.0,0.0,0.13831407,0,0,0.0,0.0,0,0,28.0,0.0,0.0,4779.48717948718,4014.8717948717954,4571.282051282052,4495.8974358974365,4298.974358974359,4586.666666666667,4510.769230769231,4518.461538461539,4408.717948717949,4744.615384615386,4381.025641025642,4311.282051282052,4188.717948717949,4636.410256410257
70.56064,0.3869097,0.6783285,0.418456,0.7080556,0,0.0,0.0,0.0,0.0,0.13265455,0,0,0.0,0.0,0,0,60.0,0.0,0.0,4760.000000000001,3991.7948717948725,4560.512820512821,4477.435897435898,4293.333333333334,4573.846153846154,4505.641025641026,4517.435897435898,4405.641025641026,4767.179487179488,4382.051282051282,4303.589743589744,4188.205128205129,4613.333333333334
70.81085,0.3869097,0.6783285,0.418456,0.7080556,0,0.0,0.0,0.0,0.0,0.12305464,0,0,0.0,0.0,0,0,92.0,0.0,435.0,4769.743589743591,3997.435897435898,4568.717948717949,4478.461538461539,4282.564102564103,4571.794871794872,4508.205128205129,4510.256410256411,4415.384615384616,4756.923076923077,4393.333333333334,4313.333333333334,4187.179487179487,4613.333333333334
71.061066,0.38536587,0.66896355,0.4157426,0.70924383,0,0.0,0.0,0.0,0.0,0.0,0,0,0.0,0.0,0,0,124.0,0.0,435.0,4777.948717948719,3975.8974358974365,4566.666666666667,4471.282051282052,4272.307692307693,4556.410256410257,4502.051282051282,4531.282051282052,4425.128205128206,4818.461538461539,4442.051282051282,4343.589743589744,4269.74358974359,4635.8974358974365
71.061066,0.38536587,0.66896355,0.4157426,0.70924383,0,0.0,0.0,0.0,0.0,0.0,0,0,0.0,0.0,0,0,124.0,0.0,435.0,4777.948717948719,3975.8974358974365,4566.666666666667,4471.282051282052,4272.307692307693,4556.410256410257,4502.051282051282,4531.282051282052,4425.128205128206,4818.461538461539,4442.051282051282,4343.589743589744,4269.74358974359,4635.8974358974365
71.5615,0.38329753,0.65923625,0.41432905,0.7166797,0,0.0,0.0,0.0,0.0,0.0,0,0,0.0,0.0,0,0,59.0,0.0,0.0,4695.384615384616,3906.666666666667,4472.820512820514,4407.179487179487,4201.538461538462,4492.820512820514,4456.410256410257,4462.564102564103,4385.128205128206,4727.179487179488,4387.179487179487,4232.307692307693,4171.282051282052,4520.000000000001
71.5615,0.38329753,0.65923625,0.41432905,0.7166797,0,0.0,0.0,0.0,0.0,0.0,0,0,0.0,0.0,0,0,59.0,0.0,0.0,4695.384615384616,3906.666666666667,4472.820512820514,4407.179487179487,4201.538461538462,4492.820512820514,4456.410256410257,4462.564102564103,4385.128205128206,4727.179487179488,4387.179487179487,4232.307692307693,4171.282051282052,4520.000000000001
72.06193,0.4349441,0.64372164,0.41434005,0.7195483,0,0.0,0.0,0.0,0.0,0.0,0,0,0.0,0.0,0,0,123.0,0.0,472.0,4651.794871794872,3905.1282051282055,4467.179487179487,4393.846153846154,4227.6923076923085,4521.025641025642,4462.051282051282,4458.461538461539,4371.794871794872,4678.974358974359,4308.205128205129,4184.615384615385,4096.923076923077,4435.8974358974365
72.06193,0.4349441,0.64372164,0.41434005,0.7195483,0,0.0,0.0,0.0,0.0,0.0,0,0,0.0,0.0,0,0,123.0,0.0,472.0,4651.794871794872,3905.1282051282055,4467.179487179487,4393.846153846154,4227.6923076923085,4521.025641025642,4462.051282051282,4458.461538461539,4371.794871794872,4678.974358974359,4308.205128205129,4184.615384615385,4096.923076923077,4435.8974358974365
72.624916,0.46413118,0.6304726,0.4143379,0.7220907,1,0.0,0.0,0.0,0.0,0.0,0,0,0.0,0.0,0,0,66.0,0.0,460.0,4683.589743589744,3972.307692307693,4502.051282051282,4435.384615384616,4231.282051282052,4521.025641025642,4448.717948717949,4442.564102564103,4303.589743589744,4683.076923076924,4321.538461538462,4231.282051282052,4110.256410256411,4498.974358974359
72.781296,0.46413118,0.6304726,0.4143379,0.7220907,0,0.0,0.0,0.0,0.0,0.0,0,0,0.0,0.0,0,0,86.0,0.0,518.0,4689.2307692307695,3966.1538461538466,4503.589743589744,4451.282051282052,4238.974358974359,4528.205128205129,4444.102564102564,4421.025641025642,4302.564102564103,4703.589743589744,4333.846153846154,4240.000000000001,4129.2307692307695,4512.820512820514
73.06279,0.46125507,0.6414819,0.41547653,0.7243396,0,0.0,0.0,0.0,0.0,0.0,0,0,0.0,0.0,0,0,122.0,0.0,518.0,4669.2307692307695,3958.9743589743593,4499.48717948718,4442.051282051282,4231.282051282052,4520.512820512821,4432.307692307693,4417.948717948719,4359.48717948718,4701.025641025642,4349.2307692307695,4226.153846153847,4140.000000000001,4511.282051282052
73.06279,0.46125507,0.6414819,0.41547653,0.7243396,0,0.0,0.0,0.0,0.0,0.0,0,0,0.0,0.0,0,0,122.0,0.0,518.0,4669.2307692307695,3958.9743589743593,4499.48717948718,4442.051282051282,4231.282051282052,4520.512820512821,4432.307692307693,4417.948717948719,4359.48717948718,4701.025641025642,4349.2307692307695,4226.153846153847,4140.000000000001,4511.282051282052
73.56322,0.45451412,0.63867205,0.41758946,0.7100059,0,0.0,0.0,0.0,0.0,0.0,0,0,0.0,0.0,0,0,57.0,0.0,0.0,4668.205128205129,3953.8461538461543,4516.923076923077,4443.589743589744,4246.666666666667,4536.923076923077,4458.974358974359,4424.615384615385,4355.8974358974365,4725.128205128206,4368.717948717949,4241.025641025642,4169.74358974359,4513.846153846154
73.56322,0.45451412,0.63867205,0.41758946,0.7100059,0,0.0,0.0,0.0,0.0,0.0,0,0,0.0,0.0,0,0,57.0,0.0,0.0,4668.205128205129,3953.8461538461543,4516.923076923077,4443.589743589744,4246.666666666667,4536.923076923077,4458.974358974359,4424.615384615385,4355.8974358974365,4725.128205128206,4368.717948717949,4241.025641025642,4169.74358974359,4513.846153846154
74.06365,0.4149614,0.61619645,0.41947788,0.68770236,0,0.0,0.0,0.0,0.0,0.12152314,0,0,0.0,0.0,0,0,121.0,0.0,489.0,4653.846153846154,3955.3846153846157,4486.666666666667,4428.205128205129,4236.410256410257,4533.333333333334,4449.2307692307695,4421.025641025642,4337.435897435898,4688.717948717949,4348.717948717949,4196.923076923077,4135.384615384616,4464.615384615385
74.313866,0.4149614,0.61619645,0.41947788,0.68770236,0,0.0,0.0,0.0,0.0,0.09926979,0,0,0.0,0.0,0,0,24.0,0.0,0.0,4684.102564102564,3973.333333333334,4459.48717948718,4418.461538461539,4232.820512820514,4535.384615384616,4434.871794871796,4398.974358974359,4325.641025641026,4693.333333333334,4360.000000000001,4184.615384615385,4138.974358974359,4489.2307692307695
74.56408,0.39156455,0.60783947,0.42116404,0.6676562,0,0.0,0.0,0.0,0.0,0.41062075,0,0,0.0,0.0,0,0,56.0,0.0,0.0,4686.153846153847,3990.2564102564106,4441.538461538462,4424.615384615385,4246.153846153847,4564.615384615385,4466.666666666667,4413.333333333334,4311.282051282052,4682.564102564103,4377.948717948719,4153.846153846154,4136.923076923077,4534.871794871796
74.81429,0.39156455,0.60783947,0.42116404,0.6676562,0,0.0,0.0,0.0,0.0,0.02846172,0,0,0.0,0.0,0,0,88.0,0.0,435.0,4650.769230769231,3982.0512820512827,4383.589743589744,4369.2307692307695,4246.666666666667,4568.717948717949,4440.512820512821,4374.358974358975,4263.076923076924,4611.794871794872,4351.282051282052,4093.8461538461543,4020.5128205128212,4491.282051282052
75.06451,0.40019342,0.5809813,0.4201583,0.64963037,0,0.0,0.0,0.0,0.0,0.007867077,0,0,0.0,0.0,0,0,120.0,0.0,435.0,4629.743589743591,3938.461538461539,4379.48717948718,4338.974358974359,4247.6923076923085,4584.102564102564,4474.871794871796,4398.974358974359,4273.333333333334,4608.717948717949,4353.333333333334,4088.205128205129,3990.2564102564106,4488.717948717949
75.31472,0.40019342,0.5809813,0.4201583,0.64963037,0,0.0,0.0,0.0,0.0,0.089890085,0,0,0.0,0.0,0,0,23.0,0.0,0.0,4591.794871794872,3922.0512820512827,4372.820512820514,4313.333333333334,4256.410256410257,4584.102564102564,4468.717948717949,4393.846153846154,4250.256410256411,4607.6923076923085,4337.948717948719,4080.0000000000005,3942.0512820512827,4496.410256410257
75.56494,0.37386698,0.5677307,0.41567725,0.63845855,0,0.0,0.0,0.0,0.0,0.18358463,0,0,0.0,0.0,0,0,55.0,0.0,0.0,4599.48717948718,3932.820512820513,4398.461538461539,4351.282051282052,4263.589743589744,4585.128205128206,4470.769230769231,4420.512820512821,4273.846153846154,4619.48717948718,4353.846153846154,4132.820512820514,3969.2307692307695,4544.102564102564
75.815155,0.37386698,0.5677307,0.41567725,0.63845855,0,0.0,0.0,0.0,0.0,0.0,0,0,0.12262513,0.0,0,0,87.0,0.0,474.0,4581.025641025642,3914.8717948717954,4402.564102564103,4359.48717948718,4264.615384615385,4573.333333333334,4486.153846153847,4430.256410256411,4282.051282051282,4643.589743589744,4360.000000000001,4148.717948717949,3992.820512820513,4558.974358974359
76.06537,0.37835085,0.5792651,0.41149434,0.6353543,0,0.0,0.0,0.0,0.0,0.0,0,0,0.0,0.0,0,0,119.0,0.0,474.0,4567.6923076923085,3893.333333333334,4426.153846153847,4372.820512820514,4263.076923076924,4569.743589743591,4470.256410256411,4440.512820512821,4291.794871794872,4658.461538461539,4347.179487179487,4157.948717948719,3984.1025641025644,4535.8974358974365
76.06537,0.37835085,0.5792651,0.41149434,0.6353543,0,0.0,0.0,0.0,0.0,0.0,0,0,0.0,0.0,0,0,119.0,0.0,474.0,4567.6923076923085,3893.333333333334,4426.153846153847,4372.820512820514,4263.076923076924,4569.743589743591,4470.256410256411,4440.512820512821,4291.794871794872,4658.461538461539,4347.179487179487,4157.948717948719,3984.1025641025644,4535.8974358974365
76.565796,0.42045718,0.5864068,0.4077195,0.6325549,0,0.0,0.0,0.0,0.0,0.0,0,0,0.0,0.0,0,0,54.0,0.0,0.0,4654.871794871796,3963.076923076924,4518.461538461539,4437.948717948719,4294.358974358975,4587.6923076923085,4505.128205128206,4487.179487179488,4333.333333333334,4734.871794871796,4367.179487179487,4260.000000000001,4058.461538461539,4612.307692307693
76.565796,0.42045718,0.5864068,0.4077195,0.6325549,0,0.0,0.0,0.0,0.0,0.0,0,0,0.0,0.0,0,0,54.0,0.0,0.0,4654.871794871796,3963.076923076924,4518.461538461539,4437.948717948719,4294.358974358975,4587.6923076923085,4505.128205128206,4487.179487179488,4333.333333333334,4734.871794871796,4367.179487179487,4260.000000000001,4058.461538461539,4612.307692307693
77.06623,0.47894356,0.61911863,0.40431234,0.6300298,0,0.0,0.0,0.0,0.0,0.0,0,0,0.0,0.0,0,0,118.0,0.0,518.0,4686.666666666667,4012.820512820513,4558.461538461539,4473.846153846154,4311.282051282052,4599.48717948718,4514.871794871796,4496.923076923077,4348.205128205129,4737.948717948719,4351.794871794872,4278.974358974359,4108.717948717949,4663.589743589744
77.316444,0.47894356,0.61911863,0.40431234,0.6300298,0,0.0,0.0,0.0,0.0,0.1893032,0,0,0.0,0.0,0,0,21.0,0.0,0.0,4676.410256410257,4005.1282051282055,4554.871794871796,4473.333333333334,4305.641025641026,4588.717948717949,4507.179487179488,4484.615384615385,4352.307692307693,4734.871794871796,4318.461538461539,4249.74358974359,4076.410256410257,4588.205128205129
77.56666,0.4859216,0.6603265,0.40235692,0.61945903,0,0.0,0.0,0.0,0.0,0.23530753,0,0,0.0,0.0,0,0,53.0,0.0,0.0,4727.179487179488,4038.9743589743593,4582.051282051282,4504.615384615385,4317.948717948719,4604.615384615385,4519.48717948718,4492.307692307693,4378.974358974359,4762.051282051282,4340.512820512821,4302.564102564103,4137.435897435898,4617.435897435898
77.81687,0.4859216,0.6603265,0.40235692,0.61945903,0,0.0,0.0,0.0,0.0,0.045525033,0,0,0.0,0.0,0,0,85.0,0.0,489.0,4763.076923076924,4023.076923076924,4590.769230769231,4505.128205128206,4327.6923076923085,4612.820512820514,4542.564102564103,4542.564102564103,4414.358974358975,4843.076923076924,4415.384615384616,4364.615384615385,4257.948717948719,4657.948717948719
78.06709,0.510038,0.69343424,0.40389204,0.6083515,0,0.0,0.0,0.0,0.0,0.0733186,0,0,0.0,0.0,0,0,117.0,0.0,489.0,4767.6923076923085,3995.3846153846157,4571.794871794872,4489.743589743591,4298.974358974359,4591.282051282052,4540.000000000001,4537.948717948719,4378.461538461539,4856.923076923077,4438.974358974359,4367.6923076923085,4313.333333333334,4670.769230769231
78.31731,0.510038,0.69343424,0.40389204,0.6083515,0,0.0,0.0,0.0,0.0,0.0,0,0,0.0,0.0,0,0,20.0,0.0,0.0,4713.846153846154,3988.205128205129,4536.410256410257,4490.769230769231,4291.794871794872,4573.333333333334,4504.615384615385,4490.769230769231,4363.589743589744,4793.333333333334,4370.256410256411,4297.435897435898,4209.74358974359,4597.435897435898
78.56752,0.5666078,0.6908045,0.40690845,0.5983537,0,0.0,0.0,0.0,0.0,0.3356885,0,0,0.0,0.0,0,0,52.0,0.0,0.0,4679.48717948718,3974.358974358975,4510.769230769231,4470.769230769231,4276.923076923077,4564.102564102564,4474.358974358975,4466.153846153847,4403.076923076924,4750.769230769231,4317.435897435898,4248.205128205129,4147.179487179487,4548.205128205129
78.81773,0.5666078,0.6908045,0.40690845,0.5983537,0,0.0,0.0,0.0,0.0,0.08758271,0,0,0.0,0.0,0,0,84.0,0.0,435.0,4714.358974358975,3978.9743589743593,4546.153846153847,4485.641025641026,4295.8974358974365,4584.102564102564,4491.794871794872,4491.794871794872,4426.153846153847,4788.205128205129,4339.48717948718,4287.179487179487,4190.256410256411,4604.102564102564
79.06795,0.5751813,0.6737302,0.41020158,0.5893541,0,0.0,0.0,0.0,0.0,0.19673975,0,0,0.0,0.0,0,0,116.0,0.0,435.0,4781.538461538462,4000.5128205128212,4609.743589743591,4513.846153846154,4320.000000000001,4612.820512820514,4502.564102564103,4532.820512820514,4444.102564102564,4856.410256410257,4432.307692307693,4385.128205128206,4323.589743589744,4712.307692307693
79.31816,0.5751813,0.6737302,0.41020158,0.5893541,0,0.0,0.0,0.0,0.0,0.0659659,0,0,0.0,0.0,0,0,19.0,0.0,0.0,4841.538461538462,4052.820512820513,4671.794871794872,4565.128205128206,4378.974358974359,4673.333333333334,4552.820512820514,4584.615384615385,4481.538461538462,4932.307692307693,4504.102564102564,4455.384615384616,4416.410256410257,4781.025641025642
79.599655,0.63819796,0.6594721,0.41315356,0.5921146,1,0.0,0.0,0.0,0.0,0.16982096,0,0,0.0,0.0,0,0,55.0,0.0,0.0,4860.512820512821,4108.717948717949,4725.128205128206,4618.461538461539,4437.948717948719,4722.051282051282,4591.282051282052,4584.102564102564,4486.153846153847,4912.307692307693,4472.820512820514,4452.307692307693,4343.589743589744,4755.8974358974365
79.88115,0.63819796,0.6594721,0.41315356,0.5921146,1,0.0,0.0,0.0,0.0,0.10514644,0,0,0.0,0.0,0,0,91.0,0.0,474.0,4876.410256410257,4162.051282051282,4746.153846153847,4645.128205128206,4446.666666666667,4735.8974358974365,4608.205128205129,4614.871794871796,4508.205128205129,4928.717948717949,4476.410256410257,4467.179487179487,4356.923076923077,4774.358974358975
80.06881,0.63892895,0.6466398,0.4157981,0.61598796,0,0.0,0.0,0.0,0.0,0.11175113,0,0,0.0,0.0,0,0,115.0,0.0,474.0,4856.410256410257,4109.74358974359,4723.589743589744,4616.923076923077,4414.871794871796,4703.589743589744,4600.000000000001,4606.666666666667,4504.615384615385,4926.666666666667,4489.2307692307695,4456.410256410257,4383.589743589744,4753.333333333334
80.31902,0.63892895,0.6466398,0.4157981,0.61598796,0,0.0,0.0,0.0,0.0,0.09020649,0,0,0.0,0.0,0,0,18.0,0.0,0.0,4824.102564102564,4067.1794871794878,4696.410256410257,4592.820512820514,4383.589743589744,4673.333333333334,4571.282051282052,4571.282051282052,4495.384615384616,4893.846153846154,4453.333333333334,4415.8974358974365,4332.820512820514,4705.641025641026
80.56924,0.71007425,0.63509077,0.4181656,0.6415545,0,0.0,0.0,0.0,0.0,0.05593009,0,0,0.0,0.0,0,0,50.0,0.0,0.0,4827.6923076923085,4070.2564102564106,4693.333333333334,4588.717948717949,4370.256410256411,4654.358974358975,4556.410256410257,4555.8974358974365,4500.512820512821,4909.2307692307695,4477.435897435898,4440.000000000001,4374.358974358975,4733.333333333334
80.81946,0.71007425,0.63509077,0.4181656,0.6415545,0,0.0,0.0,0.0,0.0,0.083849244,0,0,0.0,0.0,0,0,82.0,0.0,518.0,4838.974358974359,4021.0256410256416,4676.410256410257,4562.564102564103,4340.000000000001,4627.179487179488,4557.435897435898,4534.358974358975,4491.794871794872,4892.820512820514,4503.589743589744,4443.076923076924,4427.179487179487,4742.051282051282
81.06967,0.6961796,0.6246966,0.42146206,0.66542524,0,0.0,0.0,0.0,0.0,0.19235656,0,0,0.0,0.0,0,0,114.0,0.0,518.0,4783.076923076924,3973.8461538461543,4638.974358974359,4525.128205128206,4324.615384615385,4609.2307692307695,4541.538461538462,4529.743589743591,4494.871794871796,4885.128205128206,4476.410256410257,4395.8974358974365,4382.051282051282,4668.717948717949
81.319885,0.6961796,0.6246966,0.42146206,0.66542524,0,0.0,0.0,0.0,0.0,0.2410052,0,0,0.0,0.0,0,0,17.0,0.0,0.0,4792.820512820514,4025.1282051282055,4629.743589743591,4539.48717948718,4320.512820512821,4601.025641025642,4515.384615384616,4489.2307692307695,4474.871794871796,4810.256410256411,4410.256410256411,4366.153846153847,4282.564102564103,4646.666666666667
81.5701,0.6683934,0.6153419,0.4244151,0.6966797,0,0.0,0.0,0.0,0.0,0.13224708,0,0,0.0,0.0,0,0,49.0,0.0,0.0,4787.179487179488,4052.307692307693,4616.923076923077,4541.538461538462,4310.256410256411,4588.717948717949,4497.435897435898,4450.769230769231,4454.871794871796,4749.2307692307695,4386.666666666667,4352.820512820514,4227.6923076923085,4640.512820512821
81.82031,0.6683934,0.6153419,0.4244151,0.6966797,0,0.0,0.0,0.0,0.0,0.030349774,0,0,0.0,0.0,0,0,81.0,0.0,489.0,4776.410256410257,4013.8461538461543,4601.025641025642,4517.948717948719,4295.384615384616,4572.820512820514,4507.6923076923085,4464.102564102564,4455.8974358974365,4765.641025641026,4403.589743589744,4347.179487179487,4253.846153846154,4642.051282051282
82.070526,0.62902087,0.57320255,0.42644513,0.7246955,0,0.0,0.0,0.0,0.0,0.09383793,0,0,0.0,0.0,0,0,113.0,0.0,489.0,4780.512820512821,4062.564102564103,4605.641025641026,4541.538461538462,4294.358974358975,4573.333333333334,4504.615384615385,4467.179487179487,4455.8974358974365,4752.307692307693,4400.000000000001,4347.179487179487,4240.000000000001,4646.666666666667
82.32075,0.62902087,0.57320255,0.42644513,0.7246955,0,0.0,0.0,0.0,0.0,0.10593356,0,0,0.0,0.0,0,0,16.0,0.0,0.0,4758.461538461539,3970.2564102564106,4585.641025641026,4499.48717948718,4275.8974358974365,4556.923076923077,4512.820512820514,4505.128205128206,4476.410256410257,4840.512820512821,4459.48717948718,4364.615384615385,4335.384615384616,4662.051282051282
82.57096,0.564924,0.5273714,0.42825794,0.74976593,0,0.0,0.0,0.0,0.0,0.076029435,0,0,0.0,0.0,0,0,48.0,0.0,0.0,4752.820512820514,3946.666666666667,4575.384615384616,4485.641025641026,4266.153846153847,4556.410256410257,4518.974358974359,4498.461538461539,4465.128205128206,4819.48717948718,4439.48717948718,4351.794871794872,4305.128205128206,4628.717948717949
82.821175,0.564924,0.5273714,0.42825794,0.74976593,0,0.0,0.0,0.0,0.0,0.050208017,0,0,0.0,0.0,0,0,80.0,0.0,432.0,4769.743589743591,3995.8974358974365,4587.6923076923085,4516.923076923077,4293.333333333334,4581.538461538462,4523.076923076924,4504.102564102564,4455.8974358974365,4790.769230769231,4428.205128205129,4348.205128205129,4265.128205128206,4630.256410256411
83.07139,0.5202054,0.48658532,0.42735434,0.7763046,0,0.0,0.0,0.0,0.0,0.07452315,0,0,0.0,0.0,0,0,112.0,0.0,432.0,4737.948717948719,4002.0512820512827,4559.48717948718,4517.948717948719,4281.538461538462,4568.717948717949,4497.948717948719,4463.589743589744,4426.666666666667,4716.410256410257,4344.615384615385,4282.564102564103,4149.2307692307695,4567.179487179488
83.3216,0.5202054,0.48658532,0.42735434,0.7763046,0,0.0,0.0,0.0,0.0,0.091977485,0,0,0.0,0.0,0,0,15.0,0.0,474.0,4717.435897435898,3981.538461538462,4549.743589743591,4502.564102564103,4279.48717948718,4556.923076923077,4489.743589743591,4442.051282051282,4362.564102564103,4713.333333333334,4343.589743589744,4274.871794871796,4149.74358974359,4551.282051282052
83.57182,0.55454874,0.4621913,0.425608,0.8028195,0,0.0,0.0,0.0,0.0,0.04796904,0,0,0.0,0.0,0,0,47.0,0.0,0.0,4721.025641025642,3981.0256410256416,4545.641025641026,4492.307692307693,4275.384615384616,4552.307692307693,4489.743589743591,4456.410256410257,4368.205128205129,4697.435897435898,4332.307692307693,4267.6923076923085,4143.589743589744,4541.025641025642
83.69693,0.55454874,0.4621913,0.425608,0.8028195,0,0.0,0.0,0.0,0.0,0.0,0,0,0.0,0.0,0,0,63.0,0.0,0.0,4717.948717948719,3987.1794871794878,4540.000000000001,4494.871794871796,4272.820512820514,4553.846153846154,4488.717948717949,4460.512820512821,4382.564102564103,4711.282051282052,4343.589743589744,4277.948717948719,4158.461538461539,4537.435897435898
84.07225,0.5931309,0.4413945,0.42402384,0.8263936,0,0.0,0.0,0.0,0.0,0.0,0,0,0.0,0.0,0,0,111.0,0.0,474.0,4737.435897435898,3993.333333333334,4555.384615384616,4507.179487179488,4277.948717948719,4554.358974358975,4494.871794871796,4468.717948717949,4429.743589743591,4722.051282051282,4365.128205128206,4294.871794871796,4181.538461538462,4541.025641025642
84.07225,0.5931309,0.4413945,0.42402384,0.8263936,0,0.0,0.0,0.0,0.0,0.0,0,0,0.0,0.0,0,0,111.0,0.0,474.0,4737.435897435898,3993.333333333334,4555.384615384616,4507.179487179488,4277.948717948719,4554.358974358975,4494.871794871796,4468.717948717949,4429.743589743591,4722.051282051282,4365.128205128206,4294.871794871796,4181.538461538462,4541.025641025642
84.57268,0.56668395,0.45707557,0.42214203,0.8472922,0,0.0,0.0,0.0,0.0,0.0,0,0,0.0,0.0,0,1,46.0,0.0,0.0,4765.641025641026,3955.8974358974365,4573.333333333334,4489.2307692307695,4263.589743589744,4554.871794871796,4512.307692307693,4525.128205128206,4458.461538461539,4803.076923076924,4450.769230769231,4366.153846153847,4320.512820512821,4604.615384615385
84.8229,0.56668395,0.45707557,0.42214203,0.8472922,0,0.0,0.0,0.0,0.0,0.10583992,0,0,0.0,0.0,0,0,78.0,0.0,518.0,4763.589743589744,3969.7435897435903,4581.025641025642,4504.102564102564,4309.743589743591,4596.410256410257,4548.717948717949,4553.846153846154,4473.846153846154,4842.051282051283,4461.025641025642,4365.641025641026,4327.6923076923085,4595.384615384616
85.07311,0.5053664,0.49667835,0.41977343,0.8611077,0,0.0,0.0,0.0,0.0,0.06740297,0,0,0.0,0.0,0,0,110.0,0.0,518.0,4741.538461538462,3952.307692307693,4565.128205128206,4492.307692307693,4292.820512820514,4585.641025641026,4526.153846153847,4517.435897435898,4441.538461538462,4795.8974358974365,4424.102564102564,4335.384615384616,4282.564102564103,4570.256410256411
85.323326,0.5053664,0.49667835,0.41977343,0.8611077,0,0.0,0.0,0.0,0.0,0.06945376,0,0,0.0,0.0,0,0,13.0,0.0,489.0,4706.153846153847,3957.9487179487182,4533.333333333334,4460.512820512821,4265.128205128206,4552.820512820514,4489.743589743591,4488.205128205129,4425.128205128206,4741.538461538462,4374.871794871796,4282.564102564103,4216.923076923077,4508.205128205129
85.57354,0.5239411,0.5206203,0.41781735,0.87325436,0,0.0,0.0,0.0,0.0,0.042540867,0,0,0.0,0.0,0,0,45.0,0.0,0.0,4701.538461538462,3957.9487179487182,4526.666666666667,4460.512820512821,4259.48717948718,4547.179487179488,4482.564102564103,4477.948717948719,4424.102564102564,4744.102564102564,4367.179487179487,4286.153846153847,4212.820512820514,4525.641025641026
85.82375,0.5239411,0.5206203,0.41781735,0.87325436,0,0.0,0.0,0.0,0.0,0.0,0,0,0.0,0.0,0,0,77.0,0.0,489.0,4680.512820512821,3970.7692307692314,4503.076923076924,4451.794871794872,4247.179487179487,4531.794871794872,4457.435897435898,4450.256410256411,4398.974358974359,4674.871794871796,4315.384615384616,4248.717948717949,4142.564102564103,4516.410256410257
86.07397,0.5255411,0.5514337,0.41862935,0.87769294,0,0.0,0.0,0.0,0.0,0.07542505,0,0,0.0,0.0,0,0,109.0,0.0,489.0,4684.615384615386,3984.1025641025644,4514.871794871796,4464.102564102564,4246.153846153847,4530.256410256411,4463.076923076924,4446.153846153847,4395.8974358974365,4685.641025641026,4316.410256410257,4262.564102564103,4152.307692307693,4537.435897435898
86.32419,0.5255411,0.5514337,0.41862935,0.87769294,0,0.0,0.0,0.0,0.0,0.0,0,0,0.0,0.0,0,0,12.0,0.0,432.0,4687.179487179488,3955.8974358974365,4517.948717948719,4458.974358974359,4245.641025641026,4524.615384615385,4457.435897435898,4428.205128205129,4395.384615384616,4676.410256410257,4318.461538461539,4261.025641025642,4153.333333333334,4523.076923076924
86.5744,0.4711996,0.5538344,0.41934806,0.86536294,0,0.0,0.0,0.0,0.0,0.0,0,0,0.0,0.0,0,0,44.0,0.0,0.0,4685.128205128206,3960.5128205128212,4512.307692307693,4463.076923076924,4254.358974358975,4540.000000000001,4457.948717948719,4416.410256410257,4391.282051282052,4676.410256410257,4321.538461538462,4263.076923076924,4162.564102564103,4506.666666666667
86.793335,0.4711996,0.5538344,0.41934806,0.86536294,0,0.0,0.0,0.0,0.0,0.0,0,0,0.0,0.0,0,1,72.0,0.0,353.0,4735.384615384616,3983.589743589744,4538.974358974359,4475.384615384616,4253.333333333334,4541.538461538462,4481.025641025642,4449.743589743591,4398.974358974359,4725.641025641026,4370.769230769231,4315.8974358974365,4247.6923076923085,4567.179487179488
87.13738,0.48354754,0.5892194,0.4197707,0.84277827,0,0.0,0.0,0.0,0.0,0.0,0,0,0.0,0.0,0,0,116.0,0.0,432.0,4701.538461538462,3943.589743589744,4525.128205128206,4458.974358974359,4248.717948717949,4540.000000000001,4475.384615384616,4458.974358974359,4407.179487179487,4729.2307692307695,4375.384615384616,4296.410256410257,4221.025641025642,4515.384615384616
87.13738,0.48354754,0.5892194,0.4197707,0.84277827,0,0.0,0.0,0.0,0.0,0.0,0,0,0.0,0.0,0,0,116.0,0.0,432.0,4701.538461538462,3943.589743589744,4525.128205128206,4458.974358974359,4248.717948717949,4540.000000000001,4475.384615384616,4458.974358974359,4407.179487179487,4729.2307692307695,4375.384615384616,4296.410256410257,4221.025641025642,4515.384615384616
87.575264,0.43206897,0.6247779,0.42226234,0.822566,0,0.0,0.0,0.0,0.0,0.17211002,0,0,0.0,0.0,0,0,43.0,0.0,0.0,4667.179487179488,3966.666666666667,4495.8974358974365,4447.179487179487,4251.794871794872,4539.48717948718,4457.435897435898,4407.179487179487,4371.794871794872,4663.076923076924,4292.820512820514,4222.051282051282,4117.435897435898,4506.153846153847
87.82548,0.43206897,0.6247779,0.42226234,0.822566,0,0.0,0.0,0.0,0.0,0.06991863,0,0,0.0,0.0,0,0,75.0,0.0,474.0,4673.333333333334,3955.8974358974365,4495.8974358974365,4454.358974358975,4263.589743589744,4540.512820512821,4452.820512820514,4414.358974358975,4380.512820512821,4665.641025641026,4304.615384615385,4233.846153846154,4140.512820512821,4523.589743589744
88.07569,0.42672485,0.613032,0.4249517,0.8044578,0,0.0,0.0,0.0,0.0,0.07881044,0,0,0.0,0.0,0,0,107.0,0.0,474.0,4632.307692307693,3907.692307692308,4466.153846153847,4428.205128205129,4245.641025641026,4523.589743589744,4451.794871794872,4419.48717948718,4382.564102564103,4673.846153846154,4276.923076923077,4191.282051282052,4105.128205128206,4470.769230769231
88.325905,0.42672485,0.613032,0.4249517,0.8044578,0,0.0,0.0,0.0,0.0,0.0,0,0,0.0,0.0,0,0,10.0,0.0,520.0,4657.435897435898,3926.666666666667,4486.153846153847,4441.538461538462,4247.6923076923085,4526.153846153847,4457.948717948719,4425.641025641026,4375.384615384616,4695.8974358974365,4314.358974358975,4225.641025641026,4174.871794871796,4532.307692307693
88.57612,0.4506816,0.62168354,0.4268978,0.7882203,0,0.0,0.0,0.0,0.0,0.0,0,0,0.0,0.0,0,0,42.0,0.0,0.0,4642.564102564103,3894.358974358975,4479.48717948718,4420.000000000001,4232.307692307693,4518.461538461539,4442.051282051282,4432.820512820514,4394.871794871796,4746.153846153847,4341.538461538462,4232.820512820514,4214.871794871796,4528.205128205129
88.57612,0.4506816,0.62168354,0.4268978,0.7882203,0,0.0,0.0,0.0,0.0,0.0,0,0,0.0,0.0,0,0,42.0,0.0,0.0,4642.564102564103,3894.358974358975,4479.48717948718,4420.000000000001,4232.307692307693,4518.461538461539,4442.051282051282,4432.820512820514,4394.871794871796,4746.153846153847,4341.538461538462,4232.820512820514,4214.871794871796,4528.205128205129
89.07655,0.40797403,0.59799635,0.42537633,0.77443326,1,0.0,0.0,0.0,0.0,0.18223372,0,0,0.0,0.0,0,0,106.0,0.0,520.0,4698.461538461539,3974.358974358975,4491.794871794872,4439.48717948718,4245.128205128206,4534.358974358975,4438.461538461539,4422.564102564103,4327.6923076923085,4714.871794871796,4337.435897435898,4239.48717948718,4190.256410256411,4544.615384615385
89.32677,0.40797403,0.59799635,0.42537633,0.77443326,0,0.0,0.0,0.0,0.0,0.19513302,0,0,0.0,0.0,0,0,9.0,0.0,480.0,4695.8974358974365,3967.692307692308,4490.256410256411,4440.512820512821,4260.512820512821,4551.794871794872,4457.435897435898,4435.8974358974365,4331.282051282052,4741.538461538462,4340.512820512821,4226.153846153847,4194.358974358975,4515.384615384616
89.57698,0.37203127,0.61390674,0.42219657,0.77201426,0,0.0,0.0,0.0,0.0,0.08214338,0,0,0.0,0.0,0,0,41.0,0.0,0.0,4728.205128205129,3933.333333333334,4517.435897435898,4461.025641025642,4277.948717948719,4568.717948717949,4473.846153846154,4466.666666666667,4397.948717948719,4780.512820512821,4378.974358974359,4262.564102564103,4245.128205128206,4550.769230769231
89.827194,0.37203127,0.61390674,0.42219657,0.77201426,0,0.0,0.0,0.0,0.0,0.0,0,0,0.0,0.0,0,0,73.0,0.0,480.0,4676.923076923077,3880.0000000000005,4488.205128205129,4429.743589743591,4246.153846153847,4539.48717948718,4449.743589743591,4449.2307692307695,4398.974358974359,4728.717948717949,4319.48717948718,4216.410256410257,4171.794871794872,4497.948717948719
90.07741,0.38063875,0.6241529,0.41973576,0.77045286,0,0.0,0.0,0.0,0.0,0.0,0,0,0.0,0.0,0,0,105.0,0.0,489.0,4681.025641025642,3910.2564102564106,4502.051282051282,4425.128205128206,4263.076923076924,4552.820512820514,4461.025641025642,4446.666666666667,4392.820512820514,4707.179487179488,4326.153846153847,4234.871794871796,4184.102564102564,4537.435897435898
90.3589,0.38063875,0.6241529,0.41973576,0.77045286,1,0.0,0.0,0.0,0.0,0.0,0,0,0.0,0.0,0,0,12.0,0.0,432.0,4728.717948717949,3946.1538461538466,4527.6923076923085,4460.000000000001,4252.307692307693,4550.256410256411,4473.846153846154,4457.948717948719,4399.48717948718,4717.435897435898,4350.256410256411,4280.000000000001,4217.435897435898,4598.461538461539
90.57784,0.3643463,0.74020207,0.41756037,0.7733461,0,0.0,0.0,0.0,0.0,0.0,0,0,0.2120475,0.0,0,0,40.0,0.0,0.0,4662.051282051282,3918.461538461539,4478.461538461539,4408.717948717949,4206.153846153847,4523.076923076924,4444.102564102564,4415.8974358974365,4372.307692307693,4664.615384615386,4270.769230769231,4213.333333333334,4104.102564102564,4508.717948717949
90.82806,0.3643463,0.74020207,0.41756037,0.7733461,0,0.0,0.0,0.0,0.0,0.09025113,0,0,0.0,0.0,0,0,72.0,0.0,353.0,4664.102564102564,3912.820512820513,4493.846153846154,4399.48717948718,4219.48717948718,4528.205128205129,4455.384615384616,4438.974358974359,4384.615384615385,4691.282051282052,4274.358974358975,4237.435897435898,4121.538461538462,4521.025641025642
91.07827,0.37423435,0.7279214,0.41590893,0.77588135,0,0.0,0.0,0.0,0.0,0.08262514,0,0,0.0,0.0,0,0,104.0,0.0,432.0,4685.128205128206,3927.1794871794878,4515.8974358974365,4422.564102564103,4246.153846153847,4551.794871794872,4477.435897435898,4460.000000000001,4386.153846153847,4701.538461538462,4317.435897435898,4271.282051282052,4166.666666666667,4547.179487179488
91.359764,0.37423435,0.7279214,0.41590893,0.77588135,0,0.0,0.0,0.0,0.0,0.123046875,0,0,0.0,0.0,0,0,11.0,0.0,474.0,4657.435897435898,3894.358974358975,4511.282051282052,4408.717948717949,4240.000000000001,4538.974358974359,4471.794871794872,4476.923076923077,4389.2307692307695,4702.564102564103,4308.205128205129,4248.205128205129,4148.205128205129,4521.538461538462
91.60998,0.33871406,0.7455624,0.41452524,0.76968896,0,0.0,0.0,0.0,0.0,0.15376377,0,0,0.0,0.0,0,0,43.0,0.0,0.0,4654.358974358975,3906.666666666667,4516.410256410257,4423.589743589744,4246.153846153847,4537.948717948719,4465.641025641026,4478.461538461539,4394.871794871796,4710.769230769231,4320.000000000001,4263.589743589744,4151.794871794872,4509.2307692307695
91.82892,0.33871406,0.7455624,0.41452524,0.76968896,0,0.0,0.0,0.0,0.0,0.0,0,0,0.0,0.0,0,0,71.0,0.0,456.0,4680.512820512821,3933.333333333334,4533.846153846154,4435.384615384616,4267.179487179487,4556.410256410257,4493.333333333334,4491.282051282052,4394.871794871796,4739.48717948718,4333.846153846154,4280.512820512821,4173.333333333334,4540.512820512821
92.07913,0.34526694,0.82873696,0.41316858,0.75389946,0,0.0,0.0,0.0,0.0,0.0,0,0,0.0,0.0,0,0,103.0,0.0,474.0,4686.153846153847,3940.0000000000005,4537.435897435898,4437.948717948719,4264.615384615385,4554.871794871796,4486.153846153847,4507.6923076923085,4398.974358974359,4749.2307692307695,4347.179487179487,4293.846153846154,4183.589743589744,4545.128205128206
92.07913,0.34526694,0.82873696,0.41316858,0.75389946,0,0.0,0.0,0.0,0.0,0.0,0,0,0.0,0.0,0,0,103.0,0.0,474.0,4686.153846153847,3940.0000000000005,4537.435897435898,4437.948717948719,4264.615384615385,4554.871794871796,4486.153846153847,4507.6923076923085,4398.974358974359,4749.2307692307695,4347.179487179487,4293.846153846154,4183.589743589744,4545.128205128206
92.57956,0.34620658,0.81210506,0.41124296,0.7338547,0,0.0,0.0,0.0,0.0,0.0,0,0,0.0,0.0,0,0,38.0,0.0,0.0,4653.333333333334,3914.8717948717954,4500.512820512821,4403.589743589744,4233.846153846154,4523.076923076924,4461.538461538462,4478.461538461539,4387.179487179487,4737.948717948719,4336.410256410257,4250.769230769231,4153.846153846154,4508.717948717949
92.57956,0.34620658,0.81210506,0.41124296,0.7338547,0,0.0,0.0,0.0,0.0,0.0,0,0,0.0,0.0,0,0,38.0,0.0,0.0,4653.333333333334,3914.8717948717954,4500.512820512821,4403.589743589744,4233.846153846154,4523.076923076924,4461.538461538462,4478.461538461539,4387.179487179487,4737.948717948719,4336.410256410257,4250.769230769231,4153.846153846154,4508.717948717949
93.079994,0.3245172,0.796693,0.40334582,0.7154161,0,0.0,0.0,0.0,0.0,0.0,0,0,0.0,0.0,0,0,102.0,0.0,520.0,4668.205128205129,3921.538461538462,4518.461538461539,4424.615384615385,4265.128205128206,4545.128205128206,4495.8974358974365,4492.307692307693,4399.48717948718,4751.282051282052,4347.6923076923085,4265.128205128206,4169.2307692307695,4524.615384615385
93.079994,0.3245172,0.796693,0.40334582,0.7154161,0,0.0,0.0,0.0,0.0,0.0,0,0,0.0,0.0,0,0,102.0,0.0,520.0,4668.205128205129,3921.538461538462,4518.461538461539,4424.615384615385,4265.128205128206,4545.128205128206,4495.8974358974365,4492.307692307693,4399.48717948718,4751.282051282052,4347.6923076923085,4265.128205128206,4169.2307692307695,4524.615384615385
93.58042,0.27381438,0.7773257,0.39620978,0.6988493,0,0.0,0.0,0.0,0.0,0.16350329,0,0,0.0,0.0,0,0,37.0,0.0,0.0,4704.102564102564,3956.9230769230776,4512.307692307693,4438.461538461539,4248.205128205129,4536.410256410257,4458.461538461539,4450.769230769231,4375.384615384616,4694.358974358975,4324.102564102564,4261.538461538462,4136.410256410257,4552.307692307693
93.830635,0.27381438,0.7773257,0.39620978,0.6988493,0,0.0,0.0,0.0,0.0,0.1422182,0,0,0.0,0.0,0,0,69.0,0.0,548.0,4665.641025641026,3956.410256410257,4489.743589743591,4429.2307692307695,4246.153846153847,4522.564102564103,4428.205128205129,4409.2307692307695,4352.307692307693,4657.435897435898,4292.820512820514,4223.589743589744,4086.666666666667,4517.435897435898
94.08085,0.28529075,0.7426884,0.3897696,0.6839575,0,0.0,0.0,0.0,0.0,0.07002377,0,0,0.0,0.0,0,0,101.0,0.0,489.0,4682.051282051282,3966.666666666667,4502.051282051282,4423.076923076924,4256.923076923077,4538.974358974359,4455.8974358974365,4434.358974358975,4372.307692307693,4697.435897435898,4306.666666666667,4231.794871794872,4121.025641025642,4540.512820512821
94.33107,0.28529075,0.7426884,0.3897696,0.6839575,0,0.0,0.0,0.0,0.0,0.0,0,0,0.0,0.0,0,0,4.0,0.0,551.0,4712.307692307693,3953.333333333334,4526.666666666667,4421.025641025642,4272.307692307693,4553.333333333334,4476.923076923077,4482.051282051282,4394.358974358975,4752.820512820514,4354.358974358975,4278.974358974359,4197.948717948719,4574.871794871796
94.58128,0.30173612,0.7297834,0.38397756,0.67581916,0,0.0,0.0,0.0,0.0,0.0,0,0,0.0,0.0,0,0,36.0,0.0,0.0,4722.564102564103,3953.8461538461543,4549.2307692307695,4438.974358974359,4287.179487179487,4571.794871794872,4508.717948717949,4511.282051282052,4416.923076923077,4798.974358974359,4391.794871794872,4309.743589743591,4257.435897435898,4594.871794871796
94.58128,0.30173612,0.7297834,0.38397756,0.67581916,0,0.0,0.0,0.0,0.0,0.0,0,0,0.0,0.0,0,0,36.0,0.0,0.0,4722.564102564103,3953.8461538461543,4549.2307692307695,4438.974358974359,4287.179487179487,4571.794871794872,4508.717948717949,4511.282051282052,4416.923076923077,4798.974358974359,4391.794871794872,4309.743589743591,4257.435897435898,4594.871794871796
95.08171,0.29317105,0.7381989,0.37877965,0.67556924,1,0.0,0.0,0.0,0.0,0.124343224,0,0,0.0,0.0,0,0,100.0,0.0,432.0,4724.615384615386,3960.0000000000005,4538.461538461539,4448.205128205129,4266.153846153847,4556.923076923077,4476.410256410257,4468.717948717949,4348.205128205129,4744.102564102564,4355.384615384616,4291.794871794872,4215.384615384616,4582.564102564103
95.331924,0.29317105,0.7381989,0.37877965,0.67556924,0,0.0,0.0,0.0,0.0,0.19210333,0,0,0.0,0.0,0,0,3.0,0.0,476.0,4721.538461538462,3956.9230769230776,4536.410256410257,4447.6923076923085,4265.641025641026,4556.923076923077,4489.743589743591,4480.512820512821,4395.8974358974365,4740.512820512821,4350.256410256411,4282.051282051282,4202.051282051282,4543.589743589744
95.58214,0.29044816,0.72049034,0.37487096,0.68279177,0,0.0,0.0,0.0,0.0,0.17973985,0,0,0.0,0.0,0,0,35.0,0.0,0.0,4708.717948717949,3942.564102564103,4537.435897435898,4456.410256410257,4263.589743589744,4556.410256410257,4494.871794871796,4476.923076923077,4395.384615384616,4736.410256410257,4356.410256410257,4295.8974358974365,4225.641025641026,4556.410256410257
95.83236,0.29044816,0.72049034,0.37487096,0.68279177,0,0.0,0.0,0.0,0.0,0.10644357,0,0,0.0,0.0,0,0,67.0,0.0,476.0,4693.333333333334,3939.48717948718,4523.076923076924,4433.333333333334,4251.282051282052,4541.538461538462,4483.589743589744,4473.846153846154,4397.435897435898,4752.307692307693,4361.025641025642,4288.205128205129,4218.461538461539,4553.846153846154
96.08257,0.2896945,0.70695555,0.37323105,0.6892605,0,0.0,0.0,0.0,0.0,0.0,0,0,0.0,0.0,0,0,99.0,0.0,474.0,4641.025641025642,3911.7948717948725,4473.846153846154,4396.410256410257,4167.179487179487,4443.589743589744,4396.410256410257,4380.512820512821,4356.410256410257,4641.538461538462,4276.410256410257,4213.333333333334,4127.179487179487,4492.307692307693
96.33279,0.2896945,0.70695555,0.37323105,0.6892605,0,0.0,0.0,0.0,0.0,0.0,0,0,0.0,0.0,0,0,2.0,0.0,460.0,4652.820512820514,3941.538461538462,4508.717948717949,4428.717948717949,4213.846153846154,4490.769230769231,4444.102564102564,4402.564102564103,4363.589743589744,4673.333333333334,4301.025641025642,4247.6923076923085,4168.205128205129,4533.333333333334
96.583,0.32625797,0.6855452,0.37356538,0.6950495,0,0.0,0.0,0.0,0.0,0.0,0,0,0.0,0.0,0,0,34.0,0.0,0.0,4661.538461538462,3956.410256410257,4509.2307692307695,4447.179487179487,4220.000000000001,4505.128205128206,4437.948717948719,4410.769230769231,4364.102564102564,4673.846153846154,4307.179487179487,4248.205128205129,4153.333333333334,4540.512820512821
96.583,0.32625797,0.6855452,0.37356538,0.6950495,0,0.0,0.0,0.0,0.0,0.0,0,0,0.0,0.0,0,0,34.0,0.0,0.0,4661.538461538462,3956.410256410257,4509.2307692307695,4447.179487179487,4220.000000000001,4505.128205128206,4437.948717948719,4410.769230769231,4364.102564102564,4673.846153846154,4307.179487179487,4248.205128205129,4153.333333333334,4540.512820512821
97.083435,0.31221417,0.64597,0.37386116,0.68840647,0,0.0,0.0,0.0,0.0,0.0,0,0,0.0,0.0,0,0,98.0,0.0,520.0,4664.615384615386,3956.9230769230776,4516.923076923077,4456.923076923077,4248.717948717949,4538.974358974359,4476.923076923077,4446.666666666667,4383.589743589744,4707.6923076923085,4314.871794871796,4257.435897435898,4178.974358974359,4551.282051282052
97.083435,0.31221417,0.64597,0.37386116,0.68840647,0,0.0,0.0,0.0,0.0,0.0,0,0,0.0,0.0,0,0,98.0,0.0,520.0,4664.615384615386,3956.9230769230776,4516.923076923077,4456.923076923077,4248.717948717949,4538.974358974359,4476.923076923077,4446.666666666667,4383.589743589744,4707.6923076923085,4314.871794871796,4257.435897435898,4178.974358974359,4551.282051282052
97.58386,0.25789544,0.6275496,0.37233952,0.6742301,0,0.0,0.0,0.0,0.0,0.0,0,0,0.0,0.0,0,0,33.0,0.0,0.0,4671.282051282052,3971.7948717948725,4518.974358974359,4470.256410256411,4250.256410256411,4537.948717948719,4467.6923076923085,4443.589743589744,4365.128205128206,4698.461538461539,4310.769230769231,4261.025641025642,4172.820512820514,4554.358974358975
97.834076,0.25789544,0.6275496,0.37233952,0.6742301,0,0.0,0.0,0.0,0.0,0.11037992,0,0,0.0,0.0,0,0,65.0,0.0,364.0,4653.333333333334,3967.692307692308,4508.717948717949,4470.256410256411,4248.717948717949,4536.923076923077,4459.48717948718,4417.948717948719,4351.794871794872,4663.589743589744,4268.717948717949,4229.2307692307695,4112.307692307693,4536.410256410257
98.08429,0.22173116,0.6102868,0.3731617,0.6582033,0,0.0,0.0,0.0,0.0,0.050976604,0,0,0.0,0.0,0,0,97.0,0.0,489.0,4670.256410256411,3958.461538461539,4521.538461538462,4472.820512820514,4263.076923076924,4550.256410256411,4475.8974358974365,4444.615384615385,4365.641025641026,4700.512820512821,4290.256410256411,4247.6923076923085,4140.512820512821,4540.512820512821
98.3345,0.22173116,0.6102868,0.3731617,0.6582033,0,0.0,0.0,0.0,0.0,0.10515135,0,0,0.0,0.0,0,0,0.0,0.0,468.0,4652.820512820514,3915.3846153846157,4511.794871794872,4460.000000000001,4261.025641025642,4545.641025641026,4477.435897435898,4457.435897435898,4374.871794871796,4729.743589743591,4311.794871794872,4248.717948717949,4186.666666666667,4550.256410256411
98.584724,0.18733732,0.5794517,0.37423518,0.64378685,0,0.0,0.0,0.0,0.0,0.09058604,0,0,0.0,0.0,0,0,32.0,0.0,0.0,4662.051282051282,3914.8717948717954,4524.615384615385,4458.461538461539,4265.641025641026,4556.410256410257,4489.2307692307695,4474.871794871796,4381.025641025642,4760.512820512821,4347.179487179487,4241.025641025642,4229.74358974359,4567.179487179488
98.70983,0.18733732,0.5794517,0.37423518,0.64378685,0,0.0,0.0,0.0,0.0,0.0,0,0,0.0,0.0,0,0,48.0,0.0,0.0,4681.025641025642,3914.8717948717954,4534.871794871796,4461.025641025642,4265.128205128206,4554.358974358975,4491.794871794872,4488.205128205129,4383.076923076924,4771.794871794872,4362.051282051282,4257.948717948719,4232.307692307693,4587.179487179488
99.08515,0.19227271,0.54912096,0.37299412,0.63409644,0,0.0,0.0,0.0,0.0,0.0,0,0,0.0,0.0,0,0,96.0,0.0,432.0,4655.8974358974365,3889.2307692307695,4517.948717948719,4442.051282051282,4247.6923076923085,4537.948717948719,4479.48717948718,4476.923076923077,4384.102564102564,4767.6923076923085,4365.128205128206,4252.307692307693,4238.461538461539,4571.282051282052
99.335365,0.19227271,0.54912096,0.37299412,0.63409644,0,0.0,0.0,0.0,0.0,0.07063647,0,0,0.0,0.0,0,0,128.0,0.0,432.0,4638.974358974359,3910.2564102564106,4495.8974358974365,4437.948717948719,4225.128205128206,4509.2307692307695,4446.153846153847,4434.358974358975,4352.307692307693,4695.8974358974365,4304.102564102564,4219.48717948718,4155.384615384616,4538.974358974359
99.58558,0.1774484,0.50550365,0.37036905,0.63334453,0,0.0,0.0,0.0,0.0,0.036839526,0,0,0.0,0.0,0,0,31.0,0.0,0.0,4653.846153846154,3919.48717948718,4524.102564102564,4453.846153846154,4253.846153846154,4538.461538461539,4462.564102564103,4456.410256410257,4378.461538461539,4717.948717948719,4326.666666666667,4235.384615384616,4170.256410256411,4556.410256410257
99.710686,0.1774484,0.50550365,0.37036905,0.63334453,0,0.0,0.0,0.0,0.0,0.0,0,0,0.0,0.0,0,0,47.0,0.0,0.0,4638.461538461539,3912.820512820513,4499.48717948718,4438.461538461539,4220.000000000001,4503.589743589744,4431.282051282052,4436.923076923077,4365.641025641026,4706.153846153847,4311.282051282052,4221.025641025642,4154.358974358975,4542.051282051282
100.08601,0.2192533,0.47625276,0.36864877,0.63859195,0,0.0,0.0,0.0,0.0,0.0,0,0,0.0,0.0,0,0,95.0,0.0,474.0,4622.051282051282,3881.538461538462,4478.461538461539,4426.666666666667,4204.102564102564,4491.794871794872,4413.333333333334,4429.743589743591,4351.282051282052,4686.666666666667,4300.000000000001,4202.051282051282,4133.333333333334,4510.769230769231
100.33623,0.2192533,0.47625276,0.36864877,0.63859195,0,0.0,0.0,0.0,0.0,0.08993087,0,0,0.0,0.0,0,0,127.0,0.0,474.0,4650.769230769231,3942.0512820512827,4507.6923076923085,4456.923076923077,4219.48717948718,4506.666666666667,4427.6923076923085,4411.794871794872,4342.051282051282,4666.666666666667,4307.179487179487,4220.000000000001,4117.948717948719,4541.538461538462
100.58644,0.21265052,0.47555965,0.36702237,0.6433268,0,0.0,0.0,0.0,0.0,0.0020708719,0,0,0.0,0.0,0,0,30.0,0.0,0.0,4636.923076923077,3955.8974358974365,4487.179487179488,4454.358974358975,4224.615384615385,4513.333333333334,4429.743589743591,4309.743589743591,4282.564102564103,4638.461538461539,4280.512820512821,4199.48717948718,4100.000000000001,4520.000000000001
100.836655,0.21265052,0.47555965,0.36702237,0.6433268,0,0.0,0.0,0.0,0.0,0.0054390104,0,0,0.0,0.0,0,0,62.0,0.0,0.0,4635.384615384616,3929.2307692307695,4489.743589743591,4454.358974358975,4226.153846153847,4509.743589743591,4430.769230769231,4308.205128205129,4276.923076923077,4635.384615384616,4277.948717948719,4201.025641025642,4092.820512820513,4506.153846153847
