timestamp,excitement,frustration,meditation,engagementBoredom,blink,clench,laugh,smile,eyebrow,furrowBrow,lookLeft,lookRight,smirkLeft,smirkRight,winkLeft,winkRight,eeg0,eeg1,eeg2,eeg3,eeg4,eeg5,eeg6,eeg7,eeg8,eeg9,eeg10,eeg11,eeg12,eeg13,eeg14,eeg15,eeg16
878.50494,0.57962954,0.59209245,0.33333334,0.5522388,0,0.0,0.0,0.0,0.0,0.14485197,0,0,0.0,0.0,0,1,75.0,0.0,474.0,4611.282051282052,3910.2564102564106,4394.358974358975,4435.8974358974365,4212.307692307693,4522.564102564103,4413.333333333334,4421.025641025642,4400.512820512821,4655.8974358974365,4309.743589743591,4200.512820512821,4057.9487179487182,4642.564102564103
878.7552,0.70196813,0.6025843,0.33333334,0.5522388,0,0.0,0.0,0.0,0.0,0.25104508,0,0,0.0,0.0,0,0,107.0,0.0,474.0,4620.512820512821,3890.2564102564106,4416.923076923077,4425.641025641026,4203.589743589744,4513.846153846154,4410.769230769231,4440.512820512821,4410.256410256411,4684.615384615386,4310.769230769231,4234.871794871796,4074.358974358975,4612.820512820514
879.0054,0.70196813,0.6025843,0.33333334,0.5522388,0,0.0,0.0,0.0,0.0,0.37125617,0,0,0.0,0.0,0,0,10.0,0.0,525.0,4622.051282051282,3878.9743589743593,4428.717948717949,4411.794871794872,4201.538461538462,4511.282051282052,4429.2307692307695,4456.410256410257,4406.666666666667,4662.564102564103,4310.769230769231,4232.820512820514,4074.358974358975,4582.051282051282
879.2556,0.70079046,0.5852466,0.33333334,0.5522388,0,0.0,0.0,0.0,0.0,0.22208644,0,0,0.0,0.0,0,0,42.0,0.0,0.0,4608.717948717949,3864.615384615385,4427.179487179487,4406.666666666667,4209.74358974359,4522.051282051282,4430.256410256411,4462.051282051282,4401.025641025642,4683.589743589744,4307.6923076923085,4225.641025641026,4055.3846153846157,4504.615384615385
879.50586,0.70079046,0.5852466,0.33333334,0.5522388,0,0.0,0.0,0.0,0.0,0.42823082,0,0,0.0,0.0,0,0,74.0,0.0,525.0,4595.8974358974365,3844.1025641025644,4422.564102564103,4410.256410256411,4217.435897435898,4521.025641025642,4427.6923076923085,4457.435897435898,4396.923076923077,4704.615384615386,4304.615384615385,4217.435897435898,4049.23076923077,4434.871794871796
879.75604,0.65764785,0.5758829,0.33333334,0.5522388,0,0.0,0.0,0.0,0.0,0.36287895,0,0,0.0,0.0,0,0,106.0,0.0,525.0,4722.564102564103,3991.2820512820517,4495.384615384616,4412.820512820514,4232.307692307693,4530.256410256411,4442.051282051282,4473.333333333334,4395.384615384616,4680.512820512821,4315.8974358974365,4324.615384615385,4169.74358974359,4581.025641025642
880.0063,0.65764785,0.5758829,0.33333334,0.5522388,0,0.0,0.0,0.0,0.0,0.15766703,0,0,0.0,0.0,0,0,9.0,0.0,479.0,4618.461538461539,3826.666666666667,4450.256410256411,4404.102564102564,4233.846153846154,4529.743589743591,4456.410256410257,4500.512820512821,4399.48717948718,4690.769230769231,4307.6923076923085,4248.717948717949,4073.8461538461543,4491.794871794872
880.2565,0.5406496,0.58980554,0.33333334,0.5522388,0,0.0,0.0,0.0,0.0,0.097659625,0,0,0.0,0.0,0,0,41.0,0.0,0.0,4666.153846153847,3830.7692307692314,4485.128205128206,4414.358974358975,4237.948717948719,4539.48717948718,4468.717948717949,4503.076923076924,4428.205128205129,4770.769230769231,4325.128205128206,4313.846153846154,4206.153846153847,4572.820512820514
880.5067,0.5406496,0.58980554,0.33333334,0.5522388,0,0.0,0.0,0.0,0.0,0.2631923,0,0,0.0,0.0,0,0,73.0,0.0,479.0,4640.512820512821,3815.3846153846157,4474.871794871796,4412.820512820514,4251.282051282052,4554.358974358975,4492.307692307693,4523.076923076924,4424.615384615385,4771.282051282052,4332.820512820514,4291.282051282052,4165.128205128206,4567.179487179488
880.7569,0.55153733,0.6747683,0.33333334,0.5522388,0,0.0,0.0,0.0,0.0,0.14699243,0,0,0.0,0.0,1,0,105.0,0.0,497.0,4626.666666666667,3860.0000000000005,4466.153846153847,4426.153846153847,4261.025641025642,4557.435897435898,4474.358974358975,4497.435897435898,4417.435897435898,4713.333333333334,4324.102564102564,4259.48717948718,4071.7948717948725,4552.820512820514
881.00714,0.55153733,0.6747683,0.33333334,0.5522388,0,0.0,0.0,0.0,0.0,0.18920787,0,0,0.0,0.0,0,0,8.0,0.0,377.0,4639.48717948718,3848.205128205129,4477.948717948719,4431.794871794872,4262.564102564103,4557.435897435898,4482.564102564103,4501.025641025642,4413.846153846154,4706.666666666667,4325.641025641026,4274.871794871796,4093.8461538461543,4525.641025641026
881.2573,0.5092946,0.7305374,0.33333334,0.5522388,0,0.0,0.0,0.0,0.0,0.12422592,0,0,0.0,0.0,0,0,40.0,0.0,0.0,4630.769230769231,3873.8461538461543,4469.2307692307695,4430.256410256411,4247.6923076923085,4552.307692307693,4464.615384615385,4486.153846153847,4404.615384615385,4705.641025641026,4324.615384615385,4263.076923076924,4109.2307692307695,4473.333333333334
881.50757,0.5092946,0.7305374,0.33333334,0.5522388,0,0.0,0.0,0.0,0.0,0.12986322,0,0,0.0,0.0,0,0,72.0,0.0,377.0,4629.2307692307695,3893.333333333334,4480.000000000001,4441.025641025642,4265.128205128206,4566.666666666667,4476.410256410257,4475.384615384616,4392.307692307693,4689.743589743591,4320.000000000001,4251.794871794872,4070.7692307692314,4453.846153846154
881.75775,0.46288472,0.7357548,0.33333334,0.5522388,0,0.0,0.0,0.0,0.0,0.08315524,0,0,0.0,0.0,0,0,104.0,0.0,70.0,4631.282051282052,3862.564102564103,4482.051282051282,4426.666666666667,4249.74358974359,4552.307692307693,4474.871794871796,4497.435897435898,4412.307692307693,4746.153846153847,4332.307692307693,4281.025641025642,4158.461538461539,4484.102564102564
882.008,0.46288472,0.7357548,0.33333334,0.5522388,0,0.0,0.0,0.0,0.0,0.10462562,0,0,0.0,0.0,0,0,7.0,0.0,465.0,4670.769230769231,4257.948717948719,4497.435897435898,4493.333333333334,4249.74358974359,4556.923076923077,4472.307692307693,4451.794871794872,4396.923076923077,4749.2307692307695,4337.435897435898,4322.051282051282,4197.948717948719,4523.589743589744
882.2582,0.44722658,0.74059474,0.33333334,0.5522388,0,0.0,0.0,0.0,0.0,0.26868743,0,0,0.0,0.0,1,0,39.0,0.0,0.0,4586.666666666667,4077.435897435898,4462.564102564103,4470.256410256411,4249.74358974359,4560.000000000001,4477.435897435898,4491.794871794872,4411.282051282052,4742.564102564103,4334.871794871796,4254.871794871796,4140.000000000001,4422.051282051282
882.5084,0.44722658,0.74059474,0.33333334,0.5522388,0,0.0,0.0,0.0,0.0,0.05983141,0,0,0.0,0.0,0,0,71.0,0.0,465.0,4594.358974358975,4032.307692307693,4475.384615384616,4458.974358974359,4251.282051282052,4566.153846153847,4486.666666666667,4497.948717948719,4406.666666666667,4734.871794871796,4340.512820512821,4278.461538461539,4172.820512820514,4431.282051282052
882.7586,0.4323221,0.7449507,0.33333334,0.5522388,0,0.0,0.0,0.0,0.0,0.14942212,0,0,0.0,0.0,0,0,103.0,0.0,473.0,4632.307692307693,4046.1538461538466,4490.769230769231,4457.435897435898,4252.820512820514,4556.410256410257,4485.128205128206,4511.282051282052,4410.769230769231,4740.000000000001,4340.512820512821,4312.307692307693,4210.769230769231,4427.6923076923085
883.00885,0.4323221,0.7449507,0.33333334,0.5522388,1,0.0,0.0,0.0,0.0,0.23353198,0,0,0.0,0.0,0,0,6.0,0.0,547.0,4548.717948717949,3930.7692307692314,4449.743589743591,4438.461538461539,4245.128205128206,4546.153846153847,4474.358974358975,4509.743589743591,4412.307692307693,4702.564102564103,4330.769230769231,4247.179487179487,4138.974358974359,4273.333333333334
883.25903,0.5015387,0.7488711,0.33333334,0.5522388,0,0.0,0.0,0.0,0.0,0.30545607,0,0,0.0,0.0,0,0,38.0,0.0,0.0,4522.051282051282,3884.1025641025644,4437.948717948719,4432.820512820514,4219.48717948718,4535.384615384616,4472.820512820514,4487.179487179488,4392.307692307693,4690.256410256411,4325.128205128206,4230.256410256411,4104.615384615385,4212.307692307693
883.5093,0.5015387,0.7488711,0.33333334,0.5522388,0,0.0,0.0,0.0,0.0,0.08770389,0,0,0.0,0.0,0,0,70.0,0.0,547.0,4523.589743589744,3864.1025641025644,4425.641025641026,4427.6923076923085,4217.435897435898,4536.410256410257,4451.794871794872,4477.948717948719,4403.076923076924,4706.666666666667,4321.538461538462,4235.384615384616,4122.051282051282,4246.153846153847
883.75946,0.45357907,0.75239944,0.33333334,0.5522388,0,0.0,0.0,0.0,0.0,0.35746005,0,0,0.0,0.0,0,0,102.0,0.0,525.0,4542.051282051282,3910.7692307692314,4426.666666666667,4403.076923076924,4209.2307692307695,4535.384615384616,4439.48717948718,4458.461538461539,4387.6923076923085,4680.000000000001,4314.871794871796,4233.333333333334,4102.051282051282,4299.48717948718
884.0097,0.45357907,0.75239944,0.33333334,0.5522388,0,0.0,0.0,0.0,0.0,0.2681129,0,0,0.0,0.0,0,0,5.0,0.0,552.0,4573.333333333334,3905.6410256410263,4444.615384615385,4418.461538461539,4217.948717948719,4540.512820512821,4451.282051282052,4463.076923076924,4397.435897435898,4698.974358974359,4321.025641025642,4267.6923076923085,4138.461538461539,4362.564102564103
884.2599,0.5278373,0.75557494,0.33333334,0.5522388,0,0.0,0.0,0.0,0.0,0.1982568,0,0,0.0,0.0,0,0,37.0,0.0,0.0,4737.435897435898,4149.74358974359,4509.743589743591,4398.461538461539,4227.6923076923085,4539.48717948718,4440.000000000001,4422.051282051282,4379.48717948718,4714.358974358975,4332.820512820514,4396.410256410257,4318.461538461539,4594.358974358975
884.51013,0.5278373,0.75557494,0.33333334,0.5522388,0,0.0,0.0,0.0,0.0,0.2001482,0,0,0.0,0.0,0,0,69.0,0.0,552.0,4618.974358974359,3908.717948717949,4448.205128205129,4391.282051282052,4216.410256410257,4538.461538461539,4451.282051282052,4456.923076923077,4397.948717948719,4741.025641025642,4330.256410256411,4288.205128205129,4173.846153846154,4393.333333333334
884.7603,0.4894688,0.75843287,0.33333334,0.5522388,0,0.0,0.0,0.0,0.0,0.19939712,0,0,0.0,0.0,0,0,101.0,0.0,497.0,4580.000000000001,3906.1538461538466,4448.205128205129,4474.358974358975,4217.948717948719,4538.974358974359,4461.538461538462,4466.153846153847,4393.846153846154,4721.025641025642,4332.307692307693,4271.794871794872,4162.051282051282,4493.333333333334
885.01056,0.4894688,0.75843287,0.33333334,0.5522388,1,0.0,0.0,0.0,0.0,0.43139935,0,0,0.0,0.0,0,0,4.0,0.0,556.0,4568.717948717949,3891.2820512820517,4454.358974358975,4423.589743589744,4218.461538461539,4538.974358974359,4467.6923076923085,4481.025641025642,4405.641025641026,4751.794871794872,4330.256410256411,4285.128205128206,4171.282051282052,4519.48717948718
885.2608,0.48190343,0.76100504,0.33333334,0.5522388,0,0.0,0.0,0.0,0.0,0.23389222,0,0,0.0,0.0,0,0,36.0,0.0,0.0,4543.076923076924,3863.589743589744,4428.717948717949,4412.820512820514,4219.48717948718,4536.410256410257,4454.871794871796,4435.384615384616,4384.102564102564,4729.2307692307695,4321.025641025642,4249.2307692307695,4157.948717948719,4431.794871794872
885.511,0.48190343,0.76100504,0.33333334,0.5522388,0,0.0,0.0,0.0,0.0,0.20164348,0,0,0.0,0.0,0,0,68.0,0.0,556.0,4591.282051282052,3859.48717948718,4430.256410256411,4411.282051282052,4217.435897435898,4539.48717948718,4458.461538461539,4439.48717948718,4404.615384615385,4737.435897435898,4323.589743589744,4261.025641025642,4170.769230769231,4443.076923076924
885.7612,0.4756847,0.76331997,0.33333334,0.5522388,0,0.0,0.0,0.0,0.0,0.13560331,0,0,0.0,0.0,0,0,100.0,0.0,70.0,4567.179487179488,3858.461538461539,4436.410256410257,4412.307692307693,4222.051282051282,4539.48717948718,4449.743589743591,4453.333333333334,4410.256410256411,4730.256410256411,4324.615384615385,4252.307692307693,4152.307692307693,4410.256410256411
886.0114,0.4756847,0.76331997,0.33333334,0.5522388,1,0.0,0.0,0.0,0.0,0.18751511,0,0,0.0,0.0,0,0,3.0,0.0,495.0,4579.48717948718,3902.564102564103,4445.128205128206,4411.794871794872,4230.769230769231,4539.48717948718,4458.461538461539,4459.48717948718,4396.410256410257,4743.589743589744,4326.666666666667,4260.000000000001,4144.102564102564,4464.615384615385
886.26166,0.40202296,0.76540345,0.33333334,0.5522388,0,0.0,0.0,0.0,0.0,0.16475365,0,0,0.0,0.0,0,0,35.0,0.0,0.0,4600.512820512821,3917.9487179487182,4459.48717948718,4430.769230769231,4248.205128205129,4554.358974358975,4450.769230769231,4461.025641025642,4390.256410256411,4721.538461538462,4330.769230769231,4264.615384615385,4124.102564102564,4490.769230769231
886.51184,0.40202296,0.76540345,0.33333334,0.5522388,0,0.0,0.0,0.0,0.0,0.115892805,0,0,0.0,0.0,0,0,67.0,0.0,495.0,4601.538461538462,3911.7948717948725,4463.076923076924,4426.153846153847,4234.358974358975,4542.051282051282,4444.615384615385,4445.641025641026,4399.48717948718,4717.435897435898,4325.641025641026,4280.000000000001,4123.589743589744,4518.461538461539
886.7621,0.33021727,0.77860004,0.33333334,0.5522388,0,0.0,0.0,0.0,0.0,0.056968033,0,0,0.0,0.0,0,0,99.0,0.0,474.0,4589.2307692307695,3924.1025641025644,4467.6923076923085,4443.076923076924,4255.384615384616,4559.48717948718,4473.333333333334,4475.8974358974365,4417.948717948719,4746.666666666667,4333.846153846154,4276.923076923077,4155.8974358974365,4512.307692307693
887.01227,0.33021727,0.77860004,0.33333334,0.5522388,0,0.0,0.0,0.0,0.0,0.09159105,0,0,0.0,0.0,0,0,2.0,0.0,453.0,4608.205128205129,3924.615384615385,4475.384615384616,4438.461538461539,4244.615384615385,4543.076923076924,4460.000000000001,4457.948717948719,4396.410256410257,4722.564102564103,4328.205128205129,4281.025641025642,4174.871794871796,4521.025641025642
887.2625,0.28349873,0.76873773,0.33333334,0.5522388,0,0.0,0.0,0.0,0.0,0.0,0,0,0.0,0.0,0,0,34.0,0.0,0.0,4618.461538461539,3928.205128205129,4480.000000000001,4444.615384615385,4239.48717948718,4540.000000000001,4460.000000000001,4449.743589743591,4412.307692307693,4760.512820512821,4338.974358974359,4294.358974358975,4204.102564102564,4524.102564102564
887.29376,0.28349873,0.76873773,0.33333334,0.5522388,0,0.0,0.0,0.0,0.0,0.0,0,0,0.0,0.0,0,0,38.0,0.0,0.0,4620.000000000001,3925.1282051282055,4477.948717948719,4445.128205128206,4248.205128205129,4543.076923076924,4459.48717948718,4450.256410256411,4398.974358974359,4762.051282051282,4337.948717948719,4286.666666666667,4198.974358974359,4519.48717948718
887.76294,0.31177685,0.74596983,0.33333334,0.5522388,0,0.0,0.0,0.0,0.0,0.0,0,0,0.0,0.0,0,0,98.0,0.0,525.0,4648.717948717949,3905.1282051282055,4481.025641025642,4427.179487179487,4247.179487179487,4551.282051282052,4477.948717948719,4477.435897435898,4413.333333333334,4796.410256410257,4351.794871794872,4312.820512820514,4266.153846153847,4560.000000000001
887.7942,0.31177685,0.74596983,0.33333334,0.5522388,0,0.0,0.0,0.0,0.0,0.0,0,0,0.0,0.0,0,0,102.0,0.0,525.0,4666.153846153847,3927.1794871794878,4498.974358974359,4438.461538461539,4250.769230769231,4553.846153846154,4463.076923076924,4484.102564102564,4427.6923076923085,4804.615384615386,4356.923076923077,4335.384615384616,4286.666666666667,4583.076923076924
888.26337,0.40600333,0.7638036,0.33333334,0.5522388,0,0.0,0.0,0.0,0.0,0.0,0,0,0.0,0.0,0,0,33.0,0.0,0.0,4743.589743589744,4058.461538461539,4588.717948717949,4575.384615384616,4374.358974358975,4672.820512820514,4581.025641025642,4549.743589743591,4456.410256410257,4861.538461538462,4383.589743589744,4394.358974358975,4283.076923076924,4605.128205128206
888.51355,0.40600333,0.7638036,0.33333334,0.5522388,0,0.0,0.0,0.0,0.0,0.036873423,0,0,0.0,0.0,0,0,65.0,0.0,449.0,4695.8974358974365,3983.076923076924,4532.820512820514,4506.666666666667,4306.153846153847,4602.564102564103,4516.923076923077,4492.307692307693,4443.589743589744,4816.923076923077,4372.307692307693,4341.538461538462,4268.205128205129,4553.333333333334
888.7638,0.537952,0.8337326,0.33333334,0.5522388,0,0.0,0.0,0.0,0.0,0.07088175,0,0,0.0,0.0,0,0,97.0,0.0,497.0,4697.435897435898,3968.205128205129,4528.717948717949,4474.871794871796,4288.717948717949,4586.666666666667,4509.2307692307695,4489.2307692307695,4456.923076923077,4790.769230769231,4378.974358974359,4345.641025641026,4274.358974358975,4551.794871794872
888.8889,0.537952,0.8337326,0.33333334,0.5522388,0,0.0,0.0,0.0,0.0,0.0,0,0,0.0,0.0,0,0,113.0,0.0,497.0,4685.641025641026,3972.307692307693,4525.641025641026,4490.769230769231,4291.794871794872,4587.6923076923085,4496.923076923077,4481.025641025642,4455.8974358974365,4796.923076923077,4381.538461538462,4328.717948717949,4280.000000000001,4544.102564102564
889.2642,0.6150254,0.8912737,0.33333334,0.5522388,0,0.0,0.0,0.0,0.0,0.0,0,0,0.0,0.0,0,0,32.0,0.0,0.0,4670.769230769231,3960.5128205128212,4522.564102564103,4462.051282051282,4280.000000000001,4578.461538461539,4493.333333333334,4449.2307692307695,4445.128205128206,4754.358974358975,4370.256410256411,4317.948717948719,4246.153846153847,4525.128205128206
889.2955,0.6150254,0.8912737,0.33333334,0.5522388,0,0.0,0.0,0.0,0.0,0.0,0,0,0.0,0.0,0,0,36.0,0.0,0.0,4670.256410256411,3961.538461538462,4526.666666666667,4461.538461538462,4281.025641025642,4575.384615384616,4504.102564102564,4472.820512820514,4443.076923076924,4750.256410256411,4371.794871794872,4327.6923076923085,4242.564102564103,4522.051282051282
889.6395,0.6150254,0.8912737,0.33333334,0.5522388,0,0.0,0.0,0.0,0.0,0.17638421,0,0,0.0,0.0,0,0,80.0,0.0,69.0,4656.410256410257,3952.820512820513,4498.974358974359,4458.974358974359,4265.641025641026,4569.2307692307695,4475.8974358974365,4445.641025641026,4438.461538461539,4723.589743589744,4365.128205128206,4294.358974358975,4226.153846153847,4459.48717948718
889.9132,0.5832217,0.8794391,0.33333334,0.5522388,0,0.0,0.0,0.0,0.0,0.29377204,0,0,0.0,0.0,0,0,112.0,0.0,69.0,4645.641025641026,3942.0512820512827,4503.076923076924,4440.512820512821,4253.333333333334,4555.384615384616,4457.948717948719,4423.076923076924,4421.538461538462,4700.000000000001,4362.051282051282,4287.6923076923085,4196.923076923077,4413.846153846154
890.1947,0.5832217,0.8794391,0.33333334,0.5522388,1,0.0,0.0,0.0,0.0,0.16762747,0,0,0.0,0.0,0,0,19.0,0.0,0.0,4684.102564102564,4023.076923076924,4522.051282051282,4459.48717948718,4262.051282051282,4561.538461538462,4455.8974358974365,4423.589743589744,4420.512820512821,4711.282051282052,4362.051282051282,4324.102564102564,4229.2307692307695,4457.948717948719
890.41364,0.5159198,0.83981025,0.33333334,0.5522388,0,0.0,0.0,0.0,0.0,0.14943999,0,0,0.0,0.0,0,0,47.0,0.0,0.0,4603.076923076924,3931.2820512820517,4471.794871794872,4445.641025641026,4255.384615384616,4554.358974358975,4453.333333333334,4416.923076923077,4407.179487179487,4661.025641025642,4350.769230769231,4231.282051282052,4123.076923076924,4397.435897435898
890.6639,0.5159198,0.83981025,0.33333334,0.5522388,0,0.0,0.0,0.0,0.0,0.07416689,0,0,0.0,0.0,0,0,79.0,0.0,474.0,4612.307692307693,3928.205128205129,4478.461538461539,4447.179487179487,4259.48717948718,4555.384615384616,4456.923076923077,4431.282051282052,4410.769230769231,4682.564102564103,4351.794871794872,4247.179487179487,4119.48717948718,4428.717948717949
890.91406,0.51542544,0.7489543,0.33333334,0.5522388,0,0.0,0.0,0.0,0.0,0.06287476,0,0,0.0,0.0,0,0,111.0,0.0,474.0,4622.051282051282,3921.0256410256416,4477.435897435898,4445.641025641026,4263.589743589744,4558.974358974359,4454.871794871796,4437.435897435898,4415.8974358974365,4726.153846153847,4360.000000000001,4248.717948717949,4167.6923076923085,4420.000000000001
891.1643,0.51542544,0.7489543,0.33333334,0.5522388,0,0.0,0.0,0.0,0.0,0.051953424,0,0,0.0,0.0,0,0,14.0,0.0,525.0,4637.948717948719,3941.538461538462,4484.102564102564,4447.179487179487,4249.2307692307695,4555.384615384616,4452.307692307693,4443.076923076924,4414.358974358975,4722.051282051282,4355.384615384616,4250.256410256411,4134.871794871796,4405.128205128206
891.4145,0.5067278,0.71144134,0.33333334,0.5522388,0,0.0,0.0,0.0,0.0,0.040864408,0,0,0.0,0.0,0,0,46.0,0.0,0.0,4645.641025641026,3957.9487179487182,4495.384615384616,4457.948717948719,4266.666666666667,4569.2307692307695,4461.025641025642,4464.615384615385,4430.256410256411,4741.025641025642,4361.025641025642,4263.076923076924,4158.974358974359,4428.205128205129
891.66473,0.5067278,0.71144134,0.33333334,0.5522388,0,0.0,0.0,0.0,0.0,0.0559965,0,0,0.0,0.0,0,0,78.0,0.0,525.0,4627.6923076923085,3926.666666666667,4490.769230769231,4444.102564102564,4250.256410256411,4556.410256410257,4457.948717948719,4473.333333333334,4429.2307692307695,4738.974358974359,4360.512820512821,4258.461538461539,4181.025641025642,4414.358974358975
891.8211,0.47351298,0.644535,0.33333334,0.5522388,0,0.0,0.0,0.0,0.0,0.0,0,0,0.0,0.0,0,0,98.0,0.0,525.0,4634.358974358975,3927.692307692308,4504.102564102564,4464.615384615385,4276.923076923077,4573.333333333334,4492.307692307693,4516.923076923077,4446.153846153847,4771.794871794872,4373.846153846154,4287.179487179487,4203.076923076924,4413.333333333334
891.8211,0.47351298,0.644535,0.33333334,0.5522388,0,0.0,0.0,0.0,0.0,0.0,0,0,0.0,0.0,0,0,98.0,0.0,525.0,4634.358974358975,3927.692307692308,4504.102564102564,4464.615384615385,4276.923076923077,4573.333333333334,4492.307692307693,4516.923076923077,4446.153846153847,4771.794871794872,4373.846153846154,4287.179487179487,4203.076923076924,4413.333333333334
892.32153,0.4670852,0.5769532,0.33333334,0.5522388,0,0.0,0.0,0.0,0.0,0.0,0,0,0.0,0.0,0,0,33.0,0.0,0.0,4759.48717948718,4156.923076923077,4572.820512820514,4463.589743589744,4264.102564102564,4556.923076923077,4460.512820512821,4477.948717948719,4422.564102564103,4724.615384615386,4371.794871794872,4388.717948717949,4288.717948717949,4544.615384615385
892.6656,0.4670852,0.5769532,0.33333334,0.5522388,0,0.0,0.0,0.0,0.0,0.24245289,0,0,0.0,0.0,0,0,77.0,0.0,497.0,4594.358974358975,3940.5128205128212,4483.076923076924,4446.153846153847,4261.025641025642,4554.871794871796,4461.025641025642,4460.000000000001,4425.128205128206,4693.333333333334,4347.6923076923085,4235.384615384616,4083.076923076924,4293.846153846154
892.9158,0.50676143,0.5432303,0.33333334,0.5522388,0,0.0,0.0,0.0,0.0,0.7673011,0,0,0.0,0.0,0,0,109.0,0.0,497.0,4609.2307692307695,3902.0512820512827,4491.282051282052,4464.102564102564,4260.512820512821,4557.435897435898,4474.871794871796,4487.179487179488,4443.589743589744,4760.512820512821,4361.538461538462,4274.871794871796,4206.666666666667,4426.666666666667
893.0409,0.50676143,0.5432303,0.33333334,0.5522388,0,0.0,0.0,0.0,0.0,1.0,0,0,0.0,0.0,0,0,125.0,0.0,497.0,4607.179487179488,3908.717948717949,4491.282051282052,4451.794871794872,4250.256410256411,4553.846153846154,4472.820512820514,4508.717948717949,4444.102564102564,4767.179487179488,4369.2307692307695,4276.410256410257,4201.025641025642,4460.000000000001
893.47876,0.5102715,0.514657,0.33333334,0.5522388,0,0.0,0.0,0.0,0.0,0.55198693,0,0,0.0,0.0,0,0,52.0,0.0,0.0,4628.205128205129,3924.615384615385,4512.820512820514,4441.538461538462,4249.74358974359,4558.461538461539,4488.717948717949,4505.641025641026,4442.564102564103,4784.102564102564,4371.794871794872,4308.205128205129,4218.974358974359,4580.000000000001
893.66644,0.5102715,0.514657,0.33333334,0.5522388,0,0.0,0.0,0.0,0.0,0.106147476,0,0,0.0,0.0,0,0,76.0,0.0,69.0,4611.282051282052,3973.8461538461543,4491.282051282052,4442.564102564103,4253.846153846154,4563.589743589744,4460.000000000001,4477.435897435898,4430.769230769231,4706.666666666667,4356.923076923077,4254.358974358975,4110.769230769231,4510.256410256411
893.9166,0.4995882,0.51470554,0.33333334,0.5522388,0,0.0,0.0,0.0,0.0,0.26729998,0,0,0.0,0.0,0,0,108.0,0.0,69.0,4623.076923076924,3962.564102564103,4492.820512820514,4429.743589743591,4245.128205128206,4551.794871794872,4454.871794871796,4455.8974358974365,4426.666666666667,4712.307692307693,4352.820512820514,4278.461538461539,4168.205128205129,4496.923076923077
894.1669,0.4995882,0.51470554,0.33333334,0.5522388,0,0.0,0.0,0.0,0.0,0.03364734,0,0,0.0,0.0,0,0,11.0,0.0,474.0,4620.000000000001,3925.1282051282055,4492.820512820514,4421.538461538462,4248.205128205129,4555.8974358974365,4472.307692307693,4464.102564102564,4415.8974358974365,4732.820512820514,4350.256410256411,4276.923076923077,4180.512820512821,4491.282051282052
894.41705,0.45949206,0.5055989,0.33333334,0.5522388,0,0.0,0.0,0.0,0.0,0.06023869,0,0,0.0,0.0,0,0,43.0,0.0,0.0,4624.102564102564,3926.1538461538466,4491.794871794872,4441.538461538462,4247.179487179487,4550.769230769231,4457.435897435898,4468.205128205129,4431.794871794872,4741.538461538462,4356.410256410257,4273.846153846154,4173.333333333334,4471.282051282052
894.6673,0.45949206,0.5055989,0.33333334,0.5522388,0,0.0,0.0,0.0,0.0,0.16964965,0,0,0.0,0.0,0,0,75.0,0.0,474.0,4615.8974358974365,3917.435897435898,4480.512820512821,4430.256410256411,4248.717948717949,4553.846153846154,4441.025641025642,4418.974358974359,4405.641025641026,4715.384615384616,4343.076923076924,4261.538461538462,4154.871794871796,4427.179487179487
894.91754,0.3855673,0.46742976,0.33333334,0.5522388,0,0.0,0.0,0.0,0.0,0.07437263,0,0,0.0,0.0,0,0,107.0,0.0,474.0,4606.153846153847,3928.205128205129,4462.051282051282,4429.743589743591,4245.128205128206,4542.051282051282,4438.461538461539,4412.820512820514,4382.051282051282,4640.512820512821,4326.666666666667,4218.974358974359,4068.717948717949,4390.769230769231
895.1677,0.3855673,0.46742976,0.33333334,0.5522388,0,0.0,0.0,0.0,0.0,0.0,0,0,0.0,0.0,0,0,10.0,0.0,525.0,4636.923076923077,3911.2820512820517,4490.769230769231,4435.8974358974365,4246.153846153847,4552.307692307693,4474.358974358975,4461.538461538462,4424.102564102564,4731.282051282052,4345.641025641026,4274.871794871796,4178.974358974359,4435.8974358974365
895.3241,0.38424736,0.42526403,0.33333334,0.5522388,0,0.0,0.0,0.0,0.0,0.0,0,0,0.0,0.0,0,0,30.0,0.0,0.0,4646.666666666667,3925.6410256410263,4494.358974358975,4439.48717948718,4247.6923076923085,4553.846153846154,4471.794871794872,4460.512820512821,4430.256410256411,4733.333333333334,4347.179487179487,4278.974358974359,4169.74358974359,4427.6923076923085
895.66815,0.38424736,0.42526403,0.33333334,0.5522388,0,0.0,0.0,0.0,0.0,0.026531773,0,0,0.0,0.0,0,0,74.0,0.0,525.0,4646.666666666667,3881.0256410256416,4503.076923076924,4439.48717948718,4247.6923076923085,4550.769230769231,4472.820512820514,4471.282051282052,4424.615384615385,4766.666666666667,4352.307692307693,4289.74358974359,4217.948717948719,4440.512820512821
895.9184,0.36470366,0.39312342,0.33333334,0.5522388,0,0.0,0.0,0.0,0.0,0.05234441,0,0,0.0,0.0,0,0,106.0,0.0,525.0,4621.538461538462,3910.2564102564106,4487.179487179488,4428.205128205129,4247.179487179487,4542.564102564103,4452.307692307693,4446.666666666667,4401.025641025642,4673.846153846154,4329.2307692307695,4247.179487179487,4109.74358974359,4395.8974358974365
896.1686,0.36470366,0.39312342,0.33333334,0.5522388,0,0.0,0.0,0.0,0.0,0.058173805,0,0,0.0,0.0,0,0,9.0,0.0,481.0,4615.8974358974365,3906.666666666667,4487.179487179488,4422.564102564103,4246.666666666667,4550.769230769231,4446.666666666667,4431.794871794872,4393.846153846154,4680.512820512821,4330.769230769231,4246.666666666667,4120.000000000001,4428.717948717949
896.4188,0.34375197,0.36111414,0.33333334,0.5522388,0,0.0,0.0,0.0,0.0,0.06841487,0,0,0.0,0.0,0,0,41.0,0.0,0.0,4618.461538461539,3877.435897435898,4492.820512820514,4418.461538461539,4247.6923076923085,4551.282051282052,4473.846153846154,4477.948717948719,4409.743589743591,4731.794871794872,4345.128205128206,4276.923076923077,4184.615384615385,4429.743589743591
896.669,0.34375197,0.36111414,0.33333334,0.5522388,0,0.0,0.0,0.0,0.0,0.035157446,0,0,0.0,0.0,0,0,73.0,0.0,481.0,4629.743589743591,3920.5128205128212,4498.974358974359,4426.666666666667,4233.333333333334,4551.282051282052,4462.051282051282,4453.846153846154,4415.384615384616,4719.48717948718,4338.974358974359,4265.128205128206,4155.8974358974365,4429.2307692307695
896.91925,0.27701068,0.32816112,0.33333334,0.5522388,0,0.0,0.0,0.0,0.0,0.10632895,0,0,0.0,0.0,0,0,105.0,0.0,497.0,4633.846153846154,3912.820512820513,4507.179487179488,4427.6923076923085,4231.794871794872,4544.102564102564,4446.153846153847,4443.589743589744,4395.384615384616,4701.025641025642,4335.384615384616,4274.871794871796,4162.051282051282,4398.461538461539
897.16943,0.27701068,0.32816112,0.33333334,0.5522388,1,0.0,0.0,0.0,0.0,0.13922812,0,0,0.0,0.0,0,0,8.0,0.0,377.0,4635.384615384616,3921.538461538462,4507.6923076923085,4422.051282051282,4232.307692307693,4543.589743589744,4457.948717948719,4452.820512820514,4404.615384615385,4678.974358974359,4332.820512820514,4274.358974358975,4135.384615384616,4376.410256410257
897.4197,0.20304705,0.31628272,0.33333334,0.5522388,0,0.0,0.0,0.0,0.0,0.14781487,0,0,0.0,0.0,0,0,40.0,0.0,0.0,4629.743589743591,3918.9743589743593,4512.307692307693,4441.538461538462,4247.6923076923085,4554.871794871796,4460.000000000001,4458.974358974359,4412.820512820514,4725.128205128206,4339.48717948718,4302.564102564103,4195.384615384616,4395.384615384616
897.66986,0.20304705,0.31628272,0.33333334,0.5522388,0,0.0,0.0,0.0,0.0,0.2525924,0,0,0.0,0.0,0,0,72.0,0.0,377.0,4618.974358974359,3924.615384615385,4500.000000000001,4441.538461538462,4247.179487179487,4553.846153846154,4459.48717948718,4456.923076923077,4401.025641025642,4691.794871794872,4334.358974358975,4280.000000000001,4136.410256410257,4432.820512820514
897.9201,0.15915999,0.30683488,0.33333334,0.5522388,0,0.0,0.0,0.0,0.0,0.28503215,0,0,0.0,0.0,0,0,104.0,0.0,69.0,4603.589743589744,3909.2307692307695,4489.2307692307695,4437.435897435898,4235.384615384616,4541.538461538462,4444.615384615385,4441.538461538462,4397.435897435898,4687.179487179488,4327.179487179487,4274.871794871796,4143.076923076924,4458.974358974359
898.1703,0.15915999,0.30683488,0.33333334,0.5522388,0,0.0,0.0,0.0,0.0,0.105741575,0,0,0.0,0.0,0,0,7.0,0.0,465.0,4587.6923076923085,3892.820512820513,4481.025641025642,4432.307692307693,4241.025641025642,4546.666666666667,4464.102564102564,4470.256410256411,4412.307692307693,4705.641025641026,4332.307692307693,4264.615384615385,4137.948717948719,4444.615384615385
898.42053,0.17148148,0.2984201,0.33333334,0.5522388,1,0.0,0.0,0.0,0.0,0.14890891,0,0,0.0,0.0,0,0,39.0,0.0,0.0,4601.538461538462,3915.8974358974365,4497.948717948719,4430.769230769231,4236.410256410257,4540.512820512821,4445.128205128206,4438.974358974359,4395.384615384616,4683.076923076924,4326.666666666667,4280.000000000001,4151.794871794872,4433.846153846154
898.6707,0.17148148,0.2984201,0.33333334,0.5522388,0,0.0,0.0,0.0,0.0,0.28055793,0,0,0.0,0.0,0,0,71.0,0.0,465.0,4583.589743589744,3880.512820512821,4474.358974358975,4424.615384615385,4242.051282051282,4543.589743589744,4442.564102564103,4434.358974358975,4402.051282051282,4681.538461538462,4325.128205128206,4249.2307692307695,4152.307692307693,4370.256410256411
898.92096,0.18258104,0.32604387,0.33333334,0.5522388,0,0.0,0.0,0.0,0.0,0.08162583,0,0,0.0,0.0,0,0,103.0,0.0,474.0,4587.6923076923085,3879.48717948718,4478.974358974359,4417.435897435898,4239.48717948718,4539.48717948718,4437.435897435898,4425.641025641026,4393.333333333334,4699.48717948718,4326.666666666667,4250.256410256411,4150.769230769231,4362.051282051282
899.17114,0.18258104,0.32604387,0.33333334,0.5522388,0,0.0,0.0,0.0,0.0,0.0,0,0,0.0,0.0,0,0,6.0,0.0,547.0,4598.461538461539,3862.564102564103,4492.307692307693,4425.641025641026,4247.179487179487,4541.538461538462,4458.974358974359,4454.358974358975,4413.846153846154,4733.333333333334,4336.923076923077,4281.025641025642,4231.282051282052,4397.948717948719
899.3276,0.20209955,0.35375115,0.33333334,0.5522388,0,0.0,0.0,0.0,0.0,0.0,0,0,0.0,0.0,0,0,26.0,0.0,0.0,4604.615384615385,3832.820512820513,4493.846153846154,4428.717948717949,4230.256410256411,4526.666666666667,4451.794871794872,4479.48717948718,4423.076923076924,4778.974358974359,4349.743589743591,4311.794871794872,4325.641025641026,4430.256410256411
899.3276,0.20209955,0.35375115,0.33333334,0.5522388,0,0.0,0.0,0.0,0.0,0.0,0,0,0.0,0.0,0,0,26.0,0.0,0.0,4604.615384615385,3832.820512820513,4493.846153846154,4428.717948717949,4230.256410256411,4526.666666666667,4451.794871794872,4479.48717948718,4423.076923076924,4778.974358974359,4349.743589743591,4311.794871794872,4325.641025641026,4430.256410256411
899.9218,0.18377666,0.38763776,0.33333334,0.5522388,0,0.0,0.0,0.0,0.0,0.20540671,0,0,0.0,0.0,0,0,102.0,0.0,525.0,4588.205128205129,3862.0512820512827,4492.820512820514,4428.205128205129,4247.179487179487,4541.538461538462,4457.435897435898,4468.205128205129,4412.820512820514,4714.358974358975,4339.48717948718,4262.051282051282,4227.179487179487,4377.948717948719
900.172,0.18377666,0.38763776,0.33333334,0.5522388,0,0.0,0.0,0.0,0.0,0.07020588,0,0,0.0,0.0,0,0,5.0,0.0,552.0,4618.461538461539,3895.8974358974365,4518.974358974359,4426.153846153847,4249.74358974359,4550.769230769231,4451.282051282052,4464.102564102564,4402.051282051282,4696.923076923077,4341.025641025642,4281.025641025642,4232.820512820514,4412.307692307693
900.3284,0.11892396,0.4211004,0.33333334,0.5522388,0,0.0,0.0,0.0,0.0,0.0,0,0,0.0,0.0,0,0,25.0,0.0,0.0,4607.6923076923085,3892.307692307693,4507.6923076923085,4431.282051282052,4249.74358974359,4544.615384615385,4462.564102564103,4479.48717948718,4411.794871794872,4714.871794871796,4338.974358974359,4266.153846153847,4221.538461538462,4399.48717948718
900.3284,0.11892396,0.4211004,0.33333334,0.5522388,0,0.0,0.0,0.0,0.0,0.0,0,0,0.0,0.0,0,0,25.0,0.0,0.0,4607.6923076923085,3892.307692307693,4507.6923076923085,4431.282051282052,4249.74358974359,4544.615384615385,4462.564102564103,4479.48717948718,4411.794871794872,4714.871794871796,4338.974358974359,4266.153846153847,4221.538461538462,4399.48717948718
900.82886,0.080655836,0.42970338,0.33333334,0.5522388,0,0.0,0.0,0.0,0.0,0.0,0,0,0.0,0.0,0,0,89.0,0.0,497.0,4617.435897435898,3858.9743589743593,4520.512820512821,4427.6923076923085,4252.307692307693,4555.8974358974365,4478.974358974359,4573.333333333334,4431.282051282052,4775.384615384616,4350.256410256411,4293.846153846154,4297.948717948719,4415.384615384616
901.1729,0.080655836,0.42970338,0.33333334,0.5522388,0,0.0,0.0,0.0,0.0,0.023895381,0,0,0.0,0.0,0,0,4.0,0.0,556.0,4621.538461538462,3861.538461538462,4517.948717948719,4413.333333333334,4247.179487179487,4542.564102564103,4470.256410256411,4603.076923076924,4447.179487179487,4766.666666666667,4353.333333333334,4295.8974358974365,4282.051282051282,4428.717948717949
901.4231,0.08321339,0.404539,0.33333334,0.5522388,0,0.0,0.0,0.0,0.0,0.026119882,0,0,0.0,0.0,0,0,36.0,0.0,0.0,4617.435897435898,3859.48717948718,4491.282051282052,4410.769230769231,4238.461538461539,4539.48717948718,4456.410256410257,4622.051282051282,4429.743589743591,4740.512820512821,4346.666666666667,4260.512820512821,4245.128205128206,4440.000000000001
901.67334,0.08321339,0.404539,0.33333334,0.5522388,0,0.0,0.0,0.0,0.0,0.07108969,0,0,0.0,0.0,0,0,68.0,0.0,556.0,4612.820512820514,3880.0000000000005,4493.846153846154,4418.974358974359,4233.333333333334,4536.410256410257,4456.410256410257,4625.641025641026,4414.871794871796,4706.153846153847,4341.025641025642,4256.410256410257,4228.205128205129,4477.948717948719
901.9235,0.03495159,0.3652465,0.33333334,0.5522388,0,0.0,0.0,0.0,0.0,0.0872266,0,0,0.0,0.0,0,0,100.0,0.0,69.0,4606.153846153847,3881.0256410256416,4481.025641025642,4428.205128205129,4243.589743589744,4538.461538461539,4451.282051282052,4603.076923076924,4414.358974358975,4739.48717948718,4341.025641025642,4242.564102564103,4196.410256410257,4476.410256410257
902.17377,0.03495159,0.3652465,0.33333334,0.5522388,0,0.0,0.0,0.0,0.0,0.0,0,0,0.0,0.0,0,0,3.0,0.0,495.0,4608.717948717949,3866.666666666667,4492.307692307693,4412.820512820514,4246.666666666667,4542.564102564103,4459.48717948718,4576.923076923077,4418.461538461539,4725.641025641026,4335.384615384616,4250.769230769231,4179.48717948718,4453.846153846154
902.42395,0.053000495,0.32472125,0.33333334,0.5522388,0,0.0,0.0,0.0,0.0,0.077726044,0,0,0.0,0.0,0,0,35.0,0.0,0.0,4604.615384615385,3877.435897435898,4497.948717948719,4420.000000000001,4248.717948717949,4542.051282051282,4463.076923076924,4562.564102564103,4415.384615384616,4730.256410256411,4337.435897435898,4252.820512820514,4166.666666666667,4438.461538461539
902.6742,0.053000495,0.32472125,0.33333334,0.5522388,0,0.0,0.0,0.0,0.0,0.72347486,0,0,0.0,0.0,0,0,67.0,0.0,495.0,4623.589743589744,3897.435897435898,4507.6923076923085,4424.615384615385,4249.74358974359,4550.256410256411,4461.538461538462,4516.923076923077,4406.153846153847,4722.564102564103,4338.974358974359,4266.153846153847,4186.666666666667,4662.051282051282
902.83057,0.0,0.28163397,0.33333334,0.5522388,0,0.0,0.0,0.0,0.0,1.0,0,0,0.0,0.0,0,0,87.0,0.0,474.0,4595.384615384616,3878.461538461539,4499.48717948718,4415.384615384616,4245.128205128206,4538.461538461539,4453.333333333334,4469.2307692307695,4392.307692307693,4691.282051282052,4335.384615384616,4243.076923076924,4150.769230769231,4703.076923076924
902.83057,0.0,0.28163397,0.33333334,0.5522388,0,0.0,0.0,0.0,0.0,1.0,0,0,0.0,0.0,0,0,87.0,0.0,474.0,4595.384615384616,3878.461538461539,4499.48717948718,4415.384615384616,4245.128205128206,4538.461538461539,4453.333333333334,4469.2307692307695,4392.307692307693,4691.282051282052,4335.384615384616,4243.076923076924,4150.769230769231,4703.076923076924
903.4248,0.031737942,0.24457791,0.33333334,0.5522388,0,0.0,0.0,0.0,0.0,0.7702217,0,0,0.0,0.0,0,0,34.0,0.0,0.0,4605.641025641026,3898.9743589743593,4507.179487179488,4444.102564102564,4262.051282051282,4554.871794871796,4458.974358974359,4527.179487179488,4414.871794871796,4724.615384615386,4343.076923076924,4249.2307692307695,4141.025641025642,4705.641025641026
903.5499,0.031737942,0.24457791,0.33333334,0.5522388,0,0.0,0.0,0.0,0.0,1.0,0,0,0.0,0.0,0,0,50.0,0.0,0.0,4585.641025641026,3891.2820512820517,4488.717948717949,4424.615384615385,4250.769230769231,4553.846153846154,4451.282051282052,4493.333333333334,4400.512820512821,4677.948717948719,4336.410256410257,4227.6923076923085,4116.410256410257,4648.205128205129
903.92523,0.0823062,0.20252961,0.33333334,0.5522388,0,0.0,0.0,0.0,0.0,0.07798321,0,0,0.0,0.0,0,0,98.0,0.0,525.0,4617.435897435898,3911.7948717948725,4508.717948717949,4431.282051282052,4247.179487179487,4541.025641025642,4455.8974358974365,4487.179487179488,4406.666666666667,4709.743589743591,4340.000000000001,4264.102564102564,4155.8974358974365,4678.461538461539
904.1755,0.0823062,0.20252961,0.33333334,0.5522388,1,0.0,0.0,0.0,0.0,0.12977965,0,0,0.0,0.0,0,0,1.0,0.0,449.0,4629.743589743591,3893.333333333334,4522.051282051282,4428.717948717949,4247.6923076923085,4542.051282051282,4478.974358974359,4503.076923076924,4411.794871794872,4713.333333333334,4345.641025641026,4282.564102564103,4187.179487179487,4647.6923076923085
904.42566,0.15928218,0.19740354,0.33333334,0.5522388,0,0.0,0.0,0.0,0.0,0.40438133,0,0,0.0,0.0,0,0,33.0,0.0,0.0,4586.153846153847,3895.8974358974365,4490.769230769231,4441.538461538462,4244.102564102564,4537.948717948719,4438.974358974359,4461.025641025642,4392.820512820514,4655.8974358974365,4328.717948717949,4217.435897435898,4063.589743589744,4507.6923076923085
904.6759,0.15928218,0.19740354,0.33333334,0.5522388,0,0.0,0.0,0.0,0.0,0.502085,0,0,0.0,0.0,0,0,65.0,0.0,449.0,4583.076923076924,3861.0256410256416,4487.6923076923085,4433.846153846154,4235.8974358974365,4536.923076923077,4443.076923076924,4457.435897435898,4411.282051282052,4707.6923076923085,4336.923076923077,4246.666666666667,4155.384615384616,4487.6923076923085
904.9261,0.16442415,0.21143703,0.33333334,0.5522388,0,0.0,0.0,0.0,0.0,0.29538536,0,0,0.0,0.0,0,0,97.0,0.0,497.0,4584.102564102564,3877.435897435898,4491.282051282052,4416.410256410257,4233.333333333334,4535.384615384616,4438.461538461539,4411.794871794872,4398.461538461539,4709.743589743591,4331.282051282052,4240.000000000001,4150.769230769231,4436.410256410257
905.17633,0.16442415,0.21143703,0.33333334,0.5522388,0,0.0,0.0,0.0,0.0,0.45553336,0,0,0.0,0.0,0,0,0.0,0.0,479.0,4574.358974358975,3868.717948717949,4490.769230769231,4420.000000000001,4235.8974358974365,4537.948717948719,4443.589743589744,4419.48717948718,4397.435897435898,4691.794871794872,4328.205128205129,4244.102564102564,4136.923076923077,4412.820512820514
905.4265,0.14196578,0.23313294,0.33333334,0.5522388,1,0.0,0.0,0.0,0.0,0.10770392,0,0,0.0,0.0,0,0,32.0,0.0,0.0,4591.794871794872,3911.7948717948725,4510.256410256411,4433.333333333334,4246.666666666667,4543.589743589744,4446.153846153847,4445.128205128206,4405.128205128206,4710.256410256411,4333.333333333334,4266.153846153847,4142.051282051282,4450.769230769231
905.58295,0.14196578,0.23313294,0.33333334,0.5522388,0,0.0,0.0,0.0,0.0,0.0,0,0,0.0,0.0,0,0,52.0,0.0,0.0,4589.2307692307695,3898.9743589743593,4505.128205128206,4426.666666666667,4240.512820512821,4537.435897435898,4443.589743589744,4473.333333333334,4394.871794871796,4690.769230769231,4325.641025641026,4247.179487179487,4142.564102564103,4447.179487179487
905.8331,0.15021741,0.30203423,0.33333334,0.5522388,0,0.0,0.0,0.0,0.0,0.0,0,0,0.0,0.0,0,0,84.0,0.0,67.0,4607.179487179488,3906.666666666667,4499.48717948718,4426.153846153847,4235.8974358974365,4539.48717948718,4444.102564102564,4537.435897435898,4406.153846153847,4702.051282051282,4322.564102564103,4258.974358974359,4171.282051282052,4426.666666666667
906.1772,0.15021741,0.30203423,0.33333334,0.5522388,0,0.0,0.0,0.0,0.0,0.5701908,0,0,0.0,0.0,0,0,128.0,0.0,67.0,4617.948717948719,3902.564102564103,4521.538461538462,4442.564102564103,4259.48717948718,4556.410256410257,4462.564102564103,4536.410256410257,4410.256410256411,4698.461538461539,4329.743589743591,4273.333333333334,4192.307692307693,4380.000000000001
906.4274,0.18445544,0.309676,0.33333334,0.5522388,0,0.0,0.0,0.0,0.0,0.06489297,0,0,0.0,0.0,0,0,31.0,0.0,0.0,4609.2307692307695,3910.2564102564106,4507.6923076923085,4443.589743589744,4261.538461538462,4557.435897435898,4459.48717948718,4523.589743589744,4409.2307692307695,4685.641025641026,4329.2307692307695,4256.410256410257,4186.666666666667,4407.6923076923085
906.6776,0.18445544,0.309676,0.33333334,0.5522388,0,0.0,0.0,0.0,0.0,0.14187318,0,0,0.0,0.0,0,0,63.0,0.0,0.0,4570.256410256411,3862.0512820512827,4489.743589743591,4442.051282051282,4249.74358974359,4550.256410256411,4451.282051282052,4503.589743589744,4408.717948717949,4690.256410256411,4328.717948717949,4221.025641025642,4149.2307692307695,4365.128205128206
906.92786,0.24484828,0.2947484,0.33333334,0.5522388,0,0.0,0.0,0.0,0.0,0.08227118,0,0,0.0,0.0,0,0,95.0,0.0,473.0,4585.641025641026,3867.692307692308,4485.128205128206,4436.410256410257,4245.128205128206,4540.000000000001,4451.282051282052,4474.871794871796,4411.282051282052,4658.461538461539,4325.128205128206,4230.256410256411,4144.615384615385,4384.102564102564
907.17804,0.24484828,0.2947484,0.33333334,0.5522388,0,0.0,0.0,0.0,0.0,0.0,0,0,0.0,0.0,0,0,127.0,0.0,473.0,4615.384615384616,3914.358974358975,4516.410256410257,4460.512820512821,4265.641025641026,4557.435897435898,4462.051282051282,4487.6923076923085,4423.076923076924,4686.153846153847,4333.333333333334,4265.641025641026,4164.615384615385,4415.8974358974365
907.3344,0.20719272,0.2798617,0.33333334,0.5522388,0,0.0,0.0,0.0,0.0,0.0,0,0,0.0,0.0,0,0,18.0,0.0,0.0,4612.820512820514,3902.0512820512827,4508.205128205129,4454.358974358975,4251.794871794872,4556.410256410257,4455.8974358974365,4483.589743589744,4426.666666666667,4694.358974358975,4341.538461538462,4254.358974358975,4175.8974358974365,4421.538461538462
907.6472,0.20719272,0.2798617,0.33333334,0.5522388,1,0.0,0.0,0.0,0.0,0.0,0,0,0.0,0.0,0,0,58.0,0.0,0.0,4643.589743589744,3918.9743589743593,4527.179487179488,4450.256410256411,4249.74358974359,4552.820512820514,4473.333333333334,4505.641025641026,4451.282051282052,4735.384615384616,4360.000000000001,4293.333333333334,4245.128205128206,4504.102564102564
907.9287,0.24088727,0.27038532,0.33333334,0.5522388,0,0.0,0.0,0.0,0.0,0.22509399,0,0,0.0,0.0,0,0,94.0,0.0,525.0,4607.6923076923085,3866.666666666667,4507.6923076923085,4432.820512820514,4244.102564102564,4541.025641025642,4472.820512820514,4504.615384615385,4448.205128205129,4722.564102564103,4359.48717948718,4272.307692307693,4192.307692307693,4403.589743589744
908.1789,0.24088727,0.27038532,0.33333334,0.5522388,0,0.0,0.0,0.0,0.0,0.44150037,0,0,0.0,0.0,0,0,126.0,0.0,525.0,4617.948717948719,3901.538461538462,4510.769230769231,4458.974358974359,4258.461538461539,4553.333333333334,4460.000000000001,4463.589743589744,4443.589743589744,4689.743589743591,4349.743589743591,4261.025641025642,4165.128205128206,4411.794871794872
908.42914,0.17163216,0.25904223,0.33333334,0.5522388,0,0.0,0.0,0.0,0.0,0.21688244,0,0,0.0,0.0,0,0,29.0,0.0,0.0,4618.974358974359,3893.8461538461543,4506.153846153847,4444.615384615385,4250.256410256411,4552.820512820514,4464.615384615385,4442.564102564103,4444.102564102564,4702.564102564103,4352.307692307693,4263.076923076924,4177.435897435898,4422.564102564103
908.6793,0.17163216,0.25904223,0.33333334,0.5522388,0,0.0,0.0,0.0,0.0,0.27067915,0,0,0.0,0.0,0,0,61.0,0.0,0.0,4638.974358974359,3918.461538461539,4523.589743589744,4453.846153846154,4265.128205128206,4563.076923076924,4461.025641025642,4440.000000000001,4443.589743589744,4726.666666666667,4355.384615384616,4278.974358974359,4187.179487179487,4421.538461538462
908.92957,0.09476849,0.25231004,0.33333334,0.5522388,0,0.0,0.0,0.0,0.0,0.07701783,0,0,0.0,0.0,0,0,93.0,0.0,497.0,4617.435897435898,3893.333333333334,4506.666666666667,4456.410256410257,4261.538461538462,4554.358974358975,4468.205128205129,4447.6923076923085,4447.6923076923085,4740.000000000001,4355.8974358974365,4265.128205128206,4179.48717948718,4396.410256410257
909.17975,0.09476849,0.25231004,0.33333334,0.5522388,0,0.0,0.0,0.0,0.0,0.061002906,0,0,0.0,0.0,0,0,125.0,0.0,497.0,4618.974358974359,3909.7435897435903,4507.179487179488,4440.000000000001,4246.153846153847,4539.48717948718,4460.512820512821,4426.666666666667,4427.6923076923085,4695.8974358974365,4346.153846153847,4262.051282051282,4149.74358974359,4400.512820512821
909.43,0.06980793,0.23169084,0.33333334,0.5522388,0,0.0,0.0,0.0,0.0,0.44831267,0,0,0.0,0.0,0,0,28.0,0.0,0.0,4609.743589743591,3891.7948717948725,4495.8974358974365,4428.205128205129,4245.641025641026,4541.025641025642,4457.435897435898,4442.564102564103,4446.666666666667,4731.794871794872,4350.769230769231,4267.179487179487,4204.102564102564,4460.000000000001
909.74274,0.06980793,0.23169084,0.33333334,0.5522388,0,0.0,0.0,0.0,0.0,0.26822954,0,0,0.0,0.0,0,1,68.0,0.0,556.0,4650.769230769231,3921.538461538462,4523.076923076924,4433.846153846154,4245.641025641026,4540.000000000001,4461.538461538462,4461.538461538462,4462.051282051282,4772.307692307693,4365.128205128206,4316.923076923077,4277.435897435898,4583.589743589744
909.9304,0.08897034,0.21471551,0.33333334,0.5522388,0,0.0,0.0,0.0,0.0,0.30211377,0,0,0.0,0.0,0,1,92.0,0.0,67.0,4622.051282051282,3892.820512820513,4503.076923076924,4431.794871794872,4249.2307692307695,4547.6923076923085,4457.435897435898,4419.48717948718,4440.512820512821,4751.282051282052,4355.8974358974365,4276.923076923077,4232.820512820514,4597.948717948719
910.1806,0.08897034,0.21471551,0.33333334,0.5522388,0,0.0,0.0,0.0,0.0,0.08610391,0,0,0.0,0.0,0,0,124.0,0.0,67.0,4598.974358974359,3894.8717948717954,4490.769230769231,4440.000000000001,4252.307692307693,4552.820512820514,4455.8974358974365,4414.871794871796,4430.769230769231,4708.717948717949,4347.6923076923085,4235.8974358974365,4139.48717948718,4587.6923076923085
910.43085,0.16075294,0.20579916,0.33333334,0.5522388,0,0.0,0.0,0.0,0.0,0.024617799,0,0,0.0,0.0,0,0,27.0,0.0,0.0,4615.384615384616,3935.3846153846157,4485.641025641026,4438.461538461539,4249.74358974359,4546.153846153847,4440.000000000001,4384.102564102564,4401.025641025642,4659.48717948718,4333.333333333334,4230.769230769231,4115.8974358974365,4583.076923076924
910.681,0.16075294,0.20579916,0.33333334,0.5522388,0,0.0,0.0,0.0,0.0,0.071787655,0,0,0.0,0.0,0,0,59.0,0.0,0.0,4615.384615384616,3928.717948717949,4486.153846153847,4442.564102564103,4249.74358974359,4552.307692307693,4442.564102564103,4410.256410256411,4415.384615384616,4689.2307692307695,4332.307692307693,4221.538461538462,4111.794871794872,4567.6923076923085
910.9313,0.14707987,0.21761228,0.33333334,0.5522388,0,0.0,0.0,0.0,0.0,0.09641341,0,0,0.0,0.0,0,0,91.0,0.0,473.0,4609.743589743591,3894.8717948717954,4490.769230769231,4431.282051282052,4249.2307692307695,4540.000000000001,4455.384615384616,4400.512820512821,4411.282051282052,4688.205128205129,4325.641025641026,4224.102564102564,4111.282051282052,4534.358974358975
911.1815,0.14707987,0.21761228,0.33333334,0.5522388,0,0.0,0.0,0.0,0.0,0.058657806,0,0,0.0,0.0,0,0,123.0,0.0,473.0,4620.000000000001,3895.8974358974365,4503.589743589744,4430.256410256411,4248.205128205129,4551.282051282052,4475.8974358974365,4440.512820512821,4426.153846153847,4718.461538461539,4336.410256410257,4253.846153846154,4163.076923076924,4527.6923076923085
911.4317,0.10381993,0.22032563,0.33333334,0.5522388,0,0.0,0.0,0.0,0.0,0.039041143,0,0,0.0,0.0,0,0,26.0,0.0,0.0,4634.871794871796,3878.461538461539,4518.461538461539,4354.358974358975,4245.128205128206,4539.48717948718,4474.871794871796,4477.948717948719,4444.102564102564,4761.538461538462,4352.307692307693,4283.589743589744,4247.6923076923085,4538.974358974359
911.68195,0.10381993,0.22032563,0.33333334,0.5522388,0,0.0,0.0,0.0,0.0,0.12734538,0,0,0.0,0.0,0,0,58.0,0.0,0.0,4642.051282051282,3901.538461538462,4514.358974358975,4376.410256410257,4246.153846153847,4543.076923076924,4460.512820512821,4448.205128205129,4425.128205128206,4727.179487179488,4346.666666666667,4276.410256410257,4193.333333333334,4504.615384615385
911.9321,0.09115623,0.19997747,0.33333334,0.5522388,0,0.0,0.0,0.0,0.0,0.16241628,0,0,0.0,0.0,0,0,90.0,0.0,525.0,4616.410256410257,3895.8974358974365,4489.743589743591,4390.769230769231,4249.74358974359,4541.538461538462,4452.820512820514,4424.102564102564,4430.256410256411,4704.615384615386,4335.8974358974365,4241.025641025642,4150.769230769231,4453.333333333334
912.2762,0.09115623,0.19997747,0.33333334,0.5522388,0,0.0,0.0,0.0,0.0,0.1076713,0,0,0.0,0.0,0,0,5.0,0.0,552.0,4632.820512820514,3891.2820512820517,4509.2307692307695,4403.589743589744,4264.615384615385,4555.384615384616,4471.282051282052,4425.128205128206,4423.076923076924,4712.820512820514,4338.461538461539,4257.435897435898,4153.333333333334,4461.538461538462
912.43256,0.0482935,0.20901749,0.33333334,0.5522388,0,0.0,0.0,0.0,0.0,0.16231182,0,0,0.0,0.0,0,0,25.0,0.0,0.0,4655.384615384616,3849.2307692307695,4527.179487179488,4416.410256410257,4262.051282051282,4557.435897435898,4475.8974358974365,4436.923076923077,4443.589743589744,4747.179487179488,4348.205128205129,4290.256410256411,4214.871794871796,4472.820512820514
912.6828,0.0482935,0.20901749,0.33333334,0.5522388,0,0.0,0.0,0.0,0.0,0.10044233,0,0,0.0,0.0,0,0,57.0,0.0,0.0,4621.025641025642,3849.2307692307695,4512.820512820514,4413.846153846154,4250.769230769231,4548.717948717949,4472.307692307693,4427.179487179487,4432.307692307693,4740.000000000001,4344.102564102564,4276.410256410257,4189.2307692307695,4451.282051282052
912.933,0.023165958,0.2229772,0.33333334,0.5522388,0,0.0,0.0,0.0,0.0,0.055855926,0,0,0.0,0.0,0,0,89.0,0.0,497.0,4617.435897435898,3832.820512820513,4505.641025641026,4416.923076923077,4238.461538461539,4537.948717948719,4471.794871794872,4439.48717948718,4445.128205128206,4768.205128205129,4354.358974358975,4286.666666666667,4264.102564102564,4476.923076923077
913.1832,0.023165958,0.2229772,0.33333334,0.5522388,0,0.0,0.0,0.0,0.0,0.18396692,0,0,0.0,0.0,0,0,121.0,0.0,497.0,4588.205128205129,3802.564102564103,4492.307692307693,4414.358974358975,4233.333333333334,4534.358974358975,4466.153846153847,4431.794871794872,4444.102564102564,4768.205128205129,4354.871794871796,4252.820512820514,4218.974358974359,4446.153846153847
913.496,0.040579483,0.22535576,0.33333334,0.5522388,0,0.0,0.0,0.0,0.0,0.18038566,1,0,0.0,0.0,0,0,32.0,0.0,0.0,4605.128205128206,3877.9487179487182,4486.666666666667,4423.076923076924,4232.307692307693,4532.307692307693,4442.051282051282,4386.153846153847,4406.153846153847,4672.307692307693,4331.282051282052,4229.74358974359,4098.974358974359,4457.435897435898
913.68365,0.040579483,0.22535576,0.33333334,0.5522388,0,0.0,0.0,0.0,0.0,0.13996074,1,0,0.0,0.0,0,0,56.0,0.0,0.0,4610.256410256411,3894.358974358975,4491.282051282052,4519.48717948718,4233.846153846154,4528.205128205129,4442.564102564103,4377.435897435898,4416.410256410257,4665.128205128206,4335.384615384616,4233.333333333334,4092.820512820513,4461.025641025642
913.93384,0.02440626,0.25612044,0.33333334,0.5522388,0,0.0,0.0,0.0,0.0,0.549499,1,0,0.0,0.0,0,0,88.0,0.0,67.0,4572.820512820514,3864.1025641025644,4474.871794871796,4444.615384615385,4231.794871794872,4524.102564102564,4440.000000000001,4376.923076923077,4412.307692307693,4663.589743589744,4327.179487179487,4217.435897435898,4099.48717948718,4380.512820512821
914.1841,0.02440626,0.25612044,0.33333334,0.5522388,0,0.0,0.0,0.0,0.0,0.52062243,1,0,0.0,0.0,0,0,120.0,0.0,67.0,4573.333333333334,3848.205128205129,4474.871794871796,4428.205128205129,4229.74358974359,4523.589743589744,4442.051282051282,4397.435897435898,4416.410256410257,4693.333333333334,4335.384615384616,4232.307692307693,4137.948717948719,4359.48717948718
914.4656,0.0,0.25044385,0.33333334,0.5522388,0,0.0,0.0,0.0,0.0,0.22521965,0,0,0.0,0.0,0,0,27.0,0.0,0.0,4586.153846153847,3862.0512820512827,4478.461538461539,4425.641025641026,4231.282051282052,4524.102564102564,4446.153846153847,4409.2307692307695,4423.076923076924,4710.769230769231,4340.000000000001,4244.615384615385,4166.153846153847,4401.538461538462
914.5594,0.0,0.25044385,0.33333334,0.5522388,0,0.0,0.0,0.0,0.0,0.0,0,0,0.0,0.0,0,0,39.0,0.0,0.0,4605.641025641026,3896.9230769230776,4495.8974358974365,4431.794871794872,4241.025641025642,4538.461538461539,4444.102564102564,4410.256410256411,4425.128205128206,4710.769230769231,4342.051282051282,4260.000000000001,4171.794871794872,4420.000000000001
914.8409,0.055742867,0.22860785,0.33333334,0.5522388,0,0.0,0.0,0.0,0.0,0.0,0,0,0.0,0.0,0,0,75.0,0.0,473.0,4625.641025641026,3863.589743589744,4507.179487179488,4416.410256410257,4233.333333333334,4540.512820512821,4476.923076923077,4446.153846153847,4458.461538461539,4790.256410256411,4356.923076923077,4310.769230769231,4300.512820512821,4466.666666666667
915.27875,0.055742867,0.22860785,0.33333334,0.5522388,0,0.0,0.0,0.0,0.0,0.15980881,0,0,0.0,0.0,0,0,2.0,0.0,454.0,4598.461538461539,3869.7435897435903,4481.538461538462,4411.794871794872,4232.307692307693,4536.923076923077,4444.615384615385,4396.923076923077,4416.410256410257,4695.384615384616,4333.333333333334,4248.717948717949,4150.256410256411,4458.974358974359
915.4351,0.06818669,0.24617118,0.33333334,0.5522388,0,0.0,0.0,0.0,0.0,0.12291373,0,0,0.0,0.0,0,0,22.0,0.0,0.0,4596.410256410257,3863.076923076924,4488.717948717949,4412.307692307693,4234.358974358975,4540.512820512821,4460.512820512821,4409.743589743591,4427.6923076923085,4716.410256410257,4340.512820512821,4249.2307692307695,4170.256410256411,4487.179487179488
915.68536,0.06818669,0.24617118,0.33333334,0.5522388,0,0.0,0.0,0.0,0.0,0.97928673,0,0,0.0,0.0,0,0,54.0,0.0,0.0,4609.2307692307695,3850.2564102564106,4491.794871794872,4397.948717948719,4232.307692307693,4537.948717948719,4443.589743589744,4401.538461538462,4411.794871794872,4701.538461538462,4340.000000000001,4250.256410256411,4172.307692307693,4542.051282051282
915.93555,0.046510503,0.23114243,0.33333334,0.5522388,0,0.0,0.0,0.0,0.0,0.5259991,0,0,0.0,0.0,0,0,86.0,0.0,525.0,4648.717948717949,3875.8974358974365,4523.589743589744,4403.076923076924,4236.923076923077,4538.974358974359,4462.564102564103,4434.871794871796,4423.076923076924,4744.615384615386,4351.282051282052,4295.384615384616,4266.666666666667,4643.589743589744
916.1858,0.046510503,0.23114243,0.33333334,0.5522388,0,0.0,0.0,0.0,0.0,0.3825438,0,0,0.0,0.0,0,0,118.0,0.0,525.0,4625.128205128206,3865.1282051282055,4502.564102564103,4408.717948717949,4237.435897435898,4538.974358974359,4461.538461538462,4439.48717948718,4415.384615384616,4720.512820512821,4346.153846153847,4274.358974358975,4229.2307692307695,4631.282051282052
916.436,0.14948079,0.24377248,0.33333334,0.5522388,0,0.0,0.0,0.0,0.0,0.033276003,0,0,0.0,0.0,0,0,21.0,0.0,0.0,4643.589743589744,3878.461538461539,4512.820512820514,4428.205128205129,4248.205128205129,4550.769230769231,4476.923076923077,4478.461538461539,4445.128205128206,4768.205128205129,4352.307692307693,4289.74358974359,4244.615384615385,4631.794871794872
916.6862,0.14948079,0.24377248,0.33333334,0.5522388,0,0.0,0.0,0.0,0.0,0.081467405,0,0,0.0,0.0,0,0,53.0,0.0,0.0,4614.871794871796,3884.1025641025644,4488.717948717949,4431.794871794872,4234.871794871796,4537.948717948719,4449.2307692307695,4414.358974358975,4397.948717948719,4694.358974358975,4330.256410256411,4231.794871794872,4143.589743589744,4568.205128205129
916.93646,0.18164998,0.2781862,0.33333334,0.5522388,0,0.0,0.0,0.0,0.0,0.096725486,0,0,0.0,0.0,0,0,85.0,0.0,497.0,4648.205128205129,3894.358974358975,4511.282051282052,4431.282051282052,4247.179487179487,4546.153846153847,4473.846153846154,4475.8974358974365,4427.6923076923085,4768.205128205129,4348.717948717949,4282.051282051282,4231.282051282052,4572.307692307693
917.18665,0.18164998,0.2781862,0.33333334,0.5522388,0,0.0,0.0,0.0,0.0,0.3140906,0,0,0.0,0.0,0,0,117.0,0.0,497.0,4637.948717948719,3926.666666666667,4506.153846153847,4468.205128205129,4251.282051282052,4552.820512820514,4461.025641025642,4460.512820512821,4410.256410256411,4701.538461538462,4335.8974358974365,4254.358974358975,4160.000000000001,4523.589743589744
917.4369,0.17779286,0.27628285,0.33333334,0.5522388,0,0.0,0.0,0.0,0.0,0.11128753,0,0,0.0,0.0,0,0,20.0,0.0,0.0,4642.564102564103,3894.358974358975,4521.538461538462,4453.333333333334,4254.358974358975,4553.333333333334,4473.846153846154,4465.128205128206,4425.128205128206,4786.666666666667,4352.307692307693,4298.461538461539,4276.923076923077,4545.128205128206
917.6871,0.17779286,0.27628285,0.33333334,0.5522388,0,0.0,0.0,0.0,0.0,0.076043196,0,0,0.0,0.0,0,0,52.0,0.0,0.0,4608.205128205129,3903.589743589744,4494.358974358975,4457.948717948719,4249.74358974359,4543.589743589744,4458.461538461539,4423.076923076924,4398.461538461539,4724.102564102564,4337.948717948719,4245.641025641026,4176.410256410257,4488.205128205129
917.9373,0.19366008,0.2744449,0.33333334,0.5522388,0,0.0,0.0,0.0,0.0,0.21181916,0,0,0.0,0.0,0,1,84.0,0.0,67.0,4633.846153846154,3876.9230769230776,4509.2307692307695,4440.000000000001,4244.102564102564,4538.974358974359,4469.2307692307695,4453.846153846154,4421.538461538462,4762.564102564103,4345.641025641026,4278.974358974359,4247.6923076923085,4503.589743589744
918.2188,0.19366008,0.2744449,0.33333334,0.5522388,0,0.0,0.0,0.0,0.0,0.28819385,0,0,0.0,0.0,0,0,120.0,0.0,67.0,4571.794871794872,3924.1025641025644,4483.589743589744,4443.076923076924,4248.205128205129,4540.512820512821,4445.128205128206,4411.794871794872,4389.2307692307695,4681.025641025642,4323.076923076924,4218.461538461539,4118.461538461539,4444.102564102564
918.43774,0.26222932,0.27279076,0.33333334,0.5522388,0,0.0,0.0,0.0,0.0,0.15692542,0,0,0.0,0.0,0,0,19.0,0.0,0.0,4614.358974358975,3909.7435897435903,4512.820512820514,4446.153846153847,4250.256410256411,4551.282051282052,4464.615384615385,4445.128205128206,4428.717948717949,4754.871794871796,4338.974358974359,4277.948717948719,4203.076923076924,4484.102564102564
918.6879,0.26222932,0.27279076,0.33333334,0.5522388,0,0.0,0.0,0.0,0.0,0.07099267,0,0,0.0,0.0,0,0,51.0,0.0,0.0,4607.179487179488,3898.461538461539,4502.564102564103,4443.076923076924,4253.846153846154,4553.333333333334,4473.846153846154,4441.538461538462,4429.2307692307695,4735.8974358974365,4338.461538461539,4252.820512820514,4169.74358974359,4490.256410256411
918.9382,0.3025197,0.271302,0.33333334,0.5522388,0,0.0,0.0,0.0,0.0,0.0,0,0,0.0,0.0,0,0,83.0,0.0,472.0,4624.102564102564,3913.333333333334,4514.358974358975,4445.128205128206,4258.974358974359,4552.307692307693,4473.846153846154,4442.564102564103,4426.153846153847,4729.743589743591,4333.846153846154,4267.6923076923085,4169.2307692307695,4523.076923076924
919.2509,0.3025197,0.271302,0.33333334,0.5522388,1,0.0,0.0,0.0,0.0,0.0,0,0,0.0,0.0,0,0,123.0,0.0,472.0,4641.025641025642,3907.692307692308,4522.051282051282,4441.025641025642,4260.000000000001,4554.871794871796,4474.871794871796,4459.48717948718,4430.256410256411,4764.615384615386,4345.128205128206,4295.8974358974365,4245.641025641026,4554.358974358975
919.4073,0.30813515,0.26996216,0.33333334,0.5522388,0,0.0,0.0,0.0,0.0,0.0,0,0,0.0,0.0,0,0,14.0,0.0,525.0,4647.179487179488,3948.205128205129,4519.48717948718,4444.102564102564,4259.48717948718,4553.846153846154,4455.384615384616,4437.948717948719,4422.051282051282,4715.384615384616,4334.871794871796,4277.435897435898,4154.871794871796,4535.384615384616
919.6888,0.30813515,0.26996216,0.33333334,0.5522388,0,0.0,0.0,0.0,0.0,0.23397273,0,0,0.0,0.0,0,0,50.0,0.0,0.0,4638.461538461539,3952.307692307693,4505.641025641026,4452.820512820514,4251.282051282052,4551.794871794872,4449.2307692307695,4412.820512820514,4401.538461538462,4677.948717948719,4323.589743589744,4245.641025641026,4107.6923076923085,4475.8974358974365
919.939,0.3304721,0.26875627,0.33333334,0.5522388,0,0.0,0.0,0.0,0.0,0.11455302,0,0,0.0,0.0,0,0,82.0,0.0,525.0,4623.589743589744,3938.9743589743593,4502.564102564103,4440.000000000001,4257.948717948719,4552.820512820514,4449.743589743591,4393.846153846154,4392.820512820514,4651.282051282052,4319.48717948718,4233.333333333334,4103.076923076924,4467.6923076923085
920.1892,0.3304721,0.26875627,0.33333334,0.5522388,0,0.0,0.0,0.0,0.0,0.057761785,0,0,0.0,0.0,0,0,114.0,0.0,525.0,4620.000000000001,3926.666666666667,4501.025641025642,4431.794871794872,4248.205128205129,4544.615384615385,4446.666666666667,4413.333333333334,4392.307692307693,4683.589743589744,4319.48717948718,4250.769230769231,4126.153846153847,4483.076923076924
920.34564,0.2665321,0.25931665,0.33333334,0.5522388,0,0.0,0.0,0.0,0.0,0.0,0,0,0.0,0.0,0,0,5.0,0.0,552.0,4621.025641025642,3934.8717948717954,4496.923076923077,4441.025641025642,4238.461538461539,4538.461538461539,4445.128205128206,4414.358974358975,4401.538461538462,4677.948717948719,4320.000000000001,4251.282051282052,4128.205128205129,4475.384615384616
920.68964,0.2665321,0.25931665,0.33333334,0.5522388,0,0.0,0.0,0.0,0.0,0.17829713,0,0,0.0,0.0,0,0,49.0,0.0,0.0,4606.666666666667,3911.2820512820517,4491.282051282052,4437.435897435898,4237.948717948719,4536.923076923077,4443.589743589744,4417.435897435898,4404.615384615385,4698.974358974359,4337.435897435898,4249.2307692307695,4156.923076923077,4529.743589743591
920.9399,0.2360338,0.23738948,0.33333334,0.5522388,0,0.0,0.0,0.0,0.0,0.53680336,0,0,0.0,0.0,0,0,81.0,0.0,497.0,4561.538461538462,3883.076923076924,4464.615384615385,4429.743589743591,4232.307692307693,4531.794871794872,4426.666666666667,4393.333333333334,4375.384615384616,4657.948717948719,4331.282051282052,4198.461538461539,4093.333333333334,4521.025641025642
921.19006,0.2360338,0.23738948,0.33333334,0.5522388,0,0.0,0.0,0.0,0.0,0.13684855,0,0,0.0,0.0,0,0,113.0,0.0,497.0,4584.615384615385,3877.435897435898,4487.179487179488,4432.307692307693,4236.923076923077,4537.435897435898,4441.025641025642,4397.435897435898,4396.410256410257,4681.025641025642,4336.410256410257,4229.74358974359,4142.564102564103,4562.051282051282
921.4403,0.24342534,0.20289536,0.33333334,0.5522388,0,0.0,0.0,0.0,0.0,0.28884444,0,0,0.0,0.0,0,0,16.0,0.0,0.0,4587.179487179488,3878.9743589743593,4490.256410256411,4425.641025641026,4233.333333333334,4536.923076923077,4437.435897435898,4443.076923076924,4408.205128205129,4700.000000000001,4341.025641025642,4233.333333333334,4153.846153846154,4624.102564102564
921.6905,0.24342534,0.20289536,0.33333334,0.5522388,0,0.0,0.0,0.0,0.0,0.40273196,0,0,0.0,0.0,0,0,48.0,0.0,0.0,4576.923076923077,3881.538461538462,4487.179487179488,4425.641025641026,4231.282051282052,4538.461538461539,4446.153846153847,4474.358974358975,4402.051282051282,4695.384615384616,4341.025641025642,4234.358974358975,4158.461538461539,4719.48717948718
921.8469,0.27647617,0.16275603,0.33333334,0.5522388,0,0.0,0.0,0.0,0.0,1.0,0,0,0.0,0.0,0,0,68.0,0.0,556.0,4596.923076923077,3908.717948717949,4491.794871794872,4429.743589743591,4232.307692307693,4537.435897435898,4442.051282051282,4464.615384615385,4395.8974358974365,4721.025641025642,4347.179487179487,4247.6923076923085,4185.128205128206,4780.000000000001
922.191,0.27647617,0.16275603,0.33333334,0.5522388,0,0.0,0.0,0.0,0.0,0.40510574,0,0,0.0,0.0,0,0,112.0,0.0,67.0,4641.025641025642,4000.5128205128212,4523.076923076924,4430.769230769231,4247.179487179487,4542.051282051282,4442.564102564103,4490.769230769231,4398.461538461539,4710.769230769231,4343.076923076924,4288.205128205129,4198.974358974359,4842.564102564103
922.44116,0.35992482,0.13641094,0.33333334,0.5522388,0,0.0,0.0,0.0,0.0,0.31370857,0,0,0.0,0.0,0,0,15.0,0.0,466.0,4598.974358974359,3934.358974358975,4508.205128205129,4427.179487179487,4232.820512820514,4535.384615384616,4448.205128205129,4516.923076923077,4393.333333333334,4701.025641025642,4334.358974358975,4271.794871794872,4194.871794871796,4677.435897435898
922.6914,0.35992482,0.13641094,0.33333334,0.5522388,0,0.0,0.0,0.0,0.0,0.17033042,0,0,0.0,0.0,0,0,47.0,0.0,0.0,4533.846153846154,3864.1025641025644,4490.256410256411,4422.051282051282,4232.307692307693,4533.846153846154,4460.000000000001,4677.435897435898,4420.000000000001,4724.615384615386,4345.128205128206,4245.641025641026,4184.615384615385,4517.948717948719
922.9416,0.31236583,0.1123596,0.33333334,0.5522388,0,0.0,0.0,0.0,0.0,0.1911796,0,0,0.0,0.0,1,0,79.0,0.0,466.0,4542.564102564103,3861.538461538462,4492.820512820514,4444.615384615385,4229.2307692307695,4521.538461538462,4476.923076923077,4684.102564102564,4433.846153846154,4750.769230769231,4349.2307692307695,4264.615384615385,4233.846153846154,4408.205128205129
923.19183,0.31236583,0.1123596,0.33333334,0.5522388,0,0.0,0.0,0.0,0.0,0.2974741,0,0,0.0,0.0,0,0,111.0,0.0,466.0,4585.641025641026,3855.3846153846157,4489.743589743591,4444.102564102564,4234.358974358975,4533.333333333334,4472.307692307693,4637.435897435898,4451.282051282052,4769.2307692307695,4348.717948717949,4280.512820512821,4264.615384615385,4491.794871794872
923.4733,0.38313144,0.09071339,0.33333334,0.5522388,0,0.0,0.0,0.0,0.0,0.22218099,0,0,0.0,0.0,1,0,18.0,0.0,0.0,4636.923076923077,3940.0000000000005,4504.102564102564,4432.820512820514,4229.2307692307695,4535.8974358974365,4455.384615384616,4567.6923076923085,4442.564102564103,4744.615384615386,4341.538461538462,4293.333333333334,4243.589743589744,4567.179487179488
923.69226,0.38313144,0.09071339,0.33333334,0.5522388,0,0.0,0.0,0.0,0.0,0.12528868,0,0,0.0,0.0,1,0,46.0,0.0,0.0,4598.461538461539,3896.410256410257,4457.435897435898,4415.384615384616,4230.256410256411,4533.333333333334,4457.435897435898,4528.205128205129,4433.846153846154,4701.025641025642,4330.256410256411,4218.974358974359,4138.461538461539,4540.000000000001
923.94244,0.43583098,0.071231805,0.33333334,0.5522388,0,0.0,0.0,0.0,0.0,0.09579949,0,0,0.0,0.0,0,0,78.0,0.0,525.0,4583.076923076924,3878.461538461539,4448.205128205129,4303.589743589744,4213.846153846154,4518.974358974359,4444.615384615385,4505.128205128206,4429.2307692307695,4712.307692307693,4328.717948717949,4203.589743589744,4141.538461538462,4552.820512820514
924.1927,0.43583098,0.071231805,0.33333334,0.5522388,0,0.0,0.0,0.0,0.0,0.0,0,0,0.0,0.0,0,0,110.0,0.0,525.0,4587.179487179488,4481.025641025642,4505.128205128206,2699.4871794871797,4262.564102564103,4569.2307692307695,4505.641025641026,4537.435897435898,4475.384615384616,4785.128205128206,4336.923076923077,4276.923076923077,4216.410256410257,4568.717948717949
924.4429,0.4624848,0.053698376,0.33333334,0.5522388,0,0.0,0.0,0.16044737,0.0,0.0,0,0,0.0,0.0,0,0,13.0,0.0,497.0,4643.589743589744,4414.871794871796,4532.820512820514,3047.692307692308,4266.666666666667,4570.769230769231,4499.48717948718,4507.6923076923085,4449.2307692307695,4762.564102564103,4341.538461538462,4300.512820512821,4220.000000000001,4885.128205128206
924.6931,0.4624848,0.053698376,0.33333334,0.5522388,0,0.0,0.0,0.16487643,0.0,0.0,0,0,0.0,0.0,1,0,45.0,0.0,0.0,4643.589743589744,4284.615384615385,4492.820512820514,3306.1538461538466,4234.358974358975,4534.871794871796,4458.461538461539,4520.000000000001,4426.153846153847,4708.205128205129,4329.2307692307695,4250.256410256411,4183.076923076924,5122.051282051283
924.9433,0.52935153,0.037918292,0.33333334,0.5522388,0,0.0,0.0,0.0,0.0,0.47234362,0,0,0.0,0.0,0,0,77.0,0.0,497.0,4647.179487179488,4168.717948717949,4501.025641025642,3528.205128205129,4239.48717948718,4540.512820512821,4478.461538461539,4562.564102564103,4448.717948717949,4761.538461538462,4342.564102564103,4278.461538461539,4266.153846153847,5090.256410256411
925.19354,0.52935153,0.037918292,0.33333334,0.5522388,0,0.0,0.0,0.0,0.0,0.69310015,0,0,0.0,0.0,0,0,109.0,0.0,497.0,4616.410256410257,4091.2820512820517,4492.307692307693,3699.48717948718,4231.794871794872,4536.410256410257,4455.8974358974365,4557.948717948719,4458.461538461539,4746.666666666667,4357.948717948719,4262.051282051282,4230.256410256411,5140.512820512821
925.3499,0.508396,0.023716215,0.33333334,0.5522388,0,0.0,0.0,0.0,0.0,1.0,0,0,0.0,0.0,0,0,0.0,0.0,479.0,4633.846153846154,4116.923076923077,4500.512820512821,3791.2820512820517,4249.2307692307695,4551.794871794872,4443.589743589744,4600.000000000001,4437.948717948719,4689.743589743591,4347.6923076923085,4243.076923076924,4163.589743589744,5567.6923076923085
925.3499,0.508396,0.023716215,0.33333334,0.5522388,0,0.0,0.0,0.0,0.0,1.0,0,0,0.0,0.0,0,0,0.0,0.0,479.0,4633.846153846154,4116.923076923077,4500.512820512821,3791.2820512820517,4249.2307692307695,4551.794871794872,4443.589743589744,4600.000000000001,4437.948717948719,4689.743589743591,4347.6923076923085,4243.076923076924,4163.589743589744,5567.6923076923085
925.94415,0.58543736,0.010934347,0.33333334,0.5522388,0,0.0,0.0,0.0,0.0,0.23605476,0,0,0.0,0.0,0,0,76.0,0.0,66.0,4696.410256410257,4007.1794871794878,4537.948717948719,4046.1538461538466,4251.282051282052,4556.410256410257,4483.076923076924,4573.846153846154,4481.538461538462,4775.384615384616,4365.641025641026,4320.512820512821,4331.282051282052,5950.256410256411
926.1944,0.58543736,0.010934347,0.33333334,0.5522388,0,0.0,0.0,0.0,0.0,1.0,0,0,0.0,0.0,0,0,108.0,0.0,66.0,4645.128205128206,4019.48717948718,4512.820512820514,4121.025641025642,4249.2307692307695,4553.846153846154,4442.564102564103,4471.282051282052,4425.641025641026,4686.153846153847,4340.512820512821,4257.948717948719,4184.102564102564,5550.256410256411
926.35077,0.7251849,0.0,0.33333334,0.5522388,0,0.0,0.0,0.0,0.0,1.0,0,0,0.0,0.0,0,0,128.0,0.0,66.0,4675.384615384616,4007.1794871794878,4534.358974358975,4141.025641025642,4232.307692307693,4538.974358974359,4453.846153846154,4490.769230769231,4451.794871794872,4746.666666666667,4353.333333333334,4312.820512820514,4311.794871794872,5525.128205128206
926.6948,0.7251849,0.0,0.33333334,0.5522388,0,0.0,0.0,0.0,0.0,0.901665,0,0,0.0,0.0,0,0,43.0,0.0,0.0,4725.641025641026,4132.307692307693,4545.641025641026,4215.8974358974365,4232.307692307693,4541.025641025642,4426.153846153847,4414.358974358975,4412.307692307693,4680.512820512821,4342.564102564103,4315.8974358974365,4236.923076923077,5276.923076923078
926.8512,0.66999966,0.029696427,0.33333334,0.5522388,0,0.0,0.0,0.0,0.0,1.0,0,0,0.0,0.0,0,0,63.0,0.0,0.0,4663.589743589744,3937.9487179487182,4514.871794871796,4230.769230769231,4231.282051282052,4542.051282051282,4443.076923076924,4448.205128205129,4431.282051282052,4716.410256410257,4340.512820512821,4262.564102564103,4167.179487179487,4974.871794871796
926.8512,0.66999966,0.029696427,0.33333334,0.5522388,0,0.0,0.0,0.0,0.0,1.0,0,0,0.0,0.0,0,0,63.0,0.0,0.0,4663.589743589744,3937.9487179487182,4514.871794871796,4230.769230769231,4231.282051282052,4542.051282051282,4443.076923076924,4448.205128205129,4431.282051282052,4716.410256410257,4340.512820512821,4262.564102564103,4167.179487179487,4974.871794871796
927.3516,0.5832631,0.12435752,0.33333334,0.5522388,0,0.0,0.0,0.0,0.0,1.0,0,0,0.0,0.0,0,0,127.0,0.0,454.0,4718.461538461539,3927.692307692308,4522.564102564103,4279.48717948718,4217.948717948719,4535.384615384616,4444.102564102564,4404.102564102564,4426.666666666667,4698.461538461539,4337.435897435898,4278.461538461539,4203.076923076924,4456.410256410257
927.6957,0.5832631,0.12435752,0.33333334,0.5522388,0,0.0,0.0,0.0,0.0,0.6474091,0,0,0.0,0.0,0,0,42.0,0.0,0.0,4709.2307692307695,3876.410256410257,4503.076923076924,4309.743589743591,4216.923076923077,4533.333333333334,4428.205128205129,4475.8974358974365,4401.025641025642,4687.6923076923085,4330.256410256411,4249.2307692307695,4189.2307692307695,4264.102564102564
927.9459,0.6851815,0.21439292,0.33333334,0.5522388,0,0.0,0.0,0.0,0.0,0.052088976,0,0,0.0,0.0,0,0,74.0,0.0,525.0,4717.435897435898,3891.2820512820517,4504.102564102564,4319.48717948718,4220.000000000001,4538.461538461539,4428.205128205129,4450.256410256411,4412.820512820514,4692.307692307693,4326.153846153847,4237.948717948719,4184.102564102564,4282.564102564103
928.1961,0.6851815,0.21439292,0.33333334,0.5522388,0,0.0,0.0,0.0,0.0,0.027616553,0,0,0.0,0.0,0,0,106.0,0.0,525.0,4721.025641025642,3923.589743589744,4505.641025641026,4335.384615384616,4216.923076923077,4526.666666666667,4413.333333333334,4390.769230769231,4384.102564102564,4647.179487179488,4312.307692307693,4217.435897435898,4120.000000000001,4251.282051282052
928.44635,0.6016777,0.23221365,0.33333334,0.5522388,0,0.0,0.0,0.0,0.0,0.079508655,0,0,0.0,0.0,0,0,9.0,0.0,481.0,4754.871794871796,3948.205128205129,4515.8974358974365,4353.846153846154,4234.871794871796,4541.025641025642,4430.769230769231,4383.076923076924,4387.6923076923085,4643.076923076924,4321.025641025642,4218.461538461539,4112.307692307693,4296.923076923077
928.69653,0.6016777,0.23221365,0.33333334,0.5522388,0,0.0,0.0,0.0,0.0,0.08613109,0,0,0.0,0.0,0,0,41.0,0.0,0.0,4771.282051282052,3926.666666666667,4528.717948717949,4383.076923076924,4248.205128205129,4554.871794871796,4464.615384615385,4426.153846153847,4414.358974358975,4722.564102564103,4331.794871794872,4277.948717948719,4246.153846153847,4324.615384615385
928.9468,0.7394763,0.2423304,0.33333334,0.5522388,0,0.0,0.0,0.0,0.0,0.1497047,0,0,0.0,0.0,0,0,73.0,0.0,481.0,4793.333333333334,3957.435897435898,4533.846153846154,4387.6923076923085,4253.846153846154,4566.153846153847,4459.48717948718,4400.000000000001,4397.435897435898,4683.589743589744,4324.102564102564,4254.358974358975,4154.358974358975,4355.384615384616
929.19696,0.7394763,0.2423304,0.33333334,0.5522388,0,0.0,0.0,0.0,0.0,0.24073288,0,0,0.0,0.0,0,0,105.0,0.0,497.0,4798.461538461539,3969.2307692307695,4531.794871794872,4400.000000000001,4257.948717948719,4556.410256410257,4458.461538461539,4388.205128205129,4394.871794871796,4678.461538461539,4327.6923076923085,4261.538461538462,4161.025641025642,4384.615384615385
929.4472,0.73214316,0.24555437,0.33333334,0.5522388,0,0.0,0.0,0.0,0.0,0.59158266,0,0,0.0,0.0,0,0,8.0,0.0,377.0,4813.333333333334,3991.7948717948725,4550.769230769231,4405.641025641026,4262.051282051282,4562.051282051282,4457.435897435898,4418.461538461539,4411.794871794872,4751.282051282052,4343.076923076924,4312.820512820514,4270.256410256411,4461.538461538462
929.6974,0.73214316,0.24555437,0.33333334,0.5522388,0,0.0,0.0,0.0,0.0,0.1635945,0,0,0.0,0.0,0,0,40.0,0.0,0.0,4872.820512820514,4165.641025641026,4590.256410256411,4415.8974358974365,4278.461538461539,4573.333333333334,4460.512820512821,4384.615384615385,4387.179487179487,4675.8974358974365,4328.205128205129,4328.205128205129,4205.641025641026,4494.358974358975
929.9789,0.6858875,0.2750096,0.33333334,0.5522388,0,0.0,0.0,0.0,0.0,0.5703971,0,0,0.0,0.0,0,0,76.0,0.0,66.0,4774.871794871796,4045.1282051282055,4540.512820512821,4426.666666666667,4266.666666666667,4569.2307692307695,4461.025641025642,4378.461538461539,4379.48717948718,4667.6923076923085,4315.8974358974365,4258.974358974359,4121.025641025642,4626.666666666667
930.0727,0.6858875,0.2750096,0.33333334,0.5522388,0,0.0,0.0,0.0,0.0,1.0,0,0,0.0,0.0,0,0,88.0,0.0,66.0,4783.076923076924,4024.1025641025644,4546.666666666667,4433.333333333334,4276.410256410257,4570.769230769231,4474.358974358975,4408.717948717949,4398.974358974359,4687.6923076923085,4322.564102564103,4266.153846153847,4145.128205128206,4693.846153846154
930.3542,0.6561954,0.3123737,0.33333334,0.5522388,0,0.0,0.0,0.0,0.0,1.0,0,0,0.0,0.0,0,0,124.0,0.0,66.0,4797.948717948719,3983.076923076924,4558.974358974359,4430.769230769231,4274.358974358975,4569.743589743591,4489.743589743591,4459.48717948718,4398.461538461539,4710.256410256411,4328.205128205129,4282.564102564103,4183.076923076924,5040.512820512821
930.3542,0.6561954,0.3123737,0.33333334,0.5522388,0,0.0,0.0,0.0,0.0,1.0,0,0,0.0,0.0,0,0,124.0,0.0,66.0,4797.948717948719,3983.076923076924,4558.974358974359,4430.769230769231,4274.358974358975,4569.743589743591,4489.743589743591,4459.48717948718,4398.461538461539,4710.256410256411,4328.205128205129,4282.564102564103,4183.076923076924,5040.512820512821
930.9485,0.6894719,0.3045674,0.33333334,0.5522388,0,0.0,0.0,0.0,0.0,0.77144253,0,0,0.0,0.0,0,0,71.0,0.0,464.0,4765.641025641026,3960.0000000000005,4563.589743589744,4442.564102564103,4263.076923076924,4566.153846153847,4490.769230769231,4500.512820512821,4430.256410256411,4755.8974358974365,4342.051282051282,4311.794871794872,4248.205128205129,5194.358974358975
931.19867,0.6894719,0.3045674,0.33333334,0.5522388,0,0.0,0.0,0.0,0.0,0.28739247,0,0,0.0,0.0,0,0,103.0,0.0,456.0,4721.025641025642,3926.666666666667,4536.923076923077,4446.666666666667,4256.410256410257,4554.871794871796,4471.794871794872,4476.923076923077,4413.846153846154,4731.282051282052,4336.410256410257,4266.153846153847,4188.205128205129,5232.820512820514
931.4489,0.75455827,0.28192502,0.33333334,0.5522388,0,0.0,0.0,0.0,0.0,0.48331326,0,0,0.0,0.0,0,0,6.0,0.0,547.0,4744.615384615386,3946.666666666667,4555.8974358974365,4429.743589743591,4248.717948717949,4554.358974358975,4480.000000000001,4455.8974358974365,4415.384615384616,4746.666666666667,4343.589743589744,4299.48717948718,4249.74358974359,5309.743589743591
931.76166,0.75455827,0.28192502,0.33333334,0.5522388,0,0.0,0.0,0.0,0.0,0.5726077,0,0,0.0,0.0,0,0,46.0,0.0,0.0,4690.256410256411,3914.358974358975,4531.282051282052,4443.589743589744,4245.128205128206,4537.948717948719,4456.410256410257,4441.538461538462,4409.743589743591,4722.564102564103,4355.384615384616,4252.820512820514,4172.820512820514,5364.102564102564
931.94934,0.7524346,0.23786445,0.33333334,0.5522388,0,0.0,0.0,0.0,0.0,0.5242313,0,0,0.0,0.0,0,0,70.0,0.0,547.0,4667.6923076923085,3906.666666666667,4520.000000000001,4442.564102564103,4233.846153846154,4538.461538461539,4453.846153846154,4408.205128205129,4405.641025641026,4706.153846153847,4353.846153846154,4250.256410256411,4170.256410256411,5405.641025641026
932.1995,0.7524346,0.23786445,0.33333334,0.5522388,0,0.0,0.0,0.0,0.0,0.40076023,0,0,0.0,0.0,0,1,102.0,0.0,525.0,4736.923076923077,3942.0512820512827,4559.48717948718,4432.820512820514,4250.769230769231,4554.871794871796,4477.435897435898,4460.512820512821,4424.615384615385,4759.48717948718,4369.743589743591,4328.205128205129,4280.512820512821,5505.128205128206
932.481,0.87214243,0.25703248,0.33333334,0.5522388,0,0.0,0.0,0.0,0.0,0.21880801,0,0,0.0,0.0,0,0,9.0,0.0,481.0,4728.717948717949,3957.9487179487182,4552.307692307693,4442.051282051282,4247.6923076923085,4546.666666666667,4463.589743589744,4430.256410256411,4415.384615384616,4733.333333333334,4357.948717948719,4301.025641025642,4209.74358974359,5432.820512820514
932.5749,0.87214243,0.25703248,0.33333334,0.5522388,0,0.0,0.0,0.0,0.0,1.0,0,0,0.0,0.0,0,0,21.0,0.0,0.0,4735.384615384616,3951.2820512820517,4554.871794871796,4430.256410256411,4250.256410256411,4550.769230769231,4464.615384615385,4413.333333333334,4406.666666666667,4716.410256410257,4356.923076923077,4307.6923076923085,4213.846153846154,5329.743589743591
932.8564,0.797506,0.28952923,0.33333334,0.5522388,0,0.0,0.0,0.0,0.0,1.0,0,0,0.0,0.0,0,0,57.0,0.0,0.0,4766.153846153847,3989.7435897435903,4557.948717948719,4447.6923076923085,4280.000000000001,4573.846153846154,4489.2307692307695,4423.589743589744,4404.102564102564,4728.717948717949,4355.384615384616,4290.256410256411,4161.025641025642,5064.102564102564
932.8564,0.797506,0.28952923,0.33333334,0.5522388,0,0.0,0.0,0.0,0.0,1.0,0,0,0.0,0.0,0,0,57.0,0.0,0.0,4766.153846153847,3989.7435897435903,4557.948717948719,4447.6923076923085,4280.000000000001,4573.846153846154,4489.2307692307695,4423.589743589744,4404.102564102564,4728.717948717949,4355.384615384616,4290.256410256411,4161.025641025642,5064.102564102564
933.4506,0.7039628,0.34067845,0.33333334,0.5522388,0,0.0,0.0,0.0,0.0,0.71209705,0,0,0.0,0.0,0,0,4.0,0.0,556.0,4708.717948717949,3925.6410256410263,4509.2307692307695,4444.102564102564,4249.74358974359,4543.589743589744,4457.948717948719,4435.8974358974365,4410.256410256411,4711.794871794872,4354.871794871796,4247.6923076923085,4139.48717948718,4722.051282051282
933.57574,0.7039628,0.34067845,0.33333334,0.5522388,0,0.0,0.0,0.0,0.0,1.0,0,0,0.0,0.0,0,0,20.0,0.0,0.0,4741.025641025642,3955.8974358974365,4536.410256410257,4443.076923076924,4259.48717948718,4554.871794871796,4474.358974358975,4444.102564102564,4405.128205128206,4746.666666666667,4361.025641025642,4295.8974358974365,4209.2307692307695,4686.666666666667
933.85724,0.7327397,0.36290234,0.33333334,0.5522388,0,0.0,0.0,0.0,0.0,1.0,0,0,0.0,0.0,0,0,56.0,0.0,0.0,4713.333333333334,3955.8974358974365,4522.051282051282,4458.974358974359,4262.564102564103,4553.333333333334,4474.871794871796,4432.820512820514,4399.48717948718,4716.923076923077,4355.384615384616,4262.564102564103,4134.358974358975,4566.666666666667
934.2013,0.7327397,0.36290234,0.33333334,0.5522388,0,0.0,0.0,0.0,0.0,0.28541097,0,0,0.0,0.0,0,0,100.0,0.0,64.0,4685.641025641026,3925.1282051282055,4519.48717948718,4429.743589743591,4234.358974358975,4525.128205128206,4461.025641025642,4409.743589743591,4383.589743589744,4688.717948717949,4347.179487179487,4266.153846153847,4141.025641025642,4525.641025641026
934.4515,0.7773886,0.35727403,0.33333334,0.5522388,0,0.0,0.0,0.0,0.0,1.0,0,0,0.0,0.0,0,0,3.0,0.0,495.0,4686.666666666667,3925.1282051282055,4528.717948717949,4427.6923076923085,4233.846153846154,4526.666666666667,4445.641025641026,4424.102564102564,4397.435897435898,4717.435897435898,4357.435897435898,4284.102564102564,4172.820512820514,4456.923076923077
934.7017,0.7773886,0.35727403,0.33333334,0.5522388,0,0.0,0.0,0.0,0.0,0.8545341,0,0,0.0,0.0,0,0,35.0,0.0,0.0,4629.743589743591,3909.2307692307695,4496.410256410257,4418.461538461539,4217.948717948719,4516.923076923077,4428.205128205129,4399.48717948718,4385.128205128206,4672.307692307693,4342.564102564103,4233.333333333334,4094.358974358975,4420.000000000001
934.9519,0.89410186,0.3295644,0.33333334,0.5522388,0,0.0,0.0,0.0,0.0,0.38788328,0,0,0.0,0.0,0,0,67.0,0.0,495.0,4624.615384615385,3910.2564102564106,4491.282051282052,4414.358974358975,4218.461538461539,4507.179487179488,4417.948717948719,4388.717948717949,4372.820512820514,4664.615384615386,4335.8974358974365,4231.282051282052,4107.6923076923085,4361.025641025642
935.20215,0.89410186,0.3295644,0.33333334,0.5522388,0,0.0,0.0,0.0,0.0,0.15199873,0,0,0.0,0.0,0,0,99.0,0.0,470.0,4670.769230769231,3898.461538461539,4525.128205128206,4410.256410256411,4219.48717948718,4508.717948717949,4445.128205128206,4421.538461538462,4387.6923076923085,4735.384615384616,4352.820512820514,4295.384615384616,4233.846153846154,4403.076923076924
935.45233,0.99680954,0.3103282,0.33333334,0.5522388,0,0.0,0.0,0.0,0.0,0.7135011,0,0,0.0,0.0,0,0,2.0,0.0,454.0,4603.076923076924,3888.205128205129,4478.974358974359,4427.179487179487,4228.717948717949,4518.974358974359,4413.333333333334,4383.589743589744,4368.717948717949,4678.974358974359,4328.205128205129,4216.410256410257,4102.564102564103,4264.615384615385
935.76514,0.99680954,0.3103282,0.33333334,0.5522388,1,0.0,0.0,0.0,0.0,0.0,0,0,0.0,0.0,0,0,42.0,0.0,0.0,4641.538461538462,3907.692307692308,4504.615384615385,4413.846153846154,4214.871794871796,4520.512820512821,4437.948717948719,4411.794871794872,4384.615384615385,4715.384615384616,4335.8974358974365,4260.000000000001,4186.153846153847,4292.820512820514
935.9215,1.0,0.33275938,0.33333334,0.5522388,0,0.0,0.0,0.0,0.0,0.0,0,0,0.0,0.0,0,0,62.0,0.0,0.0,4645.128205128206,3903.076923076924,4492.820512820514,4413.846153846154,4214.358974358975,4522.051282051282,4426.666666666667,4395.8974358974365,4379.48717948718,4706.153846153847,4329.2307692307695,4248.717948717949,4184.615384615385,4262.051282051282
935.9215,1.0,0.33275938,0.33333334,0.5522388,0,0.0,0.0,0.0,0.0,0.0,0,0,0.0,0.0,0,0,62.0,0.0,0.0,4645.128205128206,3903.076923076924,4492.820512820514,4413.846153846154,4214.358974358975,4522.051282051282,4426.666666666667,4395.8974358974365,4379.48717948718,4706.153846153847,4329.2307692307695,4248.717948717949,4184.615384615385,4262.051282051282
936.4532,0.9552951,0.3498474,0.33333334,0.5522388,0,0.0,0.0,0.0,0.0,1.0,0,0,0.0,0.0,0,0,1.0,0.0,442.0,4647.179487179488,3927.1794871794878,4511.282051282052,4427.6923076923085,4230.256410256411,4535.384615384616,4442.051282051282,4416.923076923077,4392.307692307693,4718.461538461539,4328.717948717949,4239.48717948718,4153.846153846154,4094.8717948717954
936.7034,0.9552951,0.3498474,0.33333334,0.5522388,0,0.0,0.0,0.0,0.0,0.5894027,0,0,0.0,0.0,0,0,33.0,0.0,0.0,4649.743589743591,3912.820512820513,4551.794871794872,4418.974358974359,4222.564102564103,4537.435897435898,4445.128205128206,4428.717948717949,4398.974358974359,4749.2307692307695,4328.717948717949,4263.589743589744,4221.538461538462,4060.0000000000005
936.9536,0.984097,0.36451635,0.33333334,0.5522388,0,0.0,0.0,0.0,0.0,0.28569213,0,0,0.0,0.0,0,0,65.0,0.0,442.0,4591.282051282052,3934.358974358975,4559.48717948718,4429.743589743591,4226.666666666667,4532.307692307693,4415.8974358974365,4370.769230769231,4362.051282051282,4657.435897435898,4311.794871794872,4195.8974358974365,4089.23076923077,4030.7692307692314
937.20386,0.984097,0.36451635,0.33333334,0.5522388,0,0.0,0.0,0.0,0.0,0.40682083,0,0,0.0,0.0,0,0,97.0,0.0,497.0,4624.615384615385,3909.2307692307695,4614.358974358975,4426.666666666667,4233.333333333334,4536.410256410257,4418.974358974359,4392.820512820514,4383.589743589744,4697.435897435898,4319.48717948718,4216.410256410257,4125.128205128206,4114.358974358975
937.45404,0.957646,0.35353714,0.33333334,0.5522388,0,0.0,0.0,0.0,0.0,1.0,0,0,0.0,0.0,0,0,0.0,0.0,479.0,4625.128205128206,3932.307692307693,4629.2307692307695,4425.128205128206,4232.307692307693,4539.48717948718,4423.589743589744,4386.666666666667,4370.769230769231,4671.282051282052,4314.871794871796,4218.461538461539,4108.205128205129,4168.717948717949
937.7043,0.957646,0.35353714,0.33333334,0.5522388,0,0.0,0.0,0.0,0.0,0.48093578,0,0,0.0,0.0,0,0,32.0,0.0,0.0,4653.333333333334,3907.1794871794878,4628.717948717949,4422.564102564103,4237.435897435898,4547.179487179488,4430.256410256411,4390.769230769231,4368.717948717949,4687.6923076923085,4317.435897435898,4228.717948717949,4131.794871794872,4153.333333333334
937.95447,0.92668664,0.32849306,0.33333334,0.5522388,0,0.0,0.0,0.0,0.0,0.22613344,0,0,0.0,0.0,1,0,64.0,0.0,479.0,4700.000000000001,3922.0512820512827,4619.48717948718,4414.358974358975,4247.6923076923085,4553.333333333334,4441.025641025642,4401.025641025642,4375.384615384616,4707.179487179488,4323.589743589744,4249.74358974359,4156.923076923077,4165.128205128206
938.23596,0.92668664,0.32849306,0.33333334,0.5522388,0,0.0,0.0,0.0,0.0,0.25739554,0,0,0.0,0.0,0,0,100.0,0.0,64.0,4701.538461538462,3907.1794871794878,4587.6923076923085,4415.8974358974365,4244.102564102564,4540.512820512821,4447.179487179487,4426.153846153847,4396.923076923077,4740.000000000001,4326.666666666667,4263.589743589744,4194.871794871796,4361.025641025642
938.3611,0.8386963,0.3247669,0.33333334,0.5522388,0,0.0,0.0,0.0,0.0,1.0,0,0,0.0,0.0,0,0,116.0,0.0,64.0,4709.743589743591,3909.7435897435903,4584.615384615385,4418.974358974359,4249.74358974359,4551.282051282052,4454.871794871796,4420.000000000001,4397.435897435898,4748.205128205129,4332.307692307693,4278.461538461539,4192.307692307693,4434.358974358975
938.3611,0.8386963,0.3247669,0.33333334,0.5522388,0,0.0,0.0,0.0,0.0,1.0,0,0,0.0,0.0,0,0,116.0,0.0,64.0,4709.743589743591,3909.7435897435903,4584.615384615385,4418.974358974359,4249.74358974359,4551.282051282052,4454.871794871796,4420.000000000001,4397.435897435898,4748.205128205129,4332.307692307693,4278.461538461539,4192.307692307693,4434.358974358975
938.8615,0.7989536,0.31337702,0.33333334,0.5522388,0,0.0,0.0,0.0,0.0,1.0,0,0,0.0,0.0,0,0,51.0,0.0,0.0,4658.461538461539,3895.8974358974365,4522.564102564103,4440.000000000001,4253.846153846154,4555.8974358974365,4455.8974358974365,4418.974358974359,4398.461538461539,4737.435897435898,4331.794871794872,4249.2307692307695,4151.282051282052,4772.307692307693
939.20557,0.7989536,0.31337702,0.33333334,0.5522388,0,0.0,0.0,0.0,0.0,0.48675025,0,0,0.0,0.0,0,0,95.0,0.0,467.0,4719.48717948718,3976.9230769230776,4553.846153846154,4455.384615384616,4283.076923076924,4586.153846153847,4489.2307692307695,4454.358974358975,4408.205128205129,4774.358974358975,4343.589743589744,4344.102564102564,4234.358974358975,4825.641025641026
939.4558,0.90057826,0.3136398,0.33333334,0.5522388,0,0.0,0.0,0.0,0.0,0.21974896,0,0,0.0,0.0,0,0,127.0,0.0,467.0,4732.307692307693,3941.538461538462,4548.717948717949,4449.743589743591,4278.974358974359,4576.923076923077,4505.128205128206,4487.6923076923085,4441.538461538462,4835.8974358974365,4356.923076923077,4368.717948717949,4327.179487179487,4848.205128205129
939.706,0.90057826,0.3136398,0.33333334,0.5522388,0,0.0,0.0,0.0,0.0,0.8427755,0,0,0.0,0.0,0,0,30.0,0.0,0.0,4689.743589743591,3943.076923076924,4517.948717948719,4457.948717948719,4277.948717948719,4571.794871794872,4472.307692307693,4440.512820512821,4410.769230769231,4755.8974358974365,4342.564102564103,4296.410256410257,4189.2307692307695,4687.179487179488
939.86237,1.0,0.29792672,0.33333334,0.5522388,0,0.0,0.0,0.0,0.0,1.0,0,0,0.0,0.0,0,0,50.0,0.0,0.0,4683.076923076924,3942.564102564103,4508.717948717949,4450.769230769231,4275.8974358974365,4571.282051282052,4474.871794871796,4430.769230769231,4407.6923076923085,4750.256410256411,4337.435897435898,4299.48717948718,4190.256410256411,4583.076923076924
939.86237,1.0,0.29792672,0.33333334,0.5522388,0,0.0,0.0,0.0,0.0,1.0,0,0,0.0,0.0,0,0,50.0,0.0,0.0,4683.076923076924,3942.564102564103,4508.717948717949,4450.769230769231,4275.8974358974365,4571.282051282052,4474.871794871796,4430.769230769231,4407.6923076923085,4750.256410256411,4337.435897435898,4299.48717948718,4190.256410256411,4583.076923076924
940.45667,0.92006207,0.28368208,0.33333334,0.5522388,1,0.0,0.0,0.0,0.0,0.18861857,0,0,0.0,0.0,0,0,126.0,0.0,525.0,4689.2307692307695,3925.6410256410263,4507.6923076923085,4441.538461538462,4262.564102564103,4554.871794871796,4487.179487179488,4444.102564102564,4426.666666666667,4766.666666666667,4343.076923076924,4307.179487179487,4224.102564102564,4458.461538461539
940.70685,0.92006207,0.28368208,0.33333334,0.5522388,0,0.0,0.0,0.0,0.0,0.25975147,0,0,0.0,0.0,0,0,29.0,0.0,0.0,4671.282051282052,3907.1794871794878,4490.256410256411,4440.512820512821,4262.051282051282,4556.410256410257,4482.564102564103,4450.256410256411,4421.025641025642,4731.794871794872,4333.846153846154,4278.974358974359,4182.564102564103,4362.051282051282
940.9571,0.83734006,0.2708619,0.33333334,0.5522388,0,0.0,0.0,0.0,0.0,1.0,0,0,0.0,0.0,0,0,61.0,0.0,0.0,4612.820512820514,3905.6410256410263,4467.6923076923085,4454.358974358975,4251.282051282052,4555.384615384616,4461.025641025642,4421.025641025642,4408.205128205129,4716.410256410257,4324.102564102564,4231.794871794872,4105.128205128206,4266.666666666667
941.2073,0.83734006,0.2708619,0.33333334,0.5522388,0,0.0,0.0,0.0,0.0,0.31263918,0,0,0.0,0.0,0,0,93.0,0.0,497.0,4646.666666666667,3912.307692307693,4493.846153846154,4445.128205128206,4261.538461538462,4557.435897435898,4483.076923076924,4442.051282051282,4426.666666666667,4765.641025641026,4340.000000000001,4282.564102564103,4201.025641025642,4294.871794871796
941.4575,0.85132724,0.25932372,0.33333334,0.5522388,0,0.0,0.0,0.0,0.0,0.19294758,0,0,0.0,0.0,0,0,125.0,0.0,497.0,4622.051282051282,3891.7948717948725,4485.128205128206,4431.282051282052,4244.102564102564,4536.923076923077,4470.769230769231,4428.205128205129,4410.769230769231,4745.641025641026,4336.410256410257,4262.564102564103,4187.6923076923085,4283.076923076924
941.7077,0.85132724,0.25932372,0.33333334,0.5522388,0,0.0,0.0,0.0,0.0,0.0,0,0,0.0,0.0,0,0,28.0,0.0,0.0,4646.666666666667,3952.820512820513,4498.461538461539,4453.333333333334,4269.74358974359,4569.2307692307695,4473.333333333334,4428.717948717949,4411.282051282052,4723.076923076924,4335.8974358974365,4263.589743589744,4137.435897435898,4261.538461538462
941.95795,0.78194815,0.24893937,0.33333334,0.5522388,0,0.0,0.0,0.0,0.0,0.2763689,0,0,0.0,0.0,0,0,60.0,0.0,0.0,4625.641025641026,3927.692307692308,4480.000000000001,4437.435897435898,4245.128205128206,4541.538461538462,4448.717948717949,4407.6923076923085,4407.6923076923085,4699.48717948718,4326.153846153847,4246.153846153847,4138.974358974359,4294.871794871796
942.08307,0.78194815,0.24893937,0.33333334,0.5522388,0,0.0,0.0,0.0,0.0,1.0,0,0,0.0,0.0,0,0,76.0,0.0,64.0,4631.794871794872,3940.5128205128212,4491.794871794872,4447.179487179487,4249.2307692307695,4546.666666666667,4457.948717948719,4412.820512820514,4408.717948717949,4720.000000000001,4331.282051282052,4250.256410256411,4148.717948717949,4465.128205128206
942.36456,0.733053,0.23959345,0.33333334,0.5522388,0,0.0,0.0,0.0,0.0,1.0,0,0,0.0,0.0,0,1,112.0,0.0,64.0,4635.384615384616,3943.589743589744,4490.256410256411,4445.128205128206,4263.589743589744,4554.358974358975,4457.435897435898,4425.641025641026,4397.948717948719,4705.128205128206,4326.666666666667,4237.435897435898,4122.051282051282,4665.641025641026
942.64606,0.733053,0.23959345,0.33333334,0.5522388,0,0.0,0.0,0.0,0.0,1.0,0,0,0.0,0.0,0,0,19.0,0.0,0.0,4662.564102564103,3928.717948717949,4519.48717948718,4444.102564102564,4253.333333333334,4554.871794871796,4487.6923076923085,4462.051282051282,4433.846153846154,4761.538461538462,4356.410256410257,4312.307692307693,4253.333333333334,4898.461538461539
942.9588,0.74456304,0.25977355,0.33333334,0.5522388,0,0.0,0.0,0.0,0.0,0.52681845,0,0,0.0,0.0,0,0,59.0,0.0,0.0,4636.923076923077,3923.076923076924,4492.820512820514,4442.564102564103,4249.2307692307695,4544.615384615385,4470.256410256411,4493.846153846154,4423.589743589744,4729.743589743591,4349.2307692307695,4278.461538461539,4203.589743589744,4664.102564102564
943.209,0.74456304,0.25977355,0.33333334,0.5522388,0,0.0,0.0,0.0,0.0,0.52600586,0,0,0.0,0.0,0,0,91.0,0.0,465.0,4584.615384615385,3927.692307692308,4474.871794871796,4440.512820512821,4248.205128205129,4551.794871794872,4457.435897435898,4554.871794871796,4430.769230769231,4665.128205128206,4346.153846153847,4231.794871794872,4138.974358974359,4892.307692307693
943.3654,0.67442006,0.2459289,0.33333334,0.5522388,0,0.0,0.0,0.0,0.0,1.0,0,0,0.0,0.0,0,0,111.0,0.0,465.0,4612.820512820514,3924.615384615385,4489.743589743591,4438.461538461539,4253.333333333334,4556.410256410257,4456.923076923077,4574.358974358975,4438.461538461539,4710.256410256411,4358.461538461539,4251.794871794872,4199.48717948718,5076.410256410257
943.3654,0.67442006,0.2459289,0.33333334,0.5522388,0,0.0,0.0,0.0,0.0,1.0,0,0,0.0,0.0,0,0,111.0,0.0,465.0,4612.820512820514,3924.615384615385,4489.743589743591,4438.461538461539,4253.333333333334,4556.410256410257,4456.923076923077,4574.358974358975,4438.461538461539,4710.256410256411,4358.461538461539,4251.794871794872,4199.48717948718,5076.410256410257
943.95966,0.8034896,0.23259814,0.33333334,0.5522388,0,0.0,0.0,0.0,0.0,0.1577063,0,0,0.0,0.0,0,0,58.0,0.0,0.0,4641.025641025642,3928.205128205129,4508.205128205129,4425.128205128206,4261.025641025642,4556.410256410257,4463.076923076924,4617.435897435898,4475.8974358974365,4747.179487179488,4370.769230769231,4294.358974358975,4241.025641025642,5240.512820512821
944.2099,0.8034896,0.23259814,0.33333334,0.5522388,0,0.0,0.0,0.0,0.0,1.0,0,0,0.0,0.0,0,0,90.0,0.0,525.0,4618.974358974359,3911.7948717948725,4500.000000000001,4428.717948717949,4264.102564102564,4557.948717948719,4462.051282051282,4627.179487179488,4460.512820512821,4736.923076923077,4354.871794871796,4264.615384615385,4185.641025641026,4966.153846153847
944.3663,0.83369344,0.20522691,0.33333334,0.5522388,0,0.0,0.0,0.0,0.0,1.0,0,0,0.0,0.0,0,0,110.0,0.0,525.0,4630.256410256411,3929.2307692307695,4506.666666666667,4430.769230769231,4260.512820512821,4557.948717948719,4472.820512820514,4615.384615384616,4457.948717948719,4731.282051282052,4348.205128205129,4278.461538461539,4196.923076923077,4880.512820512821
944.7103,0.83369344,0.20522691,0.33333334,0.5522388,0,0.0,0.0,0.0,0.0,0.29719752,0,0,0.0,0.0,0,0,25.0,0.0,0.0,4634.871794871796,3923.589743589744,4505.641025641026,4428.205128205129,4262.051282051282,4554.871794871796,4457.435897435898,4535.8974358974365,4443.589743589744,4717.435897435898,4343.076923076924,4255.384615384616,4194.871794871796,5035.8974358974365
944.9605,0.7784697,0.17084031,0.33333334,0.5522388,0,0.0,0.0,0.0,0.0,0.79836386,0,0,0.0,0.0,0,1,57.0,0.0,0.0,4670.256410256411,3946.1538461538466,4525.128205128206,4433.846153846154,4274.358974358975,4569.743589743591,4462.564102564103,4515.384615384616,4441.538461538462,4738.461538461539,4355.8974358974365,4280.000000000001,4210.769230769231,5246.153846153847
945.21075,0.7784697,0.17084031,0.33333334,0.5522388,0,0.0,0.0,0.0,0.0,0.74379134,0,0,0.0,0.0,0,0,89.0,0.0,497.0,4650.256410256411,3927.1794871794878,4514.358974358975,4436.410256410257,4260.000000000001,4551.282051282052,4460.000000000001,4474.871794871796,4430.256410256411,4701.025641025642,4351.282051282052,4264.102564102564,4182.564102564103,5257.948717948719
945.46094,0.79948103,0.15712243,0.33333334,0.5522388,0,0.0,0.0,0.0,0.0,0.8009871,0,0,0.0,0.0,0,0,121.0,0.0,497.0,4650.256410256411,3943.076923076924,4516.410256410257,4431.794871794872,4262.051282051282,4555.8974358974365,4460.512820512821,4449.743589743591,4426.153846153847,4707.6923076923085,4348.205128205129,4268.717948717949,4187.179487179487,5117.948717948719
945.58606,0.79948103,0.15712243,0.33333334,0.5522388,0,0.0,0.0,0.0,0.0,1.0,0,0,0.0,0.0,0,0,8.0,0.0,377.0,4661.538461538462,3944.1025641025644,4518.974358974359,4430.256410256411,4256.410256410257,4554.871794871796,4457.435897435898,4460.512820512821,4428.717948717949,4735.8974358974365,4347.6923076923085,4275.8974358974365,4189.2307692307695,5076.410256410257
945.96136,0.7470914,0.1605916,0.33333334,0.5522388,0,0.0,0.0,0.0,0.0,0.110037625,0,0,0.0,0.0,0,0,56.0,0.0,0.0,4587.6923076923085,3877.435897435898,4473.333333333334,4427.6923076923085,4246.153846153847,4542.051282051282,4444.102564102564,4472.820512820514,4400.000000000001,4687.179487179488,4321.538461538462,4199.48717948718,4107.179487179487,5013.333333333334
946.2116,0.7470914,0.1605916,0.33333334,0.5522388,0,0.0,0.0,0.0,0.0,0.19978562,0,0,0.0,0.0,0,0,88.0,0.0,64.0,4713.846153846154,4002.0512820512827,4528.717948717949,4417.435897435898,4246.153846153847,4541.025641025642,4442.564102564103,4447.179487179487,4412.820512820514,4717.435897435898,4333.846153846154,4293.846153846154,4220.000000000001,5120.000000000001
946.4618,0.7334114,0.23638888,0.33333334,0.5522388,0,0.0,0.0,0.0,0.0,0.3562861,0,0,0.0,0.0,0,0,120.0,0.0,64.0,4673.846153846154,3926.1538461538466,4507.6923076923085,4417.948717948719,4235.8974358974365,4537.948717948719,4446.153846153847,4419.48717948718,4409.2307692307695,4697.948717948719,4329.2307692307695,4250.256410256411,4166.153846153847,4922.564102564103
946.71204,0.7334114,0.23638888,0.33333334,0.5522388,0,0.0,0.0,0.0,0.0,0.62977445,0,0,0.0,0.0,1,0,23.0,0.0,0.0,4713.846153846154,3969.7435897435903,4511.794871794872,4420.000000000001,4250.769230769231,4553.846153846154,4442.564102564103,4383.076923076924,4397.435897435898,4686.666666666667,4322.564102564103,4254.358974358975,4134.871794871796,4734.358974358975
947.0248,0.65557426,0.3379605,0.33333334,0.5522388,0,0.0,0.0,0.0,0.0,0.6076182,0,0,0.0,0.0,0,0,63.0,0.0,0.0,4774.358974358975,4024.1025641025644,4493.333333333334,4425.641025641026,4258.974358974359,4555.8974358974365,4443.589743589744,4418.461538461539,4375.384615384616,4658.974358974359,4309.743589743591,4253.846153846154,4142.564102564103,4799.48717948718
947.21246,0.65557426,0.3379605,0.33333334,0.5522388,1,0.0,0.0,0.0,0.0,0.37333444,0,0,0.0,0.0,0,0,87.0,0.0,455.0,4719.48717948718,3924.1025641025644,4469.2307692307695,4429.2307692307695,4244.102564102564,4544.615384615385,4450.769230769231,4460.000000000001,4398.974358974359,4694.358974358975,4306.153846153847,4215.8974358974365,4117.435897435898,4780.512820512821
947.46265,0.7119399,0.86393845,0.33333334,0.5522388,0,0.0,0.0,0.0,0.0,0.11501,0,0,0.0,0.0,0,0,119.0,0.0,455.0,4677.435897435898,3894.358974358975,4466.666666666667,4514.871794871796,4229.74358974359,4545.641025641026,4425.128205128206,4471.282051282052,4386.666666666667,4685.128205128206,4293.333333333334,4220.000000000001,4138.461538461539,4741.538461538462
947.7129,0.7119399,0.86393845,0.33333334,0.5522388,1,0.0,0.0,0.0,0.0,0.14561012,0,0,0.0,0.0,0,0,22.0,0.0,0.0,4705.641025641026,3970.2564102564106,4517.948717948719,4461.025641025642,4234.358974358975,4536.923076923077,4462.051282051282,4543.076923076924,4405.128205128206,4706.153846153847,4301.538461538462,4277.948717948719,4182.564102564103,4767.179487179488
947.9631,0.6978447,1.0,0.33333334,0.5522388,0,0.0,0.0,0.0,0.0,0.36009684,0,0,0.0,0.0,0,0,54.0,0.0,0.0,4657.435897435898,3892.820512820513,4490.256410256411,4487.6923076923085,4246.153846153847,4556.923076923077,4466.666666666667,4505.128205128206,4407.6923076923085,4745.128205128206,4302.051282051282,4247.6923076923085,4172.307692307693,4554.871794871796
948.2133,0.6978447,1.0,0.33333334,0.5522388,0,0.0,0.0,0.0,0.0,1.0,0,0,0.0,0.0,0,0,86.0,0.0,525.0,4574.358974358975,3828.717948717949,4429.2307692307695,4540.512820512821,4198.974358974359,4521.025641025642,4413.846153846154,4463.076923076924,4380.000000000001,4681.538461538462,4275.384615384616,4171.282051282052,4092.820512820513,4263.076923076924
948.3697,0.81156164,1.0,0.33333334,0.5522388,0,0.0,0.0,0.0,0.0,1.0,0,0,0.0,0.0,0,0,106.0,0.0,525.0,4532.307692307693,3777.9487179487182,4426.666666666667,4509.2307692307695,4216.410256410257,4520.000000000001,4420.000000000001,4463.076923076924,4396.923076923077,4686.666666666667,4272.307692307693,4138.461538461539,4066.666666666667,4123.589743589744
948.71375,0.81156164,1.0,0.33333334,0.5522388,0,0.0,0.0,0.0,0.0,0.23566063,0,0,0.0,0.0,1,0,21.0,0.0,0.0,4681.025641025642,3940.5128205128212,4512.307692307693,4441.538461538462,4251.794871794872,4553.846153846154,4463.589743589744,4456.923076923077,4417.948717948719,4727.6923076923085,4294.871794871796,4277.948717948719,4188.717948717949,4213.846153846154
949.0265,0.92417425,1.0,0.33333334,0.5522388,0,0.0,0.0,0.0,0.0,0.17230569,0,0,0.0,0.0,0,0,61.0,0.0,0.0,4700.512820512821,3940.0000000000005,4521.025641025642,4425.641025641026,4251.282051282052,4557.435897435898,4473.846153846154,4436.410256410257,4405.128205128206,4746.666666666667,4303.076923076924,4305.641025641026,4236.923076923077,4225.128205128206
949.2142,0.92417425,1.0,0.33333334,0.5522388,0,0.0,0.0,0.0,0.0,0.065190904,0,0,0.0,0.0,0,0,85.0,0.0,497.0,4676.410256410257,3925.1282051282055,4510.256410256411,4433.333333333334,4249.74358974359,4555.8974358974365,4460.000000000001,4427.179487179487,4413.846153846154,4747.179487179488,4303.589743589744,4291.794871794872,4218.461538461539,4161.538461538462
949.5269,0.9407546,1.0,0.33333334,0.5522388,0,0.0,0.0,0.0,0.0,0.26802942,1,0,0.0,0.0,0,0,125.0,0.0,497.0,4660.000000000001,3960.5128205128212,4493.846153846154,4435.384615384616,4265.641025641026,4555.384615384616,4448.205128205129,4394.871794871796,4389.2307692307695,4674.358974358975,4291.282051282052,4238.974358974359,4092.307692307693,4076.410256410257
949.7146,0.9407546,1.0,0.33333334,0.5522388,0,0.0,0.0,0.0,0.0,0.15908241,1,0,0.0,0.0,0,0,20.0,0.0,0.0,4675.8974358974365,3959.48717948718,4507.6923076923085,4431.282051282052,4268.205128205129,4566.153846153847,4452.820512820514,4367.179487179487,4384.615384615385,4679.48717948718,4291.794871794872,4265.128205128206,4124.615384615385,4069.7435897435903
949.96484,0.97240233,1.0,0.33333334,0.5522388,0,0.0,0.0,0.0,0.0,0.038745847,1,0,0.0,0.0,0,0,52.0,0.0,0.0,4681.025641025642,3946.666666666667,4515.8974358974365,4430.769230769231,4261.538461538462,4556.410256410257,4463.076923076924,4387.6923076923085,4404.615384615385,4728.205128205129,4304.615384615385,4291.282051282052,4196.410256410257,4119.48717948718
950.215,0.97240233,1.0,0.33333334,0.5522388,0,0.0,0.0,0.0,0.0,0.48245257,0,0,0.0,0.0,0,0,84.0,0.0,64.0,4691.794871794872,3913.333333333334,4522.051282051282,4428.205128205129,4249.2307692307695,4549.743589743591,4486.153846153847,4442.564102564103,4412.307692307693,4773.846153846154,4322.564102564103,4338.974358974359,4302.564102564103,4234.358974358975
950.4653,0.9867924,1.0,0.33333334,0.5522388,0,0.0,0.0,0.0,0.0,0.36638865,0,0,0.0,0.0,0,0,116.0,0.0,64.0,4667.179487179488,3908.205128205129,4505.128205128206,4425.128205128206,4247.179487179487,4541.025641025642,4470.256410256411,4421.025641025642,4403.076923076924,4714.358974358975,4317.948717948719,4297.435897435898,4203.076923076924,4255.384615384616
950.71545,0.9867924,1.0,0.33333334,0.5522388,0,0.0,0.0,0.0,0.0,0.09120725,0,0,0.0,0.0,0,0,19.0,0.0,0.0,4619.48717948718,3940.5128205128212,4488.717948717949,4430.769230769231,4249.74358974359,4548.717948717949,4457.948717948719,4380.000000000001,4394.871794871796,4664.102564102564,4306.153846153847,4245.128205128206,4102.564102564103,4192.307692307693
950.9657,0.8791269,1.0,0.33333334,0.5522388,0,0.0,0.0,0.0,0.0,0.5855467,0,0,0.0,0.0,0,0,51.0,0.0,0.0,4645.641025641026,3912.307692307693,4499.48717948718,4427.6923076923085,4246.666666666667,4551.794871794872,4472.307692307693,4413.846153846154,4426.666666666667,4742.051282051282,4331.794871794872,4296.410256410257,4248.717948717949,4388.205128205129
951.09076,0.8791269,1.0,0.33333334,0.5522388,0,0.0,0.0,0.0,0.0,1.0,0,0,0.0,0.0,0,0,67.0,0.0,496.0,4633.846153846154,3975.8974358974365,4488.717948717949,4429.2307692307695,4250.769230769231,4553.846153846154,4456.923076923077,4362.564102564103,4383.589743589744,4656.923076923077,4318.974358974359,4243.589743589744,4095.8974358974365,4472.307692307693
951.4661,0.76582676,1.0,0.33333334,0.5522388,0,0.0,0.0,0.0,0.0,0.70688605,0,0,0.0,0.0,0,1,115.0,0.0,474.0,4694.358974358975,3958.461538461539,4536.923076923077,4433.333333333334,4263.076923076924,4567.6923076923085,4491.794871794872,4431.794871794872,4434.871794871796,4770.256410256411,4360.000000000001,4350.769230769231,4294.358974358975,4796.923076923077
951.7163,0.76582676,1.0,0.33333334,0.5522388,0,0.0,0.0,0.0,0.0,0.9473556,0,0,0.0,0.0,0,1,18.0,0.0,0.0,4649.2307692307695,3924.1025641025644,4527.179487179488,4427.6923076923085,4248.717948717949,4553.333333333334,4492.820512820514,4432.820512820514,4435.8974358974365,4775.384615384616,4366.666666666667,4326.153846153847,4292.307692307693,4909.2307692307695
951.96655,0.7825338,1.0,0.33333334,0.5522388,0,0.0,0.0,0.0,0.0,0.67075706,0,0,0.0,0.0,0,0,50.0,0.0,0.0,4627.179487179488,3940.5128205128212,4518.974358974359,4429.743589743591,4247.179487179487,4537.948717948719,4466.666666666667,4410.256410256411,4429.2307692307695,4742.564102564103,4356.923076923077,4294.358974358975,4231.794871794872,4878.461538461539
952.21674,0.7825338,1.0,0.33333334,0.5522388,0,0.0,0.0,0.0,0.0,0.16714448,0,0,0.0,0.0,0,0,82.0,0.0,525.0,4604.102564102564,3927.1794871794878,4506.153846153847,4429.2307692307695,4246.153846153847,4540.512820512821,4473.333333333334,4404.102564102564,4420.512820512821,4737.435897435898,4351.794871794872,4269.2307692307695,4222.564102564103,4787.6923076923085
952.467,0.86991376,1.0,0.33333334,0.5522388,0,0.0,0.0,0.0,0.0,1.0,0,0,0.0,0.0,0,0,114.0,0.0,525.0,4612.307692307693,3975.8974358974365,4510.769230769231,4425.128205128206,4243.589743589744,4540.000000000001,4455.8974358974365,4380.512820512821,4403.589743589744,4690.769230769231,4360.512820512821,4275.384615384616,4190.256410256411,4633.846153846154
952.467,0.86991376,1.0,0.33333334,0.5522388,0,0.0,0.0,0.0,0.0,1.0,0,0,0.0,0.0,0,0,114.0,0.0,525.0,4612.307692307693,3975.8974358974365,4510.769230769231,4425.128205128206,4243.589743589744,4540.000000000001,4455.8974358974365,4380.512820512821,4403.589743589744,4690.769230769231,4360.512820512821,4275.384615384616,4190.256410256411,4633.846153846154
952.9674,0.78626597,1.0,0.33333334,0.5522388,0,0.0,0.0,0.0,0.0,0.4077154,0,0,0.0,0.0,0,0,49.0,0.0,0.0,4604.615384615385,3956.9230769230776,4507.6923076923085,4436.410256410257,4243.589743589744,4537.948717948719,4442.051282051282,4363.076923076924,4397.435897435898,4686.666666666667,4347.179487179487,4268.205128205129,4191.282051282052,4527.6923076923085
953.2176,0.78626597,1.0,0.33333334,0.5522388,0,0.0,0.0,0.0,0.0,0.1670619,0,0,0.0,0.0,0,0,81.0,0.0,497.0,4617.435897435898,3928.205128205129,4520.512820512821,4434.358974358975,4250.256410256411,4541.025641025642,4465.641025641026,4398.974358974359,4414.871794871796,4752.307692307693,4356.410256410257,4296.410256410257,4281.538461538462,4583.076923076924
953.46783,0.7477801,1.0,0.33333334,0.5522388,0,0.0,0.0,0.0,0.0,0.25541034,0,0,0.0,0.0,0,0,113.0,0.0,497.0,4584.102564102564,3914.8717948717954,4500.000000000001,4441.025641025642,4249.2307692307695,4550.256410256411,4459.48717948718,4385.641025641026,4408.205128205129,4708.717948717949,4353.846153846154,4263.076923076924,4217.948717948719,4616.410256410257
953.718,0.7477801,1.0,0.33333334,0.5522388,0,0.0,0.0,0.0,0.0,0.380556,0,0,0.0,0.0,0,0,16.0,0.0,0.0,4568.717948717949,3923.076923076924,4490.256410256411,4438.974358974359,4246.153846153847,4539.48717948718,4448.205128205129,4359.48717948718,4396.410256410257,4691.282051282052,4351.282051282052,4234.358974358975,4182.051282051282,4607.179487179488
953.96826,0.6481281,0.9778375,0.33333334,0.5522388,0,0.0,0.0,0.0,0.0,1.0,0,0,0.0,0.0,0,0,48.0,0.0,0.0,4602.051282051282,3946.666666666667,4500.512820512821,4448.717948717949,4260.000000000001,4554.871794871796,4468.205128205129,4387.179487179487,4415.384615384616,4709.743589743591,4369.743589743591,4261.025641025642,4201.538461538462,4490.769230769231
953.96826,0.6481281,0.9778375,0.33333334,0.5522388,0,0.0,0.0,0.0,0.0,1.0,0,0,0.0,0.0,0,0,48.0,0.0,0.0,4602.051282051282,3946.666666666667,4500.512820512821,4448.717948717949,4260.000000000001,4554.871794871796,4468.205128205129,4387.179487179487,4415.384615384616,4709.743589743591,4369.743589743591,4261.025641025642,4201.538461538462,4490.769230769231
954.4687,0.5555107,0.8956401,0.33333334,0.5522388,0,0.0,0.0,0.0,0.0,0.62160885,0,0,0.0,0.0,0,0,112.0,0.0,60.0,4652.307692307693,3948.205128205129,4525.641025641026,4444.102564102564,4249.74358974359,4541.538461538462,4442.051282051282,4463.076923076924,4404.102564102564,4740.512820512821,4374.871794871796,4298.974358974359,4269.2307692307695,4773.846153846154
954.71893,0.5555107,0.8956401,0.33333334,0.5522388,0,0.0,0.0,0.0,0.0,0.09865781,0,0,0.0,0.0,0,1,15.0,0.0,463.0,4593.333333333334,3921.0256410256416,4483.589743589744,4437.948717948719,4239.48717948718,4536.923076923077,4446.153846153847,4505.128205128206,4389.743589743591,4689.743589743591,4353.333333333334,4232.820512820514,4150.256410256411,4696.923076923077
954.9691,0.4990288,0.8229092,0.33333334,0.5522388,0,0.0,0.0,0.0,0.0,0.16960137,0,0,0.0,0.0,0,1,47.0,0.0,0.0,4602.564102564103,3930.2564102564106,4495.384615384616,4434.358974358975,4246.666666666667,4539.48717948718,4460.000000000001,4522.564102564103,4430.256410256411,4720.000000000001,4357.948717948719,4263.589743589744,4203.076923076924,4778.461538461539
955.21936,0.4990288,0.8229092,0.33333334,0.5522388,0,0.0,0.0,0.0,0.0,0.27056977,0,0,0.0,0.0,0,0,79.0,0.0,463.0,4618.974358974359,3926.666666666667,4505.641025641026,4423.076923076924,4246.153846153847,4541.538461538462,4462.564102564103,4521.025641025642,4428.717948717949,4716.923076923077,4360.000000000001,4261.025641025642,4188.717948717949,4828.205128205129
955.46954,0.5435175,0.8144639,0.33333334,0.5522388,0,0.0,0.0,0.0,0.0,0.26458403,0,0,0.0,0.0,0,0,111.0,0.0,463.0,4615.384615384616,3883.589743589744,4498.974358974359,4426.153846153847,4243.589743589744,4540.000000000001,4476.410256410257,4508.717948717949,4418.974358974359,4708.205128205129,4356.923076923077,4257.435897435898,4157.435897435898,4911.794871794872
955.7198,0.5435175,0.8144639,0.33333334,0.5522388,0,0.0,0.0,0.0,0.0,1.0,0,0,0.0,0.0,0,0,14.0,0.0,525.0,4587.6923076923085,3900.0000000000005,4486.666666666667,4418.461538461539,4241.025641025642,4540.000000000001,4442.051282051282,4444.102564102564,4396.410256410257,4701.538461538462,4347.6923076923085,4234.358974358975,4137.948717948719,5137.435897435898
955.87616,0.61287576,0.8012739,0.33333334,0.5522388,0,0.0,0.0,0.0,0.0,1.0,0,0,0.0,0.0,0,0,34.0,0.0,0.0,4565.641025641026,3878.9743589743593,4458.461538461539,4422.051282051282,4234.358974358975,4535.8974358974365,4425.641025641026,4416.410256410257,4388.717948717949,4682.564102564103,4343.589743589744,4212.307692307693,4116.923076923077,5257.435897435898
955.87616,0.61287576,0.8012739,0.33333334,0.5522388,0,0.0,0.0,0.0,0.0,1.0,0,0,0.0,0.0,0,0,34.0,0.0,0.0,4565.641025641026,3878.9743589743593,4458.461538461539,4422.051282051282,4234.358974358975,4535.8974358974365,4425.641025641026,4416.410256410257,4388.717948717949,4682.564102564103,4343.589743589744,4212.307692307693,4116.923076923077,5257.435897435898
956.4704,0.6186257,0.8325846,0.33333334,0.5522388,0,0.0,0.0,0.0,0.0,0.12202465,0,0,0.0,0.0,0,0,110.0,0.0,525.0,4615.384615384616,3929.2307692307695,4484.102564102564,4412.307692307693,4229.74358974359,4534.358974358975,4426.666666666667,4398.461538461539,4395.384615384616,4682.051282051282,4347.6923076923085,4235.384615384616,4122.051282051282,5348.717948717949
956.72064,0.6186257,0.8325846,0.33333334,0.5522388,0,0.0,0.0,0.0,0.0,0.24935006,0,0,0.0,0.0,0,0,13.0,0.0,497.0,4750.256410256411,4186.666666666667,4539.48717948718,4395.384615384616,4238.974358974359,4538.461538461539,4427.179487179487,4365.641025641026,4372.307692307693,4625.641025641026,4343.076923076924,4319.48717948718,4170.769230769231,5393.846153846154
956.9708,0.6410852,0.9467183,0.33333334,0.5522388,0,0.0,0.0,0.0,0.0,0.3048378,0,0,0.0,0.0,1,0,45.0,0.0,0.0,4601.025641025642,3906.666666666667,4477.948717948719,4419.48717948718,4231.794871794872,4531.794871794872,4451.794871794872,4413.846153846154,4396.923076923077,4698.974358974359,4347.6923076923085,4237.948717948719,4122.564102564103,5151.282051282052
957.22107,0.6410852,0.9467183,0.33333334,0.5522388,0,0.0,0.0,0.0,0.0,0.690642,0,0,0.0,0.0,0,0,77.0,0.0,497.0,4571.282051282052,3907.1794871794878,4471.282051282052,4430.256410256411,4232.307692307693,4532.307692307693,4442.051282051282,4376.923076923077,4395.384615384616,4670.256410256411,4337.948717948719,4216.410256410257,4077.9487179487187,5031.282051282052
957.47125,0.6343718,0.9156593,0.33333334,0.5522388,0,0.0,0.0,0.0,0.0,0.29882297,0,0,0.0,0.0,0,0,109.0,0.0,497.0,4608.205128205129,3913.333333333334,4503.076923076924,4431.282051282052,4237.948717948719,4539.48717948718,4473.333333333334,4428.717948717949,4412.820512820514,4737.435897435898,4359.48717948718,4276.923076923077,4177.948717948719,5101.538461538462
957.7215,0.6343718,0.9156593,0.33333334,0.5522388,0,0.0,0.0,0.0,0.0,0.46112195,0,0,0.0,0.0,0,0,12.0,0.0,59.0,4608.205128205129,3914.358974358975,4509.2307692307695,4429.743589743591,4249.74358974359,4551.282051282052,4477.948717948719,4414.358974358975,4414.358974358975,4755.384615384616,4366.153846153847,4291.282051282052,4204.615384615385,5167.179487179488
957.9717,0.66394436,0.94145,0.33333334,0.5522388,0,0.0,0.0,0.0,0.0,0.2399361,0,0,0.0,0.0,0,0,44.0,0.0,0.0,4586.153846153847,3891.2820512820517,4498.461538461539,4436.923076923077,4250.769230769231,4553.333333333334,4472.307692307693,4423.076923076924,4501.538461538462,4737.435897435898,4362.564102564103,4280.000000000001,4185.641025641026,5157.948717948719
958.2219,0.66394436,0.94145,0.33333334,0.5522388,0,0.0,0.0,0.0,0.0,0.0,0,0,0.0,0.0,0,0,76.0,0.0,59.0,4606.153846153847,3925.1282051282055,4507.179487179488,4444.102564102564,4261.025641025642,4555.8974358974365,4472.307692307693,4425.128205128206,4490.256410256411,4732.820512820514,4358.461538461539,4277.948717948719,4187.179487179487,5132.820512820514
958.4721,0.569889,0.9199,0.33333334,0.5522388,0,0.0,0.0,0.0,0.0,1.0,0,0,0.0,0.0,0,0,108.0,0.0,59.0,4573.333333333334,3880.512820512821,4489.2307692307695,4445.641025641026,4249.2307692307695,4542.051282051282,4455.384615384616,4393.846153846154,4471.282051282052,4720.000000000001,4355.8974358974365,4244.615384615385,4135.8974358974365,4954.358974358975
958.7849,0.569889,0.9199,0.33333334,0.5522388,1,0.0,0.0,0.0,0.0,0.52311236,0,0,0.0,0.0,0,0,19.0,0.0,0.0,4620.512820512821,3929.7435897435903,4505.128205128206,4425.128205128206,4231.282051282052,4537.948717948719,4442.564102564103,4393.846153846154,4456.410256410257,4725.128205128206,4358.461538461539,4280.512820512821,4196.923076923077,4978.974358974359
958.97253,0.49229786,0.8874959,0.33333334,0.5522388,0,0.0,0.0,0.0,0.0,0.2421973,0,0,0.0,0.0,0,0,43.0,0.0,0.0,4588.205128205129,3909.7435897435903,4493.333333333334,4427.179487179487,4234.358974358975,4536.923076923077,4444.615384615385,4409.2307692307695,4457.948717948719,4727.6923076923085,4358.974358974359,4270.256410256411,4180.000000000001,4907.179487179488
959.2228,0.49229786,0.8874959,0.33333334,0.5522388,0,0.0,0.0,0.0,0.0,0.25781772,0,0,0.0,0.0,0,0,75.0,0.0,452.0,4583.589743589744,3873.333333333334,4488.205128205129,4430.256410256411,4235.8974358974365,4540.000000000001,4461.025641025642,4437.435897435898,4459.48717948718,4730.256410256411,4357.435897435898,4260.000000000001,4173.333333333334,4892.307692307693
959.47296,0.4552869,0.8834271,0.33333334,0.5522388,0,0.0,0.0,0.0,0.0,0.29118922,0,0,0.0,0.0,0,0,107.0,0.0,452.0,4601.538461538462,3943.589743589744,4492.307692307693,4445.641025641026,4244.615384615385,4538.974358974359,4425.641025641026,4410.769230769231,4446.153846153847,4677.948717948719,4349.743589743591,4236.410256410257,4093.8461538461543,4841.538461538462
959.7232,0.4552869,0.8834271,0.33333334,0.5522388,1,0.0,0.0,0.0,0.0,0.19570555,0,0,0.0,0.0,0,0,10.0,0.0,525.0,4656.410256410257,3932.307692307693,4524.615384615385,4433.333333333334,4236.410256410257,4540.000000000001,4458.974358974359,4474.871794871796,4467.6923076923085,4732.307692307693,4362.564102564103,4309.743589743591,4229.2307692307695,4823.076923076924
959.97345,0.4521719,0.91387707,0.33333334,0.5522388,0,0.0,0.0,0.0,0.0,0.3914136,0,0,0.0,0.0,0,0,42.0,0.0,0.0,4616.923076923077,3876.410256410257,4491.282051282052,4424.102564102564,4230.769230769231,4536.410256410257,4455.384615384616,4477.435897435898,4462.564102564103,4726.153846153847,4356.923076923077,4246.666666666667,4183.589743589744,4641.025641025642
960.22363,0.4521719,0.91387707,0.33333334,0.5522388,1,0.0,0.0,0.0,0.0,0.5733382,0,0,0.0,0.0,0,0,74.0,0.0,525.0,4623.076923076924,3935.3846153846157,4495.384615384616,4423.076923076924,4229.74358974359,4531.794871794872,4443.076923076924,4445.641025641026,4443.589743589744,4695.8974358974365,4351.282051282052,4260.000000000001,4182.051282051282,4520.512820512821
960.4739,0.44950002,1.0,0.33333334,0.5522388,0,0.0,0.0,0.0,0.0,0.45876122,0,0,0.0,0.0,0,0,106.0,0.0,525.0,4571.794871794872,3859.48717948718,4476.923076923077,4431.282051282052,4228.205128205129,4528.205128205129,4445.641025641026,4461.025641025642,4450.256410256411,4716.410256410257,4348.717948717949,4228.205128205129,4155.8974358974365,4396.410256410257
960.72406,0.44950002,1.0,0.33333334,0.5522388,1,0.0,0.0,0.0,0.0,0.2958637,0,0,0.0,0.0,0,0,9.0,0.0,481.0,4566.153846153847,3861.538461538462,4491.794871794872,4443.589743589744,4233.846153846154,4532.820512820514,4461.025641025642,4489.2307692307695,4462.051282051282,4749.743589743591,4348.205128205129,4251.794871794872,4179.48717948718,4278.974358974359
960.9743,0.4106935,1.0,0.33333334,0.5522388,0,0.0,0.0,0.0,0.0,0.6441304,0,0,0.0,0.0,0,0,41.0,0.0,0.0,4546.153846153847,3847.1794871794878,4468.205128205129,4447.179487179487,4233.333333333334,4534.871794871796,4451.794871794872,4449.743589743591,4443.589743589744,4717.435897435898,4340.512820512821,4213.846153846154,4143.076923076924,4066.666666666667
