timestamp,excitement,frustration,meditation,engagementBoredom,blink,clench,laugh,smile,eyebrow,furrowBrow,lookLeft,lookRight,smirkLeft,smirkRight,winkLeft,winkRight,eeg0,eeg1,eeg2,eeg3,eeg4,eeg5,eeg6,eeg7,eeg8,eeg9,eeg10,eeg11,eeg12,eeg13,eeg14,eeg15,eeg16
685.8394,0.71919405,0.43039057,0.36652222,0.54333293,0,0.0,0.0,0.0,0.0,0.19217849,0,0,0.0,0.0,0,0,64.0,0.0,480.0,4604.615384615385,3880.0000000000005,4473.846153846154,4404.615384615385,4264.102564102564,4555.8974358974365,4466.666666666667,4447.6923076923085,4432.820512820514,4767.6923076923085,4296.923076923077,4282.051282051282,4154.358974358975,4612.307692307693
686.0896,0.77938664,0.42822507,0.36320335,0.5442235,0,0.0,0.0,0.0,0.0,0.4251453,0,0,0.0,0.0,0,0,96.0,0.0,184.0,4589.743589743591,3880.512820512821,4465.641025641026,4395.8974358974365,4260.000000000001,4550.256410256411,4454.358974358975,4416.410256410257,4412.307692307693,4722.564102564103,4277.948717948719,4247.6923076923085,4097.435897435898,4532.820512820514
686.33984,0.77938664,0.42822507,0.36320335,0.5442235,0,0.0,0.0,0.0,0.0,0.2032495,0,0,0.0,0.0,0,0,128.0,0.0,184.0,4655.8974358974365,3911.7948717948725,4508.205128205129,4414.871794871796,4265.641025641026,4567.179487179488,4476.923076923077,4452.307692307693,4432.820512820514,4773.846153846154,4313.846153846154,4325.641025641026,4230.769230769231,4562.051282051282
686.59,0.8802715,0.4262761,0.36021632,0.54502505,0,0.0,0.0,0.0,0.0,0.12143743,0,0,0.0,0.0,0,0,31.0,0.0,0.0,4627.6923076923085,3910.7692307692314,4501.025641025642,4429.743589743591,4275.384615384616,4575.384615384616,4487.179487179488,4452.307692307693,4430.256410256411,4783.076923076924,4303.076923076924,4310.256410256411,4205.128205128206,4489.743589743591
686.8403,0.8802715,0.4262761,0.36021632,0.54502505,0,0.0,0.0,0.0,0.0,0.293649,0,0,0.0,0.0,0,0,63.0,0.0,0.0,4644.615384615385,3939.48717948718,4507.6923076923085,4431.794871794872,4280.512820512821,4588.205128205129,4507.179487179488,4471.282051282052,4441.538461538462,4782.051282051282,4315.8974358974365,4326.666666666667,4209.74358974359,4472.820512820514
687.09045,0.8172089,0.42452204,0.35752803,0.54574645,0,0.0,0.0,0.0,0.0,0.17890233,0,0,0.0,0.0,0,0,95.0,0.0,466.0,4644.615384615385,3935.3846153846157,4506.153846153847,4433.846153846154,4263.076923076924,4568.205128205129,4475.384615384616,4460.512820512821,4432.820512820514,4745.128205128206,4309.743589743591,4312.820512820514,4183.589743589744,4445.128205128206
687.3407,0.8172089,0.42452204,0.35752803,0.54574645,0,0.0,0.0,0.0,0.0,0.0,0,0,0.0,0.0,0,0,127.0,0.0,466.0,4632.820512820514,3923.076923076924,4501.538461538462,4432.820512820514,4263.589743589744,4569.2307692307695,4472.820512820514,4466.153846153847,4427.6923076923085,4751.794871794872,4311.282051282052,4311.794871794872,4191.282051282052,4444.615384615385
687.5909,0.745925,0.4139004,0.35510856,0.54639566,0,0.0,0.0,0.0,0.0,0.0,0,0,0.0,0.0,0,0,20.0,0.0,0.0,4627.179487179488,3929.2307692307695,4492.820512820514,4436.410256410257,4261.538461538462,4567.6923076923085,4476.410256410257,4458.974358974359,4526.153846153847,4748.717948717949,4311.794871794872,4301.538461538462,4173.846153846154,4442.564102564103
687.6222,0.745925,0.4139004,0.35510856,0.54639566,0,0.0,0.0,0.0,0.0,0.0,0,0,0.0,0.0,0,0,34.0,0.0,0.0,4626.666666666667,3928.717948717949,4490.256410256411,4433.846153846154,4261.538461538462,4567.179487179488,4474.358974358975,4457.435897435898,4520.000000000001,4721.538461538462,4309.2307692307695,4293.333333333334,4172.820512820514,4454.358974358975
688.0913,0.8104648,0.4042948,0.35293105,0.54697996,0,0.0,0.0,0.0,0.0,0.21450853,0,0,0.0,0.0,0,0,65.0,0.0,450.0,4671.794871794872,3960.0000000000005,4532.307692307693,4457.948717948719,4283.076923076924,4584.615384615385,4506.666666666667,4521.025641025642,4538.461538461539,4777.948717948719,4329.743589743591,4329.2307692307695,4218.461538461539,4506.666666666667
688.34155,0.8104648,0.4042948,0.35293105,0.54697996,0,0.0,0.0,0.0,0.0,0.16804142,0,0,0.0,0.0,0,0,126.0,0.0,522.0,4686.153846153847,3987.692307692308,4569.743589743591,4501.538461538462,4310.769230769231,4608.717948717949,4543.589743589744,4541.025641025642,4537.435897435898,4825.641025641026,4345.128205128206,4343.076923076924,4215.384615384616,4518.974358974359
688.59174,0.8826482,0.39564973,0.35097128,0.54750586,0,0.0,0.0,0.0,0.0,0.20524906,0,0,0.0,0.0,0,0,29.0,0.0,0.0,4693.846153846154,3959.48717948718,4568.717948717949,4490.769230769231,4292.307692307693,4594.358974358975,4538.974358974359,4535.8974358974365,4522.051282051282,4802.564102564103,4343.589743589744,4344.615384615385,4248.205128205129,4490.256410256411
688.8498,0.8826482,0.39564973,0.35097128,0.54750586,0,0.0,0.0,0.0,0.0,0.21802282,0,0,0.0,0.0,0,0,61.0,0.0,0.0,4645.128205128206,3929.7435897435903,4537.948717948719,4467.6923076923085,4269.74358974359,4572.307692307693,4507.179487179488,4505.128205128206,4491.794871794872,4772.307692307693,4331.282051282052,4306.666666666667,4207.179487179487,4415.384615384616
689.10004,0.9524364,0.38786918,0.3492075,0.5479792,0,0.0,0.0,0.0,0.0,0.07331949,0,0,0.0,0.0,0,0,93.0,0.0,496.0,4597.948717948719,3868.717948717949,4461.025641025642,4397.435897435898,4204.615384615385,4506.666666666667,4419.48717948718,4402.051282051282,4448.717948717949,4682.564102564103,4285.641025641026,4222.051282051282,4136.410256410257,4369.743589743591
689.3502,0.9524364,0.38786918,0.3492075,0.5479792,0,0.0,0.0,0.0,0.0,0.0764885,0,0,0.0,0.0,0,0,125.0,0.0,496.0,4572.307692307693,3929.2307692307695,4451.794871794872,4398.974358974359,4213.846153846154,4505.128205128206,4398.974358974359,4361.538461538462,4405.128205128206,4590.769230769231,4229.2307692307695,4165.641025641026,3974.8717948717954,4344.102564102564
689.60046,0.94739723,0.38086668,0.34762007,0.5484051,0,0.0,0.0,0.0,0.0,0.13404477,1,0,0.0,0.0,0,0,28.0,0.0,0.0,4688.205128205129,3958.9743589743593,4527.6923076923085,4397.435897435898,4214.871794871796,4506.666666666667,4430.769230769231,4425.641025641026,4440.000000000001,4745.128205128206,4317.948717948719,4343.589743589744,4304.102564102564,4530.256410256411
689.85065,0.94739723,0.38086668,0.34762007,0.5484051,0,0.0,0.0,0.0,0.0,0.10710387,0,0,0.0,0.0,0,1,60.0,0.0,0.0,4612.820512820514,3870.2564102564106,4490.769230769231,4398.461538461539,4216.923076923077,4508.717948717949,4445.128205128206,4442.564102564103,4429.2307692307695,4692.307692307693,4276.923076923077,4263.589743589744,4157.948717948719,4387.179487179487
690.1009,0.89661264,0.3745644,0.34619138,0.5487885,0,0.0,0.0,0.0,0.0,0.19409339,0,0,0.0,0.0,0,0,92.0,0.0,177.0,4587.6923076923085,3904.1025641025644,4465.128205128206,4403.076923076924,4212.820512820514,4505.128205128206,4412.820512820514,4402.051282051282,4398.461538461539,4628.717948717949,4246.666666666667,4207.179487179487,4045.6410256410263,4327.179487179487
690.3511,0.89661264,0.3745644,0.34619138,0.5487885,0,0.0,0.0,0.0,0.0,0.065642305,0,0,0.0,0.0,0,0,124.0,0.0,177.0,4590.769230769231,3867.1794871794878,4473.846153846154,4405.128205128206,4222.051282051282,4510.256410256411,4442.051282051282,4443.589743589744,4413.333333333334,4718.461538461539,4280.000000000001,4248.205128205129,4163.076923076924,4353.333333333334
690.6013,0.92019504,0.3688924,0.34490559,0.54913354,0,0.0,0.0,0.0,0.0,0.049985804,0,0,0.0,0.0,0,0,27.0,0.0,0.0,4602.564102564103,3916.410256410257,4484.615384615385,4414.358974358975,4234.358974358975,4522.051282051282,4447.179487179487,4426.666666666667,4409.743589743591,4667.6923076923085,4259.48717948718,4231.794871794872,4080.0000000000005,4336.923076923077
690.8515,0.92019504,0.3688924,0.34490559,0.54913354,0,0.0,0.0,0.0,0.0,0.053457916,0,0,0.0,0.0,0,0,59.0,0.0,0.0,4616.410256410257,3913.333333333334,4499.48717948718,4419.48717948718,4233.333333333334,4529.2307692307695,4462.564102564103,4442.051282051282,4412.820512820514,4729.743589743591,4278.974358974359,4266.153846153847,4154.871794871796,4361.538461538462
691.10175,0.9190044,0.36378756,0.34374836,0.549444,0,0.0,0.0,0.0,0.0,0.054701205,0,0,0.0,0.0,0,0,91.0,0.0,474.0,4634.358974358975,3929.2307692307695,4505.641025641026,4431.794871794872,4231.794871794872,4543.076923076924,4473.846153846154,4441.538461538462,4424.102564102564,4733.333333333334,4289.2307692307695,4277.948717948719,4195.8974358974365,4396.923076923077
691.22687,0.9190044,0.36378756,0.34374836,0.549444,0,0.0,0.0,0.0,0.0,0.0,0,0,0.0,0.0,0,0,107.0,0.0,474.0,4638.461538461539,3925.6410256410263,4512.820512820514,4439.48717948718,4247.179487179487,4553.846153846154,4475.384615384616,4452.820512820514,4432.820512820514,4736.923076923077,4291.282051282052,4287.179487179487,4198.974358974359,4412.820512820514
691.6022,0.79158026,0.3713552,0.34270686,0.5497235,0,0.0,0.0,0.0,0.0,0.2085716,0,0,0.0,0.0,0,0,26.0,0.0,0.0,4644.615384615385,3927.1794871794878,4510.256410256411,4432.820512820514,4233.846153846154,4544.615384615385,4458.461538461539,4447.179487179487,4432.307692307693,4749.2307692307695,4295.8974358974365,4282.564102564103,4207.179487179487,4462.564102564103
691.85236,0.79158026,0.3713552,0.34270686,0.5497235,0,0.0,0.0,0.0,0.0,0.17682584,0,0,0.0,0.0,0,0,58.0,0.0,0.0,4638.974358974359,3929.7435897435903,4500.512820512821,4429.2307692307695,4232.820512820514,4541.025641025642,4458.461538461539,4442.564102564103,4427.6923076923085,4735.8974358974365,4285.641025641026,4261.538461538462,4182.051282051282,4457.435897435898
692.1026,0.67034686,0.3606185,0.34176952,0.54997504,0,0.0,0.0,0.0,0.0,0.038286533,0,0,0.0,0.0,0,0,90.0,0.0,523.0,4652.820512820514,3965.1282051282055,4508.205128205129,4430.769230769231,4236.923076923077,4538.974358974359,4457.435897435898,4422.564102564103,4412.307692307693,4706.666666666667,4273.333333333334,4260.000000000001,4161.538461538462,4444.615384615385
692.3528,0.67034686,0.3606185,0.34176952,0.54997504,1,0.0,0.0,0.0,0.0,0.15621084,0,0,0.0,0.0,0,0,122.0,0.0,523.0,4657.948717948719,3971.7948717948725,4521.025641025642,4441.025641025642,4246.153846153847,4552.307692307693,4469.743589743591,4462.564102564103,4430.769230769231,4740.000000000001,4289.74358974359,4282.051282051282,4197.435897435898,4439.48717948718
692.603,0.6063815,0.35964417,0.34092587,0.5502014,0,0.0,0.0,0.0,0.0,0.23301831,0,0,0.0,0.0,0,0,25.0,0.0,0.0,4605.641025641026,3941.538461538462,4498.974358974359,4444.615384615385,4244.615384615385,4551.282051282052,4462.051282051282,4442.564102564103,4417.435897435898,4704.615384615386,4269.2307692307695,4231.794871794872,4145.128205128206,4359.48717948718
692.8532,0.6063815,0.35964417,0.34092587,0.5502014,0,0.0,0.0,0.0,0.0,0.2411973,0,0,0.0,0.0,0,0,57.0,0.0,0.0,4606.153846153847,3939.48717948718,4502.051282051282,4442.564102564103,4243.589743589744,4539.48717948718,4440.000000000001,4421.538461538462,4412.307692307693,4680.512820512821,4271.794871794872,4231.794871794872,4172.307692307693,4381.538461538462
693.10345,0.49730128,0.34110773,0.34016663,0.55040514,0,0.0,0.0,0.0,0.0,0.081839554,0,0,0.0,0.0,0,0,89.0,0.0,496.0,4600.512820512821,3924.1025641025644,4488.205128205129,4426.153846153847,4293.333333333334,4564.615384615385,4420.512820512821,4406.153846153847,4400.512820512821,4689.743589743591,4275.8974358974365,4231.794871794872,4189.2307692307695,4408.717948717949
693.35364,0.49730128,0.34110773,0.34016663,0.55040514,0,0.0,0.0,0.0,0.0,0.044433128,0,0,0.0,0.0,0,0,121.0,0.0,496.0,4609.743589743591,3930.2564102564106,4502.051282051282,4412.820512820514,4326.666666666667,4583.589743589744,4413.846153846154,4400.000000000001,4399.48717948718,4684.102564102564,4270.769230769231,4248.717948717949,4209.74358974359,4440.512820512821
693.6039,0.48496988,0.32112437,0.3394833,0.55058855,0,0.0,0.0,0.0,0.0,0.0,0,0,0.0,0.0,0,0,24.0,0.0,0.0,4616.410256410257,3923.076923076924,4496.923076923077,4423.076923076924,4301.025641025642,4571.282051282052,4449.2307692307695,4433.333333333334,4410.769230769231,4705.641025641026,4287.6923076923085,4247.6923076923085,4201.538461538462,4427.6923076923085
693.63513,0.48496988,0.32112437,0.3394833,0.55058855,0,0.0,0.0,0.0,0.0,0.0,0,0,0.0,0.0,0,0,28.0,0.0,0.0,4614.871794871796,3914.358974358975,4506.153846153847,4422.051282051282,4303.589743589744,4586.666666666667,4474.871794871796,4469.743589743591,4430.256410256411,4723.076923076924,4292.307692307693,4252.820512820514,4205.128205128206,4425.128205128206
694.1043,0.3994553,0.29998752,0.3388683,0.55075353,0,0.0,0.0,0.0,0.0,0.03910539,0,0,0.0,0.0,0,0,76.0,0.0,170.0,4632.307692307693,3970.7692307692314,4505.641025641026,4447.6923076923085,4294.358974358975,4583.589743589744,4461.538461538462,4437.435897435898,4412.307692307693,4702.564102564103,4287.179487179487,4264.615384615385,4184.615384615385,4447.179487179487
694.35455,0.3994553,0.29998752,0.3388683,0.55075353,1,0.0,0.0,0.0,0.0,0.2056512,0,0,0.0,0.0,0,0,120.0,0.0,170.0,4625.128205128206,3962.564102564103,4495.8974358974365,4438.974358974359,4270.769230769231,4564.102564102564,4443.589743589744,4419.48717948718,4411.282051282052,4727.179487179488,4294.871794871796,4280.000000000001,4216.410256410257,4467.6923076923085
694.60474,0.411148,0.294455,0.3383148,0.55090207,0,0.0,0.0,0.0,0.0,0.20573473,0,0,0.0,0.0,0,0,23.0,0.0,0.0,4603.076923076924,3962.564102564103,4476.923076923077,4430.769230769231,4255.384615384616,4550.769230769231,4450.769230769231,4426.666666666667,4408.717948717949,4705.641025641026,4287.179487179487,4262.051282051282,4197.435897435898,4465.641025641026
694.855,0.411148,0.294455,0.3383148,0.55090207,0,0.0,0.0,0.0,0.0,0.11812264,0,0,0.0,0.0,0,0,55.0,0.0,0.0,4601.025641025642,3968.205128205129,4471.282051282052,4445.641025641026,4250.769230769231,4554.358974358975,4457.948717948719,4438.974358974359,4410.769230769231,4716.410256410257,4289.74358974359,4253.846153846154,4183.589743589744,4496.923076923077
695.10516,0.33051693,0.2969127,0.33781666,0.55103576,0,0.0,0.0,0.0,0.0,0.0,0,0,0.0,0.0,0,0,87.0,0.0,474.0,4630.256410256411,3983.589743589744,4477.948717948719,4447.179487179487,4263.076923076924,4556.923076923077,4447.179487179487,4429.2307692307695,4414.358974358975,4700.512820512821,4286.666666666667,4250.256410256411,4156.410256410257,4522.564102564103
695.3554,0.33051693,0.2969127,0.33781666,0.55103576,0,0.0,0.0,0.0,0.0,0.0,0,0,0.24827474,0.0,0,0,119.0,0.0,474.0,4712.820512820514,4060.5128205128212,4529.743589743591,4448.205128205129,4263.589743589744,4554.871794871796,4461.538461538462,4470.256410256411,4439.48717948718,4771.794871794872,4332.307692307693,4360.512820512821,4363.589743589744,4664.102564102564
695.6056,0.38496786,0.438445,0.33736834,0.55115604,0,0.0,0.0,0.0,0.0,0.0,0,0,0.44682235,0.0,0,1,22.0,0.0,0.0,4632.307692307693,3927.1794871794878,4494.358974358975,4442.564102564103,4249.74358974359,4553.846153846154,4488.205128205129,4488.205128205129,4442.051282051282,4764.615384615386,4315.384615384616,4280.000000000001,4238.974358974359,4537.435897435898
695.85583,0.38496786,0.438445,0.33736834,0.55115604,0,0.0,0.0,0.0,0.0,0.17366119,0,0,0.0,0.0,0,0,54.0,0.0,0.0,4632.307692307693,3932.820512820513,4502.564102564103,4435.8974358974365,4248.717948717949,4551.794871794872,4476.923076923077,4489.2307692307695,4445.641025641026,4753.846153846154,4359.48717948718,4282.051282051282,4216.410256410257,4522.564102564103
696.106,0.41506746,0.5676431,0.33696482,0.55126435,0,0.0,0.0,0.0,0.0,0.06493297,0,0,0.0,0.0,0,0,86.0,0.0,525.0,4621.538461538462,3960.5128205128212,4493.333333333334,4447.179487179487,4264.102564102564,4560.000000000001,4475.8974358974365,4477.435897435898,4440.000000000001,4736.410256410257,4291.794871794872,4264.615384615385,4176.410256410257,4507.179487179488
696.35626,0.41506746,0.5676431,0.33696482,0.55126435,0,0.0,0.0,0.0,0.0,0.069662295,0,0,0.0,0.0,0,0,118.0,0.0,525.0,4627.179487179488,3989.7435897435903,4492.307692307693,4447.179487179487,4268.717948717949,4557.435897435898,4475.384615384616,4481.538461538462,4433.846153846154,4716.410256410257,4275.384615384616,4257.948717948719,4140.512820512821,4505.641025641026
696.60645,0.36772814,0.52317035,0.33660167,0.5513618,0,0.0,0.0,0.0,0.0,0.07526819,0,0,0.0,0.0,0,0,21.0,0.0,0.0,4574.871794871796,3962.564102564103,4476.410256410257,4444.102564102564,4265.641025641026,4554.358974358975,4461.538461538462,4443.589743589744,4414.871794871796,4672.307692307693,4256.923076923077,4216.410256410257,4096.410256410257,4484.615384615385
696.8567,0.36772814,0.52317035,0.33660167,0.5513618,0,0.0,0.0,0.0,0.0,0.0,0,0,0.27123216,0.0,0,0,53.0,0.0,0.0,4592.307692307693,3947.692307692308,4478.461538461539,4444.102564102564,4263.589743589744,4543.076923076924,4458.461538461539,4431.794871794872,4411.794871794872,4682.564102564103,4256.410256410257,4232.307692307693,4120.000000000001,4489.743589743591
697.1069,0.29105365,0.47527528,0.33627483,0.5514495,0,0.0,0.0,0.0,0.0,0.0,0,0,0.07689589,0.0,0,0,85.0,0.0,496.0,4589.743589743591,3958.9743589743593,4489.743589743591,4444.102564102564,4263.076923076924,4538.461538461539,4450.256410256411,4415.384615384616,4413.333333333334,4691.282051282052,4257.948717948719,4249.2307692307695,4126.666666666667,4489.2307692307695
697.3571,0.29105365,0.47527528,0.33627483,0.5514495,0,0.0,0.0,0.0,0.0,0.02795856,0,0,0.0,0.0,0,0,117.0,0.0,496.0,4603.589743589744,3983.076923076924,4490.769230769231,4448.717948717949,4264.102564102564,4549.743589743591,4455.8974358974365,4415.8974358974365,4401.538461538462,4669.2307692307695,4255.8974358974365,4246.666666666667,4106.153846153847,4482.051282051282
697.6073,0.23413627,0.40700412,0.33598068,0.5515284,0,0.0,0.0,0.0,0.0,0.07554963,0,0,0.0,0.0,0,0,20.0,0.0,0.0,4619.48717948718,3965.1282051282055,4508.205128205129,4428.717948717949,4262.564102564103,4541.538461538462,4492.820512820514,4485.641025641026,4448.205128205129,4752.820512820514,4290.769230769231,4290.769230769231,4208.205128205129,4554.871794871796
697.85754,0.23413627,0.40700412,0.33598068,0.5515284,0,0.0,0.0,0.0,0.0,0.13008787,0,0,0.0,0.0,0,0,52.0,0.0,0.0,4628.205128205129,3942.0512820512827,4519.48717948718,4444.615384615385,4302.051282051282,4538.461538461539,4487.6923076923085,4462.564102564103,4431.794871794872,4753.846153846154,4306.666666666667,4297.435897435898,4234.358974358975,4552.820512820514
698.1077,0.2635059,0.3607454,0.33571595,0.55159944,0,0.0,0.0,0.0,0.0,0.0,0,0,0.0,0.0,0,0,84.0,0.0,162.0,4630.256410256411,3950.2564102564106,4525.128205128206,4457.948717948719,4273.333333333334,4528.205128205129,4487.6923076923085,4467.179487179487,4398.974358974359,4763.076923076924,4306.153846153847,4308.205128205129,4234.358974358975,4542.564102564103
698.13904,0.2635059,0.3607454,0.33571595,0.55159944,0,0.0,0.0,0.0,0.0,0.0,0,0,0.0,0.0,0,0,88.0,0.0,162.0,4611.282051282052,3943.076923076924,4508.205128205129,4451.794871794872,4266.153846153847,4522.564102564103,4471.282051282052,4427.179487179487,4397.948717948719,4729.2307692307695,4297.435897435898,4286.666666666667,4209.74358974359,4522.564102564103
698.60815,0.2483674,0.33424172,0.33547768,0.5516634,0,0.0,0.0,0.0,0.0,0.0,0,0,0.0,0.0,0,0,103.0,0.0,525.0,4614.871794871796,3942.564102564103,4507.179487179488,4446.666666666667,4250.256410256411,4511.794871794872,4465.128205128206,4433.846153846154,4401.025641025642,4746.666666666667,4297.435897435898,4281.538461538462,4206.666666666667,4536.923076923077
698.63947,0.2483674,0.33424172,0.33547768,0.5516634,0,0.0,0.0,0.0,0.0,0.0,0,0,0.0,0.0,0,0,23.0,0.0,0.0,4632.307692307693,3955.8974358974365,4511.794871794872,4457.948717948719,4257.948717948719,4534.358974358975,4476.923076923077,4438.974358974359,4412.307692307693,4742.564102564103,4297.948717948719,4279.48717948718,4202.564102564103,4536.923076923077
699.10864,0.17370476,0.31027922,0.33526325,0.5517209,1,0.0,0.0,0.0,0.0,0.0,0,0,0.0,0.0,0,0,83.0,0.0,473.0,4632.307692307693,3956.9230769230776,4506.666666666667,4447.179487179487,4249.2307692307695,4525.641025641026,4460.512820512821,4410.256410256411,4400.000000000001,4736.923076923077,4289.2307692307695,4283.589743589744,4203.076923076924,4555.384615384616
699.3588,0.17370476,0.31027922,0.33526325,0.5517209,0,0.0,0.0,0.0,0.0,0.17093092,0,0,0.0,0.0,0,0,115.0,0.0,473.0,4606.153846153847,3942.564102564103,4497.435897435898,4446.153846153847,4245.641025641026,4528.717948717949,4464.615384615385,4428.717948717949,4422.051282051282,4747.179487179488,4296.923076923077,4267.179487179487,4201.025641025642,4532.307692307693
699.6091,0.15895468,0.288713,0.33507025,0.5517727,0,0.0,0.0,0.0,0.0,0.055815138,0,0,0.0,0.0,0,0,18.0,0.0,0.0,4627.179487179488,3927.1794871794878,4506.153846153847,4440.000000000001,4236.923076923077,4530.256410256411,4473.846153846154,4445.641025641026,4431.282051282052,4759.48717948718,4301.538461538462,4290.769230769231,4241.538461538462,4536.410256410257
699.85925,0.15895468,0.288713,0.33507025,0.5517727,0,0.0,0.0,0.0,0.0,0.037412655,0,0,0.0,0.0,0,0,50.0,0.0,0.0,4619.48717948718,3963.589743589744,4501.025641025642,4441.025641025642,4235.384615384616,4523.589743589744,4446.666666666667,4407.6923076923085,4411.282051282052,4701.538461538462,4285.128205128206,4249.74358974359,4164.615384615385,4520.512820512821
700.1095,0.14307089,0.26930338,0.33489656,0.5518193,0,0.0,0.0,0.0,0.0,0.03396151,0,0,0.0,0.0,0,0,82.0,0.0,525.0,4613.333333333334,3943.076923076924,4492.307692307693,4444.102564102564,4241.538461538462,4537.435897435898,4462.051282051282,4421.025641025642,4419.48717948718,4718.461538461539,4294.871794871796,4247.6923076923085,4169.2307692307695,4503.076923076924
700.3597,0.14307089,0.26930338,0.33489656,0.5518193,0,0.0,0.0,0.0,0.0,0.03568661,0,0,0.0,0.0,0,0,114.0,0.0,525.0,4605.641025641026,3926.666666666667,4489.2307692307695,4442.564102564103,4231.282051282052,4536.410256410257,4473.846153846154,4430.769230769231,4421.538461538462,4714.358974358975,4298.974358974359,4238.974358974359,4153.846153846154,4493.846153846154
700.6099,0.110850506,0.25183475,0.33474025,0.5518613,0,0.0,0.0,0.0,0.0,0.0,0,0,0.0,0.0,0,0,8.0,0.0,372.0,4627.6923076923085,3946.666666666667,4514.358974358975,4444.615384615385,4229.2307692307695,4534.358974358975,4471.794871794872,4423.589743589744,4421.538461538462,4735.384615384616,4304.102564102564,4269.74358974359,4202.564102564103,4540.512820512821
700.6412,0.110850506,0.25183475,0.33474025,0.5518613,0,0.0,0.0,0.0,0.0,0.0,0,0,0.0,0.0,0,0,21.0,0.0,0.0,4630.256410256411,3944.1025641025644,4511.282051282052,4441.538461538462,4233.333333333334,4539.48717948718,4475.384615384616,4441.025641025642,4426.153846153847,4731.282051282052,4310.256410256411,4278.974358974359,4211.794871794872,4538.461538461539
700.6412,0.110850506,0.25183475,0.33474025,0.5518613,0,0.0,0.0,0.0,0.0,0.0,0,0,0.0,0.0,0,0,21.0,0.0,0.0,4630.256410256411,3944.1025641025644,4511.282051282052,4441.538461538462,4233.333333333334,4539.48717948718,4475.384615384616,4441.025641025642,4426.153846153847,4731.282051282052,4310.256410256411,4278.974358974359,4211.794871794872,4538.461538461539
701.1416,0.046604425,0.21582139,0.33459955,0.551899,0,0.0,0.0,0.0,0.0,0.0,0,0,0.0,0.0,0,0,85.0,0.0,496.0,4628.717948717949,3938.9743589743593,4514.358974358975,4438.974358974359,4235.384615384616,4540.000000000001,4477.948717948719,4439.48717948718,4422.564102564103,4731.794871794872,4291.282051282052,4262.564102564103,4169.74358974359,4510.256410256411
701.1416,0.046604425,0.21582139,0.33459955,0.551899,0,0.0,0.0,0.0,0.0,0.0,0,0,0.0,0.0,0,0,85.0,0.0,496.0,4628.717948717949,3938.9743589743593,4514.358974358975,4438.974358974359,4235.384615384616,4540.000000000001,4477.948717948719,4439.48717948718,4422.564102564103,4731.794871794872,4291.282051282052,4262.564102564103,4169.74358974359,4510.256410256411
701.642,0.007823018,0.22269681,0.33447292,0.551933,0,0.0,0.0,0.0,0.0,0.0,0,0,0.0,0.0,0,0,20.0,0.0,0.0,4647.179487179488,3946.1538461538466,4525.128205128206,4431.282051282052,4247.6923076923085,4540.512820512821,4496.923076923077,4480.000000000001,4429.743589743591,4748.717948717949,4286.666666666667,4277.948717948719,4191.794871794872,4527.6923076923085
701.642,0.007823018,0.22269681,0.33447292,0.551933,0,0.0,0.0,0.0,0.0,0.0,0,0,0.0,0.0,0,0,20.0,0.0,0.0,4647.179487179488,3946.1538461538466,4525.128205128206,4431.282051282052,4247.6923076923085,4540.512820512821,4496.923076923077,4480.000000000001,4429.743589743591,4748.717948717949,4286.666666666667,4277.948717948719,4191.794871794872,4527.6923076923085
702.14246,0.0,0.24344133,0.33435896,0.55196357,0,0.0,0.0,0.0,0.0,0.0,0,0,0.0,0.0,0,0,84.0,0.0,157.0,4644.615384615385,3959.48717948718,4511.282051282052,4458.974358974359,4248.205128205129,4541.025641025642,4457.435897435898,4416.410256410257,4407.179487179487,4718.974358974359,4269.74358974359,4265.641025641026,4192.820512820514,4571.282051282052
702.14246,0.0,0.24344133,0.33435896,0.55196357,0,0.0,0.0,0.0,0.0,0.0,0,0,0.0,0.0,0,0,84.0,0.0,157.0,4644.615384615385,3959.48717948718,4511.282051282052,4458.974358974359,4248.205128205129,4541.025641025642,4457.435897435898,4416.410256410257,4407.179487179487,4718.974358974359,4269.74358974359,4265.641025641026,4192.820512820514,4571.282051282052
702.8618,0.029741937,0.24486123,0.3342564,0.5519911,0,0.0,0.0,0.0,0.0,0.059229262,0,0,0.0,0.0,0,0,46.0,0.0,0.0,4625.641025641026,3924.615384615385,4488.717948717949,4440.512820512821,4245.128205128206,4536.923076923077,4442.051282051282,4402.564102564103,4391.794871794872,4706.666666666667,4255.8974358974365,4234.358974358975,4185.128205128206,4569.743589743591
702.98694,0.029741937,0.24486123,0.3342564,0.5519911,0,0.0,0.0,0.0,0.0,0.035853464,0,0,0.0,0.0,0,0,63.0,0.0,0.0,4627.6923076923085,3923.589743589744,4494.871794871796,4440.000000000001,4246.153846153847,4538.974358974359,4446.153846153847,4405.128205128206,4397.435897435898,4707.179487179488,4254.358974358975,4245.128205128206,4187.6923076923085,4586.153846153847
703.36224,0.0,0.24284399,0.3341641,0.5520159,0,0.0,0.0,0.0,0.0,0.0,0,0,0.0,0.0,0,0,110.0,0.0,525.0,4624.615384615385,3926.666666666667,4488.717948717949,4429.743589743591,4244.615384615385,4537.435897435898,4444.102564102564,4402.051282051282,4404.102564102564,4705.128205128206,4257.435897435898,4235.8974358974365,4199.48717948718,4588.205128205129
703.48737,0.0,0.24284399,0.3341641,0.5520159,0,0.0,0.0,0.0,0.0,0.025787156,0,0,0.0,0.0,0,0,127.0,0.0,473.0,4634.871794871796,3941.0256410256416,4507.179487179488,4443.076923076924,4247.6923076923085,4538.974358974359,4454.358974358975,4420.000000000001,4397.948717948719,4718.974358974359,4254.871794871796,4248.205128205129,4206.666666666667,4603.589743589744
703.7376,0.0,0.21206835,0.33408102,0.5520382,0,0.0,0.0,0.0,0.0,0.0,0,0,0.0,0.0,0,0,30.0,0.0,0.0,4640.000000000001,3938.461538461539,4494.871794871796,4436.410256410257,4247.6923076923085,4521.538461538462,4447.179487179487,4417.435897435898,4394.871794871796,4716.923076923077,4255.8974358974365,4247.6923076923085,4198.974358974359,4607.179487179488
703.7376,0.0,0.21206835,0.33408102,0.5520382,0,0.0,0.0,0.0,0.0,0.0,0,0,0.0,0.0,0,0,30.0,0.0,0.0,4640.000000000001,3938.461538461539,4494.871794871796,4436.410256410257,4247.6923076923085,4521.538461538462,4447.179487179487,4417.435897435898,4394.871794871796,4716.923076923077,4255.8974358974365,4247.6923076923085,4198.974358974359,4607.179487179488
704.14417,0.0,0.1743903,0.33400625,0.5520582,0,0.0,0.0,0.0,0.0,0.0,0,0,0.0,0.0,0,0,82.0,0.0,525.0,4632.820512820514,3925.1282051282055,4496.923076923077,4428.205128205129,4252.820512820514,4520.000000000001,4460.512820512821,4412.820512820514,4398.461538461539,4706.153846153847,4249.74358974359,4248.205128205129,4195.384615384616,4560.512820512821
704.4882,0.0,0.1743903,0.33400625,0.5520582,0,0.0,0.0,0.0,0.0,1.0,0,0,0.0,0.0,0,0,126.0,0.0,525.0,4606.153846153847,3928.717948717949,4490.256410256411,4429.2307692307695,4249.74358974359,4521.538461538462,4441.025641025642,4407.179487179487,4397.435897435898,4713.333333333334,4242.051282051282,4236.923076923077,4198.974358974359,4473.333333333334
704.73846,0.0,0.1344567,0.33393896,0.5520763,0,0.0,0.0,0.0,0.0,0.6041976,0,0,0.0,0.0,0,0,29.0,0.0,0.0,4646.666666666667,3942.564102564103,4505.128205128206,4431.794871794872,4249.74358974359,4524.615384615385,4443.589743589744,4405.641025641026,4386.666666666667,4718.461538461539,4249.2307692307695,4264.615384615385,4229.74358974359,4467.6923076923085
704.98865,0.0,0.1344567,0.33393896,0.5520763,0,0.0,0.0,0.0,0.0,0.13973689,0,0,0.0,0.0,0,0,61.0,0.0,0.0,4663.076923076924,3959.48717948718,4521.025641025642,4442.051282051282,4261.538461538462,4536.410256410257,4458.461538461539,4404.102564102564,4388.717948717949,4720.000000000001,4247.6923076923085,4267.179487179487,4195.384615384616,4463.589743589744
705.2389,0.016618494,0.109071024,0.3338784,0.55209255,0,0.0,0.0,0.0,0.0,0.05823838,0,0,0.0,0.0,0,0,93.0,0.0,496.0,4660.000000000001,3953.8461538461543,4506.666666666667,4446.666666666667,4260.512820512821,4537.435897435898,4465.128205128206,4440.000000000001,4398.974358974359,4733.333333333334,4258.461538461539,4270.769230769231,4229.2307692307695,4489.2307692307695
705.5204,0.016618494,0.109071024,0.3338784,0.55209255,1,0.0,0.0,0.0,0.0,0.2149469,0,0,0.0,0.0,0,0,0.0,0.0,480.0,4702.051282051282,4013.8461538461543,4535.384615384616,4442.051282051282,4258.461538461539,4538.974358974359,4458.461538461539,4425.641025641026,4393.846153846154,4714.358974358975,4261.538461538462,4304.615384615385,4229.74358974359,4590.769230769231
705.7393,0.0,0.1195477,0.3338239,0.55210716,0,0.0,0.0,0.0,0.0,0.16616544,0,0,0.0,0.0,0,0,28.0,0.0,0.0,4655.384615384616,3960.5128205128212,4523.076923076924,4445.128205128206,4260.512820512821,4543.589743589744,4470.256410256411,4446.153846153847,4408.717948717949,4735.8974358974365,4265.128205128206,4278.974358974359,4217.948717948719,4540.512820512821
705.9895,0.0,0.1195477,0.3338239,0.55210716,0,0.0,0.0,0.0,0.0,0.18291184,0,0,0.0,0.0,0,0,60.0,0.0,0.0,4630.256410256411,3951.2820512820517,4504.102564102564,4435.8974358974365,4248.717948717949,4536.410256410257,4443.076923076924,4414.358974358975,4389.743589743591,4708.205128205129,4245.641025641026,4251.794871794872,4172.307692307693,4538.974358974359
706.23975,0.006783215,0.12994735,0.33377483,0.5521203,0,0.0,0.0,0.0,0.0,0.23153785,0,0,0.0,0.0,0,0,92.0,0.0,150.0,4634.358974358975,3940.5128205128212,4505.641025641026,4441.538461538462,4254.871794871796,4537.435897435898,4454.871794871796,4426.666666666667,4394.871794871796,4730.769230769231,4257.435897435898,4262.564102564103,4183.076923076924,4572.307692307693
706.4899,0.006783215,0.12994735,0.33377483,0.5521203,0,0.0,0.0,0.0,0.0,0.28423777,0,0,0.0,0.0,0,0,124.0,0.0,150.0,4636.923076923077,3938.9743589743593,4498.461538461539,4424.615384615385,4232.307692307693,4524.102564102564,4441.025641025642,4411.794871794872,4384.102564102564,4707.179487179488,4255.384615384616,4261.025641025642,4178.461538461539,4593.333333333334
706.7402,0.0,0.15930364,0.3337307,0.5521322,0,0.0,0.0,0.0,0.0,0.10901222,0,0,0.0,0.0,0,0,27.0,0.0,0.0,4610.769230769231,3924.615384615385,4493.333333333334,4415.8974358974365,4232.820512820514,4525.641025641026,4445.128205128206,4414.358974358975,4386.153846153847,4699.48717948718,4256.410256410257,4248.205128205129,4157.435897435898,4585.641025641026
706.99036,0.0,0.15930364,0.3337307,0.5521322,0,0.0,0.0,0.0,0.0,0.071219414,0,0,0.0,0.0,0,0,59.0,0.0,0.0,4616.923076923077,3928.205128205129,4493.846153846154,4423.076923076924,4234.358974358975,4526.153846153847,4444.102564102564,4412.820512820514,4383.076923076924,4706.666666666667,4256.923076923077,4251.282051282052,4157.948717948719,4602.564102564103
707.2406,0.030158905,0.15869695,0.33369094,0.55214286,0,0.0,0.0,0.0,0.0,0.117576376,0,0,0.0,0.0,0,0,91.0,0.0,473.0,4628.205128205129,3943.076923076924,4501.538461538462,4429.2307692307695,4249.74358974359,4537.435897435898,4445.641025641026,4426.666666666667,4393.333333333334,4723.589743589744,4265.128205128206,4264.102564102564,4172.307692307693,4622.564102564103
707.3657,0.030158905,0.15869695,0.33369094,0.55214286,0,0.0,0.0,0.0,0.0,0.0,0,0,0.0,0.0,0,0,107.0,0.0,473.0,4611.282051282052,3938.461538461539,4501.025641025642,4443.076923076924,4247.179487179487,4536.923076923077,4443.076923076924,4416.923076923077,4387.6923076923085,4707.179487179488,4256.923076923077,4261.538461538462,4167.179487179487,4603.076923076924
707.8036,0.0,0.1361184,0.33365518,0.55215245,0,0.0,0.0,0.0,0.0,0.20426017,0,0,0.0,0.0,0,0,34.0,0.0,0.0,4604.615384615385,3958.9743589743593,4506.153846153847,4441.538461538462,4248.205128205129,4537.948717948719,4458.461538461539,4413.846153846154,4383.589743589744,4720.512820512821,4257.948717948719,4262.564102564103,4182.564102564103,4555.8974358974365
707.9913,0.0,0.1361184,0.33365518,0.55215245,0,0.0,0.0,0.0,0.0,0.21722232,0,0,0.0,0.0,0,0,58.0,0.0,0.0,4613.846153846154,3944.615384615385,4504.102564102564,4439.48717948718,4246.666666666667,4530.769230769231,4441.025641025642,4403.076923076924,4381.538461538462,4718.974358974359,4258.461538461539,4260.512820512821,4180.512820512821,4550.769230769231
708.24146,0.0,0.14025865,0.333623,0.5521611,0,0.0,0.0,0.0,0.0,0.07466822,0,0,0.0,0.0,0,0,90.0,0.0,525.0,4634.871794871796,3948.717948717949,4521.025641025642,4433.333333333334,4247.6923076923085,4537.948717948719,4460.512820512821,4424.615384615385,4384.615384615385,4735.384615384616,4261.538461538462,4289.2307692307695,4198.461538461539,4552.820512820514
708.4917,0.0,0.14025865,0.333623,0.5521611,0,0.0,0.0,0.0,0.0,0.26656923,0,0,0.0,0.0,0,0,122.0,0.0,525.0,4630.769230769231,3940.5128205128212,4510.256410256411,4425.641025641026,4246.666666666667,4536.923076923077,4456.923076923077,4435.384615384616,4393.846153846154,4731.794871794872,4270.256410256411,4273.333333333334,4167.6923076923085,4524.615384615385
708.7419,0.0,0.15443715,0.33359402,0.55216885,0,0.0,0.0,0.0,0.0,0.27222994,0,0,0.0,0.0,0,0,25.0,0.0,0.0,4612.307692307693,3909.2307692307695,4492.820512820514,4428.205128205129,4244.615384615385,4534.871794871796,4446.666666666667,4408.717948717949,4380.512820512821,4702.564102564103,4255.384615384616,4233.846153846154,4134.871794871796,4473.333333333334
708.9921,0.0,0.15443715,0.33359402,0.55216885,0,0.0,0.0,0.0,0.0,0.07191125,0,0,0.0,0.0,0,0,57.0,0.0,0.0,4622.564102564103,3913.8461538461543,4493.333333333334,4434.871794871796,4247.179487179487,4540.512820512821,4456.410256410257,4404.102564102564,4378.461538461539,4712.820512820514,4266.153846153847,4246.666666666667,4151.282051282052,4470.769230769231
709.2423,0.049509607,0.16770455,0.33356798,0.5521758,0,0.0,0.0,0.0,0.0,0.103216924,0,0,0.0,0.0,0,0,89.0,0.0,496.0,4582.051282051282,3903.076923076924,4490.769230769231,4429.743589743591,4238.461538461539,4534.358974358975,4458.974358974359,4432.307692307693,4385.641025641026,4707.6923076923085,4268.205128205129,4233.846153846154,4150.769230769231,4443.589743589744
709.49255,0.049509607,0.16770455,0.33356798,0.5521758,0,0.0,0.0,0.0,0.0,0.56321293,0,0,0.0,0.0,0,0,121.0,0.0,496.0,4552.307692307693,3893.8461538461543,4469.2307692307695,4434.358974358975,4231.794871794872,4529.743589743591,4448.717948717949,4410.256410256411,4378.974358974359,4690.769230769231,4260.512820512821,4216.410256410257,4139.48717948718,4323.076923076924
709.74274,0.063416906,0.15076296,0.3335445,0.55218214,1,0.0,0.0,0.0,0.0,0.48084807,0,0,0.0,0.0,0,0,24.0,0.0,0.0,4624.102564102564,3915.3846153846157,4500.000000000001,4439.48717948718,4249.2307692307695,4538.461538461539,4464.102564102564,4447.179487179487,4398.461538461539,4757.948717948719,4291.282051282052,4289.74358974359,4246.666666666667,4372.307692307693
709.86786,0.063416906,0.15076296,0.3335445,0.55218214,0,0.0,0.0,0.0,0.0,0.0,0,0,0.0,0.0,0,0,40.0,0.0,0.0,4621.538461538462,3877.9487179487182,4472.820512820514,4428.205128205129,4232.307692307693,4523.076923076924,4443.589743589744,4412.307692307693,4383.589743589744,4735.8974358974365,4278.974358974359,4258.461538461539,4228.717948717949,4386.666666666667
710.24316,0.056847297,0.1506416,0.3335234,0.5521878,0,0.0,0.0,0.0,0.0,0.60197115,0,0,0.0,0.0,0,0,88.0,0.0,142.0,4642.564102564103,3923.076923076924,4476.923076923077,4428.205128205129,4231.794871794872,4529.2307692307695,4427.6923076923085,4407.179487179487,4383.076923076924,4715.384615384616,4275.8974358974365,4260.512820512821,4201.538461538462,4504.102564102564
710.4934,0.056847297,0.1506416,0.3335234,0.5521878,0,0.0,0.0,0.0,0.0,0.4155587,0,0,0.0,0.0,0,0,120.0,0.0,142.0,4661.025641025642,3955.8974358974365,4508.205128205129,4427.179487179487,4248.205128205129,4541.025641025642,4450.769230769231,4444.102564102564,4391.282051282052,4731.282051282052,4289.74358974359,4287.6923076923085,4217.435897435898,4552.307692307693
710.7436,0.03003765,0.17883918,0.33350438,0.5521929,0,0.0,0.0,0.0,0.0,0.19948399,0,0,0.0,0.0,0,0,23.0,0.0,0.0,4707.179487179488,3989.7435897435903,4518.974358974359,4425.641025641026,4247.6923076923085,4540.000000000001,4443.589743589744,4410.256410256411,4382.564102564103,4730.769230769231,4283.076923076924,4291.282051282052,4221.025641025642,4573.846153846154
710.99384,0.03003765,0.17883918,0.33350438,0.5521929,0,0.0,0.0,0.0,0.0,0.3616226,0,0,0.0,0.0,0,0,55.0,0.0,0.0,4657.435897435898,3959.48717948718,4496.923076923077,4427.179487179487,4247.6923076923085,4538.974358974359,4442.051282051282,4404.102564102564,4381.025641025642,4726.666666666667,4272.820512820514,4244.102564102564,4180.512820512821,4535.8974358974365
711.244,0.048358783,0.22090445,0.33348727,0.5521975,0,0.0,0.0,0.0,0.0,0.26041797,0,0,0.0,0.0,0,0,87.0,0.0,475.0,4664.102564102564,3972.820512820513,4511.794871794872,4444.615384615385,4262.564102564103,4554.358974358975,4458.461538461539,4429.743589743591,4389.743589743591,4728.717948717949,4278.461538461539,4273.333333333334,4197.435897435898,4537.948717948719
711.49426,0.048358783,0.22090445,0.33348727,0.5521975,0,0.0,0.0,0.0,0.0,3.739097E-4,0,0,0.0,0.0,0,0,119.0,0.0,475.0,4639.48717948718,3953.333333333334,4488.205128205129,4424.615384615385,4231.794871794872,4536.410256410257,4342.051282051282,4393.333333333334,4374.358974358975,4714.358974358975,4258.974358974359,4234.871794871796,4167.6923076923085,4525.128205128206
711.74445,0.059523564,0.26514336,0.3334719,0.5522016,0,0.0,0.0,0.0,0.0,0.0,0,0,0.0,0.0,0,0,22.0,0.0,0.0,4669.2307692307695,4003.076923076924,4509.743589743591,4444.615384615385,4245.128205128206,4537.435897435898,4371.794871794872,4407.179487179487,4378.461538461539,4715.384615384616,4261.538461538462,4263.076923076924,4184.102564102564,4585.128205128206
711.74445,0.059523564,0.26514336,0.3334719,0.5522016,0,0.0,0.0,0.0,0.0,0.0,0,0,0.0,0.0,0,0,22.0,0.0,0.0,4669.2307692307695,4003.076923076924,4509.743589743591,4444.615384615385,4245.128205128206,4537.435897435898,4371.794871794872,4407.179487179487,4378.461538461539,4715.384615384616,4261.538461538462,4263.076923076924,4184.102564102564,4585.128205128206
712.2449,0.121034384,0.28447175,0.33345804,0.5522053,0,0.0,0.0,0.0,0.0,0.0,0,0,0.0,0.0,0,0,86.0,0.0,525.0,4647.179487179488,3985.1282051282055,4507.179487179488,4430.256410256411,4245.641025641026,4534.871794871796,4396.923076923077,4412.307692307693,4382.564102564103,4712.820512820514,4256.923076923077,4262.564102564103,4184.615384615385,4584.102564102564
712.4951,0.121034384,0.28447175,0.33345804,0.5522053,0,0.0,0.0,0.0,0.0,0.07018469,0,0,0.0,0.0,0,0,118.0,0.0,525.0,4633.846153846154,3972.820512820513,4491.282051282052,4430.256410256411,4243.076923076924,4534.871794871796,4417.435897435898,4435.384615384616,4384.615384615385,4718.974358974359,4259.48717948718,4266.666666666667,4190.256410256411,4569.2307692307695
712.74536,0.06370934,0.29010782,0.33344555,0.55220866,0,0.0,0.0,0.0,0.0,0.05048527,0,0,0.0,0.0,0,0,21.0,0.0,0.0,4652.820512820514,3940.5128205128212,4509.743589743591,4431.282051282052,4245.641025641026,4538.974358974359,4448.205128205129,4476.410256410257,4413.846153846154,4783.076923076924,4296.410256410257,4295.8974358974365,4267.6923076923085,4575.384615384616
712.99554,0.06370934,0.29010782,0.33344555,0.55220866,0,0.0,0.0,0.0,0.0,0.26719514,0,0,0.0,0.0,0,0,53.0,0.0,0.0,4639.48717948718,3973.333333333334,4507.6923076923085,4445.641025641026,4249.74358974359,4542.051282051282,4443.076923076924,4445.641025641026,4397.948717948719,4721.025641025642,4278.461538461539,4267.179487179487,4186.666666666667,4532.820512820514
713.2458,0.08356209,0.29198813,0.33343434,0.5522117,0,0.0,0.0,0.0,0.0,0.11729007,0,0,0.0,0.0,0,0,85.0,0.0,496.0,4621.025641025642,3951.7948717948725,4489.2307692307695,4443.076923076924,4249.74358974359,4539.48717948718,4444.615384615385,4455.384615384616,4396.923076923077,4721.538461538462,4269.74358974359,4235.384615384616,4149.2307692307695,4491.282051282052
713.496,0.08356209,0.29198813,0.33343434,0.5522117,0,0.0,0.0,0.0,0.0,0.043901883,0,0,0.0,0.0,0,0,117.0,0.0,496.0,4610.256410256411,3942.0512820512827,4496.410256410257,4446.153846153847,4251.794871794872,4541.538461538462,4442.564102564103,4472.820512820514,4394.871794871796,4712.307692307693,4268.205128205129,4244.102564102564,4143.076923076924,4502.564102564103
713.65234,0.059160896,0.29546177,0.33342424,0.5522144,0,0.0,0.0,0.0,0.0,0.0,0,0,0.0,0.0,0,0,8.0,0.0,372.0,4641.025641025642,3944.1025641025644,4496.923076923077,4428.717948717949,4248.717948717949,4536.923076923077,4431.794871794872,4464.102564102564,4393.846153846154,4689.743589743591,4265.641025641026,4245.641025641026,4143.589743589744,4509.743589743591
713.9964,0.059160896,0.29546177,0.33342424,0.5522144,0,0.0,0.0,0.0,0.0,0.0,0,0,0.0,0.0,0,0,52.0,0.0,0.0,4635.384615384616,3949.7435897435903,4492.820512820514,4434.871794871796,4248.717948717949,4540.512820512821,4442.564102564103,4486.666666666667,4402.051282051282,4728.205128205129,4269.2307692307695,4248.717948717949,4158.461538461539,4509.2307692307695
714.1528,0.048922475,0.2788987,0.33341515,0.5522168,0,0.0,0.0,0.0,0.0,0.0,0,0,0.0,0.0,0,0,72.0,0.0,372.0,4670.256410256411,3986.666666666667,4523.589743589744,4428.717948717949,4246.153846153847,4538.974358974359,4447.6923076923085,4510.769230769231,4397.435897435898,4691.282051282052,4271.282051282052,4290.256410256411,4187.179487179487,4543.589743589744
714.4968,0.048922475,0.2788987,0.33341515,0.5522168,0,0.0,0.0,0.0,0.0,0.079116985,0,0,0.0,0.0,0,0,116.0,0.0,137.0,4651.794871794872,4002.0512820512827,4506.153846153847,4438.974358974359,4245.641025641026,4536.410256410257,4436.923076923077,4484.615384615385,4378.974358974359,4665.128205128206,4253.846153846154,4249.74358974359,4120.512820512821,4505.128205128206
714.7471,0.055116374,0.27686462,0.33340696,0.55221903,0,0.0,0.0,0.0,0.0,0.046368524,0,0,0.0,0.0,0,0,19.0,0.0,0.0,4644.102564102564,3978.9743589743593,4507.179487179488,4443.076923076924,4246.153846153847,4537.948717948719,4459.48717948718,4512.307692307693,4403.589743589744,4680.000000000001,4255.8974358974365,4248.205128205129,4117.435897435898,4520.000000000001
714.99725,0.055116374,0.27686462,0.33340696,0.55221903,0,0.0,0.0,0.0,0.0,0.114939354,0,0,0.0,0.0,0,0,51.0,0.0,0.0,4630.256410256411,3955.8974358974365,4498.461538461539,4434.871794871796,4237.435897435898,4535.8974358974365,4458.974358974359,4511.794871794872,4405.128205128206,4709.743589743591,4258.461538461539,4247.179487179487,4153.846153846154,4530.769230769231
715.2475,0.007536367,0.24679208,0.3333996,0.552221,0,0.0,0.0,0.0,0.0,0.22733338,0,0,0.0,0.0,0,0,83.0,0.0,475.0,4642.051282051282,3968.205128205129,4509.743589743591,4442.051282051282,4250.256410256411,4540.512820512821,4465.641025641026,4518.461538461539,4413.846153846154,4717.948717948719,4267.6923076923085,4263.589743589744,4181.538461538462,4560.000000000001
715.4977,0.007536367,0.24679208,0.3333996,0.552221,0,0.0,0.0,0.0,0.0,0.0,0,0,0.0,0.0,0,0,115.0,0.0,475.0,4656.410256410257,3966.666666666667,4505.128205128206,4429.2307692307695,4249.74358974359,4539.48717948718,4460.512820512821,4519.48717948718,4418.974358974359,4708.717948717949,4259.48717948718,4273.846153846154,4173.846153846154,4562.051282051282
715.65405,0.0,0.21689808,0.33339298,0.5522228,0,0.0,0.0,0.0,0.0,0.0,0,0,0.0,0.0,0,0,6.0,0.0,547.0,4658.974358974359,3954.358974358975,4515.384615384616,4442.051282051282,4252.820512820514,4545.641025641026,4467.6923076923085,4528.205128205129,4426.666666666667,4717.948717948719,4253.846153846154,4281.538461538462,4169.74358974359,4570.256410256411
716.06067,0.0,0.21689808,0.33339298,0.5522228,1,0.0,0.0,0.0,0.0,0.0,0,0,0.0,0.0,0,0,58.0,0.0,0.0,4652.307692307693,3940.5128205128212,4514.358974358975,4432.820512820514,4248.717948717949,4540.512820512821,4473.846153846154,4542.051282051282,4440.512820512821,4737.948717948719,4252.307692307693,4295.8974358974365,4215.8974358974365,4577.435897435898
716.24835,0.029455442,0.20469208,0.33338702,0.5522244,0,0.0,0.0,0.0,0.0,0.09596668,0,0,0.0,0.0,0,0,82.0,0.0,525.0,4623.076923076924,3980.0000000000005,4488.205128205129,4448.717948717949,4250.256410256411,4540.000000000001,4443.589743589744,4471.282051282052,4408.717948717949,4649.2307692307695,4215.384615384616,4221.538461538462,4075.3846153846157,4508.717948717949
716.5611,0.029455442,0.20469208,0.33338702,0.5522244,0,0.0,0.0,0.0,0.0,0.072962366,0,1,0.0,0.0,0,0,122.0,0.0,525.0,4615.8974358974365,3926.666666666667,4490.769230769231,4429.2307692307695,4247.6923076923085,4536.410256410257,4452.820512820514,4490.256410256411,4428.205128205129,4716.923076923077,4229.2307692307695,4254.358974358975,4169.2307692307695,4522.564102564103
716.7488,0.03431226,0.19743532,0.33338165,0.5522258,0,0.0,0.0,0.0,0.0,0.12568325,0,1,0.0,0.0,0,0,17.0,0.0,0.0,4628.205128205129,3926.1538461538466,4491.282051282052,4428.205128205129,4248.717948717949,4539.48717948718,4456.410256410257,4491.794871794872,4428.205128205129,4712.307692307693,4233.846153846154,4262.564102564103,4172.820512820514,4509.743589743591
716.99896,0.03431226,0.19743532,0.33338165,0.5522258,0,0.0,0.0,0.0,0.0,0.20882133,0,1,0.0,0.0,0,0,49.0,0.0,0.0,4646.153846153847,3982.564102564103,4503.589743589744,4442.051282051282,4265.641025641026,4550.256410256411,4449.2307692307695,4474.358974358975,4414.358974358975,4663.076923076924,4217.948717948719,4246.153846153847,4082.564102564103,4488.205128205129
717.2492,0.0,0.19466838,0.33337682,0.55222714,0,0.0,0.0,0.0,0.0,0.084784724,0,1,0.0,0.0,0,0,81.0,0.0,497.0,4644.102564102564,3965.1282051282055,4507.6923076923085,4447.179487179487,4253.333333333334,4539.48717948718,4461.538461538462,4473.333333333334,4417.435897435898,4676.410256410257,4224.615384615385,4266.666666666667,4147.6923076923085,4507.6923076923085
717.4994,0.0,0.19466838,0.33337682,0.55222714,0,0.0,0.0,0.0,0.0,0.15971585,0,0,0.0,0.0,0,1,113.0,0.0,497.0,4658.974358974359,3936.410256410257,4523.589743589744,4441.025641025642,4255.384615384616,4547.179487179488,4483.076923076924,4502.564102564103,4442.564102564103,4732.820512820514,4252.820512820514,4298.974358974359,4214.871794871796,4509.2307692307695
717.8122,0.06406076,0.24045059,0.33337247,0.55222833,0,0.0,0.0,0.0,0.0,0.19894448,0,0,0.0,0.0,0,0,24.0,0.0,0.0,4646.153846153847,3918.9743589743593,4507.6923076923085,4432.820512820514,4248.205128205129,4539.48717948718,4464.102564102564,4492.820512820514,4433.333333333334,4730.256410256411,4241.538461538462,4261.538461538462,4184.615384615385,4461.538461538462
718.0311,0.06406076,0.24045059,0.33337247,0.55222833,1,0.0,0.0,0.0,0.0,0.18307322,0,0,0.0,0.0,0,0,52.0,0.0,0.0,4665.128205128206,3940.0000000000005,4522.564102564103,4428.205128205129,4247.6923076923085,4536.923076923077,4456.923076923077,4478.974358974359,4429.743589743591,4717.948717948719,4250.256410256411,4281.025641025642,4198.461538461539,4492.307692307693
718.25006,0.06035258,0.25652006,0.33336854,0.55222934,0,0.0,0.0,0.0,0.0,0.18846676,0,0,0.0,0.0,0,0,80.0,0.0,129.0,4625.128205128206,3904.1025641025644,4508.205128205129,4440.000000000001,4255.384615384616,4546.666666666667,4463.589743589744,4489.2307692307695,4434.358974358975,4720.000000000001,4247.179487179487,4260.000000000001,4170.769230769231,4465.128205128206
718.5003,0.06035258,0.25652006,0.33336854,0.55222934,0,0.0,0.0,0.0,0.0,0.0,0,0,0.0,0.0,0,0,112.0,0.0,129.0,4624.615384615385,3897.435897435898,4502.564102564103,4430.256410256411,4243.589743589744,4536.923076923077,4460.512820512821,4473.333333333334,4441.025641025642,4706.666666666667,4242.564102564103,4247.179487179487,4148.717948717949,4457.948717948719
718.7505,0.037251428,0.28660288,0.33336502,0.5522303,0,0.0,0.0,0.0,0.0,0.08215497,0,0,0.0,0.0,0,0,15.0,0.0,475.0,4635.384615384616,3957.435897435898,4505.128205128206,4444.102564102564,4244.102564102564,4537.435897435898,4445.128205128206,4443.076923076924,4415.8974358974365,4643.076923076924,4227.179487179487,4222.051282051282,4063.589743589744,4433.846153846154
719.00073,0.037251428,0.28660288,0.33336502,0.5522303,0,0.0,0.0,0.0,0.0,0.097489364,0,0,0.0,0.0,0,0,47.0,0.0,0.0,4623.589743589744,3922.0512820512827,4501.025641025642,4441.538461538462,4236.923076923077,4536.410256410257,4444.615384615385,4431.794871794872,4409.743589743591,4675.384615384616,4226.666666666667,4227.179487179487,4091.7948717948725,4425.641025641026
719.2509,0.048728798,0.31013066,0.33336186,0.55223113,0,0.0,0.0,0.0,0.0,0.1447017,0,0,0.0,0.0,0,0,79.0,0.0,475.0,4647.6923076923085,3893.333333333334,4509.743589743591,4441.538461538462,4242.051282051282,4538.461538461539,4460.000000000001,4463.589743589744,4433.846153846154,4737.948717948719,4246.666666666667,4266.153846153847,4189.74358974359,4435.384615384616
719.50116,0.048728798,0.31013066,0.33336186,0.55223113,0,0.0,0.0,0.0,0.0,0.07940001,0,0,0.0,0.0,0,0,111.0,0.0,475.0,4629.743589743591,3895.3846153846157,4500.512820512821,4437.435897435898,4232.820512820514,4537.948717948719,4453.846153846154,4460.512820512821,4424.615384615385,4731.282051282052,4245.128205128206,4254.358974358975,4184.615384615385,4412.307692307693
719.75134,0.07248645,0.30132025,0.333359,0.5522319,0,0.0,0.0,0.0,0.0,0.0,0,0,0.0,0.0,0,0,14.0,0.0,525.0,4647.179487179488,3913.333333333334,4508.717948717949,4444.615384615385,4244.615384615385,4537.948717948719,4457.948717948719,4453.846153846154,4431.282051282052,4726.666666666667,4246.153846153847,4267.6923076923085,4185.641025641026,4435.384615384616
720.06415,0.07248645,0.30132025,0.333359,0.5522319,1,0.0,0.0,0.0,0.0,0.0,0,0,0.0,0.0,0,0,54.0,0.0,0.0,4673.333333333334,3965.6410256410263,4521.538461538462,4441.538461538462,4231.794871794872,4540.000000000001,4451.282051282052,4455.8974358974365,4425.128205128206,4721.025641025642,4252.307692307693,4292.820512820514,4205.128205128206,4502.564102564103
720.2518,0.13099496,0.29325482,0.33335644,0.5522326,0,0.0,0.0,0.0,0.0,0.21493252,0,0,0.0,0.0,0,0,78.0,0.0,525.0,4637.435897435898,3899.48717948718,4504.102564102564,4432.820512820514,4246.153846153847,4543.076923076924,4457.435897435898,4456.923076923077,4417.435897435898,4720.000000000001,4242.051282051282,4249.74358974359,4168.717948717949,4489.743589743591
720.502,0.13099496,0.29325482,0.33335644,0.5522326,0,0.0,0.0,0.0,0.0,0.18588887,0,0,0.0,0.0,0,0,110.0,0.0,525.0,4630.769230769231,3916.9230769230776,4505.128205128206,4456.410256410257,4263.589743589744,4557.948717948719,4458.974358974359,4453.846153846154,4421.025641025642,4703.076923076924,4241.025641025642,4233.846153846154,4136.923076923077,4523.076923076924
720.7522,0.07791424,0.28599593,0.33335412,0.5522332,0,0.0,0.0,0.0,0.0,0.103148185,0,0,0.0,0.0,0,0,13.0,0.0,497.0,4617.948717948719,3908.717948717949,4490.256410256411,4443.076923076924,4247.179487179487,4542.564102564103,4461.025641025642,4454.871794871796,4411.794871794872,4718.461538461539,4239.48717948718,4217.948717948719,4140.512820512821,4509.743589743591
721.00244,0.07791424,0.28599593,0.33335412,0.5522332,0,0.0,0.0,0.0,0.0,0.0,0,0,0.0,0.0,0,0,45.0,0.0,0.0,4612.820512820514,3917.9487179487182,4485.128205128206,4428.205128205129,4233.846153846154,4536.410256410257,4443.076923076924,4437.435897435898,4406.666666666667,4703.076923076924,4238.974358974359,4216.923076923077,4138.974358974359,4526.666666666667
721.1588,0.08461216,0.2794629,0.33335206,0.55223376,0,0.0,0.0,0.0,0.0,0.0,0,0,0.0,0.0,0,0,65.0,0.0,450.0,4617.435897435898,3914.358974358975,4489.2307692307695,4426.666666666667,4233.333333333334,4529.743589743591,4434.871794871796,4427.6923076923085,4404.102564102564,4705.128205128206,4241.538461538462,4229.2307692307695,4138.974358974359,4537.948717948719
721.1588,0.08461216,0.2794629,0.33335206,0.55223376,0,0.0,0.0,0.0,0.0,0.0,0,0,0.0,0.0,0,0,65.0,0.0,450.0,4617.435897435898,3914.358974358975,4489.2307692307695,4426.666666666667,4233.333333333334,4529.743589743591,4434.871794871796,4427.6923076923085,4404.102564102564,4705.128205128206,4241.538461538462,4229.2307692307695,4138.974358974359,4537.948717948719
721.65924,0.120092705,0.2735832,0.33335018,0.5522343,0,0.0,0.0,0.0,0.0,0.0,0,0,0.0,0.0,0,0,0.0,0.0,480.0,4624.615384615385,3936.410256410257,4503.589743589744,4440.000000000001,4246.153846153847,4540.512820512821,4446.153846153847,4448.205128205129,4411.794871794872,4702.564102564103,4247.179487179487,4243.076923076924,4137.435897435898,4538.461538461539
722.0033,0.120092705,0.2735832,0.33335018,0.5522343,1,0.0,0.0,0.0,0.0,0.17602032,0,0,0.0,0.0,0,0,44.0,0.0,0.0,4641.025641025642,3971.2820512820517,4518.461538461539,4442.564102564103,4244.102564102564,4539.48717948718,4449.743589743591,4443.076923076924,4413.333333333334,4730.256410256411,4262.051282051282,4278.974358974359,4202.051282051282,4591.282051282052
722.2535,0.16895732,0.27163014,0.33334848,0.5522347,0,0.0,0.0,0.0,0.0,0.17697339,0,0,0.0,0.0,0,0,76.0,0.0,126.0,4643.076923076924,4017.9487179487182,4494.871794871796,4432.307692307693,4233.333333333334,4533.846153846154,4428.205128205129,4413.333333333334,4396.410256410257,4661.538461538462,4242.051282051282,4228.717948717949,4107.179487179487,4542.564102564103
722.5037,0.16895732,0.27163014,0.33334848,0.5522347,0,0.0,0.0,0.0,0.0,0.56028414,0,0,0.0,0.0,0,0,108.0,0.0,126.0,4624.102564102564,4254.871794871796,4553.846153846154,4497.435897435898,4244.615384615385,4549.743589743591,4474.358974358975,4470.256410256411,4432.307692307693,4791.282051282052,4271.282051282052,4231.282051282052,4246.666666666667,4690.769230769231
722.7539,0.24200398,0.31540272,0.33334696,0.5522351,0,0.0,0.0,0.0,0.0,0.37159452,0,0,0.0,0.0,0,0,11.0,0.0,471.0,4663.076923076924,3974.8717948717954,4546.153846153847,4457.435897435898,4232.820512820514,4538.974358974359,4490.256410256411,4462.051282051282,4422.051282051282,4718.974358974359,4263.076923076924,4249.74358974359,4197.435897435898,4547.179487179488
723.00415,0.24200398,0.31540272,0.33334696,0.5522351,0,0.0,0.0,0.0,0.0,0.29485843,0,0,0.0,0.0,0,0,43.0,0.0,0.0,4635.384615384616,3927.692307692308,4520.512820512821,4454.358974358975,4228.717948717949,4537.948717948719,4478.461538461539,4455.8974358974365,4415.384615384616,4698.974358974359,4258.461538461539,4216.410256410257,4166.153846153847,4504.102564102564
723.25433,0.28271592,0.41304067,0.33334562,0.5522355,0,0.0,0.0,0.0,0.0,0.1873986,0,0,0.0,0.0,0,0,75.0,0.0,471.0,4675.8974358974365,3962.564102564103,4552.820512820514,4458.461538461539,4233.333333333334,4537.948717948719,4458.461538461539,4458.461538461539,4421.025641025642,4734.358974358975,4274.871794871796,4274.358974358975,4220.000000000001,4489.743589743591
723.5046,0.28271592,0.41304067,0.33334562,0.5522355,0,0.0,0.0,0.0,0.0,0.41361514,0,0,0.0,0.0,0,0,107.0,0.0,471.0,4599.48717948718,3908.717948717949,4526.666666666667,4443.076923076924,4218.974358974359,4525.641025641026,4443.589743589744,4412.820512820514,4398.461538461539,4701.538461538462,4253.333333333334,4216.923076923077,4166.153846153847,4402.051282051282
723.7548,0.31390053,0.5156427,0.33334437,0.55223584,0,0.0,0.0,0.0,0.0,0.0,0,0,0.0,0.0,0,0,10.0,0.0,525.0,4614.358974358975,3906.666666666667,4552.307692307693,4445.128205128206,4231.794871794872,4538.461538461539,4443.076923076924,4417.948717948719,4403.589743589744,4720.000000000001,4249.2307692307695,4213.846153846154,4161.538461538462,4410.769230769231
723.7548,0.31390053,0.5156427,0.33334437,0.55223584,0,0.0,0.0,0.0,0.0,0.0,0,0,0.0,0.0,0,0,10.0,0.0,525.0,4614.358974358975,3906.666666666667,4552.307692307693,4445.128205128206,4231.794871794872,4538.461538461539,4443.076923076924,4417.948717948719,4403.589743589744,4720.000000000001,4249.2307692307695,4213.846153846154,4161.538461538462,4410.769230769231
724.1614,0.33898145,0.5651196,0.33334327,0.55223614,0,0.0,0.0,0.0,0.0,0.0,0,0,0.0,0.0,0,0,62.0,0.0,0.0,4621.025641025642,3921.538461538462,4551.282051282052,4440.000000000001,4227.6923076923085,4538.974358974359,4427.6923076923085,4406.666666666667,4397.435897435898,4706.666666666667,4249.2307692307695,4237.948717948719,4188.717948717949,4457.948717948719
724.1614,0.33898145,0.5651196,0.33334327,0.55223614,0,0.0,0.0,0.0,0.0,0.0,0,0,0.0,0.0,0,0,62.0,0.0,0.0,4621.025641025642,3921.538461538462,4551.282051282052,4440.000000000001,4227.6923076923085,4538.974358974359,4427.6923076923085,4406.666666666667,4397.435897435898,4706.666666666667,4249.2307692307695,4237.948717948719,4188.717948717949,4457.948717948719
724.6618,0.3115158,0.5641675,0.33334228,0.5522364,0,0.0,0.0,0.0,0.0,0.0,0,0,0.0,0.0,0,0,126.0,0.0,525.0,4644.615384615385,3927.692307692308,4554.358974358975,4458.461538461539,4247.179487179487,4556.410256410257,4442.564102564103,4409.2307692307695,4406.666666666667,4732.307692307693,4245.128205128206,4248.205128205129,4201.538461538462,4474.871794871796
724.6618,0.3115158,0.5641675,0.33334228,0.5522364,0,0.0,0.0,0.0,0.0,0.0,0,0,0.0,0.0,0,0,126.0,0.0,525.0,4644.615384615385,3927.692307692308,4554.358974358975,4458.461538461539,4247.179487179487,4556.410256410257,4442.564102564103,4409.2307692307695,4406.666666666667,4732.307692307693,4245.128205128206,4248.205128205129,4201.538461538462,4474.871794871796
725.31866,0.25753495,0.54260767,0.3333414,0.5522366,0,0.0,0.0,0.0,0.0,0.23501918,0,0,0.0,0.0,0,0,81.0,0.0,497.0,4600.000000000001,3895.3846153846157,4557.948717948719,4425.641025641026,4222.051282051282,4529.2307692307695,4402.051282051282,4349.2307692307695,4383.589743589744,4696.410256410257,4230.256410256411,4207.179487179487,4147.6923076923085,4520.512820512821
725.5063,0.25753495,0.54260767,0.3333414,0.5522366,0,0.0,0.0,0.0,0.0,0.18707153,0,0,0.0,0.0,0,0,105.0,0.0,497.0,4600.512820512821,3878.9743589743593,4547.6923076923085,4411.282051282052,4218.461538461539,4531.282051282052,4411.282051282052,4347.179487179487,4378.461538461539,4676.410256410257,4225.641025641026,4194.871794871796,4113.333333333334,4517.948717948719
725.75653,0.30318272,0.5332681,0.3333406,0.55223686,0,0.0,0.0,0.0,0.0,0.13457935,0,0,0.0,0.0,0,0,8.0,0.0,372.0,4615.8974358974365,3912.307692307693,4537.948717948719,4432.820512820514,4232.820512820514,4538.974358974359,4418.974358974359,4354.358974358975,4380.512820512821,4690.769230769231,4233.846153846154,4207.6923076923085,4136.410256410257,4542.051282051282
725.8816,0.30318272,0.5332681,0.3333406,0.55223686,0,0.0,0.0,0.0,0.0,0.0,0,0,0.0,0.0,0,0,24.0,0.0,0.0,4614.358974358975,3895.8974358974365,4523.076923076924,4418.974358974359,4230.256410256411,4531.794871794872,4413.846153846154,4347.6923076923085,4381.025641025642,4671.794871794872,4232.820512820514,4199.48717948718,4120.512820512821,4521.025641025642
726.25696,0.3239775,0.51698226,0.33333987,0.55223703,0,0.0,0.0,0.0,0.0,0.35646296,0,0,0.0,0.0,0,0,72.0,0.0,372.0,4616.410256410257,3910.2564102564106,4509.2307692307695,4424.615384615385,4239.48717948718,4537.948717948719,4424.102564102564,4357.435897435898,4387.179487179487,4673.846153846154,4232.307692307693,4220.512820512821,4132.307692307693,4469.2307692307695
726.50714,0.3239775,0.51698226,0.33333987,0.55223703,0,0.0,0.0,0.0,0.0,0.39783,0,0,0.0,0.0,0,0,104.0,0.0,119.0,4605.128205128206,3911.7948717948725,4481.025641025642,4429.2307692307695,4246.666666666667,4537.948717948719,4437.435897435898,4402.564102564103,4413.846153846154,4672.307692307693,4231.794871794872,4213.333333333334,4121.538461538462,4416.410256410257
726.78864,0.20669772,0.50097907,0.3333392,0.5522372,1,0.0,0.0,0.0,0.0,0.15153368,0,0,0.0,0.0,0,0,11.0,0.0,472.0,4630.769230769231,3918.9743589743593,4474.871794871796,4434.871794871796,4249.2307692307695,4539.48717948718,4441.025641025642,4424.615384615385,4414.358974358975,4674.358974358975,4240.000000000001,4231.282051282052,4139.48717948718,4445.641025641026
727.00757,0.20669772,0.50097907,0.3333392,0.5522372,0,0.0,0.0,0.0,0.0,0.0910093,0,0,0.0,0.0,0,0,39.0,0.0,0.0,4622.564102564103,3878.9743589743593,4473.846153846154,4437.948717948719,4248.205128205129,4541.025641025642,4444.615384615385,4443.076923076924,4427.179487179487,4703.589743589744,4244.102564102564,4243.589743589744,4160.000000000001,4460.000000000001
727.2578,0.18696195,0.47518703,0.33333862,0.5522374,0,0.0,0.0,0.0,0.0,0.036821794,0,0,0.0,0.0,0,0,71.0,0.0,465.0,4601.538461538462,3845.6410256410263,4459.48717948718,4431.794871794872,4247.6923076923085,4541.025641025642,4455.384615384616,4432.307692307693,4427.6923076923085,4696.923076923077,4240.000000000001,4237.435897435898,4151.794871794872,4444.102564102564
727.508,0.18696195,0.47518703,0.33333862,0.5522374,0,0.0,0.0,0.0,0.0,0.13534167,0,0,0.0,0.0,0,0,103.0,0.0,472.0,4630.769230769231,3901.538461538462,4475.384615384616,4442.051282051282,4250.769230769231,4543.076923076924,4459.48717948718,4470.769230769231,4444.102564102564,4716.923076923077,4253.846153846154,4265.641025641026,4177.435897435898,4432.307692307693
727.6644,0.14742279,0.4764251,0.33333808,0.5522375,0,0.0,0.0,0.0,0.0,0.0,0,0,0.0,0.0,0,0,123.0,0.0,472.0,4612.820512820514,3895.3846153846157,4458.974358974359,4427.6923076923085,4242.051282051282,4537.435897435898,4450.769230769231,4438.461538461539,4426.153846153847,4717.948717948719,4247.6923076923085,4248.205128205129,4183.589743589744,4397.435897435898
727.6644,0.14742279,0.4764251,0.33333808,0.5522375,0,0.0,0.0,0.0,0.0,0.0,0,0,0.0,0.0,0,0,123.0,0.0,472.0,4612.820512820514,3895.3846153846157,4458.974358974359,4427.6923076923085,4242.051282051282,4537.435897435898,4450.769230769231,4438.461538461539,4426.153846153847,4717.948717948719,4247.6923076923085,4248.205128205129,4183.589743589744,4397.435897435898
728.22736,0.09599749,0.48653343,0.3333376,0.55223763,1,0.0,0.0,0.0,0.0,0.0,0,0,0.0,0.0,0,0,66.0,0.0,455.0,4656.410256410257,3989.7435897435903,4488.205128205129,4440.512820512821,4247.179487179487,4538.461538461539,4443.589743589744,4442.564102564103,4429.743589743591,4726.153846153847,4258.461538461539,4288.717948717949,4223.589743589744,4415.384615384616
728.50885,0.09599749,0.48653343,0.3333376,0.55223763,0,0.0,0.0,0.0,0.0,0.20575236,0,0,0.0,0.0,0,0,102.0,0.0,525.0,4616.923076923077,3925.6410256410263,4460.000000000001,4431.794871794872,4242.564102564103,4534.358974358975,4443.589743589744,4442.051282051282,4429.2307692307695,4701.538461538462,4242.564102564103,4244.102564102564,4152.820512820514,4326.153846153847
728.7591,0.12816186,0.5728515,0.3333372,0.55223775,0,0.0,0.0,0.0,0.0,0.18831562,0,0,0.0,0.0,0,0,5.0,0.0,552.0,4607.179487179488,3913.333333333334,4457.948717948719,4427.179487179487,4233.846153846154,4527.179487179488,4436.410256410257,4428.205128205129,4413.846153846154,4714.358974358975,4244.615384615385,4239.48717948718,4157.948717948719,4304.615384615385
729.00934,0.12816186,0.5728515,0.3333372,0.55223775,0,0.0,0.0,0.0,0.0,0.080069385,0,0,0.0,0.0,0,0,37.0,0.0,0.0,4615.8974358974365,3914.8717948717954,4460.512820512821,4419.48717948718,4234.871794871796,4525.641025641026,4439.48717948718,4427.179487179487,4414.358974358975,4714.871794871796,4245.641025641026,4230.769230769231,4153.333333333334,4294.358974358975
729.1657,0.119128905,0.5925706,0.3333368,0.55223787,0,0.0,0.0,0.0,0.0,0.0,0,0,0.0,0.0,0,0,57.0,0.0,0.0,4617.948717948719,3918.9743589743593,4464.615384615385,4415.384615384616,4232.820512820514,4530.769230769231,4434.358974358975,4400.512820512821,4394.358974358975,4688.205128205129,4241.025641025642,4233.333333333334,4138.974358974359,4303.589743589744
729.1657,0.119128905,0.5925706,0.3333368,0.55223787,0,0.0,0.0,0.0,0.0,0.0,0,0,0.0,0.0,0,0,57.0,0.0,0.0,4617.948717948719,3918.9743589743593,4464.615384615385,4415.384615384616,4232.820512820514,4530.769230769231,4434.358974358975,4400.512820512821,4394.358974358975,4688.205128205129,4241.025641025642,4233.333333333334,4138.974358974359,4303.589743589744
729.66614,0.17394252,0.5875706,0.33333644,0.552238,0,0.0,0.0,0.0,0.0,0.0,0,0,0.0,0.0,0,0,121.0,0.0,497.0,4648.717948717949,3916.9230769230776,4493.333333333334,4416.410256410257,4233.333333333334,4535.8974358974365,4442.051282051282,4428.205128205129,4411.794871794872,4730.256410256411,4255.384615384616,4263.076923076924,4168.717948717949,4352.307692307693
729.66614,0.17394252,0.5875706,0.33333644,0.552238,0,0.0,0.0,0.0,0.0,0.0,0,0,0.0,0.0,0,0,121.0,0.0,497.0,4648.717948717949,3916.9230769230776,4493.333333333334,4416.410256410257,4233.333333333334,4535.8974358974365,4442.051282051282,4428.205128205129,4411.794871794872,4730.256410256411,4255.384615384616,4263.076923076924,4168.717948717949,4352.307692307693
730.16656,0.14183676,0.60317826,0.33333614,0.55223805,0,0.0,0.0,0.0,0.0,0.0,0,0,0.0,0.0,0,0,56.0,0.0,0.0,4616.410256410257,3916.410256410257,4492.307692307693,4420.000000000001,4229.2307692307695,4535.384615384616,4420.000000000001,4418.461538461539,4397.948717948719,4710.769230769231,4254.358974358975,4231.794871794872,4140.000000000001,4378.461538461539
730.16656,0.14183676,0.60317826,0.33333614,0.55223805,0,0.0,0.0,0.0,0.0,0.0,0,0,0.0,0.0,0,0,56.0,0.0,0.0,4616.410256410257,3916.410256410257,4492.307692307693,4420.000000000001,4229.2307692307695,4535.384615384616,4420.000000000001,4418.461538461539,4397.948717948719,4710.769230769231,4254.358974358975,4231.794871794872,4140.000000000001,4378.461538461539
730.8546,0.075430885,0.5967225,0.33333588,0.5522381,0,0.0,0.0,0.0,0.0,0.0,0,0,0.0,0.0,0,0,15.0,0.0,474.0,4618.974358974359,3897.9487179487182,4505.128205128206,4418.461538461539,4233.333333333334,4536.923076923077,4458.974358974359,4445.128205128206,4410.769230769231,4725.641025641026,4266.153846153847,4247.179487179487,4145.128205128206,4490.769230769231
731.01105,0.075430885,0.5967225,0.33333588,0.5522381,0,0.0,0.0,0.0,0.0,0.14633518,0,0,0.0,0.0,0,0,35.0,0.0,0.0,4617.435897435898,3893.333333333334,4490.256410256411,4427.6923076923085,4230.769230769231,4535.384615384616,4441.538461538462,4444.615384615385,4411.794871794872,4717.435897435898,4265.128205128206,4247.6923076923085,4134.358974358975,4507.179487179488
731.2612,0.044817552,0.61683834,0.3333356,0.55223817,0,0.0,0.0,0.0,0.0,0.27945626,0,0,0.0,0.0,0,0,67.0,0.0,492.0,4597.435897435898,3895.3846153846157,4473.333333333334,4430.769230769231,4256.923076923077,4533.333333333334,4440.512820512821,4426.666666666667,4400.000000000001,4708.205128205129,4260.000000000001,4230.769230769231,4120.512820512821,4520.000000000001
731.5115,0.044817552,0.61683834,0.3333356,0.55223817,0,0.0,0.0,0.0,0.0,0.0,0,0,0.0,0.0,0,0,99.0,0.0,474.0,4587.6923076923085,3894.358974358975,4471.794871794872,4425.641025641026,4246.666666666667,4521.538461538462,4459.48717948718,4418.974358974359,4402.564102564103,4704.102564102564,4262.051282051282,4229.74358974359,4131.794871794872,4521.538461538462
731.66785,0.0,0.63996214,0.33333537,0.5522383,0,0.0,0.0,0.0,0.0,0.0,0,0,0.0,0.0,0,0,119.0,0.0,474.0,4589.743589743591,3882.564102564103,4490.256410256411,4429.2307692307695,4249.2307692307695,4535.8974358974365,4461.025641025642,4437.948717948719,4409.2307692307695,4713.333333333334,4265.641025641026,4249.74358974359,4140.000000000001,4526.666666666667
731.66785,0.0,0.63996214,0.33333537,0.5522383,0,0.0,0.0,0.0,0.0,0.0,0,0,0.0,0.0,0,0,119.0,0.0,474.0,4589.743589743591,3882.564102564103,4490.256410256411,4429.2307692307695,4249.2307692307695,4535.8974358974365,4461.025641025642,4437.948717948719,4409.2307692307695,4713.333333333334,4265.641025641026,4249.74358974359,4140.000000000001,4526.666666666667
732.2621,0.0,0.64104694,0.3333352,0.5522383,0,0.0,0.0,0.0,0.0,0.14419007,0,0,0.0,0.0,0,0,66.0,0.0,455.0,4586.153846153847,3871.7948717948725,4477.948717948719,4429.743589743591,4241.538461538462,4528.205128205129,4458.461538461539,4442.564102564103,4414.871794871796,4730.769230769231,4271.282051282052,4245.128205128206,4169.2307692307695,4509.2307692307695
732.5123,0.0,0.64104694,0.3333352,0.5522383,0,0.0,0.0,0.0,0.0,0.09290097,0,0,0.0,0.0,0,0,98.0,0.0,525.0,4586.153846153847,3907.1794871794878,4480.000000000001,4428.205128205129,4231.794871794872,4518.461538461539,4442.051282051282,4416.923076923077,4395.8974358974365,4711.282051282052,4269.2307692307695,4248.205128205129,4157.435897435898,4505.641025641026
732.7625,0.008929644,0.6333871,0.33333498,0.55223835,0,0.0,0.0,0.0,0.0,0.23696195,0,0,0.0,0.0,0,0,1.0,0.0,450.0,4584.615384615385,3910.2564102564106,4472.820512820514,4422.051282051282,4230.769230769231,4523.589743589744,4443.589743589744,4412.820512820514,4396.923076923077,4695.8974358974365,4262.051282051282,4232.307692307693,4136.923076923077,4490.769230769231
733.01276,0.008929644,0.6333871,0.33333498,0.55223835,0,0.0,0.0,0.0,0.0,0.14017233,0,0,0.0,0.0,0,0,33.0,0.0,0.0,4587.6923076923085,3909.2307692307695,4465.641025641026,4433.333333333334,4232.307692307693,4521.538461538462,4442.564102564103,4418.974358974359,4403.076923076924,4715.384615384616,4264.615384615385,4231.794871794872,4148.205128205129,4514.358974358975
733.26294,0.0041876715,0.5970738,0.33333483,0.5522384,0,0.0,0.0,0.0,0.0,0.09961306,0,0,0.0,0.0,0,0,65.0,0.0,450.0,4584.102564102564,3888.717948717949,4481.538461538462,4443.589743589744,4243.589743589744,4535.8974358974365,4463.076923076924,4460.000000000001,4414.871794871796,4751.794871794872,4277.948717948719,4241.538461538462,4159.48717948718,4518.974358974359
733.5132,0.0041876715,0.5970738,0.33333483,0.5522384,0,0.0,0.0,0.0,0.0,0.067369886,0,0,0.0,0.0,0,0,97.0,0.0,497.0,4605.641025641026,3926.666666666667,4492.820512820514,4445.641025641026,4242.051282051282,4534.358974358975,4457.435897435898,4429.743589743591,4395.8974358974365,4724.615384615386,4273.333333333334,4255.384615384616,4167.6923076923085,4554.871794871796
733.76337,0.023807595,0.5774075,0.33333468,0.55223846,0,0.0,0.0,0.0,0.0,0.05551428,0,0,0.0,0.0,0,0,0.0,0.0,480.0,4602.051282051282,3928.205128205129,4492.307692307693,4444.102564102564,4246.666666666667,4537.948717948719,4459.48717948718,4425.128205128206,4389.743589743591,4703.076923076924,4266.153846153847,4246.153846153847,4138.974358974359,4536.923076923077
733.8885,0.023807595,0.5774075,0.33333468,0.55223846,0,0.0,0.0,0.0,0.0,0.0,0,0,0.0,0.0,0,0,16.0,0.0,0.0,4610.256410256411,3941.0256410256416,4496.923076923077,4436.923076923077,4247.6923076923085,4537.435897435898,4457.948717948719,4427.6923076923085,4389.743589743591,4711.282051282052,4268.205128205129,4250.256410256411,4155.384615384616,4530.769230769231
734.17,0.0,0.55274075,0.33333454,0.55223846,0,0.0,0.0,0.0,0.0,0.0,0,0,0.0,0.0,0,0,52.0,0.0,0.0,4617.948717948719,3954.358974358975,4506.666666666667,4429.743589743591,4247.6923076923085,4539.48717948718,4473.333333333334,4442.564102564103,4393.333333333334,4709.2307692307695,4268.717948717949,4271.282051282052,4170.769230769231,4537.435897435898
734.17,0.0,0.55274075,0.33333454,0.55223846,0,0.0,0.0,0.0,0.0,0.0,0,0,0.0,0.0,0,0,52.0,0.0,0.0,4617.948717948719,3954.358974358975,4506.666666666667,4429.743589743591,4247.6923076923085,4539.48717948718,4473.333333333334,4442.564102564103,4393.333333333334,4709.2307692307695,4268.717948717949,4271.282051282052,4170.769230769231,4537.435897435898
734.6704,0.04762711,0.53089106,0.33333442,0.5522385,0,0.0,0.0,0.0,0.0,0.0,0,0,0.0,0.0,0,0,116.0,0.0,106.0,4594.358974358975,3936.410256410257,4491.282051282052,4412.307692307693,4227.179487179487,4521.538461538462,4444.102564102564,4425.128205128206,4381.025641025642,4688.205128205129,4265.641025641026,4238.461538461539,4135.384615384616,4508.205128205129
734.6704,0.04762711,0.53089106,0.33333442,0.5522385,0,0.0,0.0,0.0,0.0,0.0,0,0,0.0,0.0,0,0,116.0,0.0,106.0,4594.358974358975,3936.410256410257,4491.282051282052,4412.307692307693,4227.179487179487,4521.538461538462,4444.102564102564,4425.128205128206,4381.025641025642,4688.205128205129,4265.641025641026,4238.461538461539,4135.384615384616,4508.205128205129
735.17084,0.035410173,0.51728576,0.33333433,0.5522385,0,0.0,0.0,0.0,0.0,0.0,0,0,0.0,0.0,0,0,51.0,0.0,0.0,4639.48717948718,3943.589743589744,4511.794871794872,4430.256410256411,4238.461538461539,4533.846153846154,4441.538461538462,4417.435897435898,4382.564102564103,4708.205128205129,4275.8974358974365,4257.948717948719,4163.589743589744,4588.205128205129
735.17084,0.035410173,0.51728576,0.33333433,0.5522385,0,0.0,0.0,0.0,0.0,0.0,0,0,0.0,0.0,0,0,51.0,0.0,0.0,4639.48717948718,3943.589743589744,4511.794871794872,4430.256410256411,4238.461538461539,4533.846153846154,4441.538461538462,4417.435897435898,4382.564102564103,4708.205128205129,4275.8974358974365,4257.948717948719,4163.589743589744,4588.205128205129
735.67126,0.0,0.49196735,0.3333342,0.5522386,0,0.0,0.0,0.0,0.0,0.0,0,0,0.0,0.0,0,0,115.0,0.0,474.0,4644.102564102564,3973.333333333334,4524.615384615385,4429.743589743591,4247.179487179487,4538.974358974359,4446.153846153847,4432.820512820514,4395.8974358974365,4715.384615384616,4278.461538461539,4278.461538461539,4184.102564102564,4611.282051282052
735.67126,0.0,0.49196735,0.3333342,0.5522386,0,0.0,0.0,0.0,0.0,0.0,0,0,0.0,0.0,0,0,115.0,0.0,474.0,4644.102564102564,3973.333333333334,4524.615384615385,4429.743589743591,4247.179487179487,4538.974358974359,4446.153846153847,4432.820512820514,4395.8974358974365,4715.384615384616,4278.461538461539,4278.461538461539,4184.102564102564,4611.282051282052
736.1717,0.0,0.47297263,0.33333412,0.5522386,0,0.0,0.0,0.0,0.0,0.0,0,0,0.0,0.0,0,0,50.0,0.0,0.0,4619.48717948718,3954.358974358975,4509.2307692307695,4429.743589743591,4249.2307692307695,4545.128205128206,4457.948717948719,4447.6923076923085,4398.974358974359,4721.025641025642,4281.538461538462,4267.179487179487,4160.000000000001,4644.102564102564
736.51575,0.0,0.47297263,0.33333412,0.5522386,0,0.0,0.0,0.0,0.0,0.17392404,0,0,0.0,0.0,0,0,94.0,0.0,525.0,4630.769230769231,3958.9743589743593,4507.6923076923085,4432.307692307693,4246.153846153847,4541.538461538462,4443.589743589744,4443.076923076924,4395.8974358974365,4716.410256410257,4283.589743589744,4265.128205128206,4167.6923076923085,4664.102564102564
736.6721,0.017640363,0.45819944,0.33333406,0.55223864,0,0.0,0.0,0.0,0.0,0.0,0,0,0.0,0.0,0,0,114.0,0.0,525.0,4628.717948717949,3941.0256410256416,4508.717948717949,4433.846153846154,4247.179487179487,4541.538461538462,4457.948717948719,4456.410256410257,4405.128205128206,4731.794871794872,4289.74358974359,4263.589743589744,4168.205128205129,4646.666666666667
737.0162,0.017640363,0.45819944,0.33333406,0.55223864,0,0.0,0.0,0.0,0.0,0.0,0,0,0.0,0.0,0,0,29.0,0.0,0.0,4667.6923076923085,3960.0000000000005,4560.000000000001,4456.923076923077,4277.948717948719,4572.820512820514,4477.435897435898,4472.307692307693,4412.820512820514,4766.153846153847,4300.512820512821,4281.025641025642,4200.512820512821,4643.589743589744
737.17255,0.07626493,0.43010983,0.33333397,0.55223864,0,0.0,0.0,0.0,0.0,0.0,0,0,0.0,0.0,0,0,49.0,0.0,0.0,4659.48717948718,3948.717948717949,4595.384615384616,4453.846153846154,4263.076923076924,4571.282051282052,4474.358974358975,4460.000000000001,4407.179487179487,4766.666666666667,4294.871794871796,4248.717948717949,4180.512820512821,4614.871794871796
737.17255,0.07626493,0.43010983,0.33333397,0.55223864,0,0.0,0.0,0.0,0.0,0.0,0,0,0.0,0.0,0,0,49.0,0.0,0.0,4659.48717948718,3948.717948717949,4595.384615384616,4453.846153846154,4263.076923076924,4571.282051282052,4474.358974358975,4460.000000000001,4407.179487179487,4766.666666666667,4294.871794871796,4248.717948717949,4180.512820512821,4614.871794871796
737.76685,0.07146313,0.41371068,0.3333339,0.55223864,0,0.0,0.0,0.0,0.0,0.36168572,0,0,0.0,0.0,0,0,125.0,0.0,497.0,4695.384615384616,3972.820512820513,4669.743589743591,4446.666666666667,4246.666666666667,4568.717948717949,4423.589743589744,4398.461538461539,4377.435897435898,4744.615384615386,4291.282051282052,4232.820512820514,4236.923076923077,4523.589743589744
738.017,0.07146313,0.41371068,0.3333339,0.55223864,0,0.0,0.0,0.0,0.0,0.38564056,0,0,0.0,0.0,0,0,28.0,0.0,0.0,4705.641025641026,3962.0512820512827,4664.615384615386,4449.743589743591,4244.615384615385,4571.794871794872,4437.435897435898,4418.974358974359,4381.025641025642,4754.871794871796,4294.358974358975,4232.307692307693,4251.794871794872,4489.743589743591
738.2673,0.13575634,0.39185417,0.33333385,0.55223864,0,0.0,0.0,0.0,0.0,0.47562334,0,0,0.0,0.0,0,0,60.0,0.0,0.0,4675.8974358974365,3937.435897435898,4634.358974358975,4441.538461538462,4233.846153846154,4567.179487179488,4438.974358974359,4424.615384615385,4377.435897435898,4709.743589743591,4285.641025641026,4223.076923076924,4242.564102564103,4403.076923076924
738.51746,0.13575634,0.39185417,0.33333385,0.55223864,0,0.0,0.0,0.0,0.0,0.0,0,0,0.0,0.0,0,0,92.0,0.0,101.0,4688.205128205129,3949.2307692307695,4622.564102564103,4446.153846153847,4246.666666666667,4568.205128205129,4441.025641025642,4431.282051282052,4383.076923076924,4716.410256410257,4291.282051282052,4244.615384615385,4248.205128205129,4383.589743589744
738.8615,0.17076282,0.37128365,0.3333338,0.5522387,1,0.0,0.0,0.0,0.0,0.0,0,0,0.0,0.0,0,0,7.0,0.0,465.0,4782.051282051282,3943.076923076924,4584.102564102564,4433.333333333334,4233.333333333334,4553.333333333334,4440.512820512821,4433.333333333334,4385.128205128206,4709.2307692307695,4293.846153846154,4261.025641025642,4237.435897435898,4356.923076923077
739.0179,0.17076282,0.37128365,0.3333338,0.5522387,0,0.0,0.0,0.0,0.0,0.0,0,0,0.0,0.0,0,0,27.0,0.0,0.0,4747.6923076923085,3925.1282051282055,4554.358974358975,4433.333333333334,4233.333333333334,4551.794871794872,4445.128205128206,4443.589743589744,4388.717948717949,4704.615384615386,4292.820512820514,4260.000000000001,4234.871794871796,4341.025641025642
739.1743,0.23336554,0.39069298,0.33333376,0.5522387,0,0.0,0.0,0.0,0.0,0.0,0,0,0.0,0.0,0,0,47.0,0.0,0.0,4768.205128205129,3948.717948717949,4547.6923076923085,4442.051282051282,4244.102564102564,4549.2307692307695,4444.615384615385,4437.948717948719,4379.48717948718,4712.307692307693,4294.871794871796,4280.512820512821,4244.615384615385,4361.538461538462
739.1743,0.23336554,0.39069298,0.33333376,0.5522387,0,0.0,0.0,0.0,0.0,0.0,0,0,0.0,0.0,0,0,47.0,0.0,0.0,4768.205128205129,3948.717948717949,4547.6923076923085,4442.051282051282,4244.102564102564,4549.2307692307695,4444.615384615385,4437.948717948719,4379.48717948718,4712.307692307693,4294.871794871796,4280.512820512821,4244.615384615385,4361.538461538462
739.67474,0.27040666,0.40403232,0.3333337,0.5522387,0,0.0,0.0,0.0,0.0,0.0,0,0,0.0,0.0,0,0,111.0,0.0,475.0,4681.025641025642,3908.205128205129,4464.615384615385,4426.153846153847,4234.358974358975,4536.410256410257,4454.871794871796,4422.051282051282,4368.717948717949,4686.666666666667,4277.435897435898,4231.794871794872,4184.615384615385,4398.461538461539
740.05005,0.27040666,0.40403232,0.3333337,0.5522387,0,0.0,0.0,0.0,0.0,0.0,0,0,0.0,0.0,0,0,30.0,0.0,0.0,4678.461538461539,3925.6410256410263,4446.153846153847,4428.205128205129,4231.794871794872,4530.769230769231,4449.743589743591,4438.974358974359,4381.025641025642,4706.153846153847,4287.179487179487,4264.102564102564,4202.564102564103,4446.153846153847
740.1752,0.28139818,0.49207598,0.33333367,0.5522387,0,0.0,0.0,0.0,0.0,0.0,0,0,0.0,0.0,0,0,46.0,0.0,0.0,4666.153846153847,3929.2307692307695,4441.538461538462,4420.000000000001,4235.8974358974365,4526.666666666667,4445.128205128206,4412.307692307693,4368.717948717949,4672.307692307693,4280.512820512821,4246.666666666667,4169.74358974359,4427.6923076923085
740.1752,0.28139818,0.49207598,0.33333367,0.5522387,0,0.0,0.0,0.0,0.0,0.0,0,0,0.0,0.0,0,0,46.0,0.0,0.0,4666.153846153847,3929.2307692307695,4441.538461538462,4420.000000000001,4235.8974358974365,4526.666666666667,4445.128205128206,4412.307692307693,4368.717948717949,4672.307692307693,4280.512820512821,4246.666666666667,4169.74358974359,4427.6923076923085
740.6756,0.22917096,0.4793717,0.33333364,0.5522387,0,0.0,0.0,0.0,0.0,0.0,0,0,0.0,0.0,0,0,110.0,0.0,525.0,4644.615384615385,3940.5128205128212,4429.743589743591,4425.641025641026,4231.794871794872,4525.128205128206,4425.128205128206,4407.6923076923085,4375.8974358974365,4714.871794871796,4285.641025641026,4246.666666666667,4183.589743589744,4408.717948717949
741.01965,0.22917096,0.4793717,0.33333364,0.5522387,0,0.0,0.0,0.0,0.0,0.23771887,0,0,0.0,0.0,0,0,25.0,0.0,0.0,4625.128205128206,3894.8717948717954,4457.948717948719,4415.384615384616,4232.820512820514,4524.102564102564,4448.205128205129,4434.358974358975,4393.846153846154,4752.820512820514,4294.871794871796,4254.871794871796,4233.846153846154,4402.051282051282
741.26984,0.1917649,0.4214595,0.3333336,0.5522387,0,0.0,0.0,0.0,0.0,0.17633757,0,0,0.0,0.0,0,0,57.0,0.0,0.0,4628.717948717949,3942.564102564103,4475.8974358974365,4420.512820512821,4247.6923076923085,4539.48717948718,4443.076923076924,4421.025641025642,4388.717948717949,4738.974358974359,4291.282051282052,4255.8974358974365,4203.589743589744,4438.461538461539
741.5201,0.1917649,0.4214595,0.3333336,0.5522387,0,0.0,0.0,0.0,0.0,0.19240981,0,0,0.0,0.0,0,0,89.0,0.0,497.0,4619.48717948718,3931.7948717948725,4484.615384615385,4413.333333333334,4245.641025641026,4541.025641025642,4427.6923076923085,4409.2307692307695,4383.076923076924,4724.615384615386,4292.307692307693,4250.256410256411,4190.769230769231,4461.025641025642
741.77026,0.13623603,0.3747396,0.33333358,0.55223876,0,0.0,0.0,0.0,0.0,0.0,0,0,0.0,0.0,0,0,121.0,0.0,497.0,4607.179487179488,3910.2564102564106,4480.000000000001,4420.512820512821,4244.615384615385,4540.512820512821,4450.256410256411,4427.179487179487,4394.871794871796,4761.538461538462,4306.666666666667,4260.000000000001,4234.871794871796,4490.256410256411
742.0205,0.13623603,0.3747396,0.33333358,0.55223876,0,0.0,0.0,0.0,0.0,0.13199085,0,0,0.0,0.0,0,0,24.0,0.0,0.0,4619.48717948718,3926.666666666667,4485.128205128206,4426.153846153847,4250.256410256411,4552.820512820514,4451.282051282052,4407.6923076923085,4380.512820512821,4731.794871794872,4298.461538461539,4248.717948717949,4185.641025641026,4488.717948717949
742.2707,0.10206567,0.32878134,0.33333355,0.55223876,0,0.0,0.0,0.0,0.0,0.07199778,0,0,0.0,0.0,0,0,56.0,0.0,0.0,4638.974358974359,3942.564102564103,4491.794871794872,4442.564102564103,4265.641025641026,4568.205128205129,4472.307692307693,4437.435897435898,4394.871794871796,4745.641025641026,4307.179487179487,4262.564102564103,4200.000000000001,4502.564102564103
742.52094,0.10206567,0.32878134,0.33333355,0.55223876,0,0.0,0.0,0.0,0.0,0.0,0,0,0.0,0.0,0,0,88.0,0.0,98.0,4655.8974358974365,3966.666666666667,4498.974358974359,4458.974358974359,4279.48717948718,4570.256410256411,4476.410256410257,4437.435897435898,4393.333333333334,4737.435897435898,4298.974358974359,4267.179487179487,4175.8974358974365,4481.538461538462
742.6773,0.102937214,0.3157375,0.33333352,0.55223876,0,0.0,0.0,0.0,0.0,0.0,0,0,0.0,0.0,0,0,108.0,0.0,98.0,4618.461538461539,3932.307692307693,4465.128205128206,4435.384615384616,4263.589743589744,4553.333333333334,4472.820512820514,4433.846153846154,4390.769230769231,4722.564102564103,4293.846153846154,4244.615384615385,4165.128205128206,4448.717948717949
743.02136,0.102937214,0.3157375,0.33333352,0.55223876,0,0.0,0.0,0.0,0.0,0.17725854,0,0,0.0,0.0,0,0,23.0,0.0,0.0,4613.333333333334,3927.692307692308,4455.8974358974365,4424.615384615385,4243.076923076924,4534.358974358975,4441.025641025642,4409.2307692307695,4377.948717948719,4704.615384615386,4289.74358974359,4240.512820512821,4139.48717948718,4452.820512820514
743.27155,0.118458316,0.33060098,0.33333352,0.55223876,0,0.0,0.0,0.0,0.0,0.19808891,0,0,0.0,0.0,0,0,55.0,0.0,0.0,4605.128205128206,3912.307692307693,4444.102564102564,4428.717948717949,4245.128205128206,4533.846153846154,4445.128205128206,4415.8974358974365,4385.641025641026,4701.538461538462,4288.717948717949,4230.256410256411,4127.179487179487,4441.538461538462
743.5218,0.118458316,0.33060098,0.33333352,0.55223876,0,0.0,0.0,0.0,0.0,0.12475301,0,0,0.0,0.0,0,0,87.0,0.0,475.0,4634.871794871796,3941.538461538462,4463.589743589744,4418.461538461539,4238.974358974359,4526.153846153847,4444.102564102564,4414.358974358975,4377.948717948719,4698.974358974359,4289.74358974359,4249.74358974359,4144.615384615385,4477.435897435898
743.67816,0.0365046,0.35780287,0.3333335,0.55223876,0,0.0,0.0,0.0,0.0,0.0,0,0,0.0,0.0,0,0,107.0,0.0,475.0,4619.48717948718,3928.205128205129,4454.871794871796,4429.743589743591,4240.512820512821,4526.666666666667,4453.333333333334,4401.538461538462,4369.2307692307695,4687.6923076923085,4288.717948717949,4246.666666666667,4142.564102564103,4482.564102564103
743.67816,0.0365046,0.35780287,0.3333335,0.55223876,0,0.0,0.0,0.0,0.0,0.0,0,0,0.0,0.0,0,0,107.0,0.0,475.0,4619.48717948718,3928.205128205129,4454.871794871796,4429.743589743591,4240.512820512821,4526.666666666667,4453.333333333334,4401.538461538462,4369.2307692307695,4687.6923076923085,4288.717948717949,4246.666666666667,4142.564102564103,4482.564102564103
744.2724,0.033258375,0.3679292,0.3333335,0.55223876,0,0.0,0.0,0.0,0.0,0.05000467,0,0,0.0,0.0,0,0,54.0,0.0,0.0,4627.6923076923085,3640.0000000000005,4446.666666666667,4382.051282051282,4231.794871794872,4522.564102564103,4455.384615384616,4407.6923076923085,4380.000000000001,4730.769230769231,4287.6923076923085,4250.769230769231,4169.74358974359,4497.948717948719
744.52264,0.033258375,0.3679292,0.3333335,0.55223876,0,0.0,0.0,0.0,0.0,0.1373566,0,0,0.0,0.0,0,0,86.0,0.0,525.0,4629.2307692307695,4005.1282051282055,4456.923076923077,4429.2307692307695,4232.307692307693,4524.102564102564,4457.435897435898,4409.743589743591,4374.871794871796,4700.000000000001,4293.846153846154,4247.179487179487,4152.307692307693,4557.948717948719
744.7728,0.027810894,0.37291306,0.33333346,0.55223876,0,0.0,0.0,0.0,0.0,0.11106876,0,0,0.0,0.0,0,0,118.0,0.0,525.0,4679.48717948718,3986.666666666667,4489.743589743591,4425.641025641026,4245.641025641026,4540.512820512821,4470.769230769231,4431.282051282052,4384.615384615385,4755.8974358974365,4309.2307692307695,4302.051282051282,4232.307692307693,4628.205128205129
745.0231,0.027810894,0.37291306,0.33333346,0.55223876,0,0.0,0.0,0.0,0.0,0.18430653,0,0,0.0,0.0,0,0,21.0,0.0,0.0,4644.102564102564,3977.435897435898,4476.410256410257,4432.820512820514,4260.512820512821,4542.051282051282,4460.000000000001,4418.461538461539,4372.820512820514,4711.282051282052,4293.333333333334,4268.717948717949,4154.871794871796,4554.358974358975
745.2733,0.07182535,0.37765077,0.33333346,0.55223876,0,0.0,0.0,0.0,0.0,0.26090023,0,0,0.0,0.0,0,0,53.0,0.0,0.0,4639.48717948718,3973.8461538461543,4475.384615384616,4429.2307692307695,4255.8974358974365,4539.48717948718,4458.974358974359,4415.384615384616,4372.307692307693,4706.153846153847,4297.435897435898,4263.589743589744,4176.410256410257,4571.282051282052
745.5235,0.07182535,0.37765077,0.33333346,0.55223876,0,0.0,0.0,0.0,0.0,0.21223302,0,0,0.0,0.0,0,0,85.0,0.0,497.0,4663.076923076924,3955.8974358974365,4496.923076923077,4430.256410256411,4262.051282051282,4550.769230769231,4476.410256410257,4453.846153846154,4386.666666666667,4751.794871794872,4310.256410256411,4298.974358974359,4247.179487179487,4618.461538461539
745.77374,0.09074693,0.38297054,0.33333343,0.55223876,0,0.0,0.0,0.0,0.0,0.06985743,0,0,0.0,0.0,0,0,117.0,0.0,497.0,4639.48717948718,3940.5128205128212,4476.410256410257,4424.102564102564,4237.948717948719,4524.102564102564,4446.153846153847,4410.769230769231,4359.48717948718,4708.205128205129,4294.871794871796,4262.564102564103,4187.6923076923085,4580.000000000001
746.0239,0.09074693,0.38297054,0.33333343,0.55223876,0,0.0,0.0,0.0,0.0,0.0,0,0,0.0,0.0,0,0,20.0,0.0,0.0,4634.871794871796,3941.0256410256416,4483.589743589744,4424.615384615385,4249.2307692307695,4538.461538461539,4450.256410256411,4410.256410256411,4361.538461538462,4708.205128205129,4293.846153846154,4262.051282051282,4184.615384615385,4573.846153846154
746.1803,0.10538315,0.38943395,0.33333343,0.55223876,0,0.0,0.0,0.0,0.0,0.0,0,0,0.0,0.0,0,0,40.0,0.0,0.0,4603.076923076924,3943.076923076924,4462.564102564103,4430.769230769231,4250.256410256411,4537.948717948719,4445.641025641026,4417.948717948719,4360.512820512821,4693.333333333334,4289.2307692307695,4221.538461538462,4136.923076923077,4542.051282051282
746.1803,0.10538315,0.38943395,0.33333343,0.55223876,0,0.0,0.0,0.0,0.0,0.0,0,0,0.0,0.0,0,0,40.0,0.0,0.0,4603.076923076924,3943.076923076924,4462.564102564103,4430.769230769231,4250.256410256411,4537.948717948719,4445.641025641026,4417.948717948719,4360.512820512821,4693.333333333334,4289.2307692307695,4221.538461538462,4136.923076923077,4542.051282051282
746.6807,0.14477745,0.36155295,0.33333343,0.55223876,0,0.0,0.0,0.0,0.0,0.0,0,0,0.0,0.0,0,0,104.0,0.0,95.0,4635.8974358974365,3927.692307692308,4483.076923076924,4424.615384615385,4249.74358974359,4543.076923076924,4462.051282051282,4447.179487179487,4374.871794871796,4730.256410256411,4299.48717948718,4265.641025641026,4209.2307692307695,4592.820512820514
746.6807,0.14477745,0.36155295,0.33333343,0.55223876,0,0.0,0.0,0.0,0.0,0.0,0,0,0.0,0.0,0,0,104.0,0.0,95.0,4635.8974358974365,3927.692307692308,4483.076923076924,4424.615384615385,4249.74358974359,4543.076923076924,4462.051282051282,4447.179487179487,4374.871794871796,4730.256410256411,4299.48717948718,4265.641025641026,4209.2307692307695,4592.820512820514
747.275,0.11591386,0.33849698,0.3333334,0.55223876,0,0.0,0.0,0.0,0.0,1.0,0,0,0.0,0.0,0,0,51.0,0.0,0.0,4632.820512820514,3957.435897435898,4491.794871794872,4441.538461538462,4260.000000000001,4553.846153846154,4472.307692307693,4464.102564102564,4377.435897435898,4695.384615384616,4300.512820512821,4250.769230769231,4149.74358974359,4470.256410256411
747.5252,0.11591386,0.33849698,0.3333334,0.55223876,0,0.0,0.0,0.0,0.0,0.21377614,0,0,0.0,0.0,0,0,83.0,0.0,475.0,4634.871794871796,3944.1025641025644,4485.641025641026,4427.6923076923085,4249.74358974359,4540.512820512821,4460.000000000001,4458.461538461539,4382.051282051282,4702.564102564103,4301.538461538462,4250.256410256411,4154.871794871796,4494.358974358975
747.77545,0.08069542,0.30855086,0.3333334,0.55223876,0,0.0,0.0,0.0,0.0,0.671728,0,0,0.0,0.0,0,0,115.0,0.0,475.0,4668.205128205129,3962.0512820512827,4521.025641025642,4432.307692307693,4252.820512820514,4545.641025641026,4474.358974358975,4471.794871794872,4395.384615384616,4750.769230769231,4317.948717948719,4311.794871794872,4250.769230769231,4634.358974358975
748.05695,0.08069542,0.30855086,0.3333334,0.55223876,0,0.0,0.0,0.0,0.0,1.0,0,0,0.0,0.0,0,0,22.0,0.0,0.0,4617.435897435898,3908.205128205129,4473.846153846154,4418.974358974359,4232.820512820514,4524.615384615385,4445.128205128206,4459.48717948718,4388.205128205129,4698.974358974359,4304.102564102564,4231.794871794872,4158.974358974359,4621.538461538462
748.2759,0.11050402,0.28725544,0.3333334,0.55223876,0,0.0,0.0,0.0,0.0,0.4010168,0,0,0.0,0.0,0,0,50.0,0.0,0.0,4619.48717948718,3909.7435897435903,4478.461538461539,4421.538461538462,4231.794871794872,4523.076923076924,4438.461538461539,4440.512820512821,4382.564102564103,4680.512820512821,4301.538461538462,4232.307692307693,4140.512820512821,4651.282051282052
748.52606,0.11050402,0.28725544,0.3333334,0.55223876,0,0.0,0.0,0.0,0.0,0.26595032,0,0,0.0,0.0,0,0,82.0,0.0,525.0,4631.282051282052,3924.1025641025644,4486.666666666667,4416.923076923077,4232.307692307693,4524.102564102564,4443.076923076924,4447.6923076923085,4399.48717948718,4709.743589743591,4304.102564102564,4248.717948717949,4173.846153846154,4668.717948717949
748.7763,0.103986956,0.27365687,0.3333334,0.55223876,0,0.0,0.0,0.0,0.0,1.0,0,0,0.0,0.0,0,0,114.0,0.0,525.0,4650.256410256411,3945.6410256410263,4493.333333333334,4428.205128205129,4250.256410256411,4539.48717948718,4441.025641025642,4433.846153846154,4389.2307692307695,4703.589743589744,4302.051282051282,4250.769230769231,4138.974358974359,4583.076923076924
748.7763,0.103986956,0.27365687,0.3333334,0.55223876,0,0.0,0.0,0.0,0.0,1.0,0,0,0.0,0.0,0,0,114.0,0.0,525.0,4650.256410256411,3945.6410256410263,4493.333333333334,4428.205128205129,4250.256410256411,4539.48717948718,4441.025641025642,4433.846153846154,4389.2307692307695,4703.589743589744,4302.051282051282,4250.769230769231,4138.974358974359,4583.076923076924
749.1829,0.044769157,0.24812245,0.33333337,0.5522388,0,0.0,0.0,0.0,0.0,1.0,0,0,0.0,0.0,0,0,37.0,0.0,0.0,4617.948717948719,3919.48717948718,4476.410256410257,4418.461538461539,4233.333333333334,4527.179487179488,4444.615384615385,4427.6923076923085,4382.564102564103,4681.538461538462,4292.820512820514,4240.512820512821,4130.769230769231,4478.461538461539
749.1829,0.044769157,0.24812245,0.33333337,0.5522388,0,0.0,0.0,0.0,0.0,1.0,0,0,0.0,0.0,0,0,37.0,0.0,0.0,4617.948717948719,3919.48717948718,4476.410256410257,4418.461538461539,4233.333333333334,4527.179487179488,4444.615384615385,4427.6923076923085,4382.564102564103,4681.538461538462,4292.820512820514,4240.512820512821,4130.769230769231,4478.461538461539
749.8397,0.13302866,0.237525,0.33333337,0.5522388,0,0.0,0.0,0.0,0.0,0.3815715,0,0,0.0,0.0,0,0,121.0,0.0,497.0,4600.512820512821,3882.564102564103,4462.051282051282,4405.641025641026,4215.384615384616,4508.205128205129,4430.256410256411,4413.846153846154,4384.615384615385,4681.538461538462,4286.153846153847,4216.410256410257,4122.051282051282,4472.820512820514
750.02734,0.13302866,0.237525,0.33333337,0.5522388,0,0.0,0.0,0.0,0.0,0.12672974,0,0,0.0,0.0,0,0,16.0,0.0,0.0,4602.564102564103,3864.1025641025644,4460.000000000001,4396.923076923077,4203.076923076924,4504.102564102564,4442.564102564103,4436.923076923077,4397.435897435898,4706.153846153847,4293.333333333334,4246.153846153847,4172.820512820514,4504.102564102564
750.2776,0.089758076,0.28752673,0.33333337,0.5522388,0,0.0,0.0,0.0,0.0,0.109513275,0,0,0.0,0.0,0,0,48.0,0.0,0.0,4616.410256410257,3906.1538461538466,4480.000000000001,4413.333333333334,4232.307692307693,4524.615384615385,4446.666666666667,4411.794871794872,4391.282051282052,4697.948717948719,4292.820512820514,4250.769230769231,4134.358974358975,4477.948717948719
750.5278,0.089758076,0.28752673,0.33333337,0.5522388,0,0.0,0.0,0.0,0.0,0.07277045,0,0,0.0,0.0,0,0,80.0,0.0,94.0,4609.2307692307695,3894.358974358975,4471.282051282052,4409.743589743591,4229.74358974359,4522.051282051282,4443.076923076924,4401.025641025642,4381.025641025642,4677.948717948719,4290.769230769231,4234.358974358975,4127.6923076923085,4505.128205128206
750.778,0.04817191,0.28259692,0.33333337,0.5522388,0,0.0,0.0,0.0,0.0,0.3288461,0,0,0.0,0.0,0,0,112.0,0.0,94.0,4641.538461538462,3887.1794871794878,4508.717948717949,4430.769230769231,4241.538461538462,4536.410256410257,4474.871794871796,4447.179487179487,4413.333333333334,4765.641025641026,4321.538461538462,4296.410256410257,4255.8974358974365,4569.2307692307695
751.02826,0.04817191,0.28259692,0.33333337,0.5522388,0,0.0,0.0,0.0,0.0,0.09641127,1,0,0.0,0.0,0,0,15.0,0.0,474.0,4636.923076923077,3947.692307692308,4503.589743589744,4441.538461538462,4262.564102564103,4541.538461538462,4470.769230769231,4425.641025641026,4398.461538461539,4721.538461538462,4306.153846153847,4255.8974358974365,4154.871794871796,4556.923076923077
751.27844,0.040994883,0.27877498,0.33333337,0.5522388,0,0.0,0.0,0.0,0.0,0.13142437,1,0,0.0,0.0,0,0,47.0,0.0,0.0,4633.333333333334,3911.7948717948725,4504.102564102564,4429.743589743591,4247.179487179487,4536.410256410257,4474.358974358975,4431.794871794872,4394.871794871796,4720.000000000001,4307.6923076923085,4263.076923076924,4152.307692307693,4567.179487179488
751.5287,0.040994883,0.27877498,0.33333337,0.5522388,0,0.0,0.0,0.0,0.0,0.04826574,1,0,0.0,0.0,0,0,79.0,0.0,474.0,4653.846153846154,3922.0512820512827,4521.538461538462,4440.512820512821,4263.076923076924,4553.846153846154,4488.717948717949,4463.076923076924,4410.769230769231,4752.307692307693,4325.641025641026,4288.717948717949,4203.589743589744,4547.179487179488
751.7789,0.037868004,0.2515637,0.33333337,0.5522388,0,0.0,0.0,0.0,0.0,0.3142056,1,0,0.0,0.0,0,0,111.0,0.0,474.0,4637.435897435898,3895.3846153846157,4504.615384615385,4421.025641025642,4234.871794871796,4526.666666666667,4460.000000000001,4447.179487179487,4401.025641025642,4743.076923076924,4324.102564102564,4277.948717948719,4196.410256410257,4521.025641025642
752.0291,0.037868004,0.2515637,0.33333337,0.5522388,0,0.0,0.0,0.0,0.0,0.82330644,1,0,0.0,0.0,0,0,14.0,0.0,525.0,4652.820512820514,3911.2820512820517,4507.179487179488,4422.051282051282,4235.384615384616,4533.333333333334,4472.820512820514,4458.461538461539,4398.461538461539,4740.512820512821,4321.538461538462,4283.076923076924,4184.102564102564,4507.179487179488
752.2793,0.040142488,0.2135449,0.33333337,0.5522388,0,0.0,0.0,0.0,0.0,0.109665126,1,0,0.0,0.0,0,0,46.0,0.0,0.0,4653.333333333334,3942.0512820512827,4491.794871794872,4417.948717948719,4232.820512820514,4524.615384615385,4444.615384615385,4398.974358974359,4378.461538461539,4703.589743589744,4307.6923076923085,4256.410256410257,4125.641025641026,4510.769230769231
752.52954,0.040142488,0.2135449,0.33333337,0.5522388,1,0.0,0.0,0.0,0.0,0.11745387,0,0,0.0,0.0,0,0,78.0,0.0,525.0,4670.769230769231,4006.1538461538466,4501.025641025642,4430.256410256411,4236.923076923077,4528.205128205129,4440.512820512821,4388.205128205129,4364.102564102564,4671.282051282052,4302.051282051282,4247.179487179487,4090.7692307692314,4536.410256410257
752.7797,0.0,0.20922211,0.33333334,0.5522388,0,0.0,0.0,0.0,0.0,0.10737738,1,0,0.0,0.0,0,0,110.0,0.0,525.0,4661.538461538462,3947.1794871794878,4506.666666666667,4424.102564102564,4231.794871794872,4523.076923076924,4449.2307692307695,4429.743589743591,4384.102564102564,4734.871794871796,4311.282051282052,4278.461538461539,4175.8974358974365,4572.307692307693
753.02997,0.0,0.20922211,0.33333334,0.5522388,0,0.0,0.0,0.0,0.0,0.30769452,0,0,0.0,0.0,0,0,13.0,0.0,497.0,4636.923076923077,3945.6410256410263,4490.769230769231,4429.2307692307695,4247.6923076923085,4536.923076923077,4446.666666666667,4410.769230769231,4358.974358974359,4686.153846153847,4304.102564102564,4242.564102564103,4108.205128205129,4566.666666666667
753.28015,0.0,0.22063096,0.33333334,0.5522388,0,0.0,0.0,0.0,0.0,0.19880465,0,0,0.0,0.0,0,0,45.0,0.0,0.0,4630.769230769231,3926.1538461538466,4494.871794871796,4425.128205128206,4245.641025641026,4535.8974358974365,4463.589743589744,4431.282051282052,4385.128205128206,4742.051282051282,4321.538461538462,4261.025641025642,4185.641025641026,4600.512820512821
753.5304,0.0,0.22063096,0.33333334,0.5522388,0,0.0,0.0,0.0,0.0,0.097142726,0,0,0.0,0.0,0,0,77.0,0.0,497.0,4622.051282051282,3940.5128205128212,4486.666666666667,4425.641025641026,4248.717948717949,4542.051282051282,4454.871794871796,4402.564102564103,4368.205128205129,4673.846153846154,4300.000000000001,4232.820512820514,4106.153846153847,4552.820512820514
753.68677,0.0,0.27388123,0.33333334,0.5522388,0,0.0,0.0,0.0,0.0,0.0,0,0,0.0,0.0,0,0,97.0,0.0,497.0,4627.179487179488,3945.6410256410263,4490.769230769231,4427.179487179487,4242.564102564103,4534.871794871796,4442.051282051282,4400.512820512821,4372.820512820514,4703.589743589744,4300.000000000001,4234.358974358975,4119.48717948718,4556.923076923077
754.0934,0.0,0.27388123,0.33333334,0.5522388,1,0.0,0.0,0.0,0.0,0.0,0,0,0.0,0.0,0,0,20.0,0.0,0.0,4663.076923076924,3944.1025641025644,4516.410256410257,4428.205128205129,4247.6923076923085,4538.974358974359,4475.384615384616,4456.410256410257,4397.948717948719,4750.256410256411,4318.974358974359,4275.8974358974365,4204.615384615385,4568.717948717949
754.24976,0.013319011,0.32995534,0.33333334,0.5522388,0,0.0,0.0,0.0,0.0,0.0,0,0,0.0,0.0,0,0,40.0,0.0,0.0,4643.076923076924,3915.3846153846157,4498.974358974359,4424.102564102564,4248.205128205129,4541.538461538462,4463.589743589744,4432.820512820514,4393.846153846154,4749.2307692307695,4317.948717948719,4261.025641025642,4224.615384615385,4548.717948717949
754.53125,0.013319011,0.32995534,0.33333334,0.5522388,0,0.0,0.0,0.0,0.0,0.20744316,0,0,0.0,0.0,0,0,76.0,0.0,92.0,4617.948717948719,3892.307692307693,4489.2307692307695,4416.923076923077,4237.948717948719,4534.871794871796,4457.948717948719,4426.666666666667,4396.923076923077,4746.153846153847,4322.051282051282,4257.948717948719,4239.48717948718,4556.410256410257
754.78143,0.0022454816,0.32848808,0.33333334,0.5522388,0,0.0,0.0,0.0,0.0,0.20797858,0,0,0.0,0.0,0,0,108.0,0.0,92.0,4626.666666666667,3955.3846153846157,4492.307692307693,4427.6923076923085,4247.179487179487,4539.48717948718,4435.384615384616,4400.512820512821,4380.000000000001,4718.461538461539,4312.307692307693,4249.74358974359,4197.435897435898,4599.48717948718
755.0317,0.0022454816,0.32848808,0.33333334,0.5522388,0,0.0,0.0,0.0,0.0,0.22876352,0,0,0.0,0.0,0,0,11.0,0.0,474.0,4640.000000000001,3948.717948717949,4490.769230769231,4444.102564102564,4249.2307692307695,4542.564102564103,4443.076923076924,4403.076923076924,4386.153846153847,4709.2307692307695,4317.948717948719,4248.205128205129,4186.666666666667,4632.820512820514
755.28186,0.0,0.34052154,0.33333334,0.5522388,0,0.0,0.0,0.0,0.0,0.7806111,0,0,0.0,0.0,0,0,43.0,0.0,0.0,4644.615384615385,3945.6410256410263,4507.179487179488,4432.307692307693,4249.74358974359,4548.717948717949,4465.641025641026,4437.435897435898,4395.8974358974365,4737.435897435898,4326.153846153847,4280.512820512821,4233.846153846154,4697.948717948719
755.5321,0.0,0.34052154,0.33333334,0.5522388,0,0.0,0.0,0.0,0.0,0.21053915,0,0,0.0,0.0,0,0,75.0,0.0,473.0,4649.743589743591,3954.358974358975,4506.666666666667,4428.717948717949,4248.205128205129,4542.051282051282,4465.128205128206,4439.48717948718,4393.846153846154,4721.538461538462,4326.666666666667,4268.717948717949,4202.051282051282,4690.256410256411
755.6885,0.05056135,0.3532997,0.33333334,0.5522388,0,0.0,0.0,0.0,0.0,0.0,0,0,0.0,0.0,0,0,95.0,0.0,473.0,4648.717948717949,3958.461538461539,4505.641025641026,4430.256410256411,4232.820512820514,4536.923076923077,4441.025641025642,4418.974358974359,4388.717948717949,4704.102564102564,4324.102564102564,4264.615384615385,4186.153846153847,4678.461538461539
755.6885,0.05056135,0.3532997,0.33333334,0.5522388,0,0.0,0.0,0.0,0.0,0.0,0,0,0.0,0.0,0,0,95.0,0.0,473.0,4648.717948717949,3958.461538461539,4505.641025641026,4430.256410256411,4232.820512820514,4536.923076923077,4441.025641025642,4418.974358974359,4388.717948717949,4704.102564102564,4324.102564102564,4264.615384615385,4186.153846153847,4678.461538461539
756.25146,0.109053984,0.34764406,0.33333334,0.5522388,1,0.0,0.0,0.0,0.0,0.0,0,0,0.0,0.0,0,0,38.0,0.0,0.0,4648.717948717949,3941.538461538462,4501.538461538462,4415.8974358974365,4233.846153846154,4533.333333333334,4446.153846153847,4427.179487179487,4387.179487179487,4680.000000000001,4313.846153846154,4261.025641025642,4168.205128205129,4610.256410256411
756.40784,0.109053984,0.34764406,0.33333334,0.5522388,0,0.0,0.0,0.0,0.0,0.0,0,0,0.0,0.0,0,0,58.0,0.0,0.0,4592.307692307693,3891.2820512820517,4472.307692307693,4429.743589743591,4234.871794871796,4535.384615384616,4456.923076923077,4418.974358974359,4390.256410256411,4713.333333333334,4320.000000000001,4223.076923076924,4152.307692307693,4551.282051282052
756.7832,0.09328063,0.3744602,0.33333334,0.5522388,0,0.0,0.0,0.0,0.0,0.2896812,0,0,0.0,0.0,0,0,106.0,0.0,525.0,4622.051282051282,3936.410256410257,4491.794871794872,4434.871794871796,4236.410256410257,4537.948717948719,4443.589743589744,4422.564102564103,4395.8974358974365,4724.102564102564,4315.8974358974365,4256.410256410257,4178.461538461539,4552.820512820514
757.0334,0.09328063,0.3744602,0.33333334,0.5522388,0,0.0,0.0,0.0,0.0,0.19001465,0,0,0.0,0.0,0,0,9.0,0.0,480.0,4623.589743589744,3910.7692307692314,4491.794871794872,4435.8974358974365,4234.358974358975,4537.948717948719,4446.153846153847,4428.717948717949,4400.512820512821,4722.051282051282,4321.025641025642,4264.615384615385,4185.641025641026,4520.512820512821
757.2836,0.10393622,0.4025341,0.33333334,0.5522388,0,0.0,0.0,0.0,0.0,0.4256273,0,0,0.0,0.0,0,0,41.0,0.0,0.0,4616.410256410257,3900.5128205128212,4491.282051282052,4441.538461538462,4245.128205128206,4540.000000000001,4458.461538461539,4442.051282051282,4403.589743589744,4729.743589743591,4316.410256410257,4258.461538461539,4162.564102564103,4491.282051282052
757.4087,0.10393622,0.4025341,0.33333334,0.5522388,0,0.0,0.0,0.0,0.0,0.0,0,0,0.0,0.0,0,0,57.0,0.0,0.0,4631.282051282052,3923.589743589744,4501.538461538462,4440.512820512821,4250.769230769231,4547.179487179488,4476.923076923077,4465.128205128206,4416.923076923077,4745.641025641026,4325.641025641026,4284.615384615385,4216.410256410257,4527.179487179488
757.78406,0.14427537,0.4393995,0.33333334,0.5522388,0,0.0,0.0,0.0,0.0,0.115778215,0,0,0.0,0.0,0,0,105.0,0.0,497.0,4617.948717948719,3962.0512820512827,4479.48717948718,4431.282051282052,4249.2307692307695,4541.025641025642,4437.948717948719,4413.846153846154,4385.128205128206,4661.538461538462,4301.025641025642,4220.512820512821,4073.8461538461543,4477.948717948719
758.03424,0.14427537,0.4393995,0.33333334,0.5522388,0,0.0,0.0,0.0,0.0,0.11955501,0,0,0.0,0.0,0,0,8.0,0.0,372.0,4657.948717948719,3909.2307692307695,4506.153846153847,4429.2307692307695,4244.102564102564,4540.512820512821,4468.717948717949,4475.384615384616,4424.615384615385,4764.615384615386,4331.794871794872,4292.820512820514,4244.102564102564,4551.794871794872
758.2845,0.15625256,0.5082481,0.33333334,0.5522388,0,0.0,0.0,0.0,0.0,0.14660896,0,0,0.0,0.0,0,0,40.0,0.0,0.0,4629.743589743591,3899.48717948718,4489.743589743591,4409.743589743591,4217.948717948719,4518.461538461539,4444.615384615385,4444.102564102564,4402.051282051282,4722.564102564103,4318.461538461539,4260.512820512821,4199.48717948718,4534.358974358975
758.53467,0.15625256,0.5082481,0.33333334,0.5522388,0,0.0,0.0,0.0,0.0,0.0,0,0,0.0,0.0,0,0,72.0,0.0,372.0,4608.717948717949,3935.3846153846157,4472.820512820514,4427.179487179487,4239.48717948718,4525.641025641026,4440.000000000001,4431.794871794872,4395.384615384616,4703.589743589744,4309.2307692307695,4225.641025641026,4130.769230769231,4506.666666666667
758.69104,0.12873746,0.5472598,0.33333334,0.5522388,0,0.0,0.0,0.0,0.0,0.0,0,0,0.0,0.0,0,0,92.0,0.0,90.0,4612.820512820514,3926.666666666667,4475.8974358974365,4413.333333333334,4234.358974358975,4522.564102564103,4427.6923076923085,4413.846153846154,4380.512820512821,4661.538461538462,4301.538461538462,4225.128205128206,4090.7692307692314,4505.128205128206
759.0351,0.12873746,0.5472598,0.33333334,0.5522388,0,0.0,0.0,0.0,0.0,0.09766072,0,0,0.0,0.0,0,0,7.0,0.0,465.0,4651.282051282052,3950.7692307692314,4505.641025641026,4428.717948717949,4242.051282051282,4532.820512820514,4428.205128205129,4416.923076923077,4388.717948717949,4675.8974358974365,4310.256410256411,4257.435897435898,4158.974358974359,4552.820512820514
759.28534,0.15194267,0.57560754,0.33333334,0.5522388,0,0.0,0.0,0.0,0.0,0.0,0,0,0.0,0.0,0,0,39.0,0.0,0.0,4640.512820512821,3926.1538461538466,4498.974358974359,4413.846153846154,4230.769230769231,4524.102564102564,4443.076923076924,4421.025641025642,4384.102564102564,4679.48717948718,4304.615384615385,4249.74358974359,4157.435897435898,4537.948717948719
759.28534,0.15194267,0.57560754,0.33333334,0.5522388,0,0.0,0.0,0.0,0.0,0.0,0,0,0.0,0.0,0,0,39.0,0.0,0.0,4640.512820512821,3926.1538461538466,4498.974358974359,4413.846153846154,4230.769230769231,4524.102564102564,4443.076923076924,4421.025641025642,4384.102564102564,4679.48717948718,4304.615384615385,4249.74358974359,4157.435897435898,4537.948717948719
759.69196,0.10287452,0.57328504,0.33333334,0.5522388,0,0.0,0.0,0.0,0.0,0.0,0,0,0.0,0.0,0,0,91.0,0.0,473.0,4619.48717948718,3917.9487179487182,4486.153846153847,4417.435897435898,4235.8974358974365,4529.2307692307695,4461.025641025642,4426.666666666667,4395.8974358974365,4684.102564102564,4304.102564102564,4228.205128205129,4138.974358974359,4536.923076923077
759.69196,0.10287452,0.57328504,0.33333334,0.5522388,0,0.0,0.0,0.0,0.0,0.0,0,0,0.0,0.0,0,0,91.0,0.0,473.0,4619.48717948718,3917.9487179487182,4486.153846153847,4417.435897435898,4235.8974358974365,4529.2307692307695,4461.025641025642,4426.666666666667,4395.8974358974365,4684.102564102564,4304.102564102564,4228.205128205129,4138.974358974359,4536.923076923077
760.1924,0.07361629,0.53463715,0.33333334,0.5522388,0,0.0,0.0,0.0,0.0,0.0,0,0,0.0,0.0,0,0,26.0,0.0,0.0,4655.8974358974365,3911.7948717948725,4507.6923076923085,4416.410256410257,4221.025641025642,4517.948717948719,4438.974358974359,4433.333333333334,4398.461538461539,4732.307692307693,4314.358974358975,4262.051282051282,4184.615384615385,4582.564102564103
760.1924,0.07361629,0.53463715,0.33333334,0.5522388,0,0.0,0.0,0.0,0.0,0.0,0,0,0.0,0.0,0,0,26.0,0.0,0.0,4655.8974358974365,3911.7948717948725,4507.6923076923085,4416.410256410257,4221.025641025642,4517.948717948719,4438.974358974359,4433.333333333334,4398.461538461539,4732.307692307693,4314.358974358975,4262.051282051282,4184.615384615385,4582.564102564103
760.6928,0.07691679,0.5142546,0.33333334,0.5522388,0,0.0,0.0,0.0,0.0,0.0,0,0,0.0,0.0,0,0,90.0,0.0,525.0,4647.179487179488,3913.333333333334,4495.8974358974365,4423.076923076924,4233.846153846154,4523.076923076924,4452.307692307693,4434.871794871796,4393.846153846154,4710.256410256411,4309.2307692307695,4249.74358974359,4168.717948717949,4565.641025641026
760.6928,0.07691679,0.5142546,0.33333334,0.5522388,0,0.0,0.0,0.0,0.0,0.0,0,0,0.0,0.0,0,0,90.0,0.0,525.0,4647.179487179488,3913.333333333334,4495.8974358974365,4423.076923076924,4233.846153846154,4523.076923076924,4452.307692307693,4434.871794871796,4393.846153846154,4710.256410256411,4309.2307692307695,4249.74358974359,4168.717948717949,4565.641025641026
761.19324,0.12542944,0.509766,0.33333334,0.5522388,0,0.0,0.0,0.0,0.0,0.0,0,0,0.0,0.0,0,0,25.0,0.0,0.0,4645.128205128206,3943.076923076924,4485.641025641026,4427.179487179487,4240.000000000001,4538.974358974359,4444.615384615385,4414.358974358975,4383.076923076924,4680.512820512821,4302.051282051282,4214.358974358975,4101.025641025642,4553.333333333334
761.5373,0.12542944,0.509766,0.33333334,0.5522388,0,0.0,0.0,0.0,0.0,0.05459327,0,0,0.0,0.0,0,0,69.0,0.0,552.0,4665.641025641026,3940.0000000000005,4506.666666666667,4423.076923076924,4247.179487179487,4538.974358974359,4443.076923076924,4421.025641025642,4399.48717948718,4687.6923076923085,4302.564102564103,4248.717948717949,4154.358974358975,4590.769230769231
761.7875,0.12761143,0.5017108,0.33333334,0.5522388,0,0.0,0.0,0.0,0.0,0.0,0,0,0.0,0.0,0,0,101.0,0.0,497.0,4664.102564102564,3924.1025641025644,4500.512820512821,4428.205128205129,4241.538461538462,4536.923076923077,4446.666666666667,4427.179487179487,4394.358974358975,4706.666666666667,4301.538461538462,4246.153846153847,4163.076923076924,4582.564102564103
761.7875,0.12761143,0.5017108,0.33333334,0.5522388,0,0.0,0.0,0.0,0.0,0.0,0,0,0.0,0.0,0,0,101.0,0.0,497.0,4664.102564102564,3924.1025641025644,4500.512820512821,4428.205128205129,4241.538461538462,4536.923076923077,4446.666666666667,4427.179487179487,4394.358974358975,4706.666666666667,4301.538461538462,4246.153846153847,4163.076923076924,4582.564102564103
762.2879,0.0982051,0.48938212,0.33333334,0.5522388,0,0.0,0.0,0.0,0.0,0.32450777,0,0,0.0,0.0,0,0,36.0,0.0,0.0,4665.641025641026,3926.666666666667,4515.8974358974365,4442.564102564103,4251.282051282052,4552.307692307693,4463.076923076924,4447.179487179487,4410.256410256411,4718.974358974359,4309.743589743591,4265.641025641026,4186.666666666667,4544.102564102564
762.53815,0.0982051,0.48938212,0.33333334,0.5522388,0,0.0,0.0,0.0,0.0,0.07141247,0,0,0.0,0.0,0,0,68.0,0.0,556.0,4664.102564102564,3926.666666666667,4507.179487179488,4434.358974358975,4247.6923076923085,4540.000000000001,4444.615384615385,4429.743589743591,4406.153846153847,4708.205128205129,4310.769230769231,4261.538461538462,4172.307692307693,4539.48717948718
762.6945,0.072344385,0.47555247,0.33333334,0.5522388,0,0.0,0.0,0.0,0.0,0.0,0,0,0.0,0.0,0,0,88.0,0.0,88.0,4693.333333333334,3930.2564102564106,4519.48717948718,4425.128205128206,4247.179487179487,4545.128205128206,4460.000000000001,4457.948717948719,4424.102564102564,4745.641025641026,4321.025641025642,4292.820512820514,4245.128205128206,4587.6923076923085
762.6945,0.072344385,0.47555247,0.33333334,0.5522388,0,0.0,0.0,0.0,0.0,0.0,0,0,0.0,0.0,0,0,88.0,0.0,88.0,4693.333333333334,3930.2564102564106,4519.48717948718,4425.128205128206,4247.179487179487,4545.128205128206,4460.000000000001,4457.948717948719,4424.102564102564,4745.641025641026,4321.025641025642,4292.820512820514,4245.128205128206,4587.6923076923085
763.19495,0.08462285,0.44346187,0.33333334,0.5522388,0,0.0,0.0,0.0,0.0,0.0,0,0,0.0,0.0,0,0,23.0,0.0,0.0,4678.974358974359,3950.2564102564106,4523.589743589744,4440.512820512821,4251.282051282052,4547.179487179488,4458.974358974359,4442.051282051282,4414.871794871796,4737.435897435898,4323.589743589744,4289.74358974359,4225.641025641026,4528.205128205129
763.19495,0.08462285,0.44346187,0.33333334,0.5522388,0,0.0,0.0,0.0,0.0,0.0,0,0,0.0,0.0,0,0,23.0,0.0,0.0,4678.974358974359,3950.2564102564106,4523.589743589744,4440.512820512821,4251.282051282052,4547.179487179488,4458.974358974359,4442.051282051282,4414.871794871796,4737.435897435898,4323.589743589744,4289.74358974359,4225.641025641026,4528.205128205129
763.7892,0.09060995,0.42856908,0.33333334,0.5522388,0,0.0,0.0,0.0,0.0,0.15010023,0,0,0.0,0.0,0,0,99.0,0.0,473.0,4642.051282051282,3910.7692307692314,4509.2307692307695,4441.538461538462,4248.205128205129,4543.589743589744,4463.076923076924,4444.102564102564,4406.153846153847,4740.000000000001,4322.051282051282,4265.641025641026,4180.000000000001,4473.333333333334
764.0394,0.09060995,0.42856908,0.33333334,0.5522388,0,0.0,0.0,0.0,0.0,0.2257338,0,0,0.0,0.0,0,0,2.0,0.0,455.0,4638.461538461539,3927.1794871794878,4509.2307692307695,4442.564102564103,4250.256410256411,4551.794871794872,4458.974358974359,4426.153846153847,4392.820512820514,4711.282051282052,4317.435897435898,4263.589743589744,4174.871794871796,4505.641025641026
764.2896,0.02475519,0.4130627,0.33333334,0.5522388,0,0.0,0.0,0.0,0.0,0.0,0,0,0.0,0.0,0,0,34.0,0.0,0.0,4643.076923076924,3928.717948717949,4507.6923076923085,4444.102564102564,4250.256410256411,4551.794871794872,4458.461538461539,4427.179487179487,4397.948717948719,4740.000000000001,4319.48717948718,4268.205128205129,4194.358974358975,4518.974358974359
764.2896,0.02475519,0.4130627,0.33333334,0.5522388,0,0.0,0.0,0.0,0.0,0.0,0,0,0.0,0.0,0,0,34.0,0.0,0.0,4643.076923076924,3928.717948717949,4507.6923076923085,4444.102564102564,4250.256410256411,4551.794871794872,4458.461538461539,4427.179487179487,4397.948717948719,4740.000000000001,4319.48717948718,4268.205128205129,4194.358974358975,4518.974358974359
764.8526,0.0,0.37838432,0.33333334,0.5522388,1,0.0,0.0,0.0,0.0,0.15236294,0,0,0.0,0.0,0,0,106.0,0.0,525.0,4682.051282051282,3949.7435897435903,4517.948717948719,4444.102564102564,4247.179487179487,4548.717948717949,4455.384615384616,4417.948717948719,4398.461538461539,4740.512820512821,4323.589743589744,4290.256410256411,4218.461538461539,4554.358974358975
765.0403,0.0,0.37838432,0.33333334,0.5522388,0,0.0,0.0,0.0,0.0,0.15525424,0,0,0.0,0.0,0,0,1.0,0.0,450.0,4682.564102564103,3926.666666666667,4509.2307692307695,4442.051282051282,4249.74358974359,4546.666666666667,4458.974358974359,4424.102564102564,4397.435897435898,4730.769230769231,4326.666666666667,4273.333333333334,4200.000000000001,4556.923076923077
765.29047,0.0,0.3475653,0.33333334,0.5522388,0,0.0,0.0,0.0,0.0,0.09112309,0,0,0.0,0.0,0,0,33.0,0.0,0.0,4673.846153846154,3946.666666666667,4514.358974358975,4448.717948717949,4252.307692307693,4541.538461538462,4456.923076923077,4403.589743589744,4390.769230769231,4684.102564102564,4318.461538461539,4252.820512820514,4156.923076923077,4557.435897435898
765.5407,0.0,0.3475653,0.33333334,0.5522388,0,0.0,0.0,0.0,0.0,0.045382638,0,0,0.0,0.0,0,0,65.0,0.0,450.0,4669.2307692307695,3944.615384615385,4514.358974358975,4448.205128205129,4262.564102564103,4552.307692307693,4456.923076923077,4416.410256410257,4407.6923076923085,4708.717948717949,4316.410256410257,4253.333333333334,4174.358974358975,4545.128205128206
765.7909,0.0,0.31568334,0.33333334,0.5522388,0,0.0,0.0,0.0,0.0,0.0,0,0,0.0,0.0,0,0,97.0,0.0,497.0,4654.871794871796,3918.9743589743593,4515.8974358974365,4440.512820512821,4248.205128205129,4537.435897435898,4458.974358974359,4435.384615384616,4413.333333333334,4726.153846153847,4326.153846153847,4262.051282051282,4216.923076923077,4487.6923076923085
765.7909,0.0,0.31568334,0.33333334,0.5522388,0,0.0,0.0,0.0,0.0,0.0,0,0,0.0,0.0,0,0,97.0,0.0,497.0,4654.871794871796,3918.9743589743593,4515.8974358974365,4440.512820512821,4248.205128205129,4537.435897435898,4458.974358974359,4435.384615384616,4413.333333333334,4726.153846153847,4326.153846153847,4262.051282051282,4216.923076923077,4487.6923076923085
766.2913,0.0,0.2889918,0.33333334,0.5522388,0,0.0,0.0,0.0,0.0,0.76306164,0,0,0.0,0.0,0,0,32.0,0.0,0.0,4688.205128205129,3928.717948717949,4517.948717948719,4441.538461538462,4245.128205128206,4538.974358974359,4457.948717948719,4430.769230769231,4413.333333333334,4720.000000000001,4326.153846153847,4271.282051282052,4217.948717948719,4402.564102564103
766.54156,0.0,0.2889918,0.33333334,0.5522388,0,0.0,0.0,0.0,0.0,0.14586787,0,0,0.0,0.0,0,0,64.0,0.0,476.0,4664.615384615386,3928.717948717949,4509.743589743591,4443.076923076924,4240.512820512821,4538.974358974359,4453.846153846154,4436.410256410257,4405.641025641026,4728.717948717949,4327.6923076923085,4268.205128205129,4207.6923076923085,4424.615384615385
766.69794,0.006532097,0.27342746,0.33333334,0.5522388,0,0.0,0.0,0.0,0.0,0.0,0,0,0.0,0.0,0,0,84.0,0.0,86.0,4657.948717948719,3929.7435897435903,4506.153846153847,4432.820512820514,4231.282051282052,4534.358974358975,4453.333333333334,4444.615384615385,4403.076923076924,4751.282051282052,4328.205128205129,4264.615384615385,4203.589743589744,4447.179487179487
766.69794,0.006532097,0.27342746,0.33333334,0.5522388,0,0.0,0.0,0.0,0.0,0.0,0,0,0.0,0.0,0,0,84.0,0.0,86.0,4657.948717948719,3929.7435897435903,4506.153846153847,4432.820512820514,4231.282051282052,4534.358974358975,4453.333333333334,4444.615384615385,4403.076923076924,4751.282051282052,4328.205128205129,4264.615384615385,4203.589743589744,4447.179487179487
767.29224,0.0,0.2482428,0.33333334,0.5522388,0,0.0,0.0,0.0,0.0,0.2595458,0,0,0.0,0.0,0,0,31.0,0.0,0.0,4670.769230769231,3962.0512820512827,4510.256410256411,4440.000000000001,4243.076923076924,4539.48717948718,4444.615384615385,4414.358974358975,4394.871794871796,4726.153846153847,4322.051282051282,4248.717948717949,4159.48717948718,4535.8974358974365
767.5424,0.0,0.2482428,0.33333334,0.5522388,1,0.0,0.0,0.0,0.0,0.30072582,0,0,0.0,0.0,0,0,63.0,0.0,0.0,4666.666666666667,3938.9743589743593,4510.256410256411,4434.871794871796,4244.615384615385,4540.512820512821,4460.000000000001,4441.025641025642,4411.282051282052,4748.717948717949,4326.153846153847,4267.179487179487,4204.102564102564,4554.358974358975
767.79266,0.06254576,0.26202267,0.33333334,0.5522388,0,0.0,0.0,0.0,0.0,0.18425812,0,0,0.0,0.0,0,0,95.0,0.0,473.0,4652.820512820514,3963.076923076924,4504.615384615385,4439.48717948718,4245.128205128206,4541.025641025642,4453.333333333334,4420.512820512821,4397.948717948719,4722.564102564103,4322.051282051282,4238.461538461539,4151.794871794872,4504.615384615385
768.04285,0.06254576,0.26202267,0.33333334,0.5522388,0,0.0,0.0,0.0,0.0,0.19809417,0,0,0.0,0.0,0,0,127.0,0.0,473.0,4655.384615384616,3955.3846153846157,4498.974358974359,4434.871794871796,4235.384615384616,4541.538461538462,4457.948717948719,4413.846153846154,4395.384615384616,4701.538461538462,4318.461538461539,4246.153846153847,4157.948717948719,4506.666666666667
768.2931,0.06617455,0.29078177,0.33333334,0.5522388,0,0.0,0.0,0.0,0.0,0.17533492,0,0,0.0,0.0,1,0,30.0,0.0,0.0,4632.820512820514,3927.1794871794878,4488.717948717949,4419.48717948718,4231.794871794872,4534.871794871796,4443.589743589744,4392.820512820514,4379.48717948718,4701.025641025642,4310.256410256411,4231.282051282052,4140.512820512821,4524.102564102564
