timestamp,excitement,frustration,meditation,engagementBoredom,blink,clench,laugh,smile,eyebrow,furrowBrow,lookLeft,lookRight,smirkLeft,smirkRight,winkLeft,winkRight,eeg0,eeg1,eeg2,eeg3,eeg4,eeg5,eeg6,eeg7,eeg8,eeg9,eeg10,eeg11,eeg12,eeg13,eeg14,eeg15,eeg16
445.00742,0.41055235,0.7213643,0.3333341,0.55223936,0,0.0,0.0,0.0,0.0,0.2660858,0,1,0.0,0.0,0,0,95.0,0.0,473.0,4582.564102564103,3928.717948717949,4451.794871794872,4423.589743589744,4248.717948717949,4540.000000000001,4440.000000000001,4411.794871794872,4416.410256410257,4799.48717948718,4378.974358974359,4267.179487179487,4269.74358974359,4530.256410256411
445.3202,0.41055235,0.7213643,0.3333341,0.55223936,0,0.0,0.0,0.0,0.0,0.1198043,0,1,0.0,0.0,0,0,6.0,0.0,549.0,4673.333333333334,4057.435897435898,4507.6923076923085,4416.923076923077,4264.615384615385,4555.384615384616,4441.538461538462,4379.48717948718,4408.717948717949,4745.128205128206,4368.717948717949,4293.333333333334,4236.923076923077,4599.48717948718
445.50787,0.2830408,0.86784035,0.33333403,0.5522393,0,0.0,0.0,0.0,0.0,0.042455237,0,1,0.0,0.0,0,0,30.0,0.0,0.0,4720.000000000001,4062.564102564103,4544.615384615385,4397.948717948719,4247.179487179487,4552.307692307693,4430.769230769231,4385.128205128206,4405.128205128206,4758.461538461539,4400.512820512821,4309.743589743591,4279.48717948718,4629.2307692307695
445.7581,0.2830408,0.86784035,0.33333403,0.5522393,0,0.0,0.0,0.0,0.0,0.19408229,0,0,0.0,0.0,0,0,62.0,0.0,0.0,4762.564102564103,3994.358974358975,4538.461538461539,4393.333333333334,4234.871794871796,4570.256410256411,4469.2307692307695,4418.461538461539,4408.717948717949,4749.2307692307695,4403.589743589744,4277.948717948719,4253.846153846154,4645.128205128206
446.0083,0.32663652,1.0,0.33333394,0.5522393,0,0.0,0.0,0.0,0.0,0.07690923,0,0,0.0,0.0,0,0,94.0,0.0,523.0,4809.743589743591,4015.3846153846157,4556.410256410257,4413.333333333334,4260.512820512821,4609.743589743591,4492.307692307693,4441.025641025642,4416.410256410257,4781.025641025642,4432.820512820514,4288.205128205129,4246.153846153847,4672.307692307693
446.2585,0.32663652,1.0,0.33333394,0.5522393,0,0.0,0.0,0.0,0.0,0.1923365,0,0,0.0,0.0,0,0,126.0,0.0,523.0,4640.512820512821,3947.692307692308,4467.179487179487,4429.2307692307695,4233.333333333334,4586.153846153847,4477.435897435898,4397.435897435898,4355.8974358974365,4607.179487179488,4253.846153846154,4116.410256410257,3953.333333333334,4404.615384615385
446.50873,0.4449752,1.0,0.33333388,0.55223924,0,0.0,0.0,0.0,0.0,0.33554372,0,0,0.0,0.0,0,0,29.0,0.0,0.0,4650.769230769231,3953.333333333334,4496.923076923077,4460.000000000001,4214.871794871796,4573.333333333334,4495.384615384616,4421.538461538462,4394.871794871796,4719.48717948718,4368.717948717949,4238.461538461539,4134.358974358975,4414.871794871796
446.75894,0.4449752,1.0,0.33333388,0.55223924,0,0.0,0.0,0.0,0.0,0.053206723,0,0,0.0,0.0,0,0,61.0,0.0,0.0,4626.666666666667,3907.692307692308,4455.8974358974365,4428.205128205129,4197.948717948719,4542.051282051282,4474.871794871796,4430.256410256411,4392.820512820514,4731.282051282052,4366.153846153847,4216.410256410257,4142.051282051282,4393.333333333334
447.00916,0.40392658,1.0,0.33333382,0.5522392,0,0.0,0.0,0.0,0.0,0.336482,0,0,0.0,0.0,0,0,93.0,0.0,493.0,4725.641025641026,3926.666666666667,4467.6923076923085,4410.769230769231,4201.025641025642,4546.153846153847,4490.769230769231,4418.461538461539,4401.025641025642,4730.256410256411,4369.743589743591,4249.2307692307695,4166.153846153847,4507.6923076923085
447.25937,0.40392658,1.0,0.33333382,0.5522392,0,0.0,0.0,0.0,0.0,0.25975427,0,0,0.0,0.0,0,0,125.0,0.0,493.0,4750.769230769231,3938.461538461539,4506.153846153847,4409.743589743591,4241.025641025642,4567.179487179488,4489.2307692307695,4404.102564102564,4394.358974358975,4713.846153846154,4374.871794871796,4276.923076923077,4183.589743589744,4538.974358974359
447.50958,0.38698196,1.0,0.3333338,0.5522391,0,0.0,0.0,0.0,0.0,0.054364726,0,0,0.0,0.0,0,0,28.0,0.0,0.0,4684.102564102564,3895.3846153846157,4474.871794871796,4363.076923076924,4229.2307692307695,4533.333333333334,4457.435897435898,4409.743589743591,4379.48717948718,4680.000000000001,4328.205128205129,4232.307692307693,4123.076923076924,4474.871794871796
447.7598,0.38698196,1.0,0.3333338,0.5522391,0,0.0,0.0,0.0,0.0,0.4326543,0,0,0.0,0.0,0,1,60.0,0.0,0.0,4767.179487179488,3970.2564102564106,4548.717948717949,4347.6923076923085,4237.435897435898,4536.923076923077,4463.589743589744,4427.179487179487,4388.205128205129,4744.102564102564,4422.564102564103,4367.6923076923085,4325.128205128206,4683.076923076924
448.07257,0.46098098,1.0,0.33333373,0.5522391,0,0.0,0.0,0.0,0.0,0.32874545,0,0,0.0,0.0,0,0,100.0,0.0,369.0,4725.641025641026,3942.0512820512827,4540.000000000001,4337.435897435898,4249.2307692307695,4523.589743589744,4490.256410256411,4466.666666666667,4443.589743589744,4730.769230769231,4391.282051282052,4332.820512820514,4293.846153846154,4596.923076923077
448.32278,0.46098098,1.0,0.33333373,0.5522391,1,0.0,0.0,0.0,0.0,0.080188714,0,0,0.0,0.0,0,0,3.0,0.0,488.0,4743.589743589744,3971.7948717948725,4558.974358974359,4331.794871794872,4270.769230769231,4538.974358974359,4475.384615384616,4456.410256410257,4523.589743589744,4719.48717948718,4388.717948717949,4339.48717948718,4277.435897435898,4563.076923076924
448.51044,0.39296666,1.0,0.3333337,0.55223906,0,0.0,0.0,0.0,0.0,0.17685582,0,0,0.0,0.0,0,0,27.0,0.0,0.0,4686.153846153847,3973.333333333334,4556.410256410257,4348.717948717949,4279.48717948718,4538.461538461539,4459.48717948718,4447.6923076923085,4527.6923076923085,4692.820512820514,4352.820512820514,4302.051282051282,4206.666666666667,4477.948717948719
448.76065,0.39296666,1.0,0.3333337,0.55223906,0,0.0,0.0,0.0,0.0,0.4661372,0,0,0.0,0.0,0,0,59.0,0.0,0.0,4666.153846153847,3924.615384615385,4535.8974358974365,4348.717948717949,4278.461538461539,4531.794871794872,4444.102564102564,4444.615384615385,4480.512820512821,4680.000000000001,4337.948717948719,4277.435897435898,4183.076923076924,4381.538461538462
449.01086,0.42881447,1.0,0.33333367,0.55223906,0,0.0,0.0,0.0,0.0,0.26675397,0,0,0.0,0.0,0,0,91.0,0.0,474.0,4729.743589743591,3927.692307692308,4555.384615384616,4345.641025641026,4281.025641025642,4541.538461538462,4476.410256410257,4465.128205128206,4474.871794871796,4729.743589743591,4362.051282051282,4323.076923076924,4220.000000000001,4473.333333333334
449.26108,0.42881447,1.0,0.33333367,0.55223906,1,0.0,0.0,0.0,0.0,0.23880167,0,0,0.0,0.0,0,0,123.0,0.0,474.0,4741.538461538462,3961.0256410256416,4552.307692307693,4332.307692307693,4295.8974358974365,4555.8974358974365,4458.974358974359,4427.179487179487,4456.923076923077,4729.2307692307695,4365.641025641026,4321.025641025642,4229.74358974359,4539.48717948718
449.5113,0.43250024,1.0,0.33333364,0.552239,0,0.0,0.0,0.0,0.0,0.15944201,0,0,0.0,0.0,0,0,26.0,0.0,0.0,4746.153846153847,3875.8974358974365,4485.641025641026,4300.000000000001,4297.948717948719,4567.6923076923085,4430.769230769231,4372.307692307693,4425.128205128206,4680.000000000001,4331.282051282052,4245.128205128206,4146.153846153847,4486.666666666667
449.7615,0.43250024,1.0,0.33333364,0.552239,0,0.0,0.0,0.0,0.0,0.49083036,0,0,0.0,0.0,0,0,58.0,0.0,0.0,4768.205128205129,3876.9230769230776,4493.333333333334,4292.820512820514,4298.461538461539,4570.769230769231,4432.307692307693,4389.2307692307695,4417.948717948719,4687.6923076923085,4328.717948717949,4225.128205128206,4139.48717948718,4507.179487179488
450.01172,0.4543639,1.0,0.3333336,0.552239,0,0.0,0.0,0.0,0.0,0.09136627,0,0,0.0,0.0,0,0,90.0,0.0,523.0,4797.948717948719,3941.538461538462,4549.2307692307695,4325.128205128206,4301.538461538462,4588.205128205129,4458.974358974359,4435.384615384616,4424.615384615385,4700.512820512821,4344.615384615385,4256.410256410257,4154.358974358975,4556.410256410257
450.26193,0.4543639,1.0,0.3333336,0.552239,0,0.0,0.0,0.0,0.0,0.041758593,0,0,0.0,0.0,0,0,122.0,0.0,523.0,4771.282051282052,3912.307692307693,4545.641025641026,4330.769230769231,4291.794871794872,4584.102564102564,4477.948717948719,4460.512820512821,4437.435897435898,4710.256410256411,4352.307692307693,4238.461538461539,4164.615384615385,4544.615384615385
450.51215,0.42024127,1.0,0.33333358,0.552239,0,0.0,0.0,0.0,0.0,0.13192672,0,0,0.0,0.0,0,0,25.0,0.0,0.0,4908.717948717949,4150.256410256411,4624.615384615385,4331.282051282052,4297.435897435898,4593.333333333334,4490.769230769231,4478.974358974359,4523.076923076924,4715.384615384616,4429.2307692307695,4387.179487179487,4339.48717948718,4749.743589743591
450.7624,0.42024127,1.0,0.33333358,0.552239,0,0.0,0.0,0.0,0.0,0.11553627,0,0,0.0,0.0,0,0,57.0,0.0,0.0,4753.846153846154,3927.1794871794878,4560.512820512821,4373.846153846154,4295.384615384616,4593.846153846154,4511.282051282052,4547.179487179488,4508.205128205129,4755.8974358974365,4384.102564102564,4294.358974358975,4216.923076923077,4555.384615384616
451.0126,0.42264125,1.0,0.33333355,0.55223894,0,0.0,0.0,0.0,0.0,0.13995636,0,0,0.0,0.0,0,0,89.0,0.0,493.0,4668.717948717949,3910.2564102564106,4521.538461538462,4413.333333333334,4301.025641025642,4617.948717948719,4489.2307692307695,4487.6923076923085,4456.923076923077,4730.769230769231,4352.307692307693,4266.666666666667,4170.769230769231,4446.666666666667
451.26282,0.42264125,1.0,0.33333355,0.55223894,0,0.0,0.0,0.0,0.0,0.19417039,0,0,0.0,0.0,0,0,121.0,0.0,493.0,4659.48717948718,3911.7948717948725,4470.769230769231,4417.435897435898,4285.641025641026,4604.615384615385,4477.435897435898,4478.974358974359,4445.641025641026,4708.205128205129,4329.2307692307695,4242.051282051282,4139.48717948718,4440.000000000001
451.51303,0.4853601,1.0,0.33333352,0.55223894,0,0.0,0.0,0.0,0.0,0.1943935,0,0,0.0,0.0,0,0,24.0,0.0,0.0,4691.282051282052,3862.0512820512827,4471.794871794872,4434.871794871796,4293.846153846154,4615.384615384616,4492.820512820514,4526.153846153847,4480.512820512821,4723.076923076924,4323.076923076924,4214.871794871796,4094.358974358975,4445.641025641026
451.73196,0.4853601,1.0,0.33333352,0.55223894,1,0.0,0.0,0.0,0.0,0.0,0,0,0.0,0.0,0,0,52.0,0.0,0.0,4671.794871794872,3911.7948717948725,4498.461538461539,4442.564102564103,4306.666666666667,4629.743589743591,4527.179487179488,4575.8974358974365,4473.846153846154,4769.2307692307695,4364.102564102564,4265.128205128206,4151.794871794872,4482.051282051282
451.91962,0.58699566,1.0,0.3333335,0.55223894,0,0.0,0.0,0.0,0.0,0.0,0,0,0.0,0.0,0,0,76.0,0.0,369.0,4666.666666666667,3902.564102564103,4492.820512820514,4436.410256410257,4295.384615384616,4610.256410256411,4491.794871794872,4507.6923076923085,4442.564102564103,4738.974358974359,4364.615384615385,4277.948717948719,4168.205128205129,4487.6923076923085
451.91962,0.58699566,1.0,0.3333335,0.55223894,0,0.0,0.0,0.0,0.0,0.0,0,0,0.0,0.0,0,0,76.0,0.0,369.0,4666.666666666667,3902.564102564103,4492.820512820514,4436.410256410257,4295.384615384616,4610.256410256411,4491.794871794872,4507.6923076923085,4442.564102564103,4738.974358974359,4364.615384615385,4277.948717948719,4168.205128205129,4487.6923076923085
452.42004,0.62123317,1.0,0.3333335,0.55223894,0,0.0,0.0,0.0,0.0,0.0,0,0,0.0,0.0,0,0,11.0,0.0,474.0,4676.923076923077,3943.589743589744,4511.794871794872,4463.076923076924,4308.717948717949,4600.512820512821,4496.923076923077,4498.461538461539,4449.2307692307695,4792.307692307693,4441.025641025642,4321.538461538462,4236.923076923077,4590.256410256411
452.42004,0.62123317,1.0,0.3333335,0.55223894,0,0.0,0.0,0.0,0.0,0.0,0,0,0.0,0.0,0,0,11.0,0.0,474.0,4676.923076923077,3943.589743589744,4511.794871794872,4463.076923076924,4308.717948717949,4600.512820512821,4496.923076923077,4498.461538461539,4449.2307692307695,4792.307692307693,4441.025641025642,4321.538461538462,4236.923076923077,4590.256410256411
452.8892,0.6563166,1.0,0.33333346,0.5522389,0,0.0,0.0,0.0,0.0,0.0,0,0,0.0,0.0,0,0,71.0,0.0,464.0,4675.8974358974365,3957.435897435898,4515.8974358974365,4471.794871794872,4310.769230769231,4596.410256410257,4538.461538461539,4557.435897435898,4426.666666666667,4810.769230769231,4442.564102564103,4332.307692307693,4232.307692307693,4571.282051282052
453.26453,0.6563166,1.0,0.33333346,0.5522389,0,0.0,0.0,0.0,0.0,0.17926098,0,0,0.0,0.0,1,0,119.0,0.0,474.0,4751.282051282052,4100.000000000001,4582.051282051282,4461.025641025642,4301.025641025642,4585.128205128206,4561.025641025642,4556.410256410257,4413.333333333334,4787.6923076923085,4469.743589743591,4439.48717948718,4284.615384615385,4668.205128205129
453.51474,0.7148679,1.0,0.33333346,0.5522389,0,0.0,0.0,0.0,0.0,0.19115123,0,0,0.0,0.0,1,0,22.0,0.0,0.0,4642.564102564103,3960.5128205128212,4462.051282051282,4402.051282051282,4234.358974358975,4505.641025641026,4487.179487179488,4544.615384615385,4467.179487179487,4768.717948717949,4435.8974358974365,4349.2307692307695,4242.564102564103,4671.282051282052
453.76495,0.7148679,1.0,0.33333346,0.5522389,0,0.0,0.0,0.0,0.0,0.1479961,0,0,0.0,0.0,0,0,54.0,0.0,0.0,4636.410256410257,3924.615384615385,4404.102564102564,4380.000000000001,4242.564102564103,4521.538461538462,4434.871794871796,4413.333333333334,4406.153846153847,4679.48717948718,4357.435897435898,4265.641025641026,4138.974358974359,4587.179487179488
454.01517,0.7787074,1.0,0.33333343,0.5522389,0,0.0,0.0,0.0,0.0,0.14892991,0,0,0.0,0.0,0,0,86.0,0.0,523.0,4692.307692307693,3949.2307692307695,4424.615384615385,4375.8974358974365,4267.6923076923085,4556.923076923077,4445.641025641026,4424.102564102564,4417.948717948719,4679.48717948718,4362.051282051282,4281.538461538462,4151.282051282052,4631.794871794872
454.32794,0.7787074,1.0,0.33333343,0.5522389,1,0.0,0.0,0.0,0.0,0.18836074,0,0,0.0,0.0,0,0,126.0,0.0,523.0,4733.846153846154,3938.461538461539,4426.153846153847,4353.333333333334,4262.051282051282,4552.307692307693,4446.666666666667,4400.512820512821,4416.923076923077,4682.051282051282,4369.2307692307695,4275.384615384616,4173.846153846154,4670.256410256411
454.5156,0.7506085,1.0,0.33333343,0.5522389,0,0.0,0.0,0.0,0.0,0.13439749,0,0,0.0,0.0,0,0,21.0,0.0,0.0,4699.48717948718,3912.307692307693,4440.512820512821,4361.538461538462,4269.2307692307695,4557.948717948719,4460.000000000001,4435.384615384616,4422.564102564103,4692.820512820514,4371.794871794872,4272.307692307693,4157.435897435898,4620.512820512821
454.7658,0.7506085,1.0,0.33333343,0.5522389,0,0.0,0.0,0.0,0.0,0.20702517,0,0,0.0,0.0,0,0,53.0,0.0,0.0,4641.025641025642,3947.692307692308,4477.948717948719,4408.717948717949,4263.589743589744,4542.564102564103,4473.846153846154,4480.512820512821,4423.076923076924,4720.000000000001,4391.794871794872,4317.435897435898,4190.256410256411,4621.025641025642
455.01602,0.6214339,1.0,0.33333343,0.5522389,0,0.0,0.0,0.0,0.0,1.0,0,0,0.0,0.0,0,0,85.0,0.0,494.0,4658.974358974359,3942.564102564103,4448.205128205129,4376.923076923077,4273.846153846154,4538.974358974359,4447.179487179487,4482.051282051282,4429.2307692307695,4690.256410256411,4349.743589743591,4287.179487179487,4171.282051282052,4763.589743589744
455.01602,0.6214339,1.0,0.33333343,0.5522389,0,0.0,0.0,0.0,0.0,1.0,0,0,0.0,0.0,0,0,85.0,0.0,494.0,4658.974358974359,3942.564102564103,4448.205128205129,4376.923076923077,4273.846153846154,4538.974358974359,4447.179487179487,4482.051282051282,4429.2307692307695,4690.256410256411,4349.743589743591,4287.179487179487,4171.282051282052,4763.589743589744
455.39136,0.51826876,1.0,0.3333334,0.5522389,0,0.0,0.0,0.0,0.0,1.0,0,0,0.0,0.0,0,0,4.0,0.0,553.0,4732.820512820514,3921.538461538462,4426.153846153847,4389.2307692307695,4289.74358974359,4574.358974358975,4441.538461538462,4455.384615384616,4415.384615384616,4714.871794871796,4346.666666666667,4249.2307692307695,4152.307692307693,4647.179487179488
455.76666,0.51826876,1.0,0.3333334,0.5522389,0,0.0,0.0,0.0,0.0,0.8632379,0,0,0.0,0.0,0,0,52.0,0.0,0.0,4893.333333333334,3926.666666666667,4444.102564102564,4377.435897435898,4307.6923076923085,4586.666666666667,4461.025641025642,4463.076923076924,4423.076923076924,4720.512820512821,4341.538461538462,4264.615384615385,4185.128205128206,4666.666666666667
456.0169,0.48989657,1.0,0.3333334,0.5522389,0,0.0,0.0,0.0,0.0,0.08995814,0,0,0.0,0.0,0,0,84.0,0.0,369.0,4883.589743589744,3924.1025641025644,4437.948717948719,4344.102564102564,4289.74358974359,4568.717948717949,4459.48717948718,4470.769230769231,4413.846153846154,4697.948717948719,4329.743589743591,4248.205128205129,4164.102564102564,4676.923076923077
456.26712,0.48989657,1.0,0.3333334,0.5522389,0,0.0,0.0,0.0,0.0,0.17966099,0,0,0.0,0.0,0,0,116.0,0.0,369.0,4809.2307692307695,3935.8974358974365,4456.923076923077,4381.025641025642,4281.538461538462,4552.820512820514,4476.923076923077,4517.435897435898,4413.846153846154,4715.8974358974365,4342.564102564103,4267.179487179487,4187.179487179487,4673.333333333334
456.51733,0.45275784,1.0,0.3333334,0.5522389,1,0.0,0.0,0.0,0.0,0.19056751,0,0,0.0,0.0,0,0,19.0,0.0,0.0,4770.769230769231,3956.9230769230776,4472.307692307693,4383.076923076924,4278.461538461539,4543.076923076924,4475.8974358974365,4518.974358974359,4429.2307692307695,4720.512820512821,4342.564102564103,4290.256410256411,4184.102564102564,4686.153846153847
456.76755,0.45275784,1.0,0.3333334,0.5522389,0,0.0,0.0,0.0,0.0,0.26761797,0,0,0.0,0.0,0,0,51.0,0.0,0.0,4732.307692307693,3925.6410256410263,4463.076923076924,4398.461538461539,4275.384615384616,4547.179487179488,4476.410256410257,4492.307692307693,4582.051282051282,4712.307692307693,4338.974358974359,4279.48717948718,4186.666666666667,4663.076923076924
457.01776,0.43810064,1.0,0.3333334,0.5522388,0,0.0,0.0,0.0,0.0,0.14185072,0,0,0.0,0.0,0,0,83.0,0.0,471.0,4719.48717948718,3950.2564102564106,4477.435897435898,4415.384615384616,4282.564102564103,4556.410256410257,4497.435897435898,4536.923076923077,4522.051282051282,4751.794871794872,4368.717948717949,4303.076923076924,4210.769230769231,4693.333333333334
457.26797,0.43810064,1.0,0.3333334,0.5522388,0,0.0,0.0,0.0,0.0,0.0,0,0,0.0,0.0,0,0,115.0,0.0,471.0,4704.102564102564,3946.1538461538466,4475.384615384616,4411.794871794872,4265.128205128206,4552.307692307693,4491.282051282052,4530.256410256411,4480.000000000001,4726.153846153847,4361.538461538462,4294.871794871796,4204.102564102564,4698.461538461539
457.42435,0.38196778,1.0,0.33333337,0.5522388,0,0.0,0.0,0.0,0.0,0.0,0,0,0.0,0.0,0,0,6.0,0.0,548.0,4673.846153846154,3941.538461538462,4461.538461538462,4422.564102564103,4263.076923076924,4540.512820512821,4487.6923076923085,4508.205128205129,4456.410256410257,4728.205128205129,4347.179487179487,4277.948717948719,4186.153846153847,4669.2307692307695
457.7684,0.38196778,1.0,0.33333337,0.5522388,1,0.0,0.0,0.0,0.0,0.18367106,0,0,0.0,0.0,0,0,50.0,0.0,0.0,4716.923076923077,3987.692307692308,4492.307692307693,4425.641025641026,4281.025641025642,4567.179487179488,4525.128205128206,4580.512820512821,4462.051282051282,4762.051282051282,4383.589743589744,4327.179487179487,4244.615384615385,4691.794871794872
458.01862,0.42021805,1.0,0.33333337,0.5522388,0,0.0,0.0,0.0,0.0,0.19423714,0,0,0.0,0.0,0,0,82.0,0.0,523.0,4668.205128205129,3978.461538461539,4475.8974358974365,4428.205128205129,4280.512820512821,4568.205128205129,4506.153846153847,4514.358974358975,4413.846153846154,4733.846153846154,4353.333333333334,4282.051282051282,4168.717948717949,4635.8974358974365
458.26883,0.42021805,1.0,0.33333337,0.5522388,0,0.0,0.0,0.0,0.0,0.1661014,0,0,0.0,0.0,0,0,114.0,0.0,523.0,4667.179487179488,3972.820512820513,4489.2307692307695,4417.948717948719,4263.076923076924,4550.256410256411,4489.2307692307695,4524.615384615385,4431.794871794872,4743.589743589744,4364.615384615385,4293.846153846154,4199.48717948718,4620.000000000001
458.51904,0.44712958,1.0,0.33333337,0.5522388,0,0.0,0.0,0.0,0.0,0.18776545,0,0,0.0,0.0,0,0,17.0,0.0,0.0,4691.794871794872,4003.589743589744,4508.205128205129,4443.076923076924,4288.717948717949,4573.333333333334,4508.205128205129,4535.384615384616,4428.717948717949,4754.358974358975,4363.589743589744,4309.743589743591,4195.384615384616,4608.205128205129
458.76926,0.44712958,1.0,0.33333337,0.5522388,0,0.0,0.0,0.0,0.0,0.07859058,0,0,0.0,0.0,0,0,49.0,0.0,0.0,4694.871794871796,4021.0256410256416,4507.179487179488,4454.358974358975,4282.051282051282,4571.282051282052,4499.48717948718,4506.666666666667,4420.000000000001,4714.358974358975,4352.307692307693,4310.769230769231,4199.48717948718,4603.076923076924
459.01947,0.38861114,1.0,0.33333337,0.5522388,0,0.0,0.0,0.0,0.0,0.040355816,0,0,0.0,0.0,0,0,81.0,0.0,494.0,4663.076923076924,3986.666666666667,4494.358974358975,4431.282051282052,4264.615384615385,4555.384615384616,4492.820512820514,4507.6923076923085,4426.153846153847,4746.666666666667,4345.128205128206,4297.948717948719,4200.000000000001,4574.871794871796
459.26968,0.38861114,1.0,0.33333337,0.5522388,0,0.0,0.0,0.0,0.0,0.1329164,0,0,0.0,0.0,0,0,113.0,0.0,494.0,4670.256410256411,3981.538461538462,4508.205128205129,4446.153846153847,4267.179487179487,4568.205128205129,4510.256410256411,4533.846153846154,4468.717948717949,4777.948717948719,4370.256410256411,4322.051282051282,4246.153846153847,4595.384615384616
459.5199,0.33705136,1.0,0.33333337,0.5522388,0,0.0,0.0,0.0,0.0,0.0,0,0,0.0,0.0,0,0,16.0,0.0,0.0,4664.102564102564,3983.076923076924,4493.846153846154,4444.102564102564,4264.615384615385,4566.666666666667,4505.128205128206,4517.948717948719,4470.769230769231,4756.923076923077,4356.410256410257,4309.743589743591,4224.102564102564,4551.794871794872
459.5199,0.33705136,1.0,0.33333337,0.5522388,0,0.0,0.0,0.0,0.0,0.0,0,0,0.0,0.0,0,0,16.0,0.0,0.0,4664.102564102564,3983.076923076924,4493.846153846154,4444.102564102564,4264.615384615385,4566.666666666667,4505.128205128206,4517.948717948719,4470.769230769231,4756.923076923077,4356.410256410257,4309.743589743591,4224.102564102564,4551.794871794872
459.89523,0.29204625,1.0,0.33333337,0.5522388,0,0.0,0.0,0.0,0.0,0.0,0,0,0.0,0.0,0,0,64.0,0.0,477.0,4665.128205128206,3975.3846153846157,4504.102564102564,4441.538461538462,4259.48717948718,4553.846153846154,4496.410256410257,4508.717948717949,4470.256410256411,4783.589743589744,4379.48717948718,4325.128205128206,4261.025641025642,4560.000000000001
459.89523,0.29204625,1.0,0.33333337,0.5522388,0,0.0,0.0,0.0,0.0,0.0,0,0,0.0,0.0,0,0,64.0,0.0,477.0,4665.128205128206,3975.3846153846157,4504.102564102564,4441.538461538462,4259.48717948718,4553.846153846154,4496.410256410257,4508.717948717949,4470.256410256411,4783.589743589744,4379.48717948718,4325.128205128206,4261.025641025642,4560.000000000001
460.39566,0.24518642,1.0,0.33333337,0.5522388,0,0.0,0.0,0.0,0.0,0.0,0,0,0.0,0.0,0,0,128.0,0.0,369.0,4687.179487179488,3986.666666666667,4527.6923076923085,4455.8974358974365,4322.051282051282,4561.538461538462,4522.051282051282,4521.025641025642,4472.307692307693,4780.000000000001,4378.461538461539,4331.794871794872,4246.153846153847,4524.102564102564
460.39566,0.24518642,1.0,0.33333337,0.5522388,0,0.0,0.0,0.0,0.0,0.0,0,0,0.0,0.0,0,0,128.0,0.0,369.0,4687.179487179488,3986.666666666667,4527.6923076923085,4455.8974358974365,4322.051282051282,4561.538461538462,4522.051282051282,4521.025641025642,4472.307692307693,4780.000000000001,4378.461538461539,4331.794871794872,4246.153846153847,4524.102564102564
460.8961,0.25884062,1.0,0.33333337,0.5522388,0,0.0,0.0,0.0,0.0,0.0,0,0,0.0,0.0,0,0,63.0,0.0,0.0,4709.743589743591,4037.9487179487182,4527.179487179488,4466.153846153847,4311.794871794872,4574.358974358975,4504.102564102564,4485.641025641026,4457.948717948719,4726.666666666667,4364.615384615385,4331.282051282052,4217.948717948719,4474.358974358975
460.8961,0.25884062,1.0,0.33333337,0.5522388,0,0.0,0.0,0.0,0.0,0.0,0,0,0.0,0.0,0,0,63.0,0.0,0.0,4709.743589743591,4037.9487179487182,4527.179487179488,4466.153846153847,4311.794871794872,4574.358974358975,4504.102564102564,4485.641025641026,4457.948717948719,4726.666666666667,4364.615384615385,4331.282051282052,4217.948717948719,4474.358974358975
461.3965,0.30817607,0.96137977,0.33333334,0.55652714,0,0.0,0.0,0.0,0.0,0.0,0,0,0.0,0.0,0,0,127.0,0.0,471.0,4663.076923076924,3974.8717948717954,4490.769230769231,4460.000000000001,4274.871794871796,4555.384615384616,4479.48717948718,4441.538461538462,4445.128205128206,4733.333333333334,4326.153846153847,4297.948717948719,4186.666666666667,4445.128205128206
461.3965,0.30817607,0.96137977,0.33333334,0.55652714,0,0.0,0.0,0.0,0.0,0.0,0,0,0.0,0.0,0,0,127.0,0.0,471.0,4663.076923076924,3974.8717948717954,4490.769230769231,4460.000000000001,4274.871794871796,4555.384615384616,4479.48717948718,4441.538461538462,4445.128205128206,4733.333333333334,4326.153846153847,4297.948717948719,4186.666666666667,4445.128205128206
461.89694,0.22581856,0.88534135,0.3333734,0.56821305,0,0.0,0.0,0.0,0.0,0.0,0,0,0.0,0.0,0,0,62.0,0.0,0.0,4650.256410256411,3953.8461538461543,4493.333333333334,4435.8974358974365,4259.48717948718,4541.538461538462,4474.871794871796,4448.717948717949,4431.794871794872,4754.871794871796,4332.820512820514,4295.384615384616,4207.179487179487,4500.000000000001
461.89694,0.22581856,0.88534135,0.3333734,0.56821305,0,0.0,0.0,0.0,0.0,0.0,0,0,0.0,0.0,0,0,62.0,0.0,0.0,4650.256410256411,3953.8461538461543,4493.333333333334,4435.8974358974365,4259.48717948718,4541.538461538462,4474.871794871796,4448.717948717949,4431.794871794872,4754.871794871796,4332.820512820514,4295.384615384616,4207.179487179487,4500.000000000001
462.55377,0.20656347,0.80728686,0.33324462,0.5870176,1,0.0,0.0,0.0,0.0,0.0,0,0,0.0,0.0,0,0,17.0,0.0,0.0,4645.641025641026,3953.333333333334,4489.743589743591,4431.794871794872,4248.205128205129,4538.974358974359,4473.333333333334,4442.564102564103,4488.205128205129,4716.923076923077,4316.923076923077,4275.384615384616,4173.333333333334,4475.384615384616
462.7727,0.20656347,0.80728686,0.33324462,0.5870176,0,0.0,0.0,0.0,0.0,0.15276541,0,0,0.0,0.0,1,0,45.0,0.0,0.0,4655.8974358974365,3974.358974358975,4503.076923076924,4423.589743589744,4263.076923076924,4549.743589743591,4474.358974358975,4440.512820512821,4458.974358974359,4725.128205128206,4322.051282051282,4292.820512820514,4192.307692307693,4500.000000000001
463.02292,0.17533338,0.80689454,0.3328949,0.60859543,0,0.0,0.0,0.0,0.0,0.19853225,0,0,0.0,0.0,1,0,77.0,0.0,494.0,4655.384615384616,3956.9230769230776,4516.923076923077,4459.48717948718,4279.48717948718,4569.2307692307695,4493.846153846154,4444.102564102564,4446.666666666667,4742.564102564103,4342.051282051282,4300.000000000001,4209.74358974359,4460.000000000001
463.27313,0.17533338,0.80689454,0.3328949,0.60859543,0,0.0,0.0,0.0,0.0,0.12323095,0,0,0.0,0.0,0,0,109.0,0.0,494.0,4670.256410256411,3945.1282051282055,4510.256410256411,4437.435897435898,4280.512820512821,4572.307692307693,4504.102564102564,4451.282051282052,4450.769230769231,4786.153846153847,4357.948717948719,4308.205128205129,4254.358974358975,4487.179487179488
463.52335,0.15782692,0.8174165,0.33258015,0.6280037,0,0.0,0.0,0.0,0.0,0.07733951,0,0,0.0,0.0,0,0,12.0,0.0,369.0,4657.948717948719,3925.6410256410263,4509.2307692307695,4432.820512820514,4262.051282051282,4556.923076923077,4477.435897435898,4446.153846153847,4446.153846153847,4764.102564102564,4346.153846153847,4296.923076923077,4221.538461538462,4477.948717948719
463.64844,0.15782692,0.8174165,0.33258015,0.6280037,0,0.0,0.0,0.0,0.0,0.0,0,0,0.0,0.0,0,0,28.0,0.0,0.0,4655.384615384616,3943.589743589744,4493.846153846154,4427.179487179487,4259.48717948718,4552.820512820514,4470.769230769231,4428.717948717949,4424.615384615385,4695.8974358974365,4316.410256410257,4277.435897435898,4183.589743589744,4487.6923076923085
463.89865,0.06621814,0.7989696,0.33294794,0.6406986,0,0.0,0.0,0.0,0.0,0.0,0,0,0.0,0.0,0,0,60.0,0.0,0.0,4651.794871794872,3940.5128205128212,4504.102564102564,4432.820512820514,4260.512820512821,4554.871794871796,4475.8974358974365,4420.000000000001,4410.256410256411,4723.076923076924,4310.256410256411,4275.384615384616,4170.256410256411,4500.512820512821
463.89865,0.06621814,0.7989696,0.33294794,0.6406986,0,0.0,0.0,0.0,0.0,0.0,0,0,0.0,0.0,0,0,60.0,0.0,0.0,4651.794871794872,3940.5128205128212,4504.102564102564,4432.820512820514,4260.512820512821,4554.871794871796,4475.8974358974365,4420.000000000001,4410.256410256411,4723.076923076924,4310.256410256411,4275.384615384616,4170.256410256411,4500.512820512821
464.3991,0.0675859,0.7661296,0.34048143,0.65210724,0,0.0,0.0,0.0,0.0,0.0,0,0,0.0,0.0,0,0,124.0,0.0,369.0,4642.564102564103,3926.666666666667,4484.102564102564,4429.743589743591,4249.74358974359,4548.717948717949,4476.410256410257,4445.128205128206,4413.846153846154,4718.461538461539,4312.307692307693,4247.179487179487,4170.256410256411,4471.282051282052
464.3991,0.0675859,0.7661296,0.34048143,0.65210724,0,0.0,0.0,0.0,0.0,0.0,0,0,0.0,0.0,0,0,124.0,0.0,369.0,4642.564102564103,3926.666666666667,4484.102564102564,4429.743589743591,4249.74358974359,4548.717948717949,4476.410256410257,4445.128205128206,4413.846153846154,4718.461538461539,4312.307692307693,4247.179487179487,4170.256410256411,4471.282051282052
464.89954,0.03685283,0.7005986,0.3473719,0.6597494,0,0.0,0.0,0.0,0.0,0.0,0,0,0.0,0.0,0,0,59.0,0.0,0.0,4680.512820512821,3964.615384615385,4512.820512820514,4430.769230769231,4260.512820512821,4550.769230769231,4472.307692307693,4426.666666666667,4396.410256410257,4720.512820512821,4325.128205128206,4289.2307692307695,4200.512820512821,4570.256410256411
464.89954,0.03685283,0.7005986,0.3473719,0.6597494,0,0.0,0.0,0.0,0.0,0.0,0,0,0.0,0.0,0,0,59.0,0.0,0.0,4680.512820512821,3964.615384615385,4512.820512820514,4430.769230769231,4260.512820512821,4550.769230769231,4472.307692307693,4426.666666666667,4396.410256410257,4720.512820512821,4325.128205128206,4289.2307692307695,4200.512820512821,4570.256410256411
465.39996,0.016199877,0.63644314,0.3535721,0.6633549,0,0.0,0.0,0.0,0.0,0.0,0,0,0.0,0.0,0,0,123.0,0.0,472.0,4650.769230769231,3938.9743589743593,4497.435897435898,4444.615384615385,4260.512820512821,4554.358974358975,4474.871794871796,4434.871794871796,4393.333333333334,4720.512820512821,4318.974358974359,4268.717948717949,4198.461538461539,4571.282051282052
465.39996,0.016199877,0.63644314,0.3535721,0.6633549,0,0.0,0.0,0.0,0.0,0.0,0,0,0.0,0.0,0,0,123.0,0.0,472.0,4650.769230769231,3938.9743589743593,4497.435897435898,4444.615384615385,4260.512820512821,4554.358974358975,4474.871794871796,4434.871794871796,4393.333333333334,4720.512820512821,4318.974358974359,4268.717948717949,4198.461538461539,4571.282051282052
465.9004,0.028954212,0.5970797,0.3591505,0.6665859,0,0.0,0.0,0.0,0.0,0.0,0,0,0.0,0.0,0,0,58.0,0.0,0.0,4698.461538461539,3992.820512820513,4527.179487179488,4439.48717948718,4274.871794871796,4562.564102564103,4476.410256410257,4442.051282051282,4362.564102564103,4736.923076923077,4334.358974358975,4307.179487179487,4218.974358974359,4602.564102564103
465.9004,0.028954212,0.5970797,0.3591505,0.6665859,0,0.0,0.0,0.0,0.0,0.0,0,0,0.0,0.0,0,0,58.0,0.0,0.0,4698.461538461539,3992.820512820513,4527.179487179488,4439.48717948718,4274.871794871796,4562.564102564103,4476.410256410257,4442.051282051282,4362.564102564103,4736.923076923077,4334.358974358975,4307.179487179487,4218.974358974359,4602.564102564103
466.40082,0.019300386,0.567155,0.35684556,0.6694798,0,0.0,0.0,0.0,0.0,0.0,0,0,0.0,0.0,0,0,122.0,0.0,523.0,4685.128205128206,3980.5128205128212,4518.974358974359,4443.589743589744,4278.974358974359,4570.256410256411,4471.282051282052,4434.358974358975,4383.589743589744,4734.358974358975,4323.589743589744,4280.000000000001,4208.717948717949,4567.6923076923085
466.40082,0.019300386,0.567155,0.35684556,0.6694798,0,0.0,0.0,0.0,0.0,0.0,0,0,0.0,0.0,0,0,122.0,0.0,523.0,4685.128205128206,3980.5128205128212,4518.974358974359,4443.589743589744,4278.974358974359,4570.256410256411,4471.282051282052,4434.358974358975,4383.589743589744,4734.358974358975,4323.589743589744,4280.000000000001,4208.717948717949,4567.6923076923085
466.90125,0.0,0.515888,0.3531055,0.67730737,0,0.0,0.0,0.0,0.0,0.0,0,0,0.0,0.0,0,0,57.0,0.0,0.0,4691.282051282052,3974.358974358975,4522.051282051282,4447.6923076923085,4262.564102564103,4555.8974358974365,4488.205128205129,4476.410256410257,4403.076923076924,4769.2307692307695,4341.025641025642,4298.461538461539,4221.025641025642,4560.000000000001
466.90125,0.0,0.515888,0.3531055,0.67730737,0,0.0,0.0,0.0,0.0,0.0,0,0,0.0,0.0,0,0,57.0,0.0,0.0,4691.282051282052,3974.358974358975,4522.051282051282,4447.6923076923085,4262.564102564103,4555.8974358974365,4488.205128205129,4476.410256410257,4403.076923076924,4769.2307692307695,4341.025641025642,4298.461538461539,4221.025641025642,4560.000000000001
467.40167,0.005724756,0.477341,0.34764585,0.68432856,0,0.0,0.0,0.0,0.0,0.0,0,0,0.0,0.0,0,0,121.0,0.0,494.0,4696.923076923077,3975.3846153846157,4523.589743589744,4447.179487179487,4262.051282051282,4554.871794871796,4476.410256410257,4445.641025641026,4385.128205128206,4742.051282051282,4347.6923076923085,4302.564102564103,4201.538461538462,4581.025641025642
467.40167,0.005724756,0.477341,0.34764585,0.68432856,0,0.0,0.0,0.0,0.0,0.0,0,0,0.0,0.0,0,0,121.0,0.0,494.0,4696.923076923077,3975.3846153846157,4523.589743589744,4447.179487179487,4262.051282051282,4554.871794871796,4476.410256410257,4445.641025641026,4385.128205128206,4742.051282051282,4347.6923076923085,4302.564102564103,4201.538461538462,4581.025641025642
467.9021,0.0046667387,0.42911208,0.34168315,0.6906228,0,0.0,0.0,0.0,0.0,0.0,0,0,0.0,0.0,0,0,56.0,0.0,0.0,4669.2307692307695,3956.410256410257,4507.6923076923085,4431.794871794872,4263.589743589744,4555.384615384616,4470.769230769231,4444.615384615385,4385.128205128206,4721.538461538462,4336.410256410257,4294.358974358975,4188.205128205129,4540.512820512821
467.9021,0.0046667387,0.42911208,0.34168315,0.6906228,0,0.0,0.0,0.0,0.0,0.0,0,0,0.0,0.0,0,0,56.0,0.0,0.0,4669.2307692307695,3956.410256410257,4507.6923076923085,4431.794871794872,4263.589743589744,4555.384615384616,4470.769230769231,4444.615384615385,4385.128205128206,4721.538461538462,4336.410256410257,4294.358974358975,4188.205128205129,4540.512820512821
468.40253,0.0,0.3814197,0.3362452,0.7000052,0,0.0,0.0,0.0,0.0,0.0,0,0,0.0,0.0,0,0,120.0,0.0,369.0,4638.461538461539,3937.9487179487182,4498.974358974359,4434.358974358975,4260.000000000001,4553.333333333334,4488.205128205129,4485.128205128206,4399.48717948718,4762.051282051282,4325.641025641026,4279.48717948718,4169.74358974359,4532.307692307693
468.40253,0.0,0.3814197,0.3362452,0.7000052,0,0.0,0.0,0.0,0.0,0.0,0,0,0.0,0.0,0,0,120.0,0.0,369.0,4638.461538461539,3937.9487179487182,4498.974358974359,4434.358974358975,4260.000000000001,4553.333333333334,4488.205128205129,4485.128205128206,4399.48717948718,4762.051282051282,4325.641025641026,4279.48717948718,4169.74358974359,4532.307692307693
468.90295,0.008348337,0.338064,0.3313508,0.71327233,0,0.0,0.0,0.0,0.0,0.0,0,0,0.0,0.0,0,0,55.0,0.0,0.0,4608.205128205129,3909.7435897435903,4477.948717948719,4428.205128205129,4263.589743589744,4553.846153846154,4491.794871794872,4475.384615384616,4393.333333333334,4727.6923076923085,4308.717948717949,4244.102564102564,4126.666666666667,4555.384615384616
469.2783,0.008348337,0.338064,0.3313508,0.71327233,0,0.0,0.0,0.0,0.0,0.14936833,0,0,0.0,0.0,0,0,103.0,0.0,472.0,4615.8974358974365,3922.0512820512827,4476.923076923077,4425.128205128206,4248.717948717949,4542.564102564103,4474.871794871796,4464.615384615385,4389.2307692307695,4740.512820512821,4317.948717948719,4248.205128205129,4149.2307692307695,4584.615384615385
469.5285,0.025547441,0.30176115,0.32721817,0.7257828,0,0.0,0.0,0.0,0.0,0.13121505,0,0,0.0,0.0,0,0,6.0,0.0,548.0,4608.205128205129,3927.692307692308,4470.256410256411,4426.666666666667,4246.666666666667,4541.025641025642,4443.589743589744,4413.846153846154,4366.153846153847,4689.743589743591,4293.846153846154,4227.179487179487,4123.076923076924,4541.538461538462
469.77872,0.025547441,0.30176115,0.32721817,0.7257828,0,0.0,0.0,0.0,0.0,0.15782869,0,0,0.0,0.0,0,0,38.0,0.0,0.0,4610.256410256411,3927.692307692308,4476.410256410257,4417.948717948719,4246.153846153847,4541.538461538462,4462.051282051282,4442.564102564103,4370.256410256411,4710.769230769231,4310.769230769231,4233.333333333334,4140.512820512821,4556.410256410257
470.0602,0.06755017,0.29242092,0.32533616,0.73698336,1,0.0,0.0,0.0,0.0,0.1889216,0,0,0.0,0.0,0,0,74.0,0.0,523.0,4678.974358974359,3987.692307692308,4528.717948717949,4441.025641025642,4277.435897435898,4569.2307692307695,4491.282051282052,4463.076923076924,4382.564102564103,4754.358974358975,4344.102564102564,4297.948717948719,4195.8974358974365,4625.128205128206
470.27914,0.06755017,0.29242092,0.32533616,0.73698336,0,0.0,0.0,0.0,0.0,0.13983797,0,0,0.0,0.0,0,0,102.0,0.0,523.0,4632.820512820514,3908.205128205129,4493.846153846154,4428.205128205129,4249.74358974359,4542.051282051282,4454.871794871796,4416.410256410257,4345.128205128206,4707.179487179488,4325.128205128206,4247.179487179487,4165.641025641026,4582.051282051282
470.56064,0.08908142,0.3481746,0.32557213,0.73834676,1,0.0,0.0,0.0,0.0,0.025069866,0,0,0.0,0.0,0,0,9.0,0.0,481.0,4665.128205128206,3926.1538461538466,4521.538461538462,4416.410256410257,4256.923076923077,4553.333333333334,4496.923076923077,4488.205128205129,4380.000000000001,4745.641025641026,4356.923076923077,4285.641025641026,4194.358974358975,4611.794871794872
470.77957,0.08908142,0.3481746,0.32557213,0.73834676,0,0.0,0.0,0.0,0.0,0.0,0,0,0.0,0.0,0,0,37.0,0.0,0.0,4634.871794871796,3896.410256410257,4493.846153846154,4413.333333333334,4248.205128205129,4540.512820512821,4474.358974358975,4447.6923076923085,4365.641025641026,4706.153846153847,4328.717948717949,4244.615384615385,4180.512820512821,4559.48717948718
470.9047,0.19409317,0.39823952,0.328662,0.7359093,0,0.0,0.0,0.0,0.0,0.0,0,0,0.0,0.0,0,0,53.0,0.0,0.0,4645.641025641026,3910.7692307692314,4508.717948717949,4413.333333333334,4247.6923076923085,4540.512820512821,4470.769230769231,4462.564102564103,4373.333333333334,4713.333333333334,4346.153846153847,4264.615384615385,4200.000000000001,4577.435897435898
470.9047,0.19409317,0.39823952,0.328662,0.7359093,0,0.0,0.0,0.0,0.0,0.0,0,0,0.0,0.0,0,0,53.0,0.0,0.0,4645.641025641026,3910.7692307692314,4508.717948717949,4413.333333333334,4247.6923076923085,4540.512820512821,4470.769230769231,4462.564102564103,4373.333333333334,4713.333333333334,4346.153846153847,4264.615384615385,4200.000000000001,4577.435897435898
471.40512,0.1640518,0.44329795,0.33786267,0.7187386,0,0.0,0.0,0.0,0.0,0.0,0,0,0.0,0.0,0,0,117.0,0.0,494.0,4626.153846153847,3925.6410256410263,4504.615384615385,4396.923076923077,4230.769230769231,4526.666666666667,4444.102564102564,4432.820512820514,4349.743589743591,4676.410256410257,4320.512820512821,4232.820512820514,4148.717948717949,4535.8974358974365
471.78043,0.1640518,0.44329795,0.33786267,0.7187386,1,0.0,0.0,0.0,0.0,0.15127496,0,0,0.0,0.0,0,0,36.0,0.0,0.0,4656.410256410257,3943.076923076924,4509.743589743591,4401.025641025642,4230.256410256411,4538.461538461539,4455.8974358974365,4454.358974358975,4377.435897435898,4736.410256410257,4343.076923076924,4268.205128205129,4200.000000000001,4572.820512820514
472.03064,0.2285248,0.48385054,0.35059038,0.69843376,0,0.0,0.0,0.0,0.0,0.16160867,0,0,0.0,0.0,0,0,68.0,0.0,554.0,4650.256410256411,3928.205128205129,4518.461538461539,4409.2307692307695,4246.153846153847,4546.666666666667,4459.48717948718,4450.256410256411,4370.769230769231,4736.923076923077,4345.128205128206,4267.179487179487,4188.717948717949,4546.666666666667
472.28088,0.2285248,0.48385054,0.35059038,0.69843376,0,0.0,0.0,0.0,0.0,0.11151451,0,0,0.0,0.0,0,0,100.0,0.0,367.0,4632.820512820514,3917.435897435898,4500.000000000001,4414.871794871796,4245.641025641026,4542.051282051282,4445.641025641026,4430.256410256411,4320.512820512821,4721.025641025642,4344.102564102564,4250.256410256411,4184.102564102564,4521.538461538462
472.5311,0.18872538,0.5203479,0.36657375,0.6801793,0,0.0,0.0,0.0,0.0,0.0,0,0,0.0,0.0,0,0,3.0,0.0,488.0,4622.564102564103,3909.7435897435903,4501.538461538462,4403.076923076924,4233.846153846154,4538.461538461539,4459.48717948718,4445.128205128206,4330.256410256411,4692.307692307693,4327.6923076923085,4238.974358974359,4154.871794871796,4509.743589743591
472.5311,0.18872538,0.5203479,0.36657375,0.6801793,0,0.0,0.0,0.0,0.0,0.0,0,0,0.0,0.0,0,0,3.0,0.0,488.0,4622.564102564103,3909.7435897435903,4501.538461538462,4403.076923076924,4233.846153846154,4538.461538461539,4459.48717948718,4445.128205128206,4330.256410256411,4692.307692307693,4327.6923076923085,4238.974358974359,4154.871794871796,4509.743589743591
472.9064,0.13859747,0.51326096,0.3868385,0.6563431,0,0.0,0.0,0.0,0.0,0.0,0,0,0.0,0.0,0,0,51.0,0.0,0.0,4627.179487179488,3918.9743589743593,4491.794871794872,4412.820512820514,4248.205128205129,4538.974358974359,4449.2307692307695,4425.641025641026,4355.8974358974365,4703.589743589744,4318.974358974359,4231.794871794872,4157.948717948719,4522.564102564103
472.9064,0.13859747,0.51326096,0.3868385,0.6563431,0,0.0,0.0,0.0,0.0,0.0,0,0,0.0,0.0,0,0,51.0,0.0,0.0,4627.179487179488,3918.9743589743593,4491.794871794872,4412.820512820514,4248.205128205129,4538.974358974359,4449.2307692307695,4425.641025641026,4355.8974358974365,4703.589743589744,4318.974358974359,4231.794871794872,4157.948717948719,4522.564102564103
473.40683,0.08998398,0.48932257,0.40507028,0.640438,0,0.0,0.0,0.0,0.0,0.0,0,0,0.0,0.0,0,0,115.0,0.0,472.0,4630.769230769231,3911.2820512820517,4501.025641025642,4418.974358974359,4247.179487179487,4541.025641025642,4463.076923076924,4446.153846153847,4368.717948717949,4740.512820512821,4317.948717948719,4247.6923076923085,4185.641025641026,4535.384615384616
473.40683,0.08998398,0.48932257,0.40507028,0.640438,0,0.0,0.0,0.0,0.0,0.0,0,0,0.0,0.0,0,0,115.0,0.0,472.0,4630.769230769231,3911.2820512820517,4501.025641025642,4418.974358974359,4247.179487179487,4541.025641025642,4463.076923076924,4446.153846153847,4368.717948717949,4740.512820512821,4317.948717948719,4247.6923076923085,4185.641025641026,4535.384615384616
474.0011,0.06286467,0.46775535,0.4193693,0.6225314,1,0.0,0.0,0.0,0.0,0.0,0,0,0.0,0.0,0,0,62.0,0.0,0.0,4695.384615384616,3977.9487179487182,4538.974358974359,4420.512820512821,4266.153846153847,4564.102564102564,4490.769230769231,4489.2307692307695,4377.948717948719,4738.974358974359,4337.948717948719,4298.974358974359,4212.307692307693,4582.051282051282
474.2826,0.06286467,0.46775535,0.4193693,0.6225314,0,0.0,0.0,0.0,0.0,0.14704204,0,0,0.0,0.0,0,0,98.0,0.0,523.0,4678.974358974359,3958.461538461539,4528.205128205129,4421.538461538462,4267.6923076923085,4564.615384615385,4490.769230769231,4457.948717948719,4363.076923076924,4730.769230769231,4333.333333333334,4281.538461538462,4192.307692307693,4543.076923076924
474.5328,0.072388455,0.44834486,0.42633134,0.609889,0,0.0,0.0,0.0,0.0,0.042233568,0,0,0.0,0.0,0,0,1.0,0.0,416.0,4669.743589743591,3945.6410256410263,4522.051282051282,4432.307692307693,4280.512820512821,4569.743589743591,4482.051282051282,4472.307692307693,4377.948717948719,4740.000000000001,4336.410256410257,4277.948717948719,4183.076923076924,4532.307692307693
474.78302,0.072388455,0.44834486,0.42633134,0.609889,0,0.0,0.0,0.0,0.0,0.033327576,0,0,0.0,0.0,0,0,33.0,0.0,0.0,4658.974358974359,3941.538461538462,4521.538461538462,4426.666666666667,4274.871794871796,4568.717948717949,4491.282051282052,4472.820512820514,4367.6923076923085,4745.641025641026,4327.6923076923085,4265.128205128206,4168.205128205129,4546.153846153847
474.9081,0.0162388,0.4308754,0.43848813,0.59667355,0,0.0,0.0,0.0,0.0,0.0,0,0,0.0,0.0,0,0,49.0,0.0,0.0,4672.820512820514,3946.1538461538466,4526.153846153847,4432.307692307693,4280.512820512821,4569.2307692307695,4486.666666666667,4476.923076923077,4374.871794871796,4754.871794871796,4360.512820512821,4289.2307692307695,4212.307692307693,4576.410256410257
474.9081,0.0162388,0.4308754,0.43848813,0.59667355,0,0.0,0.0,0.0,0.0,0.0,0,0,0.0,0.0,0,0,49.0,0.0,0.0,4672.820512820514,3946.1538461538466,4526.153846153847,4432.307692307693,4280.512820512821,4569.2307692307695,4486.666666666667,4476.923076923077,4374.871794871796,4754.871794871796,4360.512820512821,4289.2307692307695,4212.307692307693,4576.410256410257
475.40857,0.0,0.41515288,0.45017973,0.58477896,0,0.0,0.0,0.0,0.0,0.0,0,0,0.0,0.0,0,0,113.0,0.0,494.0,4658.461538461539,3952.307692307693,4513.333333333334,4427.6923076923085,4266.153846153847,4553.846153846154,4471.794871794872,4442.051282051282,4358.461538461539,4732.307692307693,4328.205128205129,4263.076923076924,4166.666666666667,4568.205128205129
475.7213,0.0,0.41515288,0.45017973,0.58477896,1,0.0,0.0,0.0,0.0,0.0,0,0,0.0,0.0,0,0,24.0,0.0,0.0,4660.000000000001,3943.076923076924,4510.769230769231,4427.6923076923085,4264.615384615385,4554.871794871796,4484.615384615385,4469.743589743591,4374.871794871796,4742.564102564103,4341.025641025642,4273.333333333334,4184.615384615385,4584.615384615385
476.0341,0.0,0.42737496,0.44679347,0.57521516,0,0.0,0.0,0.0,0.0,0.13044505,0,0,0.0,0.0,0,0,64.0,0.0,477.0,4640.512820512821,3928.717948717949,4501.538461538462,4425.641025641026,4249.2307692307695,4543.589743589744,4457.435897435898,4448.205128205129,4371.794871794872,4748.205128205129,4336.410256410257,4257.948717948719,4174.871794871796,4570.256410256411
476.2843,0.0,0.42737496,0.44679347,0.57521516,0,0.0,0.0,0.0,0.0,0.037829403,0,0,0.0,0.0,0,0,96.0,0.0,367.0,4647.179487179488,3928.205128205129,4496.410256410257,4421.025641025642,4246.153846153847,4540.000000000001,4447.6923076923085,4435.8974358974365,4367.179487179487,4741.538461538462,4326.153846153847,4249.74358974359,4170.769230769231,4556.410256410257
476.40942,0.0076618227,0.3930423,0.44041437,0.56788504,0,0.0,0.0,0.0,0.0,0.0,0,0,0.0,0.0,0,0,112.0,0.0,367.0,4647.179487179488,3931.2820512820517,4498.974358974359,4410.769230769231,4247.6923076923085,4538.974358974359,4460.000000000001,4447.6923076923085,4374.358974358975,4733.846153846154,4331.282051282052,4261.538461538462,4183.589743589744,4554.871794871796
476.40942,0.0076618227,0.3930423,0.44041437,0.56788504,0,0.0,0.0,0.0,0.0,0.0,0,0,0.0,0.0,0,0,112.0,0.0,367.0,4647.179487179488,3931.2820512820517,4498.974358974359,4410.769230769231,4247.6923076923085,4538.974358974359,4460.000000000001,4447.6923076923085,4374.358974358975,4733.846153846154,4331.282051282052,4261.538461538462,4183.589743589744,4554.871794871796
477.0975,7.3188625E-4,0.37889147,0.4485805,0.56358814,1,0.0,0.0,0.0,0.0,0.119284645,0,0,0.0,0.0,0,0,71.0,0.0,463.0,4665.128205128206,3965.1282051282055,4514.358974358975,4408.717948717949,4248.205128205129,4541.025641025642,4475.384615384616,4447.179487179487,4364.615384615385,4729.743589743591,4330.256410256411,4276.410256410257,4183.589743589744,4538.974358974359
477.28516,7.3188625E-4,0.37889147,0.4485805,0.56358814,0,0.0,0.0,0.0,0.0,0.1305053,0,0,0.0,0.0,0,0,95.0,0.0,472.0,4634.871794871796,3924.615384615385,4494.871794871796,4411.282051282052,4246.666666666667,4536.923076923077,4459.48717948718,4417.435897435898,4360.512820512821,4727.6923076923085,4310.256410256411,4239.48717948718,4148.205128205129,4492.307692307693
477.53537,0.010482609,0.39568883,0.45591652,0.56285113,0,0.0,0.0,0.0,0.0,0.11433891,0,0,0.0,0.0,0,0,127.0,0.0,472.0,4639.48717948718,3943.589743589744,4500.000000000001,4407.6923076923085,4232.820512820514,4528.205128205129,4448.717948717949,4408.717948717949,4350.769230769231,4704.102564102564,4305.641025641026,4243.076923076924,4136.923076923077,4522.051282051282
477.7856,0.010482609,0.39568883,0.45591652,0.56285113,0,0.0,0.0,0.0,0.0,0.09358723,0,0,0.0,0.0,0,0,30.0,0.0,0.0,4637.435897435898,3925.1282051282055,4503.589743589744,4409.743589743591,4247.179487179487,4538.461538461539,4461.538461538462,4415.384615384616,4352.307692307693,4718.974358974359,4312.820512820514,4247.179487179487,4157.435897435898,4535.384615384616
478.09836,0.009810033,0.38028353,0.45931852,0.5621872,1,0.0,0.0,0.0,0.0,0.26558685,0,0,0.0,0.0,0,0,70.0,0.0,548.0,4664.102564102564,3948.717948717949,4518.461538461539,4396.923076923077,4231.794871794872,4529.743589743591,4457.948717948719,4425.641025641026,4362.051282051282,4720.000000000001,4332.307692307693,4269.2307692307695,4185.128205128206,4600.512820512821
478.28604,0.009810033,0.38028353,0.45931852,0.5621872,0,0.0,0.0,0.0,0.0,0.18158044,0,0,0.0,0.0,0,0,94.0,0.0,523.0,4605.641025641026,3894.358974358975,4490.256410256411,4395.8974358974365,4234.871794871796,4524.102564102564,4458.461538461539,4441.025641025642,4354.358974358975,4713.846153846154,4306.153846153847,4228.717948717949,4155.384615384616,4551.794871794872
478.53625,0.011150664,0.39176208,0.4623672,0.5615891,0,0.0,0.0,0.0,0.0,0.1318188,0,0,0.0,0.0,0,0,126.0,0.0,523.0,4629.743589743591,3910.7692307692314,4506.153846153847,4411.794871794872,4233.846153846154,4525.641025641026,4454.871794871796,4427.179487179487,4352.307692307693,4749.2307692307695,4318.974358974359,4249.2307692307695,4186.153846153847,4583.589743589744
478.78647,0.011150664,0.39176208,0.4623672,0.5615891,0,0.0,0.0,0.0,0.0,0.049006034,0,0,0.0,0.0,0,0,29.0,0.0,0.0,4613.846153846154,3920.5128205128212,4495.384615384616,4416.410256410257,4250.256410256411,4548.205128205129,4458.974358974359,4424.102564102564,4357.435897435898,4715.8974358974365,4298.974358974359,4227.6923076923085,4147.6923076923085,4573.846153846154
479.06796,0.0,0.4041815,0.47171676,0.5550882,1,0.0,0.0,0.0,0.0,0.18520007,0,0,0.0,0.0,0,0,65.0,0.0,417.0,4642.564102564103,3940.0000000000005,4518.461538461539,4407.179487179487,4248.717948717949,4543.076923076924,4467.179487179487,4440.000000000001,4358.974358974359,4721.025641025642,4323.589743589744,4257.435897435898,4195.8974358974365,4605.128205128206
479.22433,0.0,0.4041815,0.47171676,0.5550882,0,0.0,0.0,0.0,0.0,0.0,0,0,0.0,0.0,0,0,85.0,0.0,494.0,4620.512820512821,3914.358974358975,4511.282051282052,4430.256410256411,4264.615384615385,4554.358974358975,4475.8974358974365,4441.025641025642,4372.307692307693,4755.384615384616,4329.743589743591,4249.74358974359,4190.256410256411,4575.8974358974365
479.412,0.014606884,0.42986795,0.48435646,0.53961575,0,0.0,0.0,0.0,0.0,0.0,0,0,0.0,0.0,0,0,109.0,0.0,494.0,4638.974358974359,3924.615384615385,4517.435897435898,4440.000000000001,4260.512820512821,4560.000000000001,4478.974358974359,4461.025641025642,4384.102564102564,4762.051282051282,4330.769230769231,4261.538461538462,4199.48717948718,4584.615384615385
479.412,0.014606884,0.42986795,0.48435646,0.53961575,0,0.0,0.0,0.0,0.0,0.0,0,0,0.0,0.0,0,0,109.0,0.0,494.0,4638.974358974359,3924.615384615385,4517.435897435898,4440.000000000001,4260.512820512821,4560.000000000001,4478.974358974359,4461.025641025642,4384.102564102564,4762.051282051282,4330.769230769231,4261.538461538462,4199.48717948718,4584.615384615385
480.03754,0.02279623,0.45295215,0.49625033,0.5244211,0,0.0,0.0,0.0,0.0,0.13395958,0,0,0.0,0.0,1,0,60.0,0.0,0.0,4643.589743589744,3942.564102564103,4515.8974358974365,4413.333333333334,4245.128205128206,4542.564102564103,4444.615384615385,4422.051282051282,4368.717948717949,4704.615384615386,4304.615384615385,4239.48717948718,4133.846153846154,4554.871794871796
480.31903,0.02279623,0.45295215,0.49625033,0.5244211,0,0.0,0.0,0.0,0.0,0.154915,0,0,0.0,0.0,0,0,96.0,0.0,367.0,4620.512820512821,3909.2307692307695,4499.48717948718,4405.641025641026,4231.794871794872,4534.871794871796,4451.282051282052,4449.743589743591,4375.8974358974365,4711.282051282052,4312.307692307693,4219.48717948718,4137.435897435898,4525.641025641026
480.53796,0.10546043,0.4737279,0.5103115,0.5107489,0,0.0,0.0,0.0,0.0,0.04617825,0,0,0.0,0.0,0,0,124.0,0.0,367.0,4635.8974358974365,3908.717948717949,4513.846153846154,4411.794871794872,4234.871794871796,4538.461538461539,4463.589743589744,4431.794871794872,4367.179487179487,4708.205128205129,4327.179487179487,4235.384615384616,4160.000000000001,4537.948717948719
480.78818,0.10546043,0.4737279,0.5103115,0.5107489,0,0.0,0.0,0.0,0.0,0.0,0,0,0.0,0.0,0,0,27.0,0.0,0.0,4636.410256410257,3911.7948717948725,4514.871794871796,4416.410256410257,4234.871794871796,4527.179487179488,4457.435897435898,4433.333333333334,4368.717948717949,4720.000000000001,4330.256410256411,4244.102564102564,4164.615384615385,4533.333333333334
480.9133,0.14332397,0.4924261,0.5244297,0.49844894,0,0.0,0.0,0.0,0.0,0.0,0,0,0.0,0.0,0,0,43.0,0.0,0.0,4611.282051282052,3893.8461538461543,4504.615384615385,4412.820512820514,4233.333333333334,4527.6923076923085,4447.6923076923085,4416.923076923077,4360.512820512821,4707.6923076923085,4326.153846153847,4232.820512820514,4152.820512820514,4524.102564102564
481.2886,0.14332397,0.4924261,0.5244297,0.49844894,0,0.0,0.0,0.0,0.0,0.037093848,0,0,0.0,0.0,0,0,91.0,0.0,472.0,4627.6923076923085,3957.9487179487182,4516.923076923077,4432.820512820514,4251.282051282052,4545.128205128206,4449.2307692307695,4407.6923076923085,4343.076923076924,4687.179487179488,4292.307692307693,4225.641025641026,4100.512820512821,4525.128205128206
481.53882,0.1192959,0.50925446,0.5371013,0.502748,0,0.0,0.0,0.0,0.0,0.031152613,0,0,0.0,0.0,0,0,123.0,0.0,472.0,4658.974358974359,3931.7948717948725,4540.512820512821,4428.717948717949,4255.384615384616,4556.923076923077,4475.384615384616,4457.435897435898,4374.871794871796,4742.564102564103,4350.769230769231,4271.282051282052,4183.589743589744,4554.358974358975
481.78903,0.1192959,0.50925446,0.5371013,0.502748,0,0.0,0.0,0.0,0.0,0.15304734,0,0,0.0,0.0,0,0,26.0,0.0,0.0,4798.974358974359,4194.871794871796,4598.974358974359,4413.846153846154,4261.538461538462,4554.358974358975,4459.48717948718,4431.282051282052,4351.794871794872,4714.358974358975,4370.769230769231,4369.2307692307695,4286.666666666667,4732.820512820514
482.03925,0.07689034,0.5235163,0.54846877,0.52151585,0,0.0,0.0,0.0,0.0,0.20171638,0,0,0.0,0.0,1,0,58.0,0.0,0.0,4639.48717948718,3912.820512820513,4527.179487179488,4423.589743589744,4235.8974358974365,4537.435897435898,4461.538461538462,4435.384615384616,4333.333333333334,4720.000000000001,4347.179487179487,4252.820512820514,4158.974358974359,4497.435897435898
482.28946,0.07689034,0.5235163,0.54846877,0.52151585,0,0.0,0.0,0.0,0.0,0.21936509,0,0,0.0,0.0,0,0,90.0,0.0,523.0,4638.974358974359,3910.7692307692314,4506.666666666667,4422.051282051282,4244.615384615385,4540.000000000001,4461.025641025642,4445.128205128206,4340.512820512821,4730.769230769231,4338.461538461539,4247.6923076923085,4170.769230769231,4492.820512820514
482.53967,0.047773734,0.5230661,0.5589292,0.5384,0,0.0,0.0,0.0,0.0,0.059938297,0,0,0.0,0.0,0,0,122.0,0.0,523.0,4639.48717948718,3928.205128205129,4505.641025641026,4427.179487179487,4245.128205128206,4537.948717948719,4455.8974358974365,4449.2307692307695,4357.435897435898,4743.589743589744,4271.282051282052,4249.74358974359,4185.128205128206,4505.128205128206
482.6648,0.047773734,0.5230661,0.5589292,0.5384,0,0.0,0.0,0.0,0.0,0.0,0,0,0.0,0.0,0,0,9.0,0.0,481.0,4633.846153846154,3930.7692307692314,4508.205128205129,4426.666666666667,4246.153846153847,4540.000000000001,4458.974358974359,4463.589743589744,4367.179487179487,4753.333333333334,4286.153846153847,4249.74358974359,4186.153846153847,4526.153846153847
482.915,0.013584665,0.5084753,0.55281013,0.55359495,0,0.0,0.0,0.0,0.0,0.0,0,0,0.0,0.0,0,0,41.0,0.0,0.0,4633.333333333334,3942.0512820512827,4507.179487179488,4429.743589743591,4251.282051282052,4550.256410256411,4463.076923076924,4443.589743589744,4355.8974358974365,4737.435897435898,4291.794871794872,4248.205128205129,4198.974358974359,4553.846153846154
483.29034,0.013584665,0.5084753,0.55281013,0.55359495,0,0.0,0.0,0.0,0.0,0.09774185,0,0,0.0,0.0,0,0,89.0,0.0,494.0,4638.974358974359,3941.538461538462,4510.256410256411,4442.051282051282,4248.717948717949,4537.948717948719,4445.641025641026,4427.179487179487,4351.794871794872,4705.641025641026,4314.358974358975,4251.794871794872,4214.871794871796,4540.512820512821
483.54056,0.0,0.4863927,0.530627,0.5620917,0,0.0,0.0,0.0,0.0,0.03707103,0,0,0.0,0.0,0,0,121.0,0.0,494.0,4634.358974358975,3931.7948717948725,4506.666666666667,4436.410256410257,4248.717948717949,4539.48717948718,4449.743589743591,4422.564102564103,4357.435897435898,4733.333333333334,4326.153846153847,4248.717948717949,4200.000000000001,4528.717948717949
483.66565,0.0,0.4863927,0.530627,0.5620917,0,0.0,0.0,0.0,0.0,0.0,0,0,0.0,0.0,0,0,8.0,0.0,370.0,4536.923076923077,3861.538461538462,4449.743589743591,4454.358974358975,4251.282051282052,4540.000000000001,4435.8974358974365,4406.153846153847,4354.358974358975,4705.641025641026,4264.615384615385,4151.282051282052,4089.7435897435903,4408.205128205129
483.91586,0.091111265,0.43506116,0.5106621,0.561101,0,0.0,0.0,0.0,0.0,0.0,0,0,0.0,0.0,0,0,40.0,0.0,0.0,4554.871794871796,3861.0256410256416,4460.512820512821,4447.179487179487,4251.282051282052,4545.128205128206,4456.410256410257,4417.435897435898,4355.384615384616,4707.6923076923085,4272.307692307693,4171.282051282052,4108.205128205129,4411.794871794872
483.91586,0.091111265,0.43506116,0.5106621,0.561101,0,0.0,0.0,0.0,0.0,0.0,0,0,0.0,0.0,0,0,40.0,0.0,0.0,4554.871794871796,3861.0256410256416,4460.512820512821,4447.179487179487,4251.282051282052,4545.128205128206,4456.410256410257,4417.435897435898,4355.384615384616,4707.6923076923085,4272.307692307693,4171.282051282052,4108.205128205129,4411.794871794872
484.5414,0.15592323,0.38878745,0.4926728,0.5602083,0,0.0,0.0,0.0,0.0,0.27286923,0,0,0.0,0.0,1,0,120.0,0.0,361.0,4713.333333333334,3955.8974358974365,4539.48717948718,4429.2307692307695,4254.358974358975,4553.333333333334,4484.102564102564,4476.410256410257,4379.48717948718,4746.666666666667,4346.153846153847,4310.769230769231,4232.820512820514,4542.564102564103
484.79163,0.15592323,0.38878745,0.4926728,0.5602083,0,0.0,0.0,0.0,0.0,0.12763032,0,0,0.0,0.0,0,0,23.0,0.0,0.0,4705.128205128206,3957.435897435898,4540.000000000001,4442.051282051282,4265.641025641026,4556.923076923077,4480.512820512821,4465.128205128206,4377.435897435898,4748.205128205129,4352.307692307693,4306.666666666667,4241.025641025642,4540.512820512821
485.04184,0.08233712,0.34714112,0.4766337,0.55940837,0,0.0,0.0,0.0,0.0,0.04905078,0,0,0.0,0.0,0,0,55.0,0.0,0.0,4722.564102564103,3974.8717948717954,4555.8974358974365,4460.000000000001,4283.076923076924,4583.589743589744,4491.282051282052,4455.384615384616,4370.256410256411,4754.358974358975,4357.435897435898,4313.333333333334,4234.358974358975,4541.538461538462
485.29205,0.08233712,0.34714112,0.4766337,0.55940837,1,0.0,0.0,0.0,0.0,0.1847805,0,0,0.0,0.0,0,0,87.0,0.0,473.0,4723.076923076924,4002.0512820512827,4533.846153846154,4430.256410256411,4264.615384615385,4555.8974358974365,4469.743589743591,4413.846153846154,4355.8974358974365,4707.6923076923085,4331.794871794872,4284.615384615385,4213.333333333334,4539.48717948718
485.54227,0.08442021,0.30965942,0.4621125,0.5586855,0,0.0,0.0,0.0,0.0,0.1703598,0,0,0.0,0.0,0,0,119.0,0.0,473.0,4766.666666666667,3996.410256410257,4571.794871794872,4502.051282051282,4318.461538461539,4610.256410256411,4524.102564102564,4507.6923076923085,4412.820512820514,4806.153846153847,4377.435897435898,4332.307692307693,4268.717948717949,4558.461538461539
485.79248,0.08442021,0.30965942,0.4621125,0.5586855,0,0.0,0.0,0.0,0.0,0.06373527,0,0,0.0,0.0,0,0,22.0,0.0,0.0,4766.153846153847,4005.6410256410263,4572.307692307693,4494.871794871796,4318.461538461539,4611.794871794872,4504.102564102564,4473.333333333334,4391.794871794872,4780.512820512821,4351.794871794872,4321.025641025642,4244.615384615385,4547.179487179488
486.0427,0.24651179,0.27592587,0.44908103,0.558036,0,0.0,0.0,0.0,0.0,0.096723095,0,0,0.0,0.0,0,0,54.0,0.0,0.0,4757.948717948719,3991.2820512820517,4571.282051282052,4498.461538461539,4309.743589743591,4600.512820512821,4520.512820512821,4495.384615384616,4408.205128205129,4798.974358974359,4363.589743589744,4323.589743589744,4268.717948717949,4592.307692307693
486.2929,0.24651179,0.27592587,0.44908103,0.558036,0,0.0,0.0,0.0,0.0,0.44098878,0,0,0.0,0.0,0,0,86.0,0.0,523.0,4731.282051282052,3986.1538461538466,4551.282051282052,4492.820512820514,4301.538461538462,4597.948717948719,4505.128205128206,4485.641025641026,4393.333333333334,4777.948717948719,4342.564102564103,4304.615384615385,4247.179487179487,4622.051282051282
486.54312,0.3543923,0.29666954,0.43737414,0.55745214,0,0.0,0.0,0.0,0.0,0.33618864,0,0,0.0,0.0,0,0,118.0,0.0,523.0,4735.384615384616,3977.9487179487182,4550.769230769231,4484.102564102564,4291.794871794872,4586.666666666667,4503.076923076924,4485.128205128206,4394.871794871796,4779.48717948718,4342.051282051282,4306.153846153847,4248.717948717949,4662.564102564103
486.82462,0.3543923,0.29666954,0.43737414,0.55745214,1,0.0,0.0,0.0,0.0,0.19441716,0,0,0.0,0.0,0,0,25.0,0.0,0.0,4748.717948717949,4016.410256410257,4565.641025641026,4476.410256410257,4305.641025641026,4599.48717948718,4507.6923076923085,4488.205128205129,4397.948717948719,4767.179487179488,4337.435897435898,4325.641025641026,4245.128205128206,4692.307692307693
487.04355,0.3599087,0.39232102,0.42684245,0.55692637,0,0.0,0.0,0.0,0.0,0.13489833,0,0,0.0,0.0,0,0,53.0,0.0,0.0,4721.025641025642,3992.820512820513,4544.615384615385,4476.923076923077,4288.205128205129,4584.615384615385,4483.076923076924,4465.641025641026,4394.871794871796,4773.846153846154,4340.000000000001,4299.48717948718,4217.948717948719,4656.410256410257
487.29376,0.3599087,0.39232102,0.42684245,0.55692637,0,0.0,0.0,0.0,0.0,0.11780243,0,0,0.0,0.0,0,0,85.0,0.0,494.0,4693.846153846154,3941.538461538462,4530.769230769231,4458.461538461539,4265.641025641026,4568.717948717949,4477.435897435898,4463.076923076924,4392.307692307693,4738.461538461539,4319.48717948718,4282.564102564103,4209.74358974359,4617.435897435898
487.54398,0.3816037,0.39074522,0.41737804,0.5564529,0,0.0,0.0,0.0,0.0,0.0817812,0,0,0.0,0.0,0,0,117.0,0.0,494.0,4638.461538461539,3896.9230769230776,4489.2307692307695,4430.256410256411,4233.333333333334,4526.666666666667,4460.000000000001,4443.589743589744,4378.974358974359,4723.589743589744,4288.717948717949,4233.333333333334,4168.717948717949,4567.179487179488
487.6691,0.3816037,0.39074522,0.41737804,0.5564529,0,0.0,0.0,0.0,0.0,0.0,0,0,0.0,0.0,0,0,4.0,0.0,554.0,4629.743589743591,3893.8461538461543,4477.948717948719,4425.641025641026,4230.256410256411,4521.025641025642,4442.051282051282,4424.102564102564,4370.769230769231,4707.6923076923085,4276.923076923077,4229.2307692307695,4152.820512820514,4536.410256410257
487.9193,0.4478665,0.36058116,0.4099276,0.5560269,0,0.0,0.0,0.0,0.0,0.0,0,0,0.0,0.0,0,0,36.0,0.0,0.0,4638.461538461539,3928.717948717949,4497.948717948719,4429.2307692307695,4232.820512820514,4524.102564102564,4451.794871794872,4441.538461538462,4374.358974358975,4686.153846153847,4282.051282051282,4245.641025641026,4136.923076923077,4543.589743589744
488.29462,0.4478665,0.36058116,0.4099276,0.5560269,0,0.0,0.0,0.0,0.0,0.045706715,0,0,0.0,0.0,0,0,84.0,0.0,356.0,4643.589743589744,3932.820512820513,4508.717948717949,4420.000000000001,4247.179487179487,4539.48717948718,4460.000000000001,4427.6923076923085,4369.2307692307695,4706.153846153847,4296.410256410257,4252.820512820514,4164.615384615385,4570.769230769231
488.41974,0.48704717,0.34235317,0.40724778,0.555644,0,0.0,0.0,0.0,0.0,0.0,0,0,0.0,0.0,0,0,100.0,0.0,356.0,4637.435897435898,3928.717948717949,4510.256410256411,4422.564102564103,4239.48717948718,4535.8974358974365,4447.6923076923085,4448.205128205129,4384.615384615385,4732.820512820514,4298.461538461539,4251.282051282052,4167.6923076923085,4569.2307692307695
488.41974,0.48704717,0.34235317,0.40724778,0.555644,0,0.0,0.0,0.0,0.0,0.0,0,0,0.0,0.0,0,0,100.0,0.0,356.0,4637.435897435898,3928.717948717949,4510.256410256411,4422.564102564103,4239.48717948718,4535.8974358974365,4447.6923076923085,4448.205128205129,4384.615384615385,4732.820512820514,4298.461538461539,4251.282051282052,4167.6923076923085,4569.2307692307695
488.92017,0.46349058,0.29919755,0.4048302,0.5589531,0,0.0,0.0,0.0,0.0,0.0,0,0,0.0,0.0,0,0,35.0,0.0,0.0,4655.8974358974365,3938.461538461539,4560.512820512821,4453.333333333334,4261.538461538462,4553.333333333334,4471.794871794872,4442.051282051282,4374.358974358975,4752.307692307693,4315.384615384616,4247.6923076923085,4168.205128205129,4572.307692307693
489.20166,0.46349058,0.29919755,0.4048302,0.5589531,1,0.0,0.0,0.0,0.0,0.0,0,0,0.0,0.0,0,0,71.0,0.0,463.0,4782.051282051282,3985.1282051282055,4709.2307692307695,4441.538461538462,4262.051282051282,4555.8974358974365,4444.102564102564,4436.410256410257,4372.307692307693,4745.128205128206,4343.589743589744,4268.205128205129,4215.384615384616,4616.923076923077
489.4206,0.41213712,0.2601371,0.40264884,0.56257427,0,0.0,0.0,0.0,0.0,0.0,0,0,0.0,0.0,0,0,99.0,0.0,470.0,4751.794871794872,3946.1538461538466,4749.743589743591,4437.435897435898,4255.384615384616,4571.794871794872,4460.000000000001,4446.153846153847,4364.102564102564,4741.025641025642,4341.025641025642,4222.564102564103,4216.923076923077,4571.282051282052
489.79593,0.41213712,0.2601371,0.40264884,0.56257427,0,0.0,0.0,0.0,0.0,0.09558736,0,0,0.0,0.0,0,0,18.0,0.0,0.0,4748.205128205129,3923.589743589744,4757.948717948719,4438.974358974359,4248.205128205129,4584.615384615385,4442.564102564103,4438.974358974359,4359.48717948718,4745.128205128206,4365.128205128206,4213.333333333334,4236.923076923077,4544.615384615385
490.04614,0.3955101,0.22498274,0.40068018,0.56583273,0,0.0,0.0,0.0,0.0,0.109220184,0,0,0.0,0.0,0,0,50.0,0.0,0.0,4726.666666666667,3913.8461538461543,4717.435897435898,4441.538461538462,4250.769230769231,4597.435897435898,4458.461538461539,4429.2307692307695,4353.333333333334,4740.000000000001,4380.512820512821,4216.923076923077,4216.410256410257,4535.384615384616
490.17123,0.3955101,0.22498274,0.40068018,0.56583273,0,0.0,0.0,0.0,0.0,0.0,0,0,0.0,0.0,0,0,66.0,0.0,458.0,4716.923076923077,3913.333333333334,4687.6923076923085,4443.076923076924,4243.076923076924,4586.666666666667,4443.076923076924,4429.743589743591,4359.48717948718,4715.384615384616,4381.025641025642,4220.512820512821,4206.153846153847,4520.000000000001
490.42145,0.3988077,0.19334379,0.40625593,0.5705961,0,0.0,0.0,0.0,0.0,0.0,0,0,0.0,0.0,0,0,98.0,0.0,523.0,4699.48717948718,3926.666666666667,4643.076923076924,4448.205128205129,4250.769230769231,4588.205128205129,4449.743589743591,4408.205128205129,4341.538461538462,4688.205128205129,4360.512820512821,4218.461538461539,4158.461538461539,4492.307692307693
490.70294,0.3988077,0.19334379,0.40625593,0.5705961,1,0.0,0.0,0.0,0.0,0.0,0,0,0.0,0.0,0,0,5.0,0.0,552.0,4688.717948717949,3918.461538461539,4590.769230769231,4452.820512820514,4248.717948717949,4583.076923076924,4475.384615384616,4448.717948717949,4355.384615384616,4691.794871794872,4365.641025641026,4236.923076923077,4168.205128205129,4495.8974358974365
491.047,0.37577617,0.16486874,0.40630093,0.5771548,1,0.0,0.0,0.0,0.0,0.20511962,0,0,0.0,0.0,0,0,49.0,0.0,0.0,4630.769230769231,3893.333333333334,4520.512820512821,4452.820512820514,4235.8974358974365,4558.461538461539,4460.000000000001,4418.461538461539,4348.717948717949,4688.205128205129,4335.8974358974365,4204.102564102564,4123.589743589744,4460.000000000001
491.2972,0.37577617,0.16486874,0.40630093,0.5771548,0,0.0,0.0,0.0,0.0,0.0,0,0,0.0,0.0,0,0,81.0,0.0,494.0,4625.128205128206,3890.2564102564106,4494.358974358975,4463.076923076924,4250.769230769231,4565.128205128206,4458.974358974359,4432.820512820514,4350.769230769231,4694.871794871796,4340.000000000001,4225.128205128206,4141.025641025642,4471.794871794872
491.42233,0.36649606,0.17141673,0.40647364,0.5830559,0,0.0,0.0,0.0,0.0,0.0,0,0,0.0,0.0,0,0,97.0,0.0,494.0,4617.435897435898,3907.1794871794878,4479.48717948718,4456.410256410257,4251.282051282052,4562.051282051282,4480.000000000001,4449.2307692307695,4357.435897435898,4689.743589743591,4341.538461538462,4226.666666666667,4136.923076923077,4473.846153846154
491.79764,0.36649606,0.17141673,0.40647364,0.5830559,1,0.0,0.0,0.0,0.0,0.0,0,0,0.0,0.0,0,0,16.0,0.0,0.0,4645.641025641026,3968.717948717949,4483.589743589744,4479.48717948718,4260.000000000001,4554.871794871796,4475.8974358974365,4448.717948717949,4341.025641025642,4709.2307692307695,4362.051282051282,4276.923076923077,4190.256410256411,4509.743589743591
492.04785,0.37398472,0.5332463,0.41389054,0.5929564,0,0.0,0.0,0.0,0.0,0.18624213,0,0,0.0,0.0,0,0,48.0,0.0,0.0,4567.179487179488,3884.615384615385,4442.051282051282,4446.153846153847,4247.179487179487,4540.000000000001,4472.820512820514,4434.871794871796,4330.256410256411,4705.641025641026,4314.871794871796,4219.48717948718,4120.000000000001,4412.307692307693
492.29807,0.37398472,0.5332463,0.41389054,0.5929564,0,0.0,0.0,0.0,0.0,0.07801319,0,0,0.0,0.0,0,0,80.0,0.0,353.0,4598.974358974359,3926.1538461538466,4460.000000000001,4434.871794871796,4248.717948717949,4540.512820512821,4462.051282051282,4435.8974358974365,4383.076923076924,4720.512820512821,4335.8974358974365,4250.769230769231,4150.769230769231,4446.153846153847
492.54828,0.38933152,0.9091332,0.43367735,0.6020808,0,0.0,0.0,0.0,0.0,0.0,0,0,0.0,0.0,0,0,112.0,0.0,353.0,4600.000000000001,3914.358974358975,4456.923076923077,4443.076923076924,4264.102564102564,4553.846153846154,4475.8974358974365,4449.2307692307695,4396.923076923077,4716.923076923077,4333.846153846154,4246.153846153847,4138.974358974359,4441.025641025642
492.54828,0.38933152,0.9091332,0.43367735,0.6020808,0,0.0,0.0,0.0,0.0,0.0,0,0,0.0,0.0,0,0,112.0,0.0,353.0,4600.000000000001,3914.358974358975,4456.923076923077,4443.076923076924,4264.102564102564,4553.846153846154,4475.8974358974365,4449.2307692307695,4396.923076923077,4716.923076923077,4333.846153846154,4246.153846153847,4138.974358974359,4441.025641025642
493.0487,0.33130166,0.8865404,0.4560366,0.61028755,1,0.0,0.0,0.0,0.0,0.0,0,0,0.0,0.0,0,0,47.0,0.0,0.0,4626.666666666667,3974.358974358975,4465.128205128206,4429.2307692307695,4260.512820512821,4537.948717948719,4452.307692307693,4420.512820512821,4377.948717948719,4729.2307692307695,4335.384615384616,4270.769230769231,4183.076923076924,4516.923076923077
493.29892,0.33130166,0.8865404,0.4560366,0.61028755,0,0.0,0.0,0.0,0.0,0.15247895,0,0,0.0,0.0,0,0,79.0,0.0,471.0,4602.051282051282,3923.589743589744,4460.512820512821,4453.333333333334,4265.641025641026,4551.282051282052,4473.846153846154,4456.410256410257,4386.666666666667,4747.6923076923085,4336.923076923077,4246.153846153847,4175.8974358974365,4478.461538461539
493.54913,0.25662118,0.9230086,0.4637162,0.6176675,0,0.0,0.0,0.0,0.0,0.05101242,0,0,0.0,0.0,0,0,111.0,0.0,471.0,4616.410256410257,3932.820512820513,4464.615384615385,4441.538461538462,4266.153846153847,4551.282051282052,4458.461538461539,4441.538461538462,4393.333333333334,4758.974358974359,4334.871794871796,4259.48717948718,4180.512820512821,4490.256410256411
493.79935,0.25662118,0.9230086,0.4637162,0.6176675,0,0.0,0.0,0.0,0.0,0.18281652,0,0,0.0,0.0,0,0,14.0,0.0,523.0,4610.769230769231,3938.9743589743593,4460.512820512821,4435.8974358974365,4265.128205128206,4542.564102564103,4473.333333333334,4462.564102564103,4398.974358974359,4748.205128205129,4337.435897435898,4255.8974358974365,4171.794871794872,4537.435897435898
494.0496,0.18665443,0.8739267,0.48116297,0.60684454,0,0.0,0.0,0.0,0.0,0.20875095,0,0,0.0,0.0,0,0,46.0,0.0,0.0,4601.025641025642,3934.358974358975,4459.48717948718,4428.717948717949,4264.615384615385,4539.48717948718,4461.025641025642,4455.8974358974365,4395.8974358974365,4728.205128205129,4336.410256410257,4248.717948717949,4159.48717948718,4552.820512820514
494.2998,0.18665443,0.8739267,0.48116297,0.60684454,0,0.0,0.0,0.0,0.0,0.47615886,0,0,0.0,0.0,0,0,78.0,0.0,523.0,4613.333333333334,4018.461538461539,4482.051282051282,4438.974358974359,4263.589743589744,4539.48717948718,4477.948717948719,4472.307692307693,4402.564102564103,4765.128205128206,4345.128205128206,4264.102564102564,4221.538461538462,4691.794871794872
494.55002,0.17623623,0.822445,0.49885562,0.59710306,0,0.0,0.0,0.0,0.0,0.26988792,0,0,0.0,0.0,1,0,110.0,0.0,523.0,4611.282051282052,4531.282051282052,4486.153846153847,4444.102564102564,4248.717948717949,4524.102564102564,4471.282051282052,4459.48717948718,4388.205128205129,4724.615384615386,4342.051282051282,4106.153846153847,4345.128205128206,4764.102564102564
494.80023,0.17623623,0.822445,0.49885562,0.59710306,0,0.0,0.0,0.0,0.0,0.22745115,0,0,0.0,0.0,1,0,13.0,0.0,494.0,4614.871794871796,4238.461538461539,4487.6923076923085,4435.384615384616,4263.076923076924,4540.000000000001,4461.538461538462,4460.512820512821,4398.974358974359,4759.48717948718,4350.256410256411,4156.410256410257,4270.256410256411,4651.794871794872
495.05045,0.19868863,0.8327426,0.5127341,0.5876436,0,0.0,0.0,0.0,0.0,0.41318598,0,0,0.0,0.0,0,0,45.0,0.0,0.0,4623.076923076924,4130.256410256411,4493.333333333334,4476.410256410257,4297.948717948719,4573.846153846154,4493.846153846154,4476.923076923077,4400.000000000001,4735.384615384616,4346.666666666667,4170.769230769231,4183.076923076924,4584.102564102564
495.30066,0.19868863,0.8327426,0.5127341,0.5876436,0,0.0,0.0,0.0,0.0,0.28470686,0,0,0.0,0.0,0,0,77.0,0.0,494.0,4647.179487179488,4054.358974358975,4517.948717948719,4492.820512820514,4293.846153846154,4580.512820512821,4504.615384615385,4505.641025641026,4434.871794871796,4816.923076923077,4388.717948717949,4242.564102564103,4248.717948717949,4597.435897435898
495.55087,0.20834766,0.8107849,0.52297467,0.5725936,0,0.0,0.0,0.0,0.0,0.1370728,0,0,0.0,0.0,0,0,109.0,0.0,494.0,4643.076923076924,4022.0512820512827,4505.641025641026,4465.128205128206,4275.384615384616,4554.358974358975,4472.820512820514,4455.8974358974365,4405.641025641026,4759.48717948718,4363.589743589744,4231.282051282052,4182.564102564103,4601.538461538462
495.8011,0.20834766,0.8107849,0.52297467,0.5725936,0,0.0,0.0,0.0,0.0,0.07775298,0,0,0.0,0.0,0,0,12.0,0.0,353.0,4622.564102564103,3963.076923076924,4481.025641025642,4451.794871794872,4263.076923076924,4555.384615384616,4475.384615384616,4450.769230769231,4400.512820512821,4746.153846153847,4355.384615384616,4230.256410256411,4180.000000000001,4590.256410256411
496.0513,0.22860503,0.7863404,0.5283484,0.5679877,0,0.0,0.0,0.0,0.0,0.081870824,0,0,0.0,0.0,0,0,44.0,0.0,0.0,4647.179487179488,3959.48717948718,4488.717948717949,4458.461538461539,4261.538461538462,4553.846153846154,4473.333333333334,4462.564102564103,4404.102564102564,4746.666666666667,4367.179487179487,4249.74358974359,4168.717948717949,4614.871794871796
496.3015,0.22860503,0.7863404,0.5283484,0.5679877,0,0.0,0.0,0.0,0.0,0.13763437,0,0,0.0,0.0,0,0,76.0,0.0,353.0,4663.589743589744,3993.333333333334,4513.846153846154,4462.564102564103,4280.512820512821,4567.6923076923085,4490.256410256411,4457.948717948719,4397.435897435898,4727.6923076923085,4358.461538461539,4265.128205128206,4155.384615384616,4607.179487179488
496.55173,0.20112799,0.7539869,0.5331593,0.5741143,0,0.0,0.0,0.0,0.0,0.0,0,0,0.0,0.0,0,0,108.0,0.0,353.0,4662.564102564103,3995.3846153846157,4517.435897435898,4458.974358974359,4282.051282051282,4567.179487179488,4490.769230769231,4442.564102564103,4396.410256410257,4728.205128205129,4349.743589743591,4257.948717948719,4125.641025641026,4584.102564102564
496.80194,0.20112799,0.7539869,0.5331593,0.5741143,0,0.0,0.0,0.0,0.0,0.07725563,0,0,0.0,0.0,0,0,11.0,0.0,471.0,4670.256410256411,3982.0512820512827,4514.871794871796,4457.435897435898,4265.128205128206,4556.923076923077,4469.743589743591,4424.102564102564,4384.615384615385,4723.076923076924,4348.205128205129,4255.384615384616,4137.948717948719,4572.307692307693
497.05215,0.18192588,0.7048238,0.5341586,0.5836292,0,0.0,0.0,0.0,0.0,0.055332214,0,0,0.0,0.0,0,0,43.0,0.0,0.0,4684.102564102564,3960.0000000000005,4524.102564102564,4441.538461538462,4264.102564102564,4556.410256410257,4476.410256410257,4443.076923076924,4395.384615384616,4738.461538461539,4341.538461538462,4264.102564102564,4141.538461538462,4551.282051282052
497.30237,0.18192588,0.7048238,0.5341586,0.5836292,0,0.0,0.0,0.0,0.0,0.09118544,0,0,0.0,0.0,0,0,75.0,0.0,471.0,4686.153846153847,3972.820512820513,4522.564102564103,4435.8974358974365,4255.384615384616,4553.846153846154,4473.846153846154,4455.384615384616,4396.923076923077,4745.128205128206,4346.666666666667,4268.717948717949,4148.717948717949,4570.769230769231
497.55258,0.17223583,0.6412248,0.528183,0.588456,0,0.0,0.0,0.0,0.0,0.24264063,0,0,0.0,0.0,0,0,107.0,0.0,471.0,4672.820512820514,3941.538461538462,4509.743589743591,4429.2307692307695,4248.205128205129,4540.512820512821,4456.410256410257,4440.512820512821,4385.128205128206,4724.615384615386,4325.641025641026,4256.410256410257,4145.128205128206,4583.589743589744
497.8028,0.17223583,0.6412248,0.528183,0.588456,0,0.0,0.0,0.0,0.0,0.15947784,0,0,0.0,0.0,0,0,10.0,0.0,523.0,4650.256410256411,3911.7948717948725,4494.358974358975,4430.769230769231,4246.153846153847,4537.948717948719,4460.000000000001,4445.128205128206,4394.358974358975,4732.307692307693,4331.282051282052,4235.384615384616,4141.538461538462,4597.948717948719
498.053,0.1312886,0.58195275,0.5227906,0.5878101,1,0.0,0.0,0.0,0.0,0.21787538,0,0,0.0,0.0,0,0,42.0,0.0,0.0,4668.205128205129,3932.820512820513,4498.461538461539,4415.8974358974365,4247.179487179487,4539.48717948718,4471.282051282052,4456.923076923077,4469.2307692307695,4715.8974358974365,4323.076923076924,4250.256410256411,4144.615384615385,4626.666666666667
498.30322,0.1312886,0.58195275,0.5227906,0.5878101,0,0.0,0.0,0.0,0.0,0.3585211,0,0,0.0,0.0,0,0,74.0,0.0,523.0,4620.000000000001,3894.8717948717954,4474.871794871796,4418.974358974359,4235.8974358974365,4526.666666666667,4456.923076923077,4435.8974358974365,4604.615384615385,4712.307692307693,4312.820512820514,4236.923076923077,4137.435897435898,4588.717948717949
498.55344,0.17151079,0.54171026,0.50834703,0.5902516,0,0.0,0.0,0.0,0.0,0.07773148,0,0,0.0,0.0,0,0,106.0,0.0,523.0,4620.000000000001,3890.2564102564106,4475.384615384616,4414.358974358975,4245.641025641026,4540.000000000001,4480.512820512821,4461.025641025642,4560.512820512821,4730.769230769231,4324.615384615385,4244.102564102564,4134.871794871796,4580.000000000001
498.67856,0.17151079,0.54171026,0.50834703,0.5902516,0,0.0,0.0,0.0,0.0,0.0,0,0,0.0,0.0,0,0,122.0,0.0,523.0,4647.179487179488,3924.615384615385,4488.205128205129,4409.743589743591,4229.74358974359,4522.051282051282,4464.615384615385,4447.6923076923085,4532.820512820514,4706.153846153847,4320.512820512821,4263.589743589744,4141.538461538462,4611.282051282052
498.92877,0.212999,0.521258,0.49070904,0.58643126,0,0.0,0.0,0.0,0.0,0.0,0,0,0.0,0.0,0,0,25.0,0.0,0.0,4633.333333333334,3912.307692307693,4476.923076923077,4421.538461538462,4232.307692307693,4525.128205128206,4452.820512820514,4438.461538461539,4600.512820512821,4708.717948717949,4315.384615384616,4259.48717948718,4140.512820512821,4578.974358974359
498.92877,0.212999,0.521258,0.49070904,0.58643126,0,0.0,0.0,0.0,0.0,0.0,0,0,0.0,0.0,0,0,25.0,0.0,0.0,4633.333333333334,3912.307692307693,4476.923076923077,4421.538461538462,4232.307692307693,4525.128205128206,4452.820512820514,4438.461538461539,4600.512820512821,4708.717948717949,4315.384615384616,4259.48717948718,4140.512820512821,4578.974358974359
499.4292,0.17805213,0.5001767,0.4748293,0.58299136,0,0.0,0.0,0.0,0.0,0.0,0,0,0.0,0.0,0,0,89.0,0.0,494.0,4645.128205128206,3922.564102564103,4488.717948717949,4427.179487179487,4250.256410256411,4541.538461538462,4476.923076923077,4458.974358974359,4582.564102564103,4725.641025641026,4324.615384615385,4262.051282051282,4170.256410256411,4532.307692307693
499.80453,0.17805213,0.5001767,0.4748293,0.58299136,0,0.0,0.0,0.0,0.0,0.0524682,0,0,0.0,0.0,0,0,8.0,0.0,367.0,4763.589743589744,4215.8974358974365,4577.948717948719,4427.179487179487,4246.153846153847,4538.461538461539,4448.717948717949,4443.589743589744,4553.333333333334,4728.717948717949,4360.512820512821,4299.48717948718,4365.128205128206,4666.153846153847
500.05475,0.18426165,0.4811906,0.46053222,0.57989407,0,0.0,0.0,0.0,0.0,0.13406028,0,0,0.0,0.0,1,0,40.0,0.0,0.0,4741.025641025642,4085.1282051282055,4645.641025641026,4440.512820512821,4251.794871794872,4566.153846153847,4489.2307692307695,4503.076923076924,4564.615384615385,4768.205128205129,4376.410256410257,4233.333333333334,4348.205128205129,4567.6923076923085
500.30496,0.18426165,0.4811906,0.46053222,0.57989407,0,0.0,0.0,0.0,0.0,0.26088202,0,0,0.0,0.0,0,0,72.0,0.0,367.0,4743.076923076924,4059.48717948718,4678.974358974359,4425.641025641026,4237.948717948719,4567.179487179488,4456.923076923077,4475.384615384616,4539.48717948718,4757.948717948719,4401.025641025642,4215.8974358974365,4349.2307692307695,4521.538461538462
500.55518,0.23637548,0.46410304,0.44764686,0.5771052,0,0.0,0.0,0.0,0.0,0.43102637,0,0,0.0,0.0,0,0,104.0,0.0,352.0,4734.871794871796,4020.5128205128212,4671.794871794872,4417.435897435898,4228.717948717949,4566.153846153847,4436.410256410257,4408.205128205129,4491.282051282052,4700.512820512821,4366.153846153847,4168.717948717949,4263.589743589744,4458.974358974359
500.8054,0.23637548,0.46410304,0.44764686,0.5771052,0,0.0,0.0,0.0,0.0,0.07061558,0,0,0.0,0.0,0,0,7.0,0.0,464.0,4718.461538461539,3976.9230769230776,4671.282051282052,4412.820512820514,4240.512820512821,4586.666666666667,4440.512820512821,4433.333333333334,4507.6923076923085,4729.2307692307695,4407.6923076923085,4180.512820512821,4219.48717948718,4466.153846153847
501.0556,0.3117632,0.44872427,0.43605652,0.574594,0,0.0,0.0,0.0,0.0,0.24976173,0,0,0.0,0.0,0,0,39.0,0.0,0.0,4697.948717948719,3925.1282051282055,4630.256410256411,4414.871794871796,4234.358974358975,4576.923076923077,4458.974358974359,4450.256410256411,4494.358974358975,4701.538461538462,4430.769230769231,4202.051282051282,4198.974358974359,4416.410256410257
501.30582,0.3117632,0.44872427,0.43605652,0.574594,0,0.0,0.0,0.0,0.0,0.21898693,0,0,0.0,0.0,0,0,71.0,0.0,464.0,4674.358974358975,3892.820512820513,4606.153846153847,4412.820512820514,4229.2307692307695,4567.6923076923085,4460.000000000001,4437.435897435898,4478.974358974359,4674.358974358975,4415.8974358974365,4202.051282051282,4156.923076923077,4466.666666666667
501.55603,0.299941,0.43488336,0.42564288,0.57233465,0,0.0,0.0,0.0,0.0,0.29993817,0,0,0.0,0.0,0,0,103.0,0.0,473.0,4661.025641025642,3845.6410256410263,4577.435897435898,4408.205128205129,4206.153846153847,4562.564102564103,4457.435897435898,4417.435897435898,4453.333333333334,4658.974358974359,4414.358974358975,4182.051282051282,4102.564102564103,4440.000000000001
501.80624,0.299941,0.43488336,0.42564288,0.57233465,0,0.0,0.0,0.0,0.0,0.12340142,0,0,0.0,0.0,0,0,6.0,0.0,548.0,4681.025641025642,3853.333333333334,4573.333333333334,4406.153846153847,4201.538461538462,4570.256410256411,4462.051282051282,4443.076923076924,4444.102564102564,4657.948717948719,4441.538461538462,4216.410256410257,4073.333333333334,4424.615384615385
502.05646,0.23670496,0.37308085,0.4162651,0.5703037,0,0.0,0.0,0.0,0.0,0.22610605,0,0,0.0,0.0,0,0,38.0,0.0,0.0,4688.205128205129,3898.461538461539,4533.846153846154,4411.794871794872,4200.512820512821,4589.2307692307695,4491.282051282052,4470.256410256411,4448.205128205129,4654.871794871796,4490.769230769231,4230.769230769231,4087.1794871794878,4557.435897435898
502.18158,0.23670496,0.37308085,0.4162651,0.5703037,0,0.0,0.0,0.0,0.0,1.0,0,0,0.0,0.0,0,0,54.0,0.0,0.0,4667.179487179488,3932.820512820513,4504.615384615385,4420.512820512821,4203.589743589744,4593.846153846154,4520.000000000001,4507.179487179488,4457.435897435898,4676.410256410257,4505.641025641026,4242.564102564103,4090.7692307692314,4683.076923076924
502.4318,0.34409538,0.32735538,0.40577456,0.5693606,0,0.0,0.0,0.0,0.0,1.0,0,0,0.0,0.0,0,0,86.0,0.0,523.0,4640.000000000001,4002.564102564103,4425.128205128206,4417.435897435898,4200.512820512821,4584.615384615385,4524.615384615385,4488.717948717949,4446.666666666667,4675.8974358974365,4495.384615384616,4241.538461538462,4126.666666666667,4842.051282051283
502.8071,0.34409538,0.32735538,0.40577456,0.5693606,0,0.0,0.0,0.0,0.0,0.05308742,0,0,0.0,0.0,0,0,5.0,0.0,552.0,4594.358974358975,3975.3846153846157,4341.538461538462,4424.102564102564,4213.846153846154,4581.025641025642,4513.333333333334,4436.410256410257,4443.589743589744,4659.48717948718,4444.615384615385,4200.000000000001,4057.9487179487182,4780.512820512821
503.0573,0.44950125,0.28611547,0.39371836,0.5696374,0,0.0,0.0,0.0,0.0,0.049365725,0,0,0.0,0.0,0,0,37.0,0.0,0.0,4555.8974358974365,3950.7692307692314,4339.48717948718,4412.307692307693,4208.205128205129,4563.589743589744,4503.589743589744,4405.128205128206,4433.333333333334,4632.307692307693,4418.974358974359,4155.8974358974365,4023.589743589744,4746.153846153847
503.30753,0.44950125,0.28611547,0.39371836,0.5696374,0,0.0,0.0,0.0,0.0,0.2092252,0,0,0.0,0.0,0,0,69.0,0.0,552.0,4552.820512820514,3914.8717948717954,4354.358974358975,4412.307692307693,4217.948717948719,4566.666666666667,4507.179487179488,4418.461538461539,4429.2307692307695,4651.282051282052,4407.179487179487,4153.333333333334,4020.0000000000005,4698.461538461539
503.55774,0.45026213,0.2521961,0.38090286,0.5698856,0,0.0,0.0,0.0,0.0,0.06874018,0,0,0.0,0.0,0,0,101.0,0.0,494.0,4614.871794871796,3895.3846153846157,4341.538461538462,4430.256410256411,4230.769230769231,4571.794871794872,4506.666666666667,4458.461538461539,4442.051282051282,4691.794871794872,4432.820512820514,4203.076923076924,4058.461538461539,4733.846153846154
503.80795,0.45026213,0.2521961,0.38090286,0.5698856,0,0.0,0.0,0.0,0.0,0.06457367,0,0,0.0,0.0,0,0,4.0,0.0,554.0,4599.48717948718,3849.2307692307695,4334.358974358975,4424.615384615385,4221.025641025642,4566.153846153847,4522.564102564103,4477.948717948719,4445.641025641026,4731.794871794872,4429.2307692307695,4217.948717948719,4084.615384615385,4708.717948717949
504.05817,0.43720046,0.23236933,0.36668748,0.57010806,0,0.0,0.0,0.0,0.0,0.50660324,0,0,0.0,0.0,0,0,36.0,0.0,0.0,4602.564102564103,3846.666666666667,4371.794871794872,4429.743589743591,4243.076923076924,4575.384615384616,4507.179487179488,4471.794871794872,4438.461538461539,4724.615384615386,4416.923076923077,4203.076923076924,4076.9230769230776,4616.923076923077
504.30838,0.43720046,0.23236933,0.36668748,0.57010806,0,0.0,0.0,0.0,0.0,1.0,0,0,0.0,0.0,0,0,68.0,0.0,554.0,4613.846153846154,3822.564102564103,4414.871794871796,4413.846153846154,4247.6923076923085,4570.769230769231,4507.179487179488,4492.307692307693,4441.538461538462,4733.846153846154,4412.307692307693,4233.846153846154,4075.8974358974365,4544.615384615385
504.5586,0.35199878,0.22519733,0.35389134,0.567333,0,0.0,0.0,0.0,0.0,0.64654624,0,0,0.0,0.0,0,0,100.0,0.0,346.0,4598.974358974359,3815.8974358974365,4438.974358974359,4411.282051282052,4262.564102564103,4569.743589743591,4489.743589743591,4475.384615384616,4431.794871794872,4696.923076923077,4388.205128205129,4231.794871794872,4068.717948717949,4503.076923076924
504.8088,0.35199878,0.22519733,0.35389134,0.567333,0,0.0,0.0,0.0,0.0,0.14326127,0,0,0.0,0.0,0,0,3.0,0.0,489.0,4747.179487179488,4023.589743589744,4534.358974358975,4399.48717948718,4277.948717948719,4580.512820512821,4506.666666666667,4498.461538461539,4460.512820512821,4749.743589743591,4458.974358974359,4371.282051282052,4255.8974358974365,4731.794871794872
505.05905,0.3647758,0.2430546,0.34237334,0.5608234,0,0.0,0.0,0.0,0.0,0.20001508,0,0,0.0,0.0,0,0,35.0,0.0,0.0,4637.948717948719,3881.538461538462,4516.923076923077,4413.846153846154,4282.564102564103,4573.333333333334,4493.846153846154,4493.333333333334,4466.153846153847,4777.948717948719,4445.641025641026,4301.025641025642,4230.769230769231,4632.307692307693
505.30927,0.3647758,0.2430546,0.34237334,0.5608234,0,0.0,0.0,0.0,0.0,0.26165202,0,0,0.0,0.0,0,0,67.0,0.0,489.0,4627.6923076923085,3899.48717948718,4511.282051282052,4401.538461538462,4278.461538461539,4568.205128205129,4471.794871794872,4454.358974358975,4428.205128205129,4712.820512820514,4407.179487179487,4256.923076923077,4187.6923076923085,4581.538461538462
505.55948,0.33204076,0.27499396,0.33477628,0.5549643,0,0.0,0.0,0.0,0.0,0.33575922,0,0,0.0,0.0,0,0,99.0,0.0,468.0,4652.307692307693,3808.205128205129,4504.102564102564,4397.435897435898,4265.641025641026,4581.538461538462,4506.666666666667,4512.307692307693,4446.666666666667,4729.2307692307695,4404.615384615385,4232.820512820514,4168.205128205129,4472.307692307693
505.8097,0.33204076,0.27499396,0.33477628,0.5549643,0,0.0,0.0,0.0,0.0,0.19898073,0,0,0.0,0.0,0,0,2.0,0.0,458.0,4707.6923076923085,3785.1282051282055,4496.923076923077,4393.846153846154,4246.153846153847,4590.769230769231,4527.179487179488,4505.641025641026,4411.282051282052,4722.051282051282,4414.871794871796,4251.282051282052,4156.410256410257,4438.461538461539
506.0599,0.30811468,0.33629775,0.3310849,0.54875463,0,0.0,0.0,0.0,0.0,0.090420835,0,0,0.0,0.0,0,0,34.0,0.0,0.0,4698.461538461539,3761.538461538462,4443.589743589744,4375.384615384616,4216.410256410257,4587.6923076923085,4538.974358974359,4477.435897435898,4384.615384615385,4676.410256410257,4367.179487179487,4217.948717948719,4093.8461538461543,4395.8974358974365
506.31012,0.30811468,0.33629775,0.3310849,0.54875463,0,0.0,0.0,0.0,0.0,0.0,0,0,0.0,0.0,0,0,66.0,0.0,458.0,4674.358974358975,3735.8974358974365,4395.8974358974365,4367.6923076923085,4208.717948717949,4607.179487179488,4560.512820512821,4486.666666666667,4364.615384615385,4662.051282051282,4346.666666666667,4205.128205128206,4061.538461538462,4373.333333333334
506.4352,0.40007094,0.38549423,0.33213797,0.54410297,0,0.0,0.0,0.0,0.0,0.0,0,0,0.0,0.0,0,0,82.0,0.0,523.0,4684.615384615386,3721.538461538462,4386.666666666667,4374.871794871796,4203.589743589744,4608.717948717949,4572.307692307693,4475.8974358974365,4366.153846153847,4639.48717948718,4337.948717948719,4211.794871794872,4024.1025641025644,4341.025641025642
506.4352,0.40007094,0.38549423,0.33213797,0.54410297,0,0.0,0.0,0.0,0.0,0.0,0,0,0.0,0.0,0,0,82.0,0.0,523.0,4684.615384615386,3721.538461538462,4386.666666666667,4374.871794871796,4203.589743589744,4608.717948717949,4572.307692307693,4475.8974358974365,4366.153846153847,4639.48717948718,4337.948717948719,4211.794871794872,4024.1025641025644,4341.025641025642
506.93564,0.347861,0.36605045,0.3330858,0.5433545,0,0.0,0.0,0.0,0.0,0.0,0,0,0.0,0.0,0,0,17.0,0.0,0.0,4707.179487179488,3697.435897435898,4270.769230769231,4351.282051282052,4184.102564102564,4577.435897435898,4597.435897435898,4494.358974358975,4341.025641025642,4636.410256410257,4329.743589743591,4238.461538461539,4017.9487179487182,4278.461538461539
507.31097,0.347861,0.36605045,0.3330858,0.5433545,0,0.0,0.0,0.0,0.0,0.02249458,0,0,0.0,0.0,0,0,65.0,0.0,425.0,4700.512820512821,3650.7692307692314,4175.384615384616,4337.948717948719,4198.461538461539,4571.794871794872,4594.358974358975,4558.974358974359,4339.48717948718,4643.076923076924,4299.48717948718,4240.512820512821,4052.307692307693,4233.333333333334
507.5612,0.22836325,0.32918745,0.3339389,0.5553016,0,0.0,0.0,0.0,0.0,0.0051029315,0,0,0.0,0.0,0,0,97.0,0.0,494.0,4695.8974358974365,3654.8717948717954,4157.948717948719,4342.051282051282,4218.461538461539,4586.153846153847,4584.102564102564,4612.820512820514,4361.538461538462,4707.179487179488,4308.717948717949,4274.358974358975,4095.3846153846157,4255.384615384616
507.8114,0.22836325,0.32918745,0.3339389,0.5553016,0,0.0,0.0,0.0,0.0,0.0,0,0,0.0,0.0,0,0,0.0,0.0,481.0,4678.461538461539,3668.717948717949,4200.512820512821,4344.615384615385,4242.051282051282,4585.128205128206,4566.153846153847,4626.666666666667,4368.205128205129,4718.974358974359,4303.076923076924,4278.461538461539,4150.769230769231,4245.641025641026
507.93652,0.31008095,0.2797047,0.33455938,0.56605375,0,0.0,0.0,0.0,0.0,0.0,0,0,0.0,0.0,0,0,16.0,0.0,0.0,4682.564102564103,3685.1282051282055,4227.179487179487,4335.8974358974365,4248.717948717949,4581.538461538462,4554.871794871796,4633.846153846154,4368.717948717949,4741.538461538462,4311.794871794872,4287.179487179487,4178.461538461539,4248.205128205129
507.93652,0.31008095,0.2797047,0.33455938,0.56605375,0,0.0,0.0,0.0,0.0,0.0,0,0,0.0,0.0,0,0,16.0,0.0,0.0,4682.564102564103,3685.1282051282055,4227.179487179487,4335.8974358974365,4248.717948717949,4581.538461538462,4554.871794871796,4633.846153846154,4368.717948717949,4741.538461538462,4311.794871794872,4287.179487179487,4178.461538461539,4248.205128205129
508.46823,0.366896,0.23962392,0.3320763,0.57535946,1,0.0,0.0,0.0,0.0,0.0,0,0,0.0,0.0,0,0,84.0,0.0,346.0,4709.2307692307695,3732.820512820513,4355.384615384616,4337.435897435898,4261.538461538462,4555.384615384616,4551.282051282052,4608.717948717949,4380.512820512821,4774.871794871796,4343.589743589744,4292.307692307693,4290.769230769231,4269.74358974359
508.6246,0.366896,0.23962392,0.3320763,0.57535946,0,0.0,0.0,0.0,0.0,0.0,0,0,0.0,0.0,0,0,104.0,0.0,346.0,4744.615384615386,3683.0769230769233,4413.333333333334,4309.2307692307695,4248.717948717949,4555.384615384616,4570.256410256411,4635.8974358974365,4386.153846153847,4808.717948717949,4363.076923076924,4316.923076923077,4298.461538461539,4271.282051282052
509.06247,0.37106654,0.24102825,0.32984164,0.58373284,0,0.0,0.0,0.0,0.0,0.018560173,0,0,0.0,0.0,0,0,31.0,0.0,0.0,4716.410256410257,3653.333333333334,4312.307692307693,4302.564102564103,4216.410256410257,4569.743589743591,4631.282051282052,4633.846153846154,4382.564102564103,4780.512820512821,4348.717948717949,4282.051282051282,4231.282051282052,4230.769230769231
509.31268,0.37106654,0.24102825,0.32984164,0.58373284,0,0.0,0.0,0.0,0.0,0.16177888,0,0,0.0,0.0,0,0,63.0,0.0,0.0,4747.179487179488,3696.410256410257,4295.8974358974365,4366.666666666667,4201.025641025642,4570.769230769231,4640.512820512821,4590.769230769231,4357.435897435898,4761.538461538462,4317.948717948719,4294.871794871796,4162.051282051282,4254.871794871796
509.5629,0.25622508,0.26869902,0.3278307,0.58580345,0,0.0,0.0,0.0,0.0,0.09594376,0,0,0.0,0.0,0,0,95.0,0.0,478.0,4761.025641025642,3677.9487179487182,4342.051282051282,4394.358974358975,4183.589743589744,4565.641025641026,4648.205128205129,4633.846153846154,4390.256410256411,4785.641025641026,4338.974358974359,4338.974358974359,4265.128205128206,4314.358974358975
509.8131,0.25622508,0.26869902,0.3278307,0.58580345,0,0.0,0.0,0.0,0.0,0.0,0,0,0.0,0.0,0,0,127.0,0.0,478.0,4710.769230769231,3666.1538461538466,4377.435897435898,4323.589743589744,4187.6923076923085,4575.384615384616,4646.666666666667,4616.410256410257,4365.641025641026,4747.6923076923085,4289.74358974359,4295.384615384616,4172.307692307693,4262.051282051282
509.9695,0.30281967,0.31904465,0.32677016,0.5834089,0,0.0,0.0,0.0,0.0,0.0,0,0,0.0,0.0,0,0,18.0,0.0,0.0,4718.974358974359,3638.9743589743593,4402.051282051282,4299.48717948718,4187.179487179487,4589.2307692307695,4636.410256410257,4583.589743589744,4347.6923076923085,4720.512820512821,4274.871794871796,4280.000000000001,4183.589743589744,4263.076923076924
509.9695,0.30281967,0.31904465,0.32677016,0.5834089,0,0.0,0.0,0.0,0.0,0.0,0,0,0.0,0.0,0,0,18.0,0.0,0.0,4718.974358974359,3638.9743589743593,4402.051282051282,4299.48717948718,4187.179487179487,4589.2307692307695,4636.410256410257,4583.589743589744,4347.6923076923085,4720.512820512821,4274.871794871796,4280.000000000001,4183.589743589744,4263.076923076924
510.56378,0.29346403,0.34366685,0.3270825,0.58027685,0,0.0,0.0,0.0,0.0,0.0,0,0,0.0,0.0,0,0,94.0,0.0,523.0,4687.6923076923085,3607.692307692308,4434.871794871796,4247.6923076923085,4174.358974358975,4615.8974358974365,4660.512820512821,4597.435897435898,4347.6923076923085,4707.179487179488,4102.564102564103,4268.717948717949,4223.589743589744,4244.102564102564
510.56378,0.29346403,0.34366685,0.3270825,0.58027685,0,0.0,0.0,0.0,0.0,0.0,0,0,0.0,0.0,0,0,94.0,0.0,523.0,4687.6923076923085,3607.692307692308,4434.871794871796,4247.6923076923085,4174.358974358975,4615.8974358974365,4660.512820512821,4597.435897435898,4347.6923076923085,4707.179487179488,4102.564102564103,4268.717948717949,4223.589743589744,4244.102564102564
510.9391,0.25601202,0.35130584,0.3277123,0.5774567,0,0.0,0.0,0.0,0.0,0.0,0,0,0.0,0.0,0,0,13.0,0.0,494.0,4700.512820512821,3639.48717948718,4461.538461538462,4277.948717948719,4193.846153846154,4601.538461538462,4678.974358974359,4607.179487179488,4362.564102564103,4739.48717948718,4274.871794871796,4295.384615384616,4272.820512820514,4259.48717948718
510.9391,0.25601202,0.35130584,0.3277123,0.5774567,0,0.0,0.0,0.0,0.0,0.0,0,0,0.0,0.0,0,0,13.0,0.0,494.0,4700.512820512821,3639.48717948718,4461.538461538462,4277.948717948719,4193.846153846154,4601.538461538462,4678.974358974359,4607.179487179488,4362.564102564103,4739.48717948718,4274.871794871796,4295.384615384616,4272.820512820514,4259.48717948718
511.4395,0.19589263,0.338144,0.3282795,0.5749188,0,0.0,0.0,0.0,0.0,0.0,0,0,0.0,0.0,0,0,77.0,0.0,494.0,4634.358974358975,3616.410256410257,4469.2307692307695,4283.076923076924,4231.794871794872,4556.923076923077,4601.025641025642,4571.282051282052,4365.641025641026,4716.923076923077,4315.384615384616,4315.8974358974365,4296.923076923077,4222.564102564103
511.4395,0.19589263,0.338144,0.3282795,0.5749188,0,0.0,0.0,0.0,0.0,0.0,0,0,0.0,0.0,0,0,77.0,0.0,494.0,4634.358974358975,3616.410256410257,4469.2307692307695,4283.076923076924,4231.794871794872,4556.923076923077,4601.025641025642,4571.282051282052,4365.641025641026,4716.923076923077,4315.384615384616,4315.8974358974365,4296.923076923077,4222.564102564103
512.06506,0.09328561,0.32201657,0.32879037,0.5726364,0,0.0,0.0,0.0,0.0,0.056047037,0,0,0.0,0.0,0,0,28.0,0.0,0.0,4587.6923076923085,3904.615384615385,4471.794871794872,4262.051282051282,4233.333333333334,4507.6923076923085,4536.410256410257,4463.589743589744,4352.307692307693,4735.384615384616,4305.641025641026,4228.205128205129,4426.666666666667,4290.256410256411
512.31525,0.09328561,0.32201657,0.32879037,0.5726364,0,0.0,0.0,0.0,0.0,0.011625625,0,0,0.0,0.0,0,0,60.0,0.0,0.0,4598.974358974359,3962.564102564103,4517.948717948719,4264.102564102564,4251.282051282052,4521.025641025642,4523.076923076924,4423.589743589744,4362.564102564103,4700.000000000001,4325.641025641026,4248.205128205129,4458.974358974359,4296.923076923077
512.5655,0.23728004,0.31055743,0.3292496,0.57058126,0,0.0,0.0,0.0,0.0,0.06647668,0,0,0.0,0.0,0,0,92.0,0.0,346.0,4655.8974358974365,3894.8717948717954,4541.025641025642,4265.128205128206,4234.871794871796,4521.025641025642,4543.589743589744,4453.333333333334,4370.769230769231,4762.564102564103,4338.974358974359,4265.128205128206,4439.48717948718,4287.6923076923085
512.8157,0.23728004,0.31055743,0.3292496,0.57058126,1,0.0,0.0,0.0,0.0,0.40884942,0,0,0.0,0.0,0,0,124.0,0.0,346.0,4748.205128205129,3784.615384615385,4550.769230769231,4237.948717948719,4200.000000000001,4540.512820512821,4643.589743589744,4542.564102564103,4382.564102564103,4778.461538461539,4367.179487179487,4321.538461538462,4422.051282051282,4357.948717948719
513.0659,0.2546973,0.34360373,0.32816315,0.5687308,0,0.0,0.0,0.0,0.0,0.038672853,0,0,0.0,0.0,0,0,27.0,0.0,0.0,4791.794871794872,3706.1538461538466,4391.282051282052,4240.512820512821,4155.8974358974365,4555.8974358974365,4723.076923076924,4616.410256410257,4343.589743589744,4775.384615384616,4342.564102564103,4317.948717948719,4313.846153846154,4383.076923076924
513.31616,0.2546973,0.34360373,0.32816315,0.5687308,0,0.0,0.0,0.0,0.0,0.06082783,0,0,0.0,0.0,0,0,59.0,0.0,0.0,4799.48717948718,3775.3846153846157,4333.846153846154,4276.410256410257,4134.358974358975,4567.6923076923085,4752.307692307693,4642.051282051282,4313.846153846154,4774.358974358975,4314.358974358975,4318.461538461539,4264.102564102564,4421.538461538462
513.56635,0.2582187,0.4087896,0.3271857,0.56706446,0,0.0,0.0,0.0,0.0,0.1624965,0,0,0.0,0.0,0,0,91.0,0.0,479.0,4767.6923076923085,3898.461538461539,4232.820512820514,4340.000000000001,4106.153846153847,4555.384615384616,4730.769230769231,4600.000000000001,4256.923076923077,4758.461538461539,4261.538461538462,4278.974358974359,4233.846153846154,4458.974358974359
513.8166,0.2582187,0.4087896,0.3271857,0.56706446,0,0.0,0.0,0.0,0.0,0.1886297,0,0,0.0,0.0,0,0,123.0,0.0,479.0,4717.948717948719,3970.7692307692314,4190.769230769231,4374.871794871796,4109.74358974359,4554.871794871796,4716.923076923077,4544.615384615385,4248.205128205129,4714.358974358975,4117.435897435898,4319.48717948718,4151.282051282052,4446.666666666667
514.0668,0.32999364,0.46828893,0.32630646,0.564188,0,0.0,0.0,0.0,0.0,0.009444753,0,0,0.0,0.0,0,0,26.0,0.0,0.0,4651.794871794872,3954.358974358975,4247.179487179487,4393.846153846154,4143.589743589744,4567.179487179488,4690.769230769231,4449.2307692307695,4252.307692307693,4694.871794871796,4083.076923076924,4294.358974358975,4074.358974358975,4434.358974358975
514.317,0.32999364,0.46828893,0.32630646,0.564188,0,0.0,0.0,0.0,0.0,0.0,0,0,0.0,0.0,0,0,58.0,0.0,0.0,4616.410256410257,3936.9230769230776,4311.282051282052,4378.461538461539,4190.256410256411,4574.871794871796,4667.179487179488,4448.205128205129,4300.512820512821,4727.6923076923085,4080.5128205128212,4294.871794871796,4092.307692307693,4455.8974358974365
514.4421,0.46451294,0.47069857,0.33369938,0.547875,0,0.0,0.0,0.0,0.0,0.0,0,0,0.0,0.0,0,0,74.0,0.0,523.0,4589.2307692307695,3920.5128205128212,4339.48717948718,4362.051282051282,4201.025641025642,4570.769230769231,4665.641025641026,4453.333333333334,4310.256410256411,4720.512820512821,4052.820512820513,4290.769230769231,4083.076923076924,4453.846153846154
514.4421,0.46451294,0.47069857,0.33369938,0.547875,0,0.0,0.0,0.0,0.0,0.0,0,0,0.0,0.0,0,0,74.0,0.0,523.0,4589.2307692307695,3920.5128205128212,4339.48717948718,4362.051282051282,4201.025641025642,4570.769230769231,4665.641025641026,4453.333333333334,4310.256410256411,4720.512820512821,4052.820512820513,4290.769230769231,4083.076923076924,4453.846153846154
515.0676,0.5105703,0.43752223,0.34376648,0.5243193,0,0.0,0.0,0.0,0.0,0.12032852,0,0,0.0,0.0,0,0,25.0,0.0,0.0,4705.128205128206,3846.666666666667,4538.461538461539,4317.948717948719,4227.179487179487,4571.794871794872,4718.974358974359,4534.871794871796,4380.000000000001,4754.871794871796,4089.23076923077,4313.333333333334,4229.2307692307695,4507.179487179488
515.3179,0.5105703,0.43752223,0.34376648,0.5243193,0,0.0,0.0,0.0,0.0,0.17302455,0,0,0.0,0.0,0,0,57.0,0.0,0.0,4849.2307692307695,4022.564102564103,4596.410256410257,4299.48717948718,4231.282051282052,4579.48717948718,4719.48717948718,4539.48717948718,4356.410256410257,4712.820512820514,4118.974358974359,4392.820512820514,4329.2307692307695,4673.846153846154
515.56805,0.5267453,0.40760502,0.3528261,0.50312316,0,0.0,0.0,0.0,0.0,0.198515,0,0,0.0,0.0,0,0,89.0,0.0,494.0,4755.384615384616,3839.48717948718,4513.333333333334,4300.000000000001,4217.435897435898,4569.743589743591,4695.384615384616,4577.948717948719,4388.717948717949,4782.564102564103,4114.871794871796,4318.461538461539,4260.000000000001,4539.48717948718
515.8183,0.5267453,0.40760502,0.3528261,0.50312316,0,0.0,0.0,0.0,0.0,0.25783357,0,0,0.0,0.0,0,0,121.0,0.0,494.0,4736.410256410257,3833.333333333334,4529.743589743591,4283.589743589744,4247.179487179487,4579.48717948718,4664.102564102564,4562.051282051282,4392.820512820514,4774.358974358975,4082.0512820512827,4294.358974358975,4240.000000000001,4454.358974358975
516.0685,0.51211774,0.38067958,0.36099884,0.48401272,0,0.0,0.0,0.0,0.0,0.19497895,0,0,0.0,0.0,0,0,24.0,0.0,0.0,4732.307692307693,3860.512820512821,4540.512820512821,4293.333333333334,4266.666666666667,4570.769230769231,4620.512820512821,4564.102564102564,4408.717948717949,4790.769230769231,4120.512820512821,4309.2307692307695,4234.871794871796,4403.589743589744
516.3187,0.51211774,0.38067958,0.36099884,0.48401272,0,0.0,0.0,0.0,0.0,0.0,0,0,0.0,0.0,0,0,56.0,0.0,0.0,4745.128205128206,3846.1538461538466,4552.820512820514,4296.923076923077,4303.076923076924,4586.153846153847,4607.6923076923085,4577.435897435898,4431.794871794872,4782.564102564103,4190.256410256411,4301.538461538462,4272.820512820514,4389.2307692307695
516.44385,0.44474745,0.35644665,0.36012608,0.47120938,0,0.0,0.0,0.0,0.0,0.0,0,0,0.0,0.0,0,0,72.0,0.0,371.0,4746.666666666667,3830.7692307692314,4580.512820512821,4288.205128205129,4295.384615384616,4572.307692307693,4601.025641025642,4577.435897435898,4446.153846153847,4807.6923076923085,4228.205128205129,4308.717948717949,4306.153846153847,4382.051282051282
516.44385,0.44474745,0.35644665,0.36012608,0.47120938,0,0.0,0.0,0.0,0.0,0.0,0,0,0.0,0.0,0,0,72.0,0.0,371.0,4746.666666666667,3830.7692307692314,4580.512820512821,4288.205128205129,4295.384615384616,4572.307692307693,4601.025641025642,4577.435897435898,4446.153846153847,4807.6923076923085,4228.205128205129,4308.717948717949,4306.153846153847,4382.051282051282
516.9443,0.4111435,0.33463702,0.35742688,0.46995816,0,0.0,0.0,0.0,0.0,0.0,0,0,0.0,0.0,0,0,7.0,0.0,460.0,4803.589743589744,3831.7948717948725,4613.846153846154,4274.358974358975,4262.564102564103,4587.6923076923085,4684.615384615386,4656.410256410257,4457.948717948719,4778.974358974359,4231.282051282052,4324.615384615385,4302.051282051282,4445.128205128206
517.3196,0.4111435,0.33463702,0.35742688,0.46995816,0,0.0,0.0,0.0,0.0,0.090698585,0,0,0.0,0.0,0,0,55.0,0.0,0.0,4763.589743589744,3927.692307692308,4558.974358974359,4329.2307692307695,4252.820512820514,4603.589743589744,4683.076923076924,4664.615384615386,4446.666666666667,4733.333333333334,4185.641025641026,4340.000000000001,4222.051282051282,4466.666666666667
517.56976,0.37506983,0.3079511,0.3549959,0.47823763,0,0.0,0.0,0.0,0.0,0.12105162,0,0,0.0,0.0,0,0,87.0,0.0,475.0,4737.948717948719,4011.7948717948725,4544.102564102564,4357.435897435898,4265.641025641026,4602.564102564103,4623.589743589744,4620.512820512821,4432.820512820514,4748.717948717949,4202.564102564103,4344.615384615385,4210.769230769231,4507.6923076923085
517.82,0.37506983,0.3079511,0.3549959,0.47823763,0,0.0,0.0,0.0,0.0,0.029305363,0,0,0.0,0.0,0,0,119.0,0.0,475.0,4690.256410256411,4011.7948717948725,4541.538461538462,4367.179487179487,4281.025641025642,4586.153846153847,4540.512820512821,4547.179487179488,4431.282051282052,4731.282051282052,4205.641025641026,4320.512820512821,4184.102564102564,4490.769230769231
518.0702,0.41477725,0.27916217,0.3528045,0.48569036,0,0.0,0.0,0.0,0.0,0.0029986252,0,0,0.0,0.0,0,0,22.0,0.0,0.0,4703.589743589744,4022.564102564103,4572.820512820514,4387.179487179487,4305.128205128206,4583.589743589744,4516.410256410257,4541.025641025642,4445.641025641026,4734.871794871796,4272.820512820514,4315.8974358974365,4199.48717948718,4492.820512820514
518.32043,0.41477725,0.27916217,0.3528045,0.48569036,0,0.0,0.0,0.0,0.0,0.0,0,0,0.0,0.0,0,0,54.0,0.0,0.0,4677.435897435898,4001.0256410256416,4584.615384615385,4386.153846153847,4320.000000000001,4584.615384615385,4489.2307692307695,4524.615384615385,3503.0769230769233,4731.794871794872,4297.435897435898,4294.358974358975,4217.435897435898,4460.000000000001
518.5707,0.40660462,0.25639114,0.35084572,0.4923638,0,0.0,0.3625881,0.0,0.0,0.0,0,0,0.0,0.0,0,0,86.0,0.0,523.0,4666.666666666667,3989.7435897435903,4599.48717948718,4366.153846153847,4324.615384615385,4571.282051282052,4446.153846153847,4469.2307692307695,3546.1538461538466,4712.307692307693,4288.205128205129,4280.000000000001,4264.615384615385,4473.333333333334
518.82086,0.40660462,0.25639114,0.35084572,0.4923638,1,0.0,0.13171385,0.0,0.0,0.0,0,0,0.0,0.0,0,0,118.0,0.0,523.0,4716.923076923077,3964.615384615385,4644.615384615385,4356.410256410257,4321.538461538462,4569.2307692307695,4480.512820512821,4507.6923076923085,3626.1538461538466,4746.153846153847,4335.384615384616,4340.000000000001,4350.256410256411,4528.717948717949
518.97723,0.45950672,0.23600268,0.3490866,0.49835852,0,0.0,0.0,0.0,0.0,0.0,0,0,0.0,0.0,0,0,9.0,0.0,482.0,4711.282051282052,3933.8461538461543,4649.743589743591,4336.410256410257,4321.025641025642,4568.205128205129,4481.538461538462,4509.2307692307695,3696.9230769230776,4765.128205128206,4335.384615384616,4334.358974358975,4338.461538461539,4506.153846153847
518.97723,0.45950672,0.23600268,0.3490866,0.49835852,0,0.0,0.0,0.0,0.0,0.0,0,0,0.0,0.0,0,0,9.0,0.0,482.0,4711.282051282052,3933.8461538461543,4649.743589743591,4336.410256410257,4321.025641025642,4568.205128205129,4481.538461538462,4509.2307692307695,3696.9230769230776,4765.128205128206,4335.384615384616,4334.358974358975,4338.461538461539,4506.153846153847
519.4464,0.46938953,0.22561572,0.34749782,0.5037739,0,0.0,0.0,0.0,0.0,0.0,0,0,0.0,0.0,0,0,69.0,0.0,552.0,4670.769230769231,3893.8461538461543,4659.48717948718,4325.641025641026,4310.256410256411,4556.923076923077,4481.025641025642,4484.615384615385,3877.9487179487182,4708.205128205129,4288.205128205129,4260.000000000001,4212.307692307693,4378.974358974359
519.4464,0.46938953,0.22561572,0.34749782,0.5037739,0,0.0,0.0,0.0,0.0,0.0,0,0,0.0,0.0,0,0,69.0,0.0,552.0,4670.769230769231,3893.8461538461543,4659.48717948718,4325.641025641026,4310.256410256411,4556.923076923077,4481.025641025642,4484.615384615385,3877.9487179487182,4708.205128205129,4288.205128205129,4260.000000000001,4212.307692307693,4378.974358974359
519.94684,0.45917362,0.23142569,0.3460699,0.50864947,0,0.0,0.0,0.0,0.0,0.0,0,0,0.0,0.0,0,0,4.0,0.0,556.0,4675.8974358974365,3894.358974358975,4629.743589743591,4338.461538461539,4300.000000000001,4571.794871794872,4514.871794871796,4508.717948717949,4025.6410256410263,4754.358974358975,4331.282051282052,4311.794871794872,4320.512820512821,4467.6923076923085
519.94684,0.45917362,0.23142569,0.3460699,0.50864947,0,0.0,0.0,0.0,0.0,0.0,0,0,0.0,0.0,0,0,4.0,0.0,556.0,4675.8974358974365,3894.358974358975,4629.743589743591,4338.461538461539,4300.000000000001,4571.794871794872,4514.871794871796,4508.717948717949,4025.6410256410263,4754.358974358975,4331.282051282052,4311.794871794872,4320.512820512821,4467.6923076923085
520.44727,0.40253812,0.24820614,0.34478387,0.5130367,0,0.0,0.0,0.0,0.0,0.0,0,0,0.0,0.0,0,0,68.0,0.0,556.0,4683.076923076924,3943.589743589744,4575.8974358974365,4368.717948717949,4294.358974358975,4572.820512820514,4504.102564102564,4496.923076923077,4007.1794871794878,4775.8974358974365,4360.512820512821,4338.974358974359,4364.102564102564,4432.820512820514
520.44727,0.40253812,0.24820614,0.34478387,0.5130367,0,0.0,0.0,0.0,0.0,0.0,0,0,0.0,0.0,0,0,68.0,0.0,556.0,4683.076923076924,3943.589743589744,4575.8974358974365,4368.717948717949,4294.358974358975,4572.820512820514,4504.102564102564,4496.923076923077,4007.1794871794878,4775.8974358974365,4360.512820512821,4338.974358974359,4364.102564102564,4432.820512820514
521.0415,0.35742402,0.26300666,0.3436256,0.5169868,0,0.0,0.0,0.0,0.0,0.0,0,0,0.0,0.0,0,0,15.0,0.0,475.0,4661.025641025642,3929.2307692307695,4569.743589743591,4378.974358974359,4303.589743589744,4571.794871794872,4493.846153846154,4492.820512820514,4242.564102564103,4773.846153846154,4365.641025641026,4320.512820512821,4323.076923076924,4441.538461538462
521.323,0.35742402,0.26300666,0.3436256,0.5169868,0,0.0,0.0,0.0,0.0,0.19402052,0,0,0.0,0.0,0,0,51.0,0.0,0.0,4700.000000000001,3938.9743589743593,4584.615384615385,4378.461538461539,4305.641025641026,4572.307692307693,4474.358974358975,4475.384615384616,4297.435897435898,4765.641025641026,4381.025641025642,4306.153846153847,4316.923076923077,4470.769230769231
521.57324,0.2749372,0.27632713,0.34259024,0.5205218,0,0.0,0.0,0.0,0.0,0.09185407,0,0,0.0,0.0,0,0,83.0,0.0,475.0,4692.820512820514,3958.461538461539,4601.538461538462,4376.410256410257,4310.256410256411,4570.769230769231,4461.025641025642,4441.538461538462,4348.717948717949,4763.589743589744,4382.564102564103,4301.025641025642,4329.743589743591,4493.846153846154
521.69836,0.2749372,0.27632713,0.34259024,0.5205218,0,0.0,0.0,0.0,0.0,0.0,0,0,0.0,0.0,0,0,99.0,0.0,475.0,4675.8974358974365,3945.6410256410263,4603.589743589744,4367.179487179487,4299.48717948718,4568.205128205129,4430.769230769231,4454.358974358975,4381.538461538462,4770.769230769231,4383.589743589744,4296.923076923077,4318.974358974359,4489.2307692307695
521.94855,0.2004415,0.28831556,0.34165433,0.52371234,0,0.0,0.0,0.0,0.0,0.0,0,0,0.0,0.0,0,0,2.0,0.0,458.0,4664.615384615386,3946.1538461538466,4613.333333333334,4376.410256410257,4294.358974358975,4568.717948717949,4439.48717948718,4460.000000000001,4421.025641025642,4768.717948717949,4391.282051282052,4289.2307692307695,4297.435897435898,4463.589743589744
522.32385,0.2004415,0.28831556,0.34165433,0.52371234,0,0.0,0.0,0.0,0.0,0.9536006,0,0,0.0,0.0,0,0,50.0,0.0,0.0,4696.410256410257,4031.2820512820517,4652.307692307693,4396.923076923077,4296.410256410257,4571.794871794872,4427.6923076923085,4451.282051282052,4488.205128205129,4781.538461538462,4446.153846153847,4321.538461538462,4330.256410256411,4427.6923076923085
522.5741,0.1347523,0.29910517,0.34081393,0.52658135,1,0.0,0.0,0.0,0.0,0.14353831,0,0,0.0,0.0,0,0,82.0,0.0,523.0,4678.974358974359,3986.666666666667,4635.384615384616,4400.512820512821,4274.871794871796,4564.102564102564,4444.615384615385,4465.641025641026,4510.256410256411,4787.6923076923085,4464.102564102564,4306.666666666667,4321.538461538462,4401.538461538462
522.8243,0.1347523,0.29910517,0.34081393,0.52658135,0,0.0,0.0,0.0,0.0,0.0,0,0,0.0,0.0,1,0,114.0,0.0,523.0,4646.666666666667,3971.7948717948725,4633.846153846154,4416.410256410257,4281.025641025642,4571.282051282052,4442.051282051282,4451.282051282052,4516.410256410257,4766.666666666667,4438.461538461539,4277.435897435898,4277.948717948719,4364.615384615385
523.0745,0.14755471,0.33307645,0.34005865,0.5291631,0,0.0,0.0,0.0,0.0,0.0,0,0,0.0,0.0,0,0,17.0,0.0,0.0,4636.410256410257,3969.2307692307695,4616.410256410257,4398.461538461539,4295.8974358974365,4571.282051282052,4401.538461538462,4421.538461538462,4505.128205128206,4755.8974358974365,4417.948717948719,4263.076923076924,4249.2307692307695,4353.846153846154
523.3247,0.14755471,0.33307645,0.34005865,0.5291631,0,0.0,0.0,0.0,0.0,0.0,0,0,0.7384003,0.0,0,0,49.0,0.0,0.0,4682.564102564103,4005.1282051282055,4663.076923076924,4446.666666666667,4344.102564102564,4620.512820512821,4476.410256410257,4482.564102564103,4542.564102564103,4778.974358974359,4471.794871794872,4318.974358974359,4297.435897435898,4418.461538461539
523.4498,0.25306427,0.37580875,0.33937904,0.5314878,0,0.0,0.0,0.0,0.0,0.0,0,0,0.0,0.0,0,0,65.0,0.0,433.0,4647.6923076923085,3969.7435897435903,4631.282051282052,4427.179487179487,4325.641025641026,4603.076923076924,4460.512820512821,4461.538461538462,4537.435897435898,4762.564102564103,4442.051282051282,4280.512820512821,4262.564102564103,4383.076923076924
523.4498,0.25306427,0.37580875,0.33937904,0.5314878,0,0.0,0.0,0.0,0.0,0.0,0,0,0.0,0.0,0,0,65.0,0.0,433.0,4647.6923076923085,3969.7435897435903,4631.282051282052,4427.179487179487,4325.641025641026,4603.076923076924,4460.512820512821,4461.538461538462,4537.435897435898,4762.564102564103,4442.051282051282,4280.512820512821,4262.564102564103,4383.076923076924
523.95026,0.3291111,0.42491862,0.3387681,0.5335825,0,0.0,0.0,0.0,0.0,0.0,0,0,0.0,0.0,0,0,0.0,0.0,476.0,4627.179487179488,3933.333333333334,4570.256410256411,4404.102564102564,4301.025641025642,4585.641025641026,4477.948717948719,4445.641025641026,4539.48717948718,4680.000000000001,4411.282051282052,4252.820512820514,4202.564102564103,4354.871794871796
524.23175,0.3291111,0.42491862,0.3387681,0.5335825,1,0.0,0.0,0.0,0.0,0.0,0,0,0.0,0.0,0,0,36.0,0.0,0.0,4697.948717948719,3953.8461538461543,4586.153846153847,4408.205128205129,4306.666666666667,4601.538461538462,4493.846153846154,4474.358974358975,4557.948717948719,4718.461538461539,4444.615384615385,4312.307692307693,4278.461538461539,4446.666666666667
524.4507,0.38633102,0.44979507,0.3384393,0.53546715,0,0.0,0.0,0.0,0.0,0.0,0,0,0.0,0.0,0,0,64.0,0.0,476.0,4678.461538461539,3933.8461538461543,4554.358974358975,4409.743589743591,4295.384615384616,4593.333333333334,4495.8974358974365,4452.307692307693,4554.358974358975,4697.948717948719,4415.8974358974365,4290.256410256411,4234.871794871796,4455.384615384616
524.82605,0.38633102,0.44979507,0.3384393,0.53546715,0,0.0,0.0,0.0,0.0,0.15453379,0,0,0.0,0.0,0,0,112.0,0.0,341.0,4676.410256410257,3971.2820512820517,4535.384615384616,4409.2307692307695,4296.923076923077,4588.205128205129,4469.2307692307695,4406.666666666667,4541.025641025642,4645.128205128206,4377.948717948719,4273.846153846154,4198.461538461539,4455.384615384616
525.07623,0.34418002,0.4444124,0.33832088,0.53716135,0,0.0,0.0,0.0,0.0,0.10175874,0,0,0.0,0.0,0,0,15.0,0.0,477.0,4676.410256410257,3967.1794871794878,4527.6923076923085,4420.000000000001,4296.410256410257,4583.589743589744,4474.871794871796,4445.128205128206,4567.6923076923085,4717.435897435898,4405.128205128206,4297.948717948719,4246.153846153847,4464.615384615385
525.3265,0.34418002,0.4444124,0.33832088,0.53716135,0,0.0,0.0,0.0,0.0,0.19265494,0,0,0.0,0.0,0,0,47.0,0.0,0.0,4674.358974358975,3963.076923076924,4541.538461538462,4414.871794871796,4296.923076923077,4576.410256410257,4477.948717948719,4443.589743589744,4571.282051282052,4733.333333333334,4413.333333333334,4310.769230769231,4250.256410256411,4429.743589743591
525.57666,0.25781268,0.4219606,0.33927593,0.536177,0,0.0,0.0,0.0,0.0,0.21294807,0,0,0.0,0.0,0,0,79.0,0.0,477.0,4786.666666666667,4162.051282051282,4595.8974358974365,4413.846153846154,4310.256410256411,4583.076923076924,4472.307692307693,4436.410256410257,4572.307692307693,4726.153846153847,4462.564102564103,4388.205128205129,4331.794871794872,4555.384615384616
525.8269,0.25781268,0.4219606,0.33927593,0.536177,1,0.0,0.0,0.0,0.0,0.1575397,0,0,0.0,0.0,0,0,111.0,0.0,477.0,4656.923076923077,3940.5128205128212,4539.48717948718,4415.8974358974365,4292.820512820514,4572.820512820514,4475.384615384616,4457.948717948719,4568.717948717949,4671.282051282052,4413.333333333334,4282.051282051282,4204.102564102564,4377.435897435898
526.0771,0.26905802,0.4016915,0.34015217,0.5378276,0,0.0,0.0,0.0,0.0,0.19891326,0,0,0.0,0.0,0,0,14.0,0.0,523.0,4629.743589743591,3931.7948717948725,4526.153846153847,4430.256410256411,4282.564102564103,4559.48717948718,4445.641025641026,4426.153846153847,4567.179487179488,4710.256410256411,4413.846153846154,4280.512820512821,4230.256410256411,4346.666666666667
526.32733,0.26905802,0.4016915,0.34015217,0.5378276,0,0.0,0.0,0.0,0.0,0.118866555,0,0,0.0,0.0,0,0,46.0,0.0,0.0,4614.358974358975,3945.6410256410263,4532.307692307693,4432.307692307693,4291.282051282052,4565.641025641026,4459.48717948718,4432.307692307693,4572.307692307693,4726.666666666667,4409.743589743591,4278.461538461539,4205.641025641026,4362.564102564103
526.5775,0.2420416,0.38344932,0.34094036,0.5340135,0,0.0,0.0,0.0,0.0,0.24842058,0,0,0.0,0.0,0,0,78.0,0.0,523.0,4588.205128205129,3942.564102564103,4520.512820512821,4427.6923076923085,4271.794871794872,4550.769230769231,4444.615384615385,4434.358974358975,4570.769230769231,4732.820512820514,4393.846153846154,4265.641025641026,4200.000000000001,4381.025641025642
526.82776,0.2420416,0.38344932,0.34094036,0.5340135,0,0.0,0.0,0.0,0.0,0.09035771,0,0,0.0,0.0,0,0,110.0,0.0,523.0,4595.384615384616,3947.1794871794878,4535.384615384616,4442.564102564103,4279.48717948718,4555.8974358974365,4446.666666666667,4441.025641025642,4570.769230769231,4764.615384615386,4406.666666666667,4279.48717948718,4229.74358974359,4389.2307692307695
527.07794,0.23529315,0.36703137,0.34164914,0.5257666,0,0.0,0.0,0.0,0.0,0.21656445,0,0,0.0,0.0,0,0,13.0,0.0,494.0,4659.48717948718,4072.820512820513,4571.282051282052,4441.538461538462,4292.307692307693,4568.717948717949,4442.051282051282,4429.2307692307695,4556.410256410257,4744.615384615386,4420.000000000001,4334.358974358975,4256.410256410257,4506.153846153847
527.3282,0.23529315,0.36703137,0.34164914,0.5257666,0,0.0,0.0,0.0,0.0,0.17702845,0,0,0.0,0.0,1,0,45.0,0.0,0.0,4570.256410256411,3942.0512820512827,4523.076923076924,4447.6923076923085,4279.48717948718,4556.923076923077,4444.615384615385,4440.000000000001,4565.641025641026,4748.717948717949,4394.871794871796,4263.076923076924,4190.256410256411,4383.076923076924
527.57837,0.21402253,0.3522552,0.3422865,0.515441,0,0.0,0.0,0.0,0.0,0.1996368,0,0,0.0,0.0,0,0,77.0,0.0,494.0,4603.076923076924,3971.7948717948725,4544.102564102564,4460.000000000001,4282.564102564103,4558.461538461539,4475.8974358974365,4477.948717948719,4573.333333333334,4784.102564102564,4420.000000000001,4302.564102564103,4232.820512820514,4458.461538461539
527.8286,0.21402253,0.3522552,0.3422865,0.515441,0,0.0,0.0,0.0,0.0,0.20419544,0,0,0.0,0.0,0,0,109.0,0.0,494.0,4572.820512820514,3961.538461538462,4527.179487179488,4458.974358974359,4264.615384615385,4541.025641025642,4441.025641025642,4425.641025641026,4562.051282051282,4767.179487179488,4407.6923076923085,4275.8974358974365,4215.8974358974365,4445.128205128206
