timestamp,excitement,frustration,meditation,engagementBoredom,blink,clench,laugh,smile,eyebrow,furrowBrow,lookLeft,lookRight,smirkLeft,smirkRight,winkLeft,winkRight,eeg0,eeg1,eeg2,eeg3,eeg4,eeg5,eeg6,eeg7,eeg8,eeg9,eeg10,eeg11,eeg12,eeg13,eeg14,eeg15,eeg16
1330.6592,0.34121048,0.6534589,0.33333334,0.5522388,0,0.0,0.0,0.0,0.0,0.26587424,0,0,0.0,0.0,0,0,122.0,0.0,525.0,4650.256410256411,4022.0512820512827,4476.410256410257,4296.410256410257,4253.846153846154,4558.461538461539,4458.461538461539,4444.615384615385,4399.48717948718,4722.051282051282,4361.025641025642,4301.538461538462,4185.641025641026,4572.307692307693
1330.9094,0.34121048,0.6534589,0.33333334,0.5522388,0,0.0,0.0,0.0,0.0,0.36977953,0,0,0.0,0.0,0,0,25.0,0.0,0.0,4603.589743589744,3975.3846153846157,4460.512820512821,4309.743589743591,4262.564102564103,4569.743589743591,4472.307692307693,4435.384615384616,4388.717948717949,4713.846153846154,4351.794871794872,4272.307692307693,4160.512820512821,4473.333333333334
1331.1595,0.31276122,0.68762404,0.33333334,0.5522388,0,0.0,0.0,0.0,0.0,0.9878755,0,0,0.0,0.0,0,0,57.0,0.0,0.0,4638.461538461539,4005.1282051282055,4486.666666666667,4325.128205128206,4259.48717948718,4560.512820512821,4472.820512820514,4441.025641025642,4397.435897435898,4723.589743589744,4354.871794871796,4296.923076923077,4204.102564102564,4407.179487179487
1331.4098,0.31276122,0.68762404,0.33333334,0.5522388,0,0.0,0.0,0.0,0.0,0.09573463,0,0,0.0,0.0,0,0,89.0,0.0,495.0,4681.025641025642,4036.410256410257,4515.384615384616,4389.2307692307695,4279.48717948718,4587.6923076923085,4465.641025641026,4416.923076923077,4410.769230769231,4732.820512820514,4359.48717948718,4311.282051282052,4205.128205128206,4477.948717948719
1331.66,0.2852429,0.72094154,0.33333334,0.5522388,0,0.0,0.0,0.0,0.0,0.19963624,0,0,0.0,0.0,0,0,121.0,0.0,495.0,4684.102564102564,3990.7692307692314,4528.205128205129,4342.051282051282,4266.153846153847,4586.153846153847,4458.974358974359,4422.051282051282,4403.076923076924,4753.333333333334,4364.102564102564,4287.179487179487,4204.102564102564,4518.974358974359
1331.9103,0.2852429,0.72094154,0.33333334,0.5522388,0,0.0,0.0,0.0,0.0,0.2705288,0,0,0.0,0.0,0,0,24.0,0.0,0.0,4681.025641025642,3979.48717948718,4537.435897435898,4325.128205128206,4260.512820512821,4570.256410256411,4444.102564102564,4424.615384615385,4404.615384615385,4742.051282051282,4365.128205128206,4269.2307692307695,4204.102564102564,4571.282051282052
1332.1604,0.25818032,0.718561,0.33333334,0.5522388,0,0.0,0.0,0.0,0.0,0.1622488,0,0,0.0,0.0,0,0,56.0,0.0,0.0,4693.333333333334,3988.205128205129,4553.846153846154,4330.769230769231,4255.8974358974365,4557.948717948719,4444.102564102564,4404.102564102564,4371.282051282052,4744.615384615386,4364.102564102564,4287.6923076923085,4222.564102564103,4567.6923076923085
1332.4106,0.25818032,0.718561,0.33333334,0.5522388,0,0.0,0.0,0.0,0.0,0.1628713,0,0,0.0,0.0,0,0,88.0,0.0,51.0,4687.6923076923085,3994.8717948717954,4543.076923076924,4335.8974358974365,4261.025641025642,4554.871794871796,4477.948717948719,4499.48717948718,4403.589743589744,4710.769230769231,4360.512820512821,4273.333333333334,4140.512820512821,4534.871794871796
1332.6609,0.24458551,0.68480885,0.33333334,0.5522388,0,0.0,0.0,0.0,0.0,0.035805535,0,0,0.0,0.0,0,0,120.0,0.0,51.0,4690.769230769231,4006.666666666667,4537.948717948719,4342.051282051282,4249.74358974359,4542.051282051282,4460.000000000001,4466.666666666667,4400.512820512821,4703.076923076924,4354.358974358975,4280.000000000001,4163.076923076924,4552.307692307693
1332.9111,0.24458551,0.68480885,0.33333334,0.5522388,0,0.0,0.0,0.0,0.0,0.10906354,0,0,0.0,0.0,0,0,23.0,0.0,0.0,4665.128205128206,3938.9743589743593,4511.794871794872,4352.307692307693,4245.128205128206,4547.179487179488,4462.051282051282,4462.564102564103,4397.435897435898,4733.846153846154,4359.48717948718,4293.333333333334,4207.179487179487,4613.846153846154
1333.1614,0.19758172,0.6259131,0.33333334,0.5522388,0,0.0,0.0,0.0,0.0,0.58653694,0,0,0.0,0.0,0,0,55.0,0.0,0.0,4676.410256410257,3945.1282051282055,4505.128205128206,4363.076923076924,4240.512820512821,4540.000000000001,4460.512820512821,4476.410256410257,4401.025641025642,4724.615384615386,4362.051282051282,4295.8974358974365,4203.589743589744,4695.384615384616
1333.4115,0.19758172,0.6259131,0.33333334,0.5522388,0,0.0,0.0,0.0,0.0,0.30661717,0,0,0.0,0.0,0,0,87.0,0.0,465.0,4729.2307692307695,3991.2820512820517,4545.128205128206,4405.128205128206,4257.948717948719,4551.794871794872,4493.846153846154,4522.564102564103,4414.358974358975,4764.615384615386,4376.923076923077,4364.102564102564,4274.871794871796,4816.410256410257
1333.6617,0.37289068,0.59349877,0.33333334,0.5522388,0,0.0,0.0,0.0,0.0,0.100101106,0,0,0.0,0.0,0,0,119.0,0.0,465.0,4728.717948717949,3999.48717948718,4554.358974358975,4383.076923076924,4251.282051282052,4539.48717948718,4475.384615384616,4496.923076923077,4412.820512820514,4748.205128205129,4371.282051282052,4345.128205128206,4262.564102564103,4821.538461538462
1333.912,0.37289068,0.59349877,0.33333334,0.5522388,0,0.0,0.0,0.0,0.0,0.021460408,0,0,0.0,0.0,0,0,22.0,0.0,0.0,4660.512820512821,3944.615384615385,4521.025641025642,4371.794871794872,4255.8974358974365,4540.512820512821,4477.435897435898,4494.358974358975,4412.820512820514,4710.256410256411,4362.051282051282,4268.717948717949,4182.051282051282,4749.2307692307695
1334.1622,0.46624762,0.56921625,0.33333334,0.5522388,0,0.0,0.0,0.0,0.0,0.054767717,0,0,0.0,0.0,0,0,54.0,0.0,0.0,4702.051282051282,3970.2564102564106,4541.025641025642,4372.820512820514,4248.717948717949,4539.48717948718,4460.512820512821,4472.307692307693,4403.589743589744,4721.025641025642,4360.000000000001,4297.435897435898,4221.025641025642,4748.205128205129
1334.4124,0.46624762,0.56921625,0.33333334,0.5522388,0,0.0,0.0,0.0,0.0,0.05127961,0,0,0.0,0.0,0,0,86.0,0.0,525.0,4707.6923076923085,3964.1025641025644,4543.589743589744,4380.512820512821,4247.179487179487,4536.410256410257,4468.717948717949,4458.461538461539,4397.948717948719,4716.410256410257,4359.48717948718,4300.000000000001,4213.846153846154,4730.769230769231
1334.6626,0.49922663,0.5881545,0.33333334,0.5522388,0,0.0,0.0,0.0,0.0,0.07233672,0,0,0.0,0.0,0,0,118.0,0.0,525.0,4649.743589743591,3924.615384615385,4517.435897435898,4377.948717948719,4250.256410256411,4540.512820512821,4481.538461538462,4477.948717948719,4397.948717948719,4689.743589743591,4351.794871794872,4247.6923076923085,4157.435897435898,4654.871794871796
1334.9128,0.49922663,0.5881545,0.33333334,0.5522388,0,0.0,0.0,0.0,0.0,0.046759557,0,0,0.0,0.0,0,0,21.0,0.0,0.0,4671.282051282052,3954.358974358975,4525.641025641026,4385.641025641026,4247.6923076923085,4543.076923076924,4473.846153846154,4428.205128205129,4372.307692307693,4693.333333333334,4351.282051282052,4278.974358974359,4166.666666666667,4662.051282051282
1335.1631,0.46706536,0.6503479,0.33333334,0.5522388,0,0.0,0.0,0.0,0.0,0.031653922,0,0,0.0,0.0,0,0,53.0,0.0,0.0,4654.871794871796,3937.9487179487182,4504.615384615385,4392.307692307693,4245.128205128206,4525.128205128206,4449.2307692307695,4407.179487179487,4366.666666666667,4689.2307692307695,4340.000000000001,4247.179487179487,4160.000000000001,4630.256410256411
1335.4132,0.46706536,0.6503479,0.33333334,0.5522388,0,0.0,0.0,0.0,0.0,0.103761725,0,0,0.0,0.0,0,0,85.0,0.0,495.0,4680.512820512821,3955.3846153846157,4530.769230769231,4397.948717948719,4248.717948717949,4539.48717948718,4476.923076923077,4460.000000000001,4401.538461538462,4732.307692307693,4354.358974358975,4283.589743589744,4194.358974358975,4588.205128205129
1335.6635,0.41603485,0.6131889,0.33333334,0.5522388,0,0.0,0.0,0.0,0.0,0.50984913,0,0,0.0,0.0,0,0,117.0,0.0,495.0,4676.923076923077,3960.0000000000005,4559.48717948718,4409.2307692307695,4249.74358974359,4543.589743589744,4462.564102564103,4444.615384615385,4401.025641025642,4733.846153846154,4354.358974358975,4279.48717948718,4191.282051282052,4508.205128205129
1335.9137,0.41603485,0.6131889,0.33333334,0.5522388,0,0.0,0.0,0.0,0.0,0.1618726,0,0,0.0,0.0,0,0,20.0,0.0,0.0,4674.358974358975,3961.0256410256416,4588.717948717949,4421.538461538462,4259.48717948718,4552.307692307693,4458.974358974359,4440.512820512821,4395.8974358974365,4735.8974358974365,4352.820512820514,4271.282051282052,4179.48717948718,4508.205128205129
1336.164,0.43241298,0.56305027,0.33333334,0.5522388,0,0.0,0.0,0.0,0.0,0.0209814,0,0,0.0,0.0,0,0,52.0,0.0,0.0,4626.153846153847,3924.615384615385,4556.410256410257,4404.102564102564,4247.179487179487,4541.025641025642,4457.435897435898,4432.307692307693,4393.846153846154,4718.461538461539,4344.102564102564,4217.435897435898,4116.410256410257,4474.871794871796
1336.4141,0.43241298,0.56305027,0.33333334,0.5522388,0,0.0,0.0,0.0,0.0,0.0,0,0,0.0,0.0,0,0,84.0,0.0,51.0,4662.051282051282,3983.589743589744,4579.48717948718,4410.769230769231,4246.666666666667,4540.512820512821,4444.615384615385,4424.102564102564,4383.589743589744,4717.435897435898,4348.205128205129,4263.589743589744,4177.948717948719,4470.256410256411
1336.6643,0.51926696,0.5341456,0.33333334,0.5522388,1,0.0,0.0,0.0,0.0,0.0,0,0,0.0,0.0,0,0,116.0,0.0,51.0,4727.6923076923085,4055.8974358974365,4604.102564102564,4413.333333333334,4250.256410256411,4551.282051282052,4462.051282051282,4445.128205128206,4388.205128205129,4728.205128205129,4357.948717948719,4327.179487179487,4253.333333333334,4517.435897435898
1336.9146,0.51926696,0.5341456,0.33333334,0.5522388,0,0.0,0.0,0.0,0.0,0.09789958,0,0,0.0,0.0,0,0,19.0,0.0,0.0,4630.256410256411,3914.8717948717954,4543.589743589744,4397.948717948719,4239.48717948718,4535.8974358974365,4450.769230769231,4422.051282051282,4377.948717948719,4719.48717948718,4345.641025641026,4266.153846153847,4147.179487179487,4388.205128205129
1337.1648,0.6277857,0.53232753,0.33333334,0.5522388,0,0.0,0.0,0.0,0.0,0.15499139,0,0,0.0,0.0,0,0,51.0,0.0,0.0,4580.000000000001,3951.7948717948725,4500.512820512821,4424.102564102564,4252.820512820514,4539.48717948718,4442.564102564103,4392.307692307693,4350.769230769231,4633.333333333334,4325.641025641026,4202.051282051282,4034.358974358975,4297.435897435898
1337.4149,0.6277857,0.53232753,0.33333334,0.5522388,1,0.0,0.0,0.0,0.0,0.092054255,0,0,0.0,0.0,0,0,83.0,0.0,471.0,4571.282051282052,3918.9743589743593,4490.769230769231,4421.538461538462,4246.153846153847,4537.948717948719,4445.128205128206,4406.153846153847,4353.333333333334,4631.282051282052,4323.589743589744,4198.974358974359,4024.1025641025644,4258.974358974359
1337.6652,0.63702947,0.60185546,0.33333334,0.5522388,0,0.0,0.0,0.0,0.0,0.10777044,0,0,0.0,0.0,0,0,115.0,0.0,471.0,4596.410256410257,3866.666666666667,4504.615384615385,4422.051282051282,4232.820512820514,4529.2307692307695,4472.820512820514,4441.025641025642,4397.435897435898,4765.641025641026,4345.128205128206,4295.8974358974365,4242.564102564103,4336.410256410257
1337.9154,0.63702947,0.60185546,0.33333334,0.5522388,0,0.0,0.0,0.0,0.0,0.116993584,0,0,0.0,0.0,0,0,18.0,0.0,0.0,4615.384615384616,3899.48717948718,4510.256410256411,4444.102564102564,4232.307692307693,4523.589743589744,4462.051282051282,4445.641025641026,4397.948717948719,4757.435897435898,4350.256410256411,4309.2307692307695,4254.358974358975,4415.384615384616
1338.1656,0.6004936,0.7825293,0.33333334,0.5522388,1,0.0,0.0,0.0,0.0,0.1785919,0,0,0.0,0.0,0,0,50.0,0.0,0.0,4566.153846153847,3876.410256410257,4475.8974358974365,4448.205128205129,4231.794871794872,4523.076923076924,4464.615384615385,4472.307692307693,4403.076923076924,4706.153846153847,4346.153846153847,4247.6923076923085,4157.435897435898,4396.923076923077
1338.4158,0.6004936,0.7825293,0.33333334,0.5522388,1,0.0,0.0,0.0,0.0,0.21419714,0,0,0.0,0.0,0,0,82.0,0.0,525.0,4588.717948717949,3894.358974358975,4487.6923076923085,4447.179487179487,4230.256410256411,4521.538461538462,4460.512820512821,4426.153846153847,4395.8974358974365,4741.538461538462,4350.769230769231,4274.358974358975,4201.025641025642,4489.2307692307695
1338.666,0.5970618,0.8937499,0.33333334,0.5522388,0,0.0,0.0,0.0,0.0,0.1384934,0,0,0.0,0.0,0,0,114.0,0.0,525.0,4569.2307692307695,3882.564102564103,4493.846153846154,4422.564102564103,4250.256410256411,4544.102564102564,4535.8974358974365,4505.641025641026,4407.6923076923085,4723.076923076924,4355.8974358974365,4267.179487179487,4184.102564102564,4547.179487179488
1338.9163,0.5970618,0.8937499,0.33333334,0.5522388,0,0.0,0.0,0.0,0.0,0.36857942,0,0,0.0,0.0,0,0,17.0,0.0,0.0,4700.512820512821,4673.333333333334,4618.461538461539,2815.3846153846157,4295.8974358974365,4586.153846153847,4510.769230769231,4457.948717948719,4408.205128205129,4801.538461538462,4362.564102564103,4468.205128205129,4396.923076923077,4756.410256410257
1339.1665,0.7354144,0.99410284,0.33333334,0.5522388,0,0.0,0.0,0.1641425,0.0,0.0,0,0,0.0,0.0,1,0,49.0,0.0,0.0,4521.025641025642,4272.307692307693,4475.384615384616,3151.794871794872,4251.794871794872,4553.846153846154,4475.384615384616,4402.051282051282,4366.666666666667,4761.025641025642,4337.435897435898,4235.8974358974365,4140.000000000001,4414.358974358975
1339.4167,0.7354144,0.99410284,0.33333334,0.5522388,0,0.0,0.0,0.08898863,0.0,0.0,0,0,0.0,0.0,0,0,81.0,0.0,495.0,4475.8974358974365,4102.051282051282,4410.256410256411,3576.410256410257,4246.666666666667,4550.769230769231,4456.923076923077,4406.153846153847,4347.6923076923085,4672.307692307693,4327.179487179487,4167.6923076923085,4072.307692307693,4478.461538461539
1339.6669,0.8289365,1.0,0.33333334,0.5522388,1,0.0,0.25180048,0.0,0.0,0.0,0,0,0.0,0.0,0,0,113.0,0.0,495.0,4507.179487179488,4056.9230769230776,4373.333333333334,3522.564102564103,4231.282051282052,4522.564102564103,4463.589743589744,4434.871794871796,4375.8974358974365,4736.410256410257,4333.333333333334,4190.769230769231,4131.282051282052,4584.615384615385
1339.9171,0.8289365,1.0,0.33333334,0.5522388,0,0.0,0.1196691,0.0,0.0,0.0,0,0,0.0,0.0,0,0,16.0,0.0,0.0,4582.051282051282,4050.2564102564106,4384.615384615385,3672.307692307693,4232.307692307693,4534.871794871796,4450.256410256411,4434.358974358975,4392.820512820514,4738.974358974359,4339.48717948718,4230.256410256411,4154.871794871796,4751.794871794872
1340.1674,0.6940972,1.0,0.33333334,0.5522388,0,0.0,0.14666869,0.0,0.0,0.0,0,0,0.0,0.0,0,0,48.0,0.0,0.0,4582.564102564103,3995.3846153846157,4393.333333333334,3819.48717948718,4247.6923076923085,4534.358974358975,4440.512820512821,4426.666666666667,4374.871794871796,4678.974358974359,4336.923076923077,4196.923076923077,4082.564102564103,4665.641025641026
1340.4176,0.6940972,1.0,0.33333334,0.5522388,0,0.0,0.16170113,0.0,0.0,0.0,0,0,0.0,0.0,0,0,80.0,0.0,51.0,4642.564102564103,4095.3846153846157,4457.948717948719,3943.076923076924,4260.512820512821,4541.538461538462,4442.564102564103,4411.794871794872,4371.282051282052,4691.794871794872,4343.589743589744,4258.461538461539,4158.461538461539,4707.179487179488
1340.6677,0.62798584,1.0,0.33333334,0.5522388,0,0.0,0.11907281,0.0,0.0,0.0,0,0,0.0,0.0,0,0,112.0,0.0,51.0,4560.000000000001,3977.435897435898,4451.282051282052,4042.0512820512827,4248.205128205129,4530.769230769231,4449.743589743591,4424.102564102564,4370.256410256411,4697.948717948719,4342.051282051282,4215.384615384616,4118.974358974359,4651.794871794872
1340.918,0.62798584,1.0,0.33333334,0.5522388,0,0.0,0.0,0.0,0.0,0.14006875,0,0,0.0,0.0,0,0,15.0,0.0,467.0,4567.179487179488,3963.589743589744,4463.589743589744,4116.410256410257,4253.333333333334,4539.48717948718,4452.307692307693,4441.025641025642,4368.205128205129,4681.025641025642,4338.461538461539,4222.051282051282,4121.538461538462,4604.615384615385
1341.1682,0.6041353,1.0,0.33333334,0.5522388,0,0.0,0.0,0.0,0.0,0.19231948,0,0,0.0,0.0,0,0,47.0,0.0,0.0,4656.923076923077,4083.589743589744,4526.666666666667,4179.48717948718,4248.205128205129,4539.48717948718,4446.153846153847,4447.179487179487,4384.615384615385,4735.8974358974365,4358.974358974359,4344.615384615385,4301.538461538462,4814.358974358975
1341.4263,0.6041353,1.0,0.33333334,0.5522388,0,0.0,0.0,0.0,0.0,0.2777249,0,0,0.0,0.0,0,1,79.0,0.0,467.0,4623.589743589744,3972.820512820513,4490.769230769231,4220.512820512821,4233.333333333334,4530.769230769231,4461.025641025642,4466.666666666667,4405.128205128206,4751.794871794872,4355.8974358974365,4292.307692307693,4240.000000000001,4720.512820512821
1341.6764,0.63857895,1.0,0.33333334,0.5522388,0,0.0,0.0,0.0,0.0,0.1932516,0,0,0.0,0.0,0,0,111.0,0.0,467.0,4580.512820512821,3928.205128205129,4467.6923076923085,4265.128205128206,4230.769230769231,4522.564102564103,4431.282051282052,4423.589743589744,4365.128205128206,4686.666666666667,4345.128205128206,4246.153846153847,4174.871794871796,4634.871794871796
1341.9266,0.63857895,1.0,0.33333334,0.5522388,1,0.0,0.0,0.0,0.0,0.089169145,0,0,0.0,0.0,0,0,14.0,0.0,525.0,4609.743589743591,3955.8974358974365,4490.256410256411,4308.717948717949,4238.461538461539,4523.076923076924,4444.102564102564,4463.589743589744,4383.589743589744,4717.435897435898,4351.794871794872,4277.435897435898,4248.205128205129,4645.641025641026
1342.1769,0.6430113,1.0,0.33333334,0.5522388,0,0.0,0.0,0.0,0.0,0.14832668,0,0,0.0,0.0,0,0,46.0,0.0,0.0,4603.589743589744,3941.538461538462,4494.871794871796,4338.461538461539,4209.74358974359,4520.000000000001,4454.358974358975,4465.641025641026,4389.2307692307695,4724.102564102564,4353.333333333334,4282.051282051282,4263.589743589744,4641.538461538462
1342.4271,0.6430113,1.0,0.33333334,0.5522388,0,0.0,0.0,0.0,0.0,0.03640482,0,0,0.0,0.0,0,0,78.0,0.0,525.0,4557.948717948719,3893.8461538461543,4461.538461538462,4365.128205128206,4213.846153846154,4507.6923076923085,4434.358974358975,4458.974358974359,4386.153846153847,4708.205128205129,4345.128205128206,4234.358974358975,4217.435897435898,4626.666666666667
1342.6774,0.5939172,1.0,0.33333334,0.5522388,1,0.0,0.0,0.0,0.0,0.2562748,0,0,0.0,0.0,0,0,110.0,0.0,525.0,4557.435897435898,3876.9230769230776,4452.307692307693,4379.48717948718,4216.923076923077,4522.051282051282,4458.974358974359,4464.102564102564,4380.000000000001,4673.333333333334,4335.8974358974365,4220.512820512821,4196.410256410257,4526.153846153847
1342.9275,0.5939172,1.0,0.33333334,0.5522388,0,0.0,0.0,0.0,0.0,0.5030901,0,0,0.0,0.0,0,0,13.0,0.0,495.0,4616.923076923077,3986.1538461538466,4500.000000000001,4390.769230769231,4233.846153846154,4539.48717948718,4456.923076923077,4446.666666666667,4366.666666666667,4680.512820512821,4339.48717948718,4285.641025641026,4266.153846153847,4562.051282051282
1343.1777,0.5743953,1.0,0.33333334,0.5522388,1,0.0,0.0,0.0,0.0,0.111315005,0,0,0.0,0.0,0,0,45.0,0.0,0.0,4590.769230769231,3909.2307692307695,4475.384615384616,4390.769230769231,4227.6923076923085,4535.8974358974365,4443.589743589744,4435.384615384616,4380.000000000001,4692.820512820514,4341.025641025642,4249.2307692307695,4215.384615384616,4488.205128205129
1343.428,0.5743953,1.0,0.33333334,0.5522388,0,0.0,0.0,0.0,0.0,0.15814447,0,0,0.0,0.0,0,0,77.0,0.0,495.0,4642.564102564103,3918.461538461539,4481.025641025642,4408.717948717949,4230.769230769231,4536.923076923077,4425.128205128206,4387.6923076923085,4346.666666666667,4693.333333333334,4342.564102564103,4269.2307692307695,4244.615384615385,4593.333333333334
1343.6782,0.6287607,1.0,0.33333334,0.5522388,0,0.0,0.0,0.0,0.0,0.3484263,0,0,0.0,0.0,0,1,109.0,0.0,495.0,4632.307692307693,3912.820512820513,4510.256410256411,4392.307692307693,4225.641025641026,4533.846153846154,4471.282051282052,4503.589743589744,4396.923076923077,4715.8974358974365,4350.769230769231,4293.846153846154,4260.000000000001,4545.641025641026
1343.9283,0.6287607,1.0,0.33333334,0.5522388,0,0.0,0.0,0.0,0.0,0.3056689,0,0,0.0,0.0,0,0,12.0,0.0,51.0,4705.641025641026,4111.794871794872,4568.717948717949,4398.461538461539,4250.769230769231,4558.461538461539,4476.410256410257,4485.641025641026,4353.333333333334,4697.435897435898,4351.794871794872,4377.435897435898,4371.794871794872,4686.153846153847
1344.1786,0.5683056,1.0,0.33333334,0.5522388,0,0.0,0.0,0.0,0.0,0.45747873,0,0,0.0,0.0,0,0,44.0,0.0,0.0,4564.102564102564,3927.692307692308,4473.846153846154,4408.205128205129,4230.769230769231,4535.8974358974365,4464.615384615385,4440.000000000001,4346.666666666667,4661.025641025642,4324.615384615385,4216.923076923077,4161.538461538462,4663.076923076924
1344.4288,0.5683056,1.0,0.33333334,0.5522388,0,0.0,0.0,0.0,0.0,0.14665654,0,0,0.0,0.0,0,0,76.0,0.0,51.0,4571.794871794872,3928.717948717949,4461.538461538462,4412.307692307693,4249.74358974359,4557.948717948719,4471.794871794872,4441.025641025642,4358.974358974359,4674.358974358975,4325.128205128206,4210.256410256411,4121.025641025642,4586.153846153847
1344.6791,0.51481795,1.0,0.33333334,0.5522388,1,0.0,0.0,0.0,0.0,0.13568349,0,0,0.0,0.0,0,0,108.0,0.0,51.0,4618.461538461539,3971.2820512820517,4500.512820512821,4395.8974358974365,4247.179487179487,4554.871794871796,4461.025641025642,4457.948717948719,4374.871794871796,4700.512820512821,4335.8974358974365,4264.102564102564,4187.179487179487,4606.666666666667
1344.9292,0.51481795,1.0,0.33333334,0.5522388,0,0.0,0.0,0.0,0.0,0.114459954,0,0,0.0,0.0,0,0,11.0,0.0,467.0,4613.846153846154,3960.0000000000005,4507.6923076923085,4405.128205128206,4249.2307692307695,4556.923076923077,4456.410256410257,4435.8974358974365,4379.48717948718,4710.256410256411,4322.564102564103,4274.358974358975,4186.666666666667,4542.051282051282
1345.1794,0.46203098,1.0,0.33333334,0.5522388,0,0.0,0.0,0.0,0.0,0.20520659,0,0,0.0,0.0,0,0,43.0,0.0,0.0,4593.846153846154,3950.7692307692314,4499.48717948718,4410.769230769231,4251.282051282052,4553.333333333334,4441.025641025642,4422.564102564103,4363.076923076924,4717.435897435898,4320.512820512821,4257.948717948719,4152.820512820514,4480.000000000001
1345.4297,0.46203098,1.0,0.33333334,0.5522388,0,0.0,0.0,0.0,0.0,0.44689006,0,0,0.0,0.0,0,0,75.0,0.0,469.0,4566.666666666667,3925.1282051282055,4485.641025641026,4428.205128205129,4250.256410256411,4548.717948717949,4449.743589743591,4433.333333333334,4359.48717948718,4705.641025641026,4325.641025641026,4228.717948717949,4118.461538461539,4383.076923076924
1345.5548,0.46203098,1.0,0.33333334,0.5522388,0,0.0,0.0,0.0,0.0,0.4935948,0,0,0.0,0.0,0,0,91.0,0.0,469.0,4538.974358974359,3911.7948717948725,4473.333333333334,4425.641025641026,4255.384615384616,4548.205128205129,4453.846153846154,4411.794871794872,4353.846153846154,4677.948717948719,4320.000000000001,4197.435897435898,4074.8717948717954,4336.410256410257
1345.93,0.5269199,1.0,0.33333334,0.5522388,1,0.0,0.0,0.0,0.0,0.07634576,0,0,0.0,0.0,0,0,10.0,0.0,525.0,4585.641025641026,3928.205128205129,4505.641025641026,4422.051282051282,4249.2307692307695,4543.076923076924,4464.102564102564,4433.846153846154,4358.974358974359,4714.871794871796,4331.794871794872,4261.025641025642,4158.461538461539,4373.333333333334
1346.0552,0.5269199,1.0,0.33333334,0.5522388,0,0.0,0.0,0.0,0.0,0.0,0,0,0.0,0.0,0,0,26.0,0.0,0.0,4661.538461538462,3983.076923076924,4556.923076923077,4408.717948717949,4251.282051282052,4554.358974358975,4492.820512820514,4445.641025641026,4378.461538461539,4749.743589743591,4341.538461538462,4323.076923076924,4232.820512820514,4438.461538461539
1346.3367,0.58763516,1.0,0.33333334,0.5522388,0,0.0,0.0,0.0,0.0,0.0,0,0,0.0,0.0,0,0,62.0,0.0,0.0,4664.615384615386,4001.0256410256416,4596.923076923077,4425.641025641026,4263.589743589744,4556.410256410257,4489.743589743591,4446.153846153847,4379.48717948718,4779.48717948718,4346.153846153847,4328.205128205129,4216.410256410257,4458.974358974359
1346.3367,0.58763516,1.0,0.33333334,0.5522388,0,0.0,0.0,0.0,0.0,0.0,0,0,0.0,0.0,0,0,62.0,0.0,0.0,4664.615384615386,4001.0256410256416,4596.923076923077,4425.641025641026,4263.589743589744,4556.410256410257,4489.743589743591,4446.153846153847,4379.48717948718,4779.48717948718,4346.153846153847,4328.205128205129,4216.410256410257,4458.974358974359
1346.9309,0.5799388,1.0,0.33333334,0.5522388,0,0.0,0.0,0.0,0.0,0.3484993,0,0,0.0,0.0,0,0,9.0,0.0,481.0,4659.48717948718,3975.3846153846157,4630.256410256411,4438.461538461539,4260.512820512821,4554.358974358975,4468.205128205129,4433.333333333334,4367.6923076923085,4782.564102564103,4343.076923076924,4284.615384615385,4175.8974358974365,4303.589743589744
1347.1499,0.5799388,1.0,0.33333334,0.5522388,1,0.0,0.0,0.0,0.0,0.14701761,0,0,0.0,0.0,0,0,37.0,0.0,0.0,4683.589743589744,4016.410256410257,4634.871794871796,4441.025641025642,4265.128205128206,4558.461538461539,4464.102564102564,4415.8974358974365,4362.564102564103,4778.461538461539,4346.153846153847,4311.282051282052,4215.8974358974365,4284.615384615385
1347.4314,0.55598176,1.0,0.33333334,0.5522388,0,0.0,0.0,0.0,0.0,0.14084359,0,0,0.0,0.0,0,0,73.0,0.0,481.0,4652.820512820514,3956.9230769230776,4591.282051282052,4450.256410256411,4262.564102564103,4554.358974358975,4462.051282051282,4443.076923076924,4377.948717948719,4776.410256410257,4345.128205128206,4290.256410256411,4189.2307692307695,4280.512820512821
1347.5565,0.55598176,1.0,0.33333334,0.5522388,0,0.0,0.0,0.0,0.0,0.11470492,0,0,0.0,0.0,0,0,89.0,0.0,495.0,4637.435897435898,3945.6410256410263,4558.461538461539,4456.410256410257,4257.435897435898,4553.846153846154,4457.948717948719,4429.743589743591,4370.256410256411,4764.102564102564,4339.48717948718,4261.025641025642,4169.2307692307695,4281.025641025642
1347.9318,0.55705476,1.0,0.33333334,0.5522388,1,0.0,0.0,0.0,0.0,0.0,0,0,0.0,0.0,0,0,8.0,0.0,378.0,4666.153846153847,3952.820512820513,4554.871794871796,4444.102564102564,4248.717948717949,4552.307692307693,4458.461538461539,4417.948717948719,4358.974358974359,4773.846153846154,4349.743589743591,4313.333333333334,4247.6923076923085,4316.410256410257
1348.0256,0.55705476,1.0,0.33333334,0.5522388,0,0.0,0.0,0.0,0.0,0.0,0,0,0.0,0.0,0,0,20.0,0.0,0.0,4666.153846153847,3937.9487179487182,4558.461538461539,4442.564102564103,4262.564102564103,4563.589743589744,4514.358974358975,4516.410256410257,4393.333333333334,4792.820512820514,4355.8974358974365,4324.615384615385,4241.538461538462,4316.923076923077
1348.3071,0.60706794,1.0,0.33333334,0.5522388,0,0.0,0.0,0.0,0.0,0.08776989,0,0,0.0,0.0,0,0,56.0,0.0,0.0,4595.8974358974365,3943.076923076924,4483.589743589744,4436.923076923077,4247.6923076923085,4542.051282051282,4462.051282051282,4428.205128205129,4345.128205128206,4671.794871794872,4324.102564102564,4218.461538461539,4073.8461538461543,4230.256410256411
1348.5574,0.60706794,1.0,0.33333334,0.5522388,0,0.0,0.0,0.0,0.0,0.0,0,0,0.10975631,0.0,0,0,88.0,0.0,51.0,4601.538461538462,3942.0512820512827,4481.025641025642,4442.051282051282,4248.205128205129,4539.48717948718,4457.948717948719,4399.48717948718,4346.153846153847,4690.769230769231,4327.6923076923085,4235.384615384616,4106.153846153847,4280.000000000001
1348.8076,0.6191178,1.0,0.33333334,0.5522388,0,0.0,0.0,0.0,0.0,0.34306762,0,0,0.0,0.0,0,0,120.0,0.0,51.0,4608.717948717949,3964.615384615385,4487.6923076923085,4435.384615384616,4249.2307692307695,4548.205128205129,4455.384615384616,4411.282051282052,4351.282051282052,4690.256410256411,4333.333333333334,4248.717948717949,4108.717948717949,4318.974358974359
1349.0577,0.6191178,1.0,0.33333334,0.5522388,0,0.0,0.0,0.0,0.0,0.14562227,0,0,0.0,0.0,0,0,23.0,0.0,0.0,4621.538461538462,3949.2307692307695,4485.641025641026,4430.256410256411,4239.48717948718,4537.948717948719,4462.051282051282,4443.589743589744,4363.076923076924,4723.589743589744,4341.538461538462,4263.589743589744,4142.564102564103,4361.538461538462
1349.308,0.523542,1.0,0.33333334,0.5522388,0,0.0,0.0,0.0,0.0,0.26675072,0,0,0.0,0.0,0,0,55.0,0.0,0.0,4641.025641025642,3955.3846153846157,4503.589743589744,4429.2307692307695,4247.179487179487,4541.025641025642,4475.384615384616,4428.717948717949,4365.128205128206,4749.2307692307695,4346.666666666667,4302.564102564103,4217.435897435898,4414.358974358975
1349.5582,0.523542,1.0,0.33333334,0.5522388,0,0.0,0.0,0.0,0.0,0.15227126,0,0,0.0,0.0,0,0,87.0,0.0,473.0,4607.179487179488,3974.8717948717954,4491.282051282052,4439.48717948718,4256.923076923077,4553.333333333334,4459.48717948718,4412.820512820514,4348.717948717949,4702.051282051282,4343.589743589744,4260.000000000001,4128.205128205129,4377.435897435898
1349.8085,0.47202146,1.0,0.33333334,0.5522388,0,0.0,0.0,0.0,0.0,0.06346497,0,0,0.0,0.0,0,0,119.0,0.0,473.0,4622.051282051282,3967.692307692308,4504.615384615385,4453.333333333334,4264.615384615385,4562.051282051282,4480.512820512821,4449.2307692307695,4367.6923076923085,4751.794871794872,4354.871794871796,4286.153846153847,4160.512820512821,4407.179487179487
1350.0586,0.47202146,1.0,0.33333334,0.5522388,0,0.0,0.0,0.0,0.0,0.22191836,0,0,0.0,0.0,0,0,22.0,0.0,0.0,4615.8974358974365,3939.48717948718,4504.615384615385,4433.846153846154,4236.410256410257,4541.025641025642,4471.282051282052,4444.102564102564,4373.846153846154,4765.641025641026,4358.461538461539,4297.435897435898,4223.589743589744,4444.615384615385
1350.3088,0.4363517,0.91016555,0.33333334,0.5522388,0,0.0,0.0,0.0,0.0,0.071190104,0,0,0.0,0.0,0,0,54.0,0.0,0.0,4601.538461538462,3946.1538461538466,4493.333333333334,4431.282051282052,4237.435897435898,4537.948717948719,4459.48717948718,4424.615384615385,4367.6923076923085,4720.000000000001,4348.717948717949,4265.128205128206,4137.435897435898,4418.461538461539
1350.5591,0.4363517,0.91016555,0.33333334,0.5522388,0,0.0,0.0,0.0,0.0,0.03336937,0,0,0.0,0.0,0,0,86.0,0.0,525.0,4587.179487179488,3923.076923076924,4483.076923076924,4429.743589743591,4237.435897435898,4536.923076923077,4462.564102564103,4411.282051282052,4355.384615384616,4715.8974358974365,4346.666666666667,4248.717948717949,4127.6923076923085,4409.743589743591
1350.8093,0.40419418,0.8154158,0.33333334,0.5522388,0,0.0,0.0,0.0,0.0,0.1475001,0,0,0.0,0.0,0,0,118.0,0.0,525.0,4619.48717948718,3951.2820512820517,4505.641025641026,4438.461538461539,4241.025641025642,4537.948717948719,4462.051282051282,4428.717948717949,4380.000000000001,4747.6923076923085,4359.48717948718,4283.589743589744,4206.666666666667,4461.538461538462
1351.0596,0.40419418,0.8154158,0.33333334,0.5522388,0,0.0,0.0,0.0,0.0,0.05077294,0,0,0.0,0.0,0,0,21.0,0.0,0.0,4618.461538461539,3958.9743589743593,4505.128205128206,4444.615384615385,4249.2307692307695,4546.666666666667,4461.538461538462,4441.538461538462,4378.461538461539,4730.769230769231,4358.461538461539,4274.871794871796,4158.974358974359,4474.871794871796
1351.3097,0.3610134,0.7480793,0.33333334,0.5522388,0,0.0,0.0,0.0,0.0,0.053918343,0,0,0.0,0.0,0,0,53.0,0.0,0.0,4638.974358974359,3982.564102564103,4538.974358974359,4476.923076923077,4293.333333333334,4587.179487179488,4507.179487179488,4487.179487179488,4397.435897435898,4763.589743589744,4365.128205128206,4295.384615384616,4186.666666666667,4486.153846153847
1351.4348,0.3610134,0.7480793,0.33333334,0.5522388,0,0.0,0.0,0.0,0.0,0.0,0,0,0.0,0.0,0,0,69.0,0.0,552.0,4644.615384615385,3978.461538461539,4537.948717948719,4458.974358974359,4286.666666666667,4578.461538461539,4504.102564102564,4486.153846153847,4396.923076923077,4749.2307692307695,4366.153846153847,4296.923076923077,4183.076923076924,4463.076923076924
1351.8102,0.39271247,0.69338274,0.33333334,0.5522388,0,0.0,0.0,0.0,0.0,0.046473283,0,0,0.0,0.0,0,0,117.0,0.0,495.0,4644.615384615385,3986.1538461538466,4552.820512820514,4480.512820512821,4294.871794871796,4586.153846153847,4506.666666666667,4499.48717948718,4401.025641025642,4779.48717948718,4378.461538461539,4323.076923076924,4240.512820512821,4470.769230769231
1351.9353,0.39271247,0.69338274,0.33333334,0.5522388,0,0.0,0.0,0.0,0.0,0.0,0,0,0.0,0.0,0,0,4.0,0.0,556.0,4640.512820512821,3959.48717948718,4543.076923076924,4467.6923076923085,4272.307692307693,4568.205128205129,4494.871794871796,4490.256410256411,4406.666666666667,4768.205128205129,4371.282051282052,4308.205128205129,4230.769230769231,4461.538461538462
1352.2168,0.5241693,0.6741905,0.33333334,0.5522388,0,0.0,0.0,0.0,0.0,0.0,0,0,0.0,0.0,0,0,40.0,0.0,0.0,4653.846153846154,3974.358974358975,4540.512820512821,4449.2307692307695,4263.589743589744,4556.923076923077,4492.820512820514,4489.743589743591,4406.666666666667,4756.410256410257,4372.307692307693,4310.256410256411,4236.410256410257,4494.358974358975
1352.5608,0.5241693,0.6741905,0.33333334,0.5522388,0,0.0,0.0,0.0,0.0,0.16938323,0,0,0.0,0.0,1,0,84.0,0.0,51.0,4622.051282051282,3968.717948717949,4523.589743589744,4444.615384615385,4265.641025641026,4555.384615384616,4476.410256410257,4460.000000000001,4388.205128205129,4718.974358974359,4363.589743589744,4281.025641025642,4187.6923076923085,4506.666666666667
1352.8423,0.49144045,0.66897213,0.33333334,0.5522388,0,0.0,0.0,0.0,0.0,0.14153896,0,0,0.0,0.0,0,0,120.0,0.0,51.0,4629.743589743591,3959.48717948718,4523.076923076924,4433.846153846154,4247.6923076923085,4540.000000000001,4474.871794871796,4473.846153846154,4392.307692307693,4732.307692307693,4365.128205128206,4295.384615384616,4216.410256410257,4537.435897435898
1353.0613,0.49144045,0.66897213,0.33333334,0.5522388,0,0.0,0.0,0.0,0.0,0.13707057,0,0,0.0,0.0,0,0,19.0,0.0,0.0,4626.666666666667,3942.564102564103,4511.794871794872,4427.179487179487,4233.846153846154,4535.384615384616,4458.461538461539,4447.179487179487,4384.102564102564,4716.410256410257,4362.564102564103,4280.000000000001,4219.48717948718,4540.512820512821
1353.3114,0.42784452,0.6802685,0.33333334,0.5522388,0,0.0,0.0,0.0,0.0,0.26049018,0,0,0.0,0.0,0,0,51.0,0.0,0.0,4599.48717948718,3974.8717948717954,4496.923076923077,4424.615384615385,4245.641025641026,4538.974358974359,4447.179487179487,4425.128205128206,4356.923076923077,4653.846153846154,4345.128205128206,4231.282051282052,4106.153846153847,4441.538461538462
1353.5616,0.42784452,0.6802685,0.33333334,0.5522388,0,0.0,0.0,0.0,0.0,0.43790683,0,0,0.0,0.0,0,0,83.0,0.0,473.0,4597.948717948719,3974.358974358975,4493.846153846154,4419.48717948718,4234.358974358975,4526.666666666667,4429.743589743591,4399.48717948718,4353.846153846154,4643.076923076924,4338.461538461539,4227.6923076923085,4120.512820512821,4429.743589743591
1353.8744,0.45240915,0.62817186,0.33333334,0.5522388,0,0.0,0.0,0.0,0.0,0.37219638,0,1,0.0,0.0,0,0,123.0,0.0,473.0,4603.076923076924,3908.205128205129,4496.410256410257,4426.666666666667,4231.794871794872,4524.615384615385,4457.435897435898,4435.8974358974365,4371.282051282052,4727.6923076923085,4355.8974358974365,4262.564102564103,4252.307692307693,4521.025641025642
1354.0621,0.45240915,0.62817186,0.33333334,0.5522388,0,0.0,0.0,0.0,0.0,0.5560192,0,1,0.0,0.0,0,0,18.0,0.0,0.0,4598.974358974359,3894.358974358975,4507.6923076923085,4417.435897435898,4229.2307692307695,4526.153846153847,4460.512820512821,4449.2307692307695,4382.564102564103,4732.307692307693,4358.461538461539,4278.461538461539,4254.358974358975,4551.794871794872
1354.3123,0.45692995,0.6003597,0.33333334,0.5522388,0,0.0,0.0,0.0,0.0,0.4785423,0,1,0.0,0.0,0,0,50.0,0.0,0.0,4608.205128205129,3878.9743589743593,4495.384615384616,4429.2307692307695,4230.769230769231,4523.076923076924,4451.794871794872,4423.076923076924,4375.8974358974365,4722.564102564103,4353.333333333334,4263.076923076924,4244.102564102564,4577.948717948719
1354.5625,0.45692995,0.6003597,0.33333334,0.5522388,0,0.0,0.0,0.0,0.0,0.21564832,0,1,0.0,0.0,0,0,82.0,0.0,525.0,4584.102564102564,3902.564102564103,4496.923076923077,4429.743589743591,4234.358974358975,4525.128205128206,4458.461538461539,4434.358974358975,4382.051282051282,4705.128205128206,4350.769230769231,4242.051282051282,4180.000000000001,4524.102564102564
1354.8127,0.46190786,0.54655546,0.33333334,0.5522388,0,0.0,0.0,0.0,0.0,0.31271818,0,1,0.0,0.0,0,0,114.0,0.0,525.0,4582.564102564103,3910.2564102564106,4498.461538461539,4428.205128205129,4233.333333333334,4524.615384615385,4442.564102564103,4424.102564102564,4363.589743589744,4697.435897435898,4348.717948717949,4248.205128205129,4186.666666666667,4522.051282051282
1355.063,0.46190786,0.54655546,0.33333334,0.5522388,0,0.0,0.0,0.0,0.0,0.101702504,0,0,0.0,0.0,0,0,17.0,0.0,0.0,4634.871794871796,3943.076923076924,4533.846153846154,4429.2307692307695,4248.205128205129,4538.974358974359,4472.820512820514,4475.8974358974365,4383.589743589744,4717.435897435898,4357.435897435898,4293.846153846154,4220.000000000001,4560.000000000001
1355.3131,0.490062,0.5029272,0.33333334,0.5522388,0,0.0,0.0,0.0,0.0,0.24274063,0,0,0.0,0.0,0,0,49.0,0.0,0.0,4588.717948717949,3958.461538461539,4492.307692307693,4424.615384615385,4234.358974358975,4524.102564102564,4426.666666666667,4412.820512820514,4341.025641025642,4625.641025641026,4345.128205128206,4209.2307692307695,4077.435897435898,4457.435897435898
1355.6572,0.490062,0.5029272,0.33333334,0.5522388,1,0.0,0.0,0.0,0.0,0.35667968,0,0,0.0,0.0,0,0,93.0,0.0,495.0,4662.051282051282,3966.666666666667,4535.384615384616,4444.615384615385,4251.794871794872,4542.564102564103,4474.358974358975,4480.000000000001,4386.153846153847,4734.358974358975,4361.025641025642,4293.333333333334,4231.282051282052,4508.205128205129
1355.8136,0.46410364,0.48665023,0.33333334,0.5522388,0,0.0,0.0,0.0,0.0,0.10990095,0,0,0.0,0.0,0,0,113.0,0.0,495.0,4656.923076923077,3956.9230769230776,4531.282051282052,4438.461538461539,4244.615384615385,4540.000000000001,4462.051282051282,4467.6923076923085,4386.666666666667,4727.6923076923085,4362.051282051282,4287.6923076923085,4215.8974358974365,4491.282051282052
1356.0638,0.46410364,0.48665023,0.33333334,0.5522388,0,0.0,0.0,0.0,0.0,0.0732352,0,1,0.0,0.0,0,0,16.0,0.0,0.0,4659.48717948718,3912.307692307693,4533.333333333334,4429.743589743591,4233.846153846154,4523.589743589744,4461.025641025642,4491.282051282052,4396.410256410257,4786.153846153847,4368.717948717949,4324.102564102564,4333.333333333334,4506.666666666667
1356.3141,0.37696877,0.47836587,0.33333334,0.5522388,0,0.0,0.0,0.0,0.0,0.039459053,0,1,0.0,0.0,0,0,48.0,0.0,0.0,4663.076923076924,3931.2820512820517,4543.076923076924,4466.666666666667,4273.846153846154,4573.846153846154,4503.076923076924,4510.256410256411,4412.820512820514,4786.666666666667,4372.820512820514,4316.410256410257,4284.615384615385,4521.025641025642
1356.6268,0.37696877,0.47836587,0.33333334,0.5522388,0,0.0,0.0,0.0,0.0,0.2287149,0,0,0.0,0.0,0,0,88.0,0.0,51.0,4669.743589743591,3957.9487179487182,4528.717948717949,4427.179487179487,4232.820512820514,4527.179487179488,4457.435897435898,4474.358974358975,4387.6923076923085,4732.820512820514,4362.564102564103,4303.076923076924,4246.666666666667,4565.128205128206
1356.8145,0.39897957,0.5149855,0.33333334,0.5522388,0,0.0,0.0,0.0,0.0,0.33062467,0,0,0.0,0.0,0,0,112.0,0.0,51.0,4651.794871794872,3961.538461538462,4527.179487179488,4429.2307692307695,4232.820512820514,4520.512820512821,4446.666666666667,4454.358974358975,4372.820512820514,4705.128205128206,4357.948717948719,4282.051282051282,4215.384615384616,4616.410256410257
1357.0647,0.39897957,0.5149855,0.33333334,0.5522388,0,0.0,0.0,0.0,0.0,1.0,0,0,0.0,0.0,0,0,15.0,0.0,470.0,4642.051282051282,3972.820512820513,4532.307692307693,4446.666666666667,4249.2307692307695,4546.666666666667,4473.333333333334,4458.461538461539,4380.000000000001,4709.2307692307695,4358.461538461539,4264.102564102564,4182.051282051282,4741.025641025642
1357.3774,0.30974966,0.5321656,0.33333334,0.5522388,0,0.0,0.0,0.0,0.0,1.0,0,0,0.0,0.0,0,1,55.0,0.0,0.0,4603.076923076924,3926.666666666667,4491.794871794872,4448.205128205129,4233.333333333334,4526.153846153847,4440.000000000001,4405.128205128206,4358.974358974359,4678.461538461539,4351.282051282052,4216.410256410257,4116.923076923077,4853.333333333334
1357.6589,0.30974966,0.5321656,0.33333334,0.5522388,0,0.0,0.0,0.0,0.0,1.0,0,0,0.0,0.0,0,0,91.0,0.0,463.0,4600.512820512821,3925.6410256410263,4498.974358974359,4454.358974358975,4232.820512820514,4531.282051282052,4443.589743589744,4426.666666666667,4369.2307692307695,4690.256410256411,4352.307692307693,4217.948717948719,4121.025641025642,4894.358974358975
1357.8153,0.42975357,0.51443857,0.33333334,0.5522388,0,0.0,0.0,0.0,0.0,0.33832297,0,0,0.0,0.0,0,0,111.0,0.0,463.0,4605.128205128206,3925.1282051282055,4501.538461538462,4449.743589743591,4250.256410256411,4542.051282051282,4445.128205128206,4423.589743589744,4366.666666666667,4677.435897435898,4346.666666666667,4216.923076923077,4131.794871794872,4875.384615384616
1358.0656,0.42975357,0.51443857,0.33333334,0.5522388,0,0.0,0.0,0.0,0.0,0.37290087,0,0,0.0,0.0,0,0,14.0,0.0,525.0,4694.871794871796,4001.538461538462,4557.948717948719,4457.948717948719,4266.153846153847,4560.512820512821,4483.076923076924,4466.153846153847,4394.871794871796,4735.384615384616,4365.128205128206,4307.179487179487,4221.538461538462,4908.717948717949
1358.2219,0.4597718,0.52038705,0.33333334,0.5522388,0,0.0,0.0,0.0,0.0,0.0,0,0,0.0,0.0,0,0,34.0,0.0,0.0,4746.666666666667,4066.666666666667,4615.384615384616,4506.666666666667,4329.743589743591,4627.6923076923085,4536.923076923077,4505.641025641026,4414.358974358975,4800.512820512821,4384.615384615385,4368.717948717949,4298.974358974359,4907.6923076923085
1358.4408,0.4597718,0.52038705,0.33333334,0.5522388,0,0.0,0.0,0.0,0.0,1.0,0,0,0.0,0.0,0,0,62.0,0.0,0.0,4729.743589743591,4035.3846153846157,4609.743589743591,4489.743589743591,4311.794871794872,4604.615384615385,4521.025641025642,4508.205128205129,4415.384615384616,4785.128205128206,4385.128205128206,4358.974358974359,4270.256410256411,4814.871794871796
1358.8162,0.61459917,0.5252546,0.33333334,0.5522388,0,0.0,0.0,0.0,0.0,0.8612067,0,0,0.0,0.0,0,0,110.0,0.0,525.0,4680.000000000001,3986.1538461538466,4568.717948717949,4472.820512820514,4280.512820512821,4580.000000000001,4492.307692307693,4456.410256410257,4395.384615384616,4751.282051282052,4371.282051282052,4309.2307692307695,4238.461538461539,4698.974358974359
1359.0664,0.61459917,0.5252546,0.33333334,0.5522388,0,0.0,0.0,0.0,0.0,0.4187315,0,0,0.0,0.0,0,0,13.0,0.0,495.0,4627.179487179488,3931.7948717948725,4536.923076923077,4474.358974358975,4270.256410256411,4570.769230769231,4492.820512820514,4462.564102564103,4398.461538461539,4749.2307692307695,4367.6923076923085,4273.846153846154,4228.717948717949,4641.025641025642
1359.3167,0.62907976,0.5285974,0.33333334,0.5522388,0,0.0,0.0,0.0,0.0,0.1791962,0,0,0.0,0.0,0,0,45.0,0.0,0.0,4673.846153846154,3995.3846153846157,4555.384615384616,4459.48717948718,4267.6923076923085,4570.256410256411,4489.2307692307695,4451.282051282052,4393.333333333334,4736.923076923077,4367.6923076923085,4302.051282051282,4240.000000000001,4647.6923076923085
1359.5668,0.62907976,0.5285974,0.33333334,0.5522388,0,0.0,0.0,0.0,0.0,0.53656137,0,0,0.0,0.0,0,0,77.0,0.0,495.0,4651.282051282052,3970.2564102564106,4537.435897435898,4451.794871794872,4260.000000000001,4556.410256410257,4476.410256410257,4458.461538461539,4391.282051282052,4721.025641025642,4358.461538461539,4280.000000000001,4202.564102564103,4567.179487179488
1359.817,0.5770226,0.54712474,0.33333334,0.5522388,0,0.0,0.0,0.0,0.0,0.38112494,0,0,0.0,0.0,0,0,109.0,0.0,495.0,4670.256410256411,3975.3846153846157,4537.435897435898,4455.8974358974365,4250.769230769231,4552.307692307693,4465.641025641026,4462.051282051282,4398.461538461539,4729.2307692307695,4362.564102564103,4286.153846153847,4219.48717948718,4553.846153846154
1360.0673,0.5770226,0.54712474,0.33333334,0.5522388,0,0.0,0.0,0.0,0.0,0.0,0,0,0.0,0.0,0,0,12.0,0.0,51.0,4657.435897435898,3959.48717948718,4516.410256410257,4445.128205128206,4247.179487179487,4550.256410256411,4444.615384615385,4443.076923076924,4386.153846153847,4729.743589743591,4356.923076923077,4284.615384615385,4229.74358974359,4528.717948717949
1360.2236,0.56814414,0.50760835,0.33333334,0.5522388,0,0.0,0.0,0.0,0.0,0.0,0,0,0.0,0.0,0,0,32.0,0.0,0.0,4654.871794871796,3958.461538461539,4517.435897435898,4440.000000000001,4247.6923076923085,4543.076923076924,4461.538461538462,4445.128205128206,4370.769230769231,4710.769230769231,4353.846153846154,4268.205128205129,4214.358974358975,4508.717948717949
1360.5676,0.56814414,0.50760835,0.33333334,0.5522388,0,0.0,0.0,0.0,0.0,0.055722184,0,0,0.0,0.0,0,0,76.0,0.0,51.0,4653.333333333334,3962.564102564103,4533.846153846154,4442.051282051282,4255.384615384616,4553.846153846154,4456.410256410257,4442.564102564103,4377.435897435898,4707.6923076923085,4352.820512820514,4282.564102564103,4209.74358974359,4516.410256410257
1360.8179,0.504821,0.48203504,0.33333334,0.5522388,0,0.0,0.0,0.0,0.0,0.11478695,0,0,0.0,0.0,0,0,108.0,0.0,51.0,4642.564102564103,3929.2307692307695,4525.641025641026,4464.615384615385,4266.153846153847,4565.128205128206,4476.410256410257,4474.871794871796,4400.000000000001,4756.410256410257,4359.48717948718,4280.000000000001,4237.948717948719,4465.128205128206
1361.0681,0.504821,0.48203504,0.33333334,0.5522388,0,0.0,0.0,0.0,0.0,0.6304008,0,0,0.0,0.0,0,0,11.0,0.0,470.0,4613.333333333334,3926.666666666667,4508.717948717949,4456.923076923077,4250.256410256411,4550.769230769231,4458.461538461539,4445.641025641026,4388.205128205129,4715.384615384616,4350.769230769231,4247.6923076923085,4195.8974358974365,4383.076923076924
1361.3184,0.47807246,0.4671579,0.33333334,0.5522388,0,0.0,0.0,0.0,0.0,0.4291612,0,0,0.0,0.0,0,0,43.0,0.0,0.0,4605.641025641026,3927.692307692308,4514.358974358975,4458.461538461539,4258.461538461539,4553.846153846154,4458.461538461539,4432.820512820514,4384.615384615385,4703.076923076924,4347.6923076923085,4234.358974358975,4166.666666666667,4388.717948717949
1361.6624,0.47807246,0.4671579,0.33333334,0.5522388,0,0.0,0.0,0.0,0.0,0.0,0,0,0.0,0.0,1,0,87.0,0.0,470.0,4598.974358974359,3993.8461538461543,4486.666666666667,4448.205128205129,4245.641025641026,4537.948717948719,4430.769230769231,4396.923076923077,4348.717948717949,4635.384615384616,4330.256410256411,4190.256410256411,4064.1025641025644,4402.051282051282
1361.8187,0.35816365,0.48696187,0.33333334,0.5522388,0,0.0,0.0,0.0,0.0,0.1922011,0,0,0.0,0.0,1,0,107.0,0.0,470.0,4566.153846153847,3936.9230769230776,4477.948717948719,4446.666666666667,4237.948717948719,4536.923076923077,4425.128205128206,4388.717948717949,4352.307692307693,4648.717948717949,4325.128205128206,4180.512820512821,4045.6410256410263,4354.871794871796
1362.069,0.35816365,0.48696187,0.33333334,0.5522388,0,0.0,0.0,0.0,0.0,0.15865405,0,0,0.0,0.0,0,0,10.0,0.0,525.0,4602.051282051282,3961.0256410256416,4503.076923076924,4443.076923076924,4248.717948717949,4541.025641025642,4443.076923076924,4410.256410256411,4355.8974358974365,4649.2307692307695,4335.384615384616,4218.461538461539,4089.7435897435903,4375.384615384616
1362.3192,0.40999454,0.53186214,0.33333334,0.5522388,0,0.0,0.0,0.0,0.0,0.06411008,0,0,0.0,0.0,0,0,42.0,0.0,0.0,4600.512820512821,3941.0256410256416,4497.948717948719,4435.8974358974365,4240.000000000001,4537.435897435898,4442.051282051282,4410.769230769231,4368.717948717949,4681.538461538462,4333.846153846154,4231.794871794872,4135.8974358974365,4367.6923076923085
1362.5695,0.40999454,0.53186214,0.33333334,0.5522388,0,0.0,0.0,0.0,0.0,0.0,0,0,0.0,0.0,0,0,74.0,0.0,525.0,4598.974358974359,3951.7948717948725,4507.179487179488,4448.205128205129,4246.666666666667,4539.48717948718,4444.615384615385,4415.8974358974365,4365.641025641026,4715.8974358974365,4341.538461538462,4249.2307692307695,4161.538461538462,4341.025641025642
1362.7258,0.39497888,0.5481473,0.33333334,0.5522388,0,0.0,0.0,0.0,0.0,0.0,0,0,0.0,0.0,0,0,94.0,0.0,525.0,4601.538461538462,3927.692307692308,4503.589743589744,4444.102564102564,4233.333333333334,4525.128205128206,4443.589743589744,4436.410256410257,4365.128205128206,4717.948717948719,4337.435897435898,4237.435897435898,4154.358974358975,4321.538461538462
1363.0698,0.39497888,0.5481473,0.33333334,0.5522388,1,0.0,0.0,0.0,0.0,0.271039,0,0,0.0,0.0,0,0,9.0,0.0,481.0,4677.435897435898,3972.820512820513,4538.461538461539,4433.333333333334,4232.307692307693,4536.923076923077,4457.948717948719,4456.410256410257,4381.538461538462,4727.6923076923085,4347.6923076923085,4309.743589743591,4248.717948717949,4409.743589743591
1363.3201,0.49064153,0.60706747,0.33333334,0.5522388,0,0.0,0.0,0.0,0.0,0.0,0,0,0.0,0.0,0,0,41.0,0.0,0.0,4586.666666666667,3913.333333333334,4491.282051282052,4437.948717948719,4235.8974358974365,4538.461538461539,4448.717948717949,4445.128205128206,4369.743589743591,4690.769230769231,4335.384615384616,4218.974358974359,4125.641025641026,4345.641025641026
1363.4764,0.49064153,0.60706747,0.33333334,0.5522388,0,0.0,0.0,0.0,0.0,0.0,0,0,0.0,0.0,0,1,61.0,0.0,0.0,4630.769230769231,3935.3846153846157,4508.205128205129,4424.102564102564,4236.923076923077,4537.435897435898,4473.333333333334,4465.641025641026,4377.435897435898,4698.461538461539,4344.615384615385,4256.923076923077,4187.179487179487,4427.6923076923085
1363.7579,0.45245844,0.6160102,0.33333334,0.5522388,0,0.0,0.0,0.0,0.0,0.0,0,0,0.0,0.0,0,0,97.0,0.0,495.0,4653.846153846154,3973.333333333334,4521.025641025642,4410.256410256411,4230.769230769231,4532.820512820514,4455.8974358974365,4433.846153846154,4367.6923076923085,4686.666666666667,4340.512820512821,4265.641025641026,4165.128205128206,4474.358974358975
1364.0707,0.45245844,0.6160102,0.33333334,0.5522388,0,0.0,0.0,0.0,0.0,0.24144612,0,0,0.0,0.0,0,0,8.0,0.0,378.0,4598.461538461539,3928.717948717949,4509.2307692307695,4406.153846153847,4237.435897435898,4534.871794871796,4445.128205128206,4428.717948717949,4371.282051282052,4684.615384615386,4335.384615384616,4230.769230769231,4120.512820512821,4428.205128205129
1364.3209,0.44857144,0.6350779,0.33333334,0.5522388,0,0.0,0.0,0.0,0.0,0.16961357,0,0,0.0,0.0,0,0,40.0,0.0,0.0,4628.205128205129,3971.2820512820517,4515.384615384616,4394.871794871796,4237.435897435898,4539.48717948718,4449.743589743591,4417.948717948719,4362.051282051282,4670.769230769231,4332.820512820514,4243.076923076924,4122.564102564103,4428.717948717949
1364.5712,0.44857144,0.6350779,0.33333334,0.5522388,0,0.0,0.0,0.0,0.0,0.098466165,0,0,0.0,0.0,0,0,72.0,0.0,378.0,4624.102564102564,3977.9487179487182,4509.2307692307695,4402.051282051282,4235.384615384616,4537.948717948719,4442.564102564103,4399.48717948718,4356.410256410257,4666.666666666667,4332.307692307693,4235.8974358974365,4121.538461538462,4413.333333333334
1364.8213,0.35303158,0.75859183,0.33333334,0.5522388,0,0.0,0.0,0.0,0.0,0.14439988,0,0,0.0,0.0,0,0,104.0,0.0,51.0,4599.48717948718,3913.333333333334,4501.538461538462,4405.641025641026,4240.000000000001,4537.435897435898,4448.205128205129,4433.846153846154,4387.179487179487,4711.282051282052,4339.48717948718,4229.2307692307695,4143.589743589744,4398.461538461539
1365.0715,0.35303158,0.75859183,0.33333334,0.5522388,0,0.0,0.0,0.0,0.0,0.26213256,0,0,0.0,0.0,0,0,7.0,0.0,467.0,4609.743589743591,3927.1794871794878,4496.923076923077,4408.205128205129,4233.333333333334,4538.974358974359,4460.000000000001,4414.358974358975,4365.641025641026,4703.589743589744,4338.974358974359,4232.307692307693,4156.410256410257,4448.205128205129
1365.3218,0.29696774,0.7601938,0.33333334,0.5522388,0,0.0,0.0,0.0,0.0,0.2475504,0,0,0.0,0.0,0,0,39.0,0.0,0.0,4571.794871794872,3908.717948717949,4472.307692307693,4421.538461538462,4231.282051282052,4526.666666666667,4438.974358974359,4404.615384615385,4364.102564102564,4695.8974358974365,4334.871794871796,4212.307692307693,4137.435897435898,4396.410256410257
1365.572,0.29696774,0.7601938,0.33333334,0.5522388,0,0.0,0.0,0.0,0.0,0.13054496,0,0,0.0,0.0,0,0,71.0,0.0,467.0,4634.358974358975,3898.9743589743593,4511.282051282052,4418.974358974359,4233.333333333334,4536.410256410257,4474.871794871796,4463.589743589744,4400.000000000001,4787.6923076923085,4356.410256410257,4295.384615384616,4289.74358974359,4453.333333333334
1365.8221,0.33366388,0.7432953,0.33333334,0.5522388,0,0.0,0.0,0.0,0.0,0.11828328,1,0,0.0,0.0,0,0,103.0,0.0,471.0,4633.846153846154,3995.3846153846157,4516.923076923077,4428.717948717949,4248.205128205129,4540.512820512821,4453.333333333334,4420.512820512821,4372.820512820514,4688.717948717949,4342.051282051282,4261.025641025642,4142.051282051282,4416.410256410257
1366.0724,0.33366388,0.7432953,0.33333334,0.5522388,0,0.0,0.0,0.0,0.0,0.094442904,1,0,0.0,0.0,0,0,6.0,0.0,548.0,4639.48717948718,3994.8717948717954,4513.846153846154,4420.512820512821,4236.923076923077,4536.923076923077,4444.102564102564,4407.6923076923085,4367.6923076923085,4674.871794871796,4337.948717948719,4248.205128205129,4138.974358974359,4395.8974358974365
1366.4165,0.2675959,0.74951035,0.33333334,0.5522388,1,0.0,0.0,0.0,0.0,0.16728052,0,0,0.0,0.0,0,0,50.0,0.0,0.0,4647.179487179488,4012.820512820513,4520.512820512821,4426.153846153847,4238.974358974359,4541.538461538462,4440.000000000001,4395.384615384616,4369.2307692307695,4685.641025641026,4336.923076923077,4263.589743589744,4166.666666666667,4413.333333333334
1366.5729,0.2675959,0.74951035,0.33333334,0.5522388,0,0.0,0.0,0.0,0.0,0.1672778,0,0,0.0,0.0,0,0,70.0,0.0,548.0,4628.717948717949,3972.820512820513,4524.102564102564,4430.256410256411,4247.179487179487,4539.48717948718,4461.025641025642,4417.948717948719,4371.282051282052,4697.435897435898,4341.538461538462,4255.8974358974365,4165.641025641026,4396.410256410257
1366.823,0.24485627,0.7573036,0.33333334,0.5522388,0,0.0,0.0,0.0,0.0,0.1474695,0,0,0.0,0.0,0,0,102.0,0.0,525.0,4632.820512820514,3968.205128205129,4524.615384615385,4443.589743589744,4250.769230769231,4546.666666666667,4457.435897435898,4402.564102564103,4364.102564102564,4698.974358974359,4334.358974358975,4256.410256410257,4153.333333333334,4403.076923076924
1367.0732,0.24485627,0.7573036,0.33333334,0.5522388,0,0.0,0.0,0.0,0.0,0.09246806,0,0,0.0,0.0,0,0,5.0,0.0,552.0,4585.641025641026,3928.717948717949,4499.48717948718,4455.384615384616,4245.128205128206,4540.000000000001,4447.179487179487,4428.205128205129,4376.923076923077,4713.333333333334,4335.8974358974365,4223.589743589744,4138.461538461539,4367.179487179487
1367.3235,0.18955873,0.77059484,0.33333334,0.5522388,0,0.0,0.0,0.0,0.0,0.39692718,0,0,0.0,0.0,0,1,37.0,0.0,0.0,4625.128205128206,3961.0256410256416,4523.076923076924,4440.512820512821,4247.179487179487,4541.025641025642,4445.128205128206,4424.102564102564,4366.666666666667,4703.589743589744,4336.410256410257,4255.384615384616,4155.8974358974365,4462.051282051282
1367.6362,0.18955873,0.77059484,0.33333334,0.5522388,0,0.0,0.0,0.0,0.0,0.6065262,0,0,0.0,0.0,0,0,77.0,0.0,495.0,4609.2307692307695,3953.333333333334,4522.564102564103,4443.589743589744,4247.6923076923085,4540.512820512821,4448.717948717949,4430.769230769231,4363.076923076924,4689.743589743591,4335.384615384616,4251.282051282052,4151.282051282052,4479.48717948718
1367.9177,0.124763854,0.78068626,0.33333334,0.5522388,1,0.0,0.0,0.0,0.0,0.16489542,0,0,0.0,0.0,0,0,113.0,0.0,495.0,4597.948717948719,3953.8461538461543,4503.589743589744,4441.025641025642,4248.717948717949,4544.102564102564,4442.051282051282,4407.179487179487,4360.000000000001,4676.923076923077,4330.769230769231,4232.307692307693,4148.717948717949,4473.333333333334
1368.0741,0.124763854,0.78068626,0.33333334,0.5522388,0,0.0,0.0,0.0,0.0,0.15892841,0,0,0.0,0.0,0,0,4.0,0.0,556.0,4591.794871794872,3918.9743589743593,4503.076923076924,4449.743589743591,4243.589743589744,4538.974358974359,4446.666666666667,4429.743589743591,4362.051282051282,4688.717948717949,4330.769230769231,4230.769230769231,4151.282051282052,4458.974358974359
1368.3243,0.14446236,0.8507904,0.33333334,0.5522388,0,0.0,0.0,0.0,0.0,0.11866063,0,0,0.0,0.0,0,0,36.0,0.0,0.0,4591.794871794872,3904.615384615385,4502.051282051282,4443.076923076924,4248.205128205129,4541.025641025642,4462.051282051282,4444.102564102564,4370.769230769231,4704.102564102564,4335.384615384616,4229.74358974359,4149.2307692307695,4474.871794871796
1368.6683,0.14446236,0.8507904,0.33333334,0.5522388,0,0.0,0.0,0.0,0.0,0.35696277,0,0,0.0,0.0,0,0,80.0,0.0,51.0,4619.48717948718,3925.6410256410263,4516.410256410257,4442.051282051282,4243.589743589744,4538.974358974359,4457.948717948719,4462.051282051282,4380.000000000001,4718.461538461539,4333.846153846154,4250.256410256411,4172.307692307693,4552.820512820514
1368.8248,0.16580261,0.9963196,0.33333334,0.5522388,0,0.0,0.0,0.0,0.0,0.12555924,0,0,0.0,0.0,0,0,100.0,0.0,51.0,4633.333333333334,3945.1282051282055,4524.615384615385,4444.615384615385,4248.205128205129,4544.615384615385,4455.8974358974365,4458.974358974359,4374.871794871796,4727.6923076923085,4334.358974358975,4250.769230769231,4162.051282051282,4586.153846153847
1369.075,0.16580261,0.9963196,0.33333334,0.5522388,0,0.0,0.0,0.0,0.0,0.13400568,0,0,0.0,0.0,0,0,3.0,0.0,503.0,4628.205128205129,3944.615384615385,4549.2307692307695,4451.282051282052,4247.179487179487,4540.512820512821,4442.051282051282,4458.974358974359,4382.051282051282,4756.923076923077,4340.000000000001,4247.6923076923085,4171.794871794872,4605.128205128206
1369.3564,0.19366851,1.0,0.33333334,0.5522388,1,0.0,0.0,0.0,0.0,0.13179195,0,0,0.0,0.0,0,0,39.0,0.0,0.0,4666.666666666667,3992.307692307693,4611.794871794872,4455.384615384616,4248.717948717949,4552.307692307693,4430.256410256411,4445.128205128206,4381.538461538462,4768.205128205129,4343.076923076924,4247.6923076923085,4174.358974358975,4662.051282051282
1369.5754,0.19366851,1.0,0.33333334,0.5522388,0,0.0,0.0,0.0,0.0,0.16102985,0,0,0.0,0.0,0,0,67.0,0.0,503.0,4657.948717948719,3958.9743589743593,4625.641025641026,4453.846153846154,4248.717948717949,4551.282051282052,4427.6923076923085,4432.307692307693,4383.589743589744,4778.461538461539,4342.051282051282,4232.820512820514,4170.256410256411,4618.974358974359
1369.8257,0.22208661,1.0,0.33333334,0.5522388,0,0.0,0.0,0.0,0.0,0.34533232,0,0,0.0,0.0,0,0,99.0,0.0,472.0,4675.384615384616,3967.692307692308,4643.076923076924,4460.000000000001,4250.256410256411,4552.307692307693,4429.2307692307695,4430.256410256411,4394.358974358975,4769.2307692307695,4344.102564102564,4252.307692307693,4198.974358974359,4575.384615384616
1370.0758,0.22208661,1.0,0.33333334,0.5522388,0,0.0,0.0,0.0,0.0,1.0,0,0,0.0,0.0,0,0,2.0,0.0,456.0,4652.307692307693,3951.2820512820517,4616.410256410257,4446.666666666667,4247.179487179487,4543.589743589744,4426.666666666667,4411.794871794872,4372.307692307693,4742.051282051282,4341.025641025642,4233.333333333334,4174.871794871796,4501.538461538462
1370.326,0.23352282,1.0,0.33333334,0.5522388,0,0.0,0.0,0.0,0.0,0.16697037,0,0,0.0,0.0,0,0,34.0,0.0,0.0,4631.794871794872,3938.9743589743593,4584.102564102564,4441.025641025642,4240.000000000001,4541.025641025642,4428.205128205129,4405.128205128206,4369.743589743591,4717.948717948719,4334.358974358975,4221.025641025642,4165.641025641026,4488.717948717949
1370.5763,0.23352282,1.0,0.33333334,0.5522388,0,0.0,0.0,0.0,0.0,0.106230274,0,0,0.0,0.0,0,0,66.0,0.0,456.0,4635.384615384616,3941.538461538462,4567.6923076923085,4442.564102564103,4244.615384615385,4550.256410256411,4443.076923076924,4414.358974358975,4380.512820512821,4720.000000000001,4345.128205128206,4247.6923076923085,4189.74358974359,4461.025641025642
1370.8265,0.19941351,1.0,0.33333334,0.5522388,0,0.0,0.0,0.0,0.0,0.67238593,0,0,0.0,0.0,0,0,98.0,0.0,525.0,4628.717948717949,3934.358974358975,4533.846153846154,4438.974358974359,4233.846153846154,4537.948717948719,4431.282051282052,4380.512820512821,4377.435897435898,4693.846153846154,4335.384615384616,4243.076923076924,4168.205128205129,4396.410256410257
1371.0688,0.19941351,1.0,0.33333334,0.5522388,0,0.0,0.0,0.0,0.0,0.2075089,0,0,0.0,0.0,0,0,1.0,0.0,427.0,4597.435897435898,3930.2564102564106,4504.102564102564,4443.589743589744,4246.153846153847,4540.512820512821,4442.564102564103,4393.333333333334,4370.256410256411,4690.256410256411,4335.8974358974365,4230.256410256411,4158.974358974359,4356.923076923077
1371.3191,0.18550606,1.0,0.33333334,0.5522388,0,0.0,0.0,0.0,0.0,0.21469629,0,0,0.0,0.0,0,0,33.0,0.0,0.0,4607.6923076923085,3908.717948717949,4495.384615384616,4436.923076923077,4232.820512820514,4537.435897435898,4449.743589743591,4423.589743589744,4378.461538461539,4725.641025641026,4343.076923076924,4258.974358974359,4215.384615384616,4422.051282051282
1371.5693,0.18550606,1.0,0.33333334,0.5522388,0,0.0,0.0,0.0,0.0,0.8508084,0,0,0.0,0.0,0,0,65.0,0.0,427.0,4579.48717948718,3941.538461538462,4484.102564102564,4442.051282051282,4235.384615384616,4536.923076923077,4442.564102564103,4392.307692307693,4367.179487179487,4679.48717948718,4338.461538461539,4244.615384615385,4155.8974358974365,4473.846153846154
1371.8196,0.16561785,0.9506699,0.33333334,0.5522388,0,0.0,0.0,0.0,0.0,0.6513173,0,0,0.0,0.0,0,0,97.0,0.0,495.0,4564.615384615385,3923.076923076924,4463.589743589744,4442.051282051282,4235.384615384616,4536.410256410257,4440.512820512821,4396.410256410257,4373.333333333334,4686.666666666667,4334.871794871796,4228.717948717949,4138.974358974359,4500.512820512821
1372.0697,0.16561785,0.9506699,0.33333334,0.5522388,0,0.0,0.0,0.0,0.0,0.1540983,0,0,0.0,0.0,0,0,0.0,0.0,479.0,4542.051282051282,3876.9230769230776,4454.871794871796,4427.6923076923085,4232.307692307693,4525.641025641026,4432.307692307693,4395.384615384616,4369.743589743591,4698.461538461539,4331.794871794872,4218.461538461539,4146.666666666667,4494.358974358975
1372.32,0.16556115,0.8553626,0.33333334,0.5522388,0,0.0,0.0,0.0,0.0,0.17863241,0,0,0.0,0.0,0,0,32.0,0.0,0.0,4584.102564102564,3942.0512820512827,4468.717948717949,4422.564102564103,4231.794871794872,4536.923076923077,4433.333333333334,4396.410256410257,4371.282051282052,4682.564102564103,4333.846153846154,4250.256410256411,4151.794871794872,4559.48717948718
1372.5702,0.16556115,0.8553626,0.33333334,0.5522388,0,0.0,0.0,0.0,0.0,0.32948557,0,0,0.0,0.0,0,0,64.0,0.0,479.0,4584.615384615385,3958.9743589743593,4469.2307692307695,4429.743589743591,4246.666666666667,4538.461538461539,4442.564102564103,4387.179487179487,4372.820512820514,4690.769230769231,4334.358974358975,4252.307692307693,4159.48717948718,4586.666666666667
1372.8204,0.14110368,0.78153074,0.33333334,0.5522388,0,0.0,0.0,0.0,0.0,0.42402008,0,0,0.0,0.0,0,0,96.0,0.0,51.0,4585.128205128206,3944.1025641025644,4465.641025641026,4429.743589743591,4234.358974358975,4533.333333333334,4431.282051282052,4388.717948717949,4367.6923076923085,4693.846153846154,4335.8974358974365,4251.282051282052,4154.358974358975,4616.923076923077
1373.0706,0.14110368,0.78153074,0.33333334,0.5522388,1,0.0,0.0,0.0,0.0,0.3422788,0,0,0.0,0.0,0,0,128.0,0.0,51.0,4548.717948717949,3903.589743589744,4449.743589743591,4464.615384615385,4257.948717948719,4553.846153846154,4461.538461538462,4415.384615384616,4379.48717948718,4735.384615384616,4340.512820512821,4222.051282051282,4164.102564102564,4589.2307692307695
1373.3208,0.23005165,0.752625,0.33333334,0.5522388,0,0.0,0.0,0.0,0.0,0.17916082,0,0,0.0,0.0,0,0,31.0,0.0,0.0,4540.000000000001,3875.8974358974365,4445.641025641026,4448.205128205129,4245.128205128206,4538.461538461539,4448.205128205129,4425.128205128206,4384.615384615385,4722.564102564103,4340.000000000001,4202.564102564103,4138.461538461539,4604.615384615385
1373.571,0.23005165,0.752625,0.33333334,0.5522388,0,0.0,0.0,0.0,0.0,0.39511833,0,0,0.0,0.0,0,0,63.0,0.0,0.0,4572.820512820514,3882.564102564103,4472.307692307693,4434.871794871796,4235.384615384616,4537.435897435898,4446.666666666667,4441.538461538462,4385.128205128206,4750.256410256411,4342.564102564103,4257.948717948719,4194.358974358975,4660.000000000001
1373.8213,0.25488207,0.7234387,0.33333334,0.5522388,0,0.0,0.0,0.0,0.0,0.14201736,0,0,0.0,0.0,0,0,95.0,0.0,471.0,4568.717948717949,3908.717948717949,4475.384615384616,4439.48717948718,4247.179487179487,4540.512820512821,4450.769230769231,4423.076923076924,4381.538461538462,4717.948717948719,4343.076923076924,4248.205128205129,4171.794871794872,4659.48717948718
1374.0715,0.25488207,0.7234387,0.33333334,0.5522388,0,0.0,0.0,0.0,0.0,0.1120986,0,0,0.0,0.0,0,0,127.0,0.0,471.0,4586.666666666667,3911.7948717948725,4483.076923076924,4440.512820512821,4245.128205128206,4540.000000000001,4453.846153846154,4406.666666666667,4377.948717948719,4725.128205128206,4351.282051282052,4247.179487179487,4181.025641025642,4672.307692307693
1374.3217,0.28047952,0.7093628,0.33333334,0.5522388,0,0.0,0.0,0.0,0.0,0.09911466,0,0,0.0,0.0,0,0,30.0,0.0,0.0,4617.948717948719,3930.7692307692314,4496.923076923077,4460.000000000001,4257.948717948719,4542.051282051282,4459.48717948718,4433.333333333334,4393.333333333334,4770.256410256411,4391.794871794872,4272.307692307693,4196.923076923077,4674.358974358975
1374.4468,0.28047952,0.7093628,0.33333334,0.5522388,0,0.0,0.0,0.0,0.0,0.0,0,0,0.0,0.0,0,0,46.0,0.0,0.0,4603.589743589744,3928.717948717949,4493.846153846154,4443.076923076924,4246.666666666667,4537.435897435898,4446.666666666667,4415.8974358974365,4386.153846153847,4729.743589743591,4414.871794871796,4255.384615384616,4183.589743589744,4664.102564102564
1374.7283,0.29683995,0.6933546,0.33333334,0.5522388,0,0.0,0.0,0.0,0.0,0.0,0,0,0.0,0.0,0,0,82.0,0.0,525.0,4609.743589743591,3932.307692307693,4488.205128205129,4432.307692307693,4234.871794871796,4535.8974358974365,4441.538461538462,4398.974358974359,4368.717948717949,4711.794871794872,4381.538461538462,4246.666666666667,4166.153846153847,4647.179487179488
1375.0724,0.29683995,0.6933546,0.33333334,0.5522388,0,0.0,0.0,0.0,0.0,0.23809877,0,0,0.0,0.0,0,0,126.0,0.0,525.0,4657.948717948719,4009.23076923077,4536.923076923077,4425.641025641026,4250.769230769231,4545.641025641026,4460.512820512821,4427.6923076923085,4373.333333333334,4704.102564102564,4380.000000000001,4295.8974358974365,4169.2307692307695,4632.307692307693
1375.3225,0.22304198,0.6635759,0.33333334,0.5522388,0,0.0,0.0,0.0,0.0,0.5860163,0,0,0.0,0.0,0,0,29.0,0.0,0.0,4651.282051282052,3997.9487179487182,4540.000000000001,4443.076923076924,4263.076923076924,4553.846153846154,4462.051282051282,4432.307692307693,4394.871794871796,4736.410256410257,4375.8974358974365,4298.461538461539,4191.282051282052,4590.769230769231
1375.5728,0.22304198,0.6635759,0.33333334,0.5522388,0,0.0,0.0,0.0,0.0,0.47521856,0,0,0.0,0.0,0,0,61.0,0.0,0.0,4657.435897435898,3989.23076923077,4522.564102564103,4442.564102564103,4262.564102564103,4553.333333333334,4458.974358974359,4414.871794871796,4377.435897435898,4718.974358974359,4366.666666666667,4281.025641025642,4184.102564102564,4540.512820512821
1375.823,0.17016466,0.6341094,0.33333334,0.5522388,0,0.0,0.0,0.0,0.0,0.0,0,0,0.0,0.0,0,0,93.0,0.0,495.0,4641.538461538462,3974.358974358975,4521.538461538462,4429.743589743591,4248.205128205129,4543.076923076924,4458.974358974359,4417.435897435898,4375.384615384616,4716.923076923077,4364.615384615385,4286.666666666667,4185.128205128206,4512.307692307693
1375.823,0.17016466,0.6341094,0.33333334,0.5522388,0,0.0,0.0,0.0,0.0,0.0,0,0,0.0,0.0,0,0,93.0,0.0,495.0,4641.538461538462,3974.358974358975,4521.538461538462,4429.743589743591,4248.205128205129,4543.076923076924,4458.974358974359,4417.435897435898,4375.384615384616,4716.923076923077,4364.615384615385,4286.666666666667,4185.128205128206,4512.307692307693
1376.2296,0.19383794,0.6146751,0.33333334,0.5522388,0,0.0,0.0,0.0,0.0,0.0,0,0,0.0,0.0,0,0,16.0,0.0,0.0,4625.128205128206,3957.9487179487182,4514.358974358975,4440.512820512821,4261.538461538462,4557.948717948719,4466.153846153847,4418.974358974359,4380.512820512821,4726.153846153847,4356.410256410257,4266.666666666667,4182.051282051282,4426.666666666667
1376.6049,0.19383794,0.6146751,0.33333334,0.5522388,1,0.0,0.0,0.0,0.0,0.18587124,0,0,0.0,0.0,0,0,64.0,0.0,479.0,4680.000000000001,4002.0512820512827,4548.717948717949,4469.743589743591,4277.948717948719,4572.820512820514,4490.769230769231,4453.333333333334,4393.846153846154,4733.846153846154,4365.641025641026,4307.179487179487,4218.461538461539,4445.641025641026
1376.8239,0.32045025,0.625924,0.33333334,0.5522388,0,0.0,0.0,0.0,0.0,0.14190339,0,0,0.0,0.0,0,0,92.0,0.0,51.0,4651.282051282052,3958.9743589743593,4520.000000000001,4451.282051282052,4267.6923076923085,4570.256410256411,4479.48717948718,4442.564102564103,4386.153846153847,4738.974358974359,4357.948717948719,4267.6923076923085,4185.128205128206,4412.820512820514
1376.949,0.32045025,0.625924,0.33333334,0.5522388,0,0.0,0.0,0.0,0.0,0.0,0,0,0.0,0.0,0,0,108.0,0.0,51.0,4655.384615384616,3961.0256410256416,4518.974358974359,4450.769230769231,4264.102564102564,4558.974358974359,4463.589743589744,4431.794871794872,4388.717948717949,4742.564102564103,4361.538461538462,4266.153846153847,4196.923076923077,4410.769230769231
1377.2305,0.42070997,0.60654736,0.33333334,0.5522388,0,0.0,0.0,0.0,0.0,0.0,0,0,0.0,0.0,0,0,15.0,0.0,468.0,4655.384615384616,3945.6410256410263,4512.820512820514,4429.2307692307695,4250.256410256411,4553.846153846154,4458.974358974359,4410.769230769231,4372.820512820514,4697.948717948719,4345.128205128206,4256.923076923077,4173.333333333334,4372.820512820514
1377.2305,0.42070997,0.60654736,0.33333334,0.5522388,0,0.0,0.0,0.0,0.0,0.0,0,0,0.0,0.0,0,0,15.0,0.0,468.0,4655.384615384616,3945.6410256410263,4512.820512820514,4429.2307692307695,4250.256410256411,4553.846153846154,4458.974358974359,4410.769230769231,4372.820512820514,4697.948717948719,4345.128205128206,4256.923076923077,4173.333333333334,4372.820512820514
1377.8247,0.43594274,0.5981295,0.33333334,0.5522388,1,0.0,0.0,0.0,0.0,0.27223322,0,0,0.0,0.0,0,0,91.0,0.0,472.0,4651.282051282052,3945.6410256410263,4518.974358974359,4427.6923076923085,4250.769230769231,4552.307692307693,4476.923076923077,4436.923076923077,4387.179487179487,4724.102564102564,4344.615384615385,4262.051282051282,4173.333333333334,4415.8974358974365
1378.075,0.43594274,0.5981295,0.33333334,0.5522388,0,0.0,0.0,0.0,0.0,0.10925872,0,0,0.0,0.0,0,0,123.0,0.0,472.0,4641.538461538462,3942.0512820512827,4505.641025641026,4426.153846153847,4245.641025641026,4540.000000000001,4461.025641025642,4422.051282051282,4371.794871794872,4716.923076923077,4342.051282051282,4246.666666666667,4164.615384615385,4434.871794871796
1378.3251,0.38863796,0.6007953,0.33333334,0.5522388,0,0.0,0.0,0.0,0.0,0.1480531,0,0,0.0,0.0,0,0,26.0,0.0,0.0,4647.179487179488,3944.1025641025644,4513.846153846154,4426.153846153847,4249.2307692307695,4542.051282051282,4462.051282051282,4431.282051282052,4387.6923076923085,4717.948717948719,4343.589743589744,4265.128205128206,4168.205128205129,4432.820512820514
1378.5753,0.38863796,0.6007953,0.33333334,0.5522388,0,0.0,0.0,0.0,0.0,0.0,0,0,0.0,0.0,0,0,58.0,0.0,0.0,4638.461538461539,3942.0512820512827,4515.8974358974365,4425.128205128206,4249.74358974359,4552.307692307693,4475.8974358974365,4430.769230769231,4381.025641025642,4721.025641025642,4343.076923076924,4262.051282051282,4161.025641025642,4432.820512820514
1378.7317,0.31925583,0.560796,0.33333334,0.5522388,0,0.0,0.0,0.0,0.0,0.0,0,0,0.0,0.0,0,0,78.0,0.0,525.0,4633.333333333334,3939.48717948718,4521.538461538462,4413.333333333334,4249.74358974359,4553.333333333334,4463.589743589744,4428.717948717949,4383.076923076924,4723.076923076924,4342.051282051282,4263.589743589744,4169.74358974359,4429.2307692307695
1378.7317,0.31925583,0.560796,0.33333334,0.5522388,0,0.0,0.0,0.0,0.0,0.0,0,0,0.0,0.0,0,0,78.0,0.0,525.0,4633.333333333334,3939.48717948718,4521.538461538462,4413.333333333334,4249.74358974359,4553.333333333334,4463.589743589744,4428.717948717949,4383.076923076924,4723.076923076924,4342.051282051282,4263.589743589744,4169.74358974359,4429.2307692307695
1379.2322,0.22938155,0.5182365,0.33333334,0.5522388,0,0.0,0.0,0.0,0.0,0.0,0,0,0.0,0.0,0,0,13.0,0.0,495.0,4630.256410256411,3941.538461538462,4512.820512820514,4421.025641025642,4240.000000000001,4538.974358974359,4458.974358974359,4423.076923076924,4378.974358974359,4688.717948717949,4336.923076923077,4248.717948717949,4165.641025641026,4440.000000000001
1379.2322,0.22938155,0.5182365,0.33333334,0.5522388,0,0.0,0.0,0.0,0.0,0.0,0,0,0.0,0.0,0,0,13.0,0.0,495.0,4630.256410256411,3941.538461538462,4512.820512820514,4421.025641025642,4240.000000000001,4538.974358974359,4458.974358974359,4423.076923076924,4378.974358974359,4688.717948717949,4336.923076923077,4248.717948717949,4165.641025641026,4440.000000000001
1379.7325,0.14626952,0.4786897,0.33333334,0.5522388,0,0.0,0.0,0.0,0.0,0.0,0,0,0.0,0.0,0,0,77.0,0.0,495.0,4632.820512820514,3933.333333333334,4512.307692307693,4419.48717948718,4241.538461538462,4536.410256410257,4462.051282051282,4425.641025641026,4372.820512820514,4705.128205128206,4334.358974358975,4252.307692307693,4183.076923076924,4467.179487179487
1379.7325,0.14626952,0.4786897,0.33333334,0.5522388,0,0.0,0.0,0.0,0.0,0.0,0,0,0.0,0.0,0,0,77.0,0.0,495.0,4632.820512820514,3933.333333333334,4512.307692307693,4419.48717948718,4241.538461538462,4536.410256410257,4462.051282051282,4425.641025641026,4372.820512820514,4705.128205128206,4334.358974358975,4252.307692307693,4183.076923076924,4467.179487179487
1380.3269,0.100919545,0.42598826,0.33333334,0.5522388,0,0.0,0.0,0.0,0.0,0.42731696,0,0,0.0,0.0,0,0,24.0,0.0,0.0,4631.794871794872,3938.9743589743593,4507.179487179488,4426.666666666667,4240.000000000001,4542.051282051282,4456.923076923077,4426.666666666667,4388.717948717949,4708.205128205129,4334.871794871796,4265.128205128206,4215.384615384616,4553.333333333334
1380.577,0.100919545,0.42598826,0.33333334,0.5522388,1,0.0,0.0,0.0,0.0,0.12250653,0,0,0.0,0.0,0,0,56.0,0.0,0.0,4647.6923076923085,3973.8461538461543,4530.769230769231,4447.179487179487,4266.666666666667,4565.641025641026,4480.000000000001,4442.564102564103,4389.743589743591,4736.410256410257,4342.051282051282,4291.282051282052,4244.615384615385,4569.2307692307695
1380.8273,0.19159174,0.39034167,0.33333334,0.5522388,0,0.0,0.0,0.0,0.0,0.07123309,0,0,0.0,0.0,0,0,88.0,0.0,51.0,4602.564102564103,3930.2564102564106,4490.256410256411,4429.743589743591,4233.333333333334,4537.948717948719,4457.948717948719,4428.205128205129,4390.256410256411,4695.384615384616,4332.820512820514,4247.6923076923085,4212.820512820514,4554.358974358975
1380.9524,0.19159174,0.39034167,0.33333334,0.5522388,0,0.0,0.0,0.0,0.0,0.0,0,0,0.0,0.0,0,0,104.0,0.0,51.0,4631.794871794872,3943.076923076924,4510.769230769231,4430.256410256411,4235.8974358974365,4537.948717948719,4445.641025641026,4437.435897435898,4398.461538461539,4720.000000000001,4338.461538461539,4277.948717948719,4231.282051282052,4587.179487179488
1381.2339,0.23478666,0.36513022,0.33333334,0.5522388,0,0.0,0.0,0.0,0.0,0.0,0,0,0.0,0.0,0,0,11.0,0.0,472.0,4624.102564102564,3943.076923076924,4510.256410256411,4430.769230769231,4251.282051282052,4552.820512820514,4461.538461538462,4438.461538461539,4388.717948717949,4714.871794871796,4336.923076923077,4266.153846153847,4218.974358974359,4548.205128205129
1381.2339,0.23478666,0.36513022,0.33333334,0.5522388,0,0.0,0.0,0.0,0.0,0.0,0,0,0.0,0.0,0,0,11.0,0.0,472.0,4624.102564102564,3943.076923076924,4510.256410256411,4430.769230769231,4251.282051282052,4552.820512820514,4461.538461538462,4438.461538461539,4388.717948717949,4714.871794871796,4336.923076923077,4266.153846153847,4218.974358974359,4548.205128205129
1381.8281,0.19243534,0.34664303,0.33333334,0.5522388,0,0.0,0.0,0.0,0.0,0.051060095,0,0,0.0,0.0,0,0,87.0,0.0,472.0,4613.846153846154,3917.435897435898,4502.564102564103,4422.564102564103,4249.2307692307695,4555.384615384616,4472.820512820514,4472.820512820514,4401.025641025642,4731.282051282052,4339.48717948718,4264.102564102564,4241.025641025642,4523.589743589744
1382.0784,0.19243534,0.34664303,0.33333334,0.5522388,0,0.0,0.0,0.0,0.0,0.08049713,0,0,0.0,0.0,0,0,119.0,0.0,472.0,4627.6923076923085,3945.6410256410263,4510.256410256411,4443.589743589744,4249.74358974359,4552.307692307693,4464.102564102564,4445.128205128206,4380.512820512821,4717.948717948719,4342.051282051282,4265.128205128206,4235.384615384616,4538.974358974359
1382.4224,0.14520642,0.32746303,0.33333334,0.5522388,1,0.0,0.0,0.0,0.0,0.1565645,0,0,0.0,0.0,0,0,34.0,0.0,0.0,4662.564102564103,3980.5128205128212,4537.435897435898,4427.6923076923085,4249.74358974359,4554.358974358975,4477.435897435898,4471.282051282052,4403.076923076924,4743.076923076924,4350.769230769231,4310.769230769231,4277.435897435898,4602.051282051282
1382.5787,0.14520642,0.32746303,0.33333334,0.5522388,0,0.0,0.0,0.0,0.0,0.1725932,0,0,0.0,0.0,0,0,54.0,0.0,0.0,4649.743589743591,3962.564102564103,4527.6923076923085,4426.666666666667,4249.2307692307695,4554.871794871796,4472.307692307693,4458.461538461539,4404.102564102564,4725.128205128206,4337.948717948719,4297.435897435898,4233.846153846154,4594.871794871796
1382.829,0.19348662,0.31682807,0.33333334,0.5522388,0,0.0,0.0,0.0,0.0,0.12010508,0,0,0.0,0.0,0,0,86.0,0.0,525.0,4621.538461538462,3942.0512820512827,4508.205128205129,4424.102564102564,4246.666666666667,4541.025641025642,4459.48717948718,4433.333333333334,4390.769230769231,4719.48717948718,4340.000000000001,4263.589743589744,4216.410256410257,4569.2307692307695
1383.0792,0.19348662,0.31682807,0.33333334,0.5522388,0,0.0,0.0,0.0,0.0,0.11164479,0,0,0.0,0.0,0,0,118.0,0.0,525.0,4616.410256410257,3938.461538461539,4507.6923076923085,4419.48717948718,4246.666666666667,4546.153846153847,4448.717948717949,4453.333333333334,4398.461538461539,4738.974358974359,4345.128205128206,4274.358974358975,4245.128205128206,4561.538461538462
1383.4232,0.1335413,0.30754438,0.33333334,0.5522388,1,0.0,0.0,0.0,0.0,0.0,0,0,0.0,0.0,0,0,33.0,0.0,0.0,4644.102564102564,3976.410256410257,4520.000000000001,4427.6923076923085,4247.6923076923085,4543.076923076924,4445.128205128206,4455.8974358974365,4398.461538461539,4729.743589743591,4341.538461538462,4276.923076923077,4240.512820512821,4539.48717948718
1383.5796,0.1335413,0.30754438,0.33333334,0.5522388,0,0.0,0.0,0.0,0.0,0.18634424,0,0,0.0,0.0,0,0,53.0,0.0,0.0,4601.025641025642,3937.9487179487182,4503.589743589744,4421.538461538462,4247.6923076923085,4550.256410256411,4453.846153846154,4444.102564102564,4388.717948717949,4708.205128205129,4335.384615384616,4242.051282051282,4201.025641025642,4470.256410256411
1383.8298,0.09186521,0.37437564,0.33333334,0.5522388,0,0.0,0.0,0.0,0.0,0.27026334,0,0,0.0,0.0,0,0,85.0,0.0,495.0,4598.461538461539,3911.7948717948725,4505.128205128206,4424.615384615385,4245.641025641026,4543.589743589744,4441.538461538462,4441.538461538462,4384.102564102564,4722.564102564103,4333.846153846154,4246.666666666667,4211.794871794872,4437.435897435898
1384.0801,0.09186521,0.37437564,0.33333334,0.5522388,0,0.0,0.0,0.0,0.0,0.1491689,0,0,0.0,0.0,0,0,117.0,0.0,495.0,4599.48717948718,3912.820512820513,4496.410256410257,4429.743589743591,4249.2307692307695,4550.769230769231,4451.282051282052,4449.743589743591,4391.282051282052,4690.769230769231,4331.282051282052,4241.025641025642,4184.615384615385,4431.282051282052
1384.4241,0.08334605,0.4342258,0.33333334,0.5522388,1,0.0,0.0,0.0,0.0,0.17785592,0,0,0.0,0.0,0,0,32.0,0.0,0.0,4625.641025641026,3953.8461538461543,4519.48717948718,4430.769230769231,4250.769230769231,4552.307692307693,4464.102564102564,4456.923076923077,4386.666666666667,4702.564102564103,4335.8974358974365,4278.974358974359,4215.8974358974365,4496.410256410257
1384.5806,0.08334605,0.4342258,0.33333334,0.5522388,0,0.0,0.0,0.0,0.0,0.32059798,0,0,0.0,0.0,0,0,52.0,0.0,0.0,4624.615384615385,3943.076923076924,4508.205128205129,4433.333333333334,4252.307692307693,4555.384615384616,4457.435897435898,4441.025641025642,4384.615384615385,4716.923076923077,4338.974358974359,4264.615384615385,4208.205128205129,4492.820512820514
1384.8307,0.044919755,0.4365291,0.33333334,0.5522388,0,0.0,0.0,0.0,0.0,0.040682346,0,0,0.0,0.0,0,0,84.0,0.0,51.0,4624.615384615385,3925.1282051282055,4518.461538461539,4430.256410256411,4249.2307692307695,4553.333333333334,4462.051282051282,4452.820512820514,4398.974358974359,4740.512820512821,4345.128205128206,4278.461538461539,4245.641025641026,4507.6923076923085
1385.0809,0.044919755,0.4365291,0.33333334,0.5522388,0,0.0,0.0,0.0,0.0,0.0,0,0,0.0,0.0,0,0,116.0,0.0,51.0,4614.871794871796,3911.7948717948725,4504.615384615385,4438.974358974359,4248.205128205129,4538.461538461539,4458.974358974359,4444.615384615385,4400.512820512821,4715.8974358974365,4335.8974358974365,4255.8974358974365,4204.102564102564,4493.333333333334
1385.2373,0.052583978,0.43216106,0.33333334,0.5522388,0,0.0,0.0,0.0,0.0,0.0,0,0,0.0,0.0,0,0,7.0,0.0,467.0,4601.025641025642,3915.3846153846157,4489.743589743591,4422.564102564103,4245.641025641026,4541.538461538462,4433.333333333334,4407.6923076923085,4380.000000000001,4674.358974358975,4327.6923076923085,4232.307692307693,4184.102564102564,4431.282051282052
1385.2373,0.052583978,0.43216106,0.33333334,0.5522388,0,0.0,0.0,0.0,0.0,0.0,0,0,0.0,0.0,0,0,7.0,0.0,467.0,4601.025641025642,3915.3846153846157,4489.743589743591,4422.564102564103,4245.641025641026,4541.538461538462,4433.333333333334,4407.6923076923085,4380.000000000001,4674.358974358975,4327.6923076923085,4232.307692307693,4184.102564102564,4431.282051282052
1385.8629,0.08850468,0.4131902,0.33333334,0.5522388,0,0.0,0.0,0.0,0.0,0.68751127,0,0,0.0,0.0,0,0,87.0,0.0,472.0,4613.333333333334,3947.692307692308,4504.102564102564,4441.025641025642,4248.205128205129,4546.153846153847,4442.051282051282,4421.025641025642,4388.205128205129,4705.641025641026,4331.794871794872,4244.615384615385,4225.641025641026,4520.512820512821
1385.9567,0.08850468,0.4131902,0.33333334,0.5522388,0,0.0,0.0,0.0,0.0,0.0,0,0,0.0,0.0,0,0,99.0,0.0,472.0,4645.128205128206,3954.358974358975,4524.615384615385,4434.871794871796,4249.74358974359,4551.794871794872,4458.461538461539,4442.051282051282,4400.512820512821,4741.025641025642,4338.974358974359,4281.538461538462,4283.076923076924,4547.6923076923085
1386.332,0.08036636,0.42012522,0.33333334,0.5522388,0,0.0,0.0,0.0,0.0,0.17295215,0,0,0.0,0.0,0,0,18.0,0.0,0.0,4603.076923076924,3929.2307692307695,4496.410256410257,4441.538461538462,4248.717948717949,4549.2307692307695,4444.615384615385,4425.128205128206,4405.128205128206,4726.666666666667,4336.923076923077,4246.666666666667,4230.769230769231,4553.333333333334
1386.6135,0.08036636,0.42012522,0.33333334,0.5522388,1,0.0,0.0,0.0,0.0,0.2586568,0,0,0.0,0.0,0,0,54.0,0.0,0.0,4607.179487179488,3934.358974358975,4500.000000000001,4435.8974358974365,4245.128205128206,4550.769230769231,4460.000000000001,4434.871794871796,4406.666666666667,4729.2307692307695,4341.538461538462,4248.205128205129,4233.846153846154,4589.2307692307695
1386.8324,0.06813355,0.4369147,0.33333334,0.5522388,0,0.0,0.0,0.0,0.0,0.2133822,0,0,0.0,0.0,0,0,82.0,0.0,525.0,4606.153846153847,3927.1794871794878,4508.717948717949,4439.48717948718,4255.384615384616,4554.358974358975,4453.333333333334,4409.743589743591,4390.769230769231,4716.923076923077,4335.384615384616,4245.641025641026,4215.384615384616,4605.641025641026
1386.9575,0.06813355,0.4369147,0.33333334,0.5522388,0,0.0,0.0,0.0,0.0,0.0,0,0,0.0,0.0,0,0,98.0,0.0,525.0,4633.333333333334,3958.9743589743593,4524.102564102564,4437.435897435898,4259.48717948718,4556.923076923077,4460.512820512821,4409.2307692307695,4393.333333333334,4712.307692307693,4336.410256410257,4269.2307692307695,4220.000000000001,4647.6923076923085
1387.239,0.07491342,0.49742532,0.33333334,0.5522388,0,0.0,0.0,0.0,0.0,0.0,0,0,0.0,0.0,0,0,5.0,0.0,552.0,4624.615384615385,3946.1538461538466,4508.717948717949,4431.794871794872,4248.717948717949,4545.128205128206,4459.48717948718,4414.358974358975,4392.307692307693,4708.717948717949,4333.333333333334,4250.256410256411,4213.846153846154,4623.076923076924
1387.239,0.07491342,0.49742532,0.33333334,0.5522388,0,0.0,0.0,0.0,0.0,0.0,0,0,0.0,0.0,0,0,5.0,0.0,552.0,4624.615384615385,3946.1538461538466,4508.717948717949,4431.794871794872,4248.717948717949,4545.128205128206,4459.48717948718,4414.358974358975,4392.307692307693,4708.717948717949,4333.333333333334,4250.256410256411,4213.846153846154,4623.076923076924
1387.8333,0.06570122,0.500104,0.33333334,0.5522388,0,0.0,0.0,0.0,0.0,0.08728869,0,0,0.0,0.0,0,0,81.0,0.0,495.0,4608.205128205129,3907.692307692308,4493.846153846154,4435.8974358974365,4240.000000000001,4538.974358974359,4442.564102564103,4409.2307692307695,4388.205128205129,4722.564102564103,4333.333333333334,4244.615384615385,4215.384615384616,4592.307692307693
1388.0835,0.06570122,0.500104,0.33333334,0.5522388,0,0.0,0.0,0.0,0.0,0.06377468,0,0,0.0,0.0,0,0,113.0,0.0,495.0,4608.717948717949,3930.2564102564106,4500.000000000001,4440.000000000001,4241.025641025642,4540.000000000001,4449.2307692307695,4417.435897435898,4398.461538461539,4727.179487179488,4333.333333333334,4242.564102564103,4222.051282051282,4590.769230769231
1388.2399,0.03978591,0.4717749,0.33333334,0.5522388,0,0.0,0.0,0.0,0.0,0.0,0,0,0.0,0.0,0,0,4.0,0.0,556.0,4614.358974358975,3926.666666666667,4505.641025641026,4429.2307692307695,4247.179487179487,4540.512820512821,4461.025641025642,4434.358974358975,4409.743589743591,4712.820512820514,4334.358974358975,4237.435897435898,4219.48717948718,4582.051282051282
1388.584,0.03978591,0.4717749,0.33333334,0.5522388,0,0.0,0.0,0.0,0.0,0.05393793,0,0,0.0,0.0,0,0,48.0,0.0,0.0,4607.6923076923085,3926.1538461538466,4498.461538461539,4439.48717948718,4247.179487179487,4539.48717948718,4458.974358974359,4418.974358974359,4395.384615384616,4718.461538461539,4329.743589743591,4229.2307692307695,4211.794871794872,4581.538461538462
1388.8341,0.0,0.43552727,0.33333334,0.5522388,0,0.0,0.0,0.0,0.0,0.0,0,0,0.0,0.0,0,0,80.0,0.0,51.0,4624.615384615385,3937.435897435898,4508.717948717949,4442.564102564103,4246.153846153847,4542.051282051282,4461.538461538462,4433.333333333334,4398.974358974359,4722.564102564103,4331.282051282052,4251.794871794872,4204.102564102564,4603.076923076924
1388.8341,0.0,0.43552727,0.33333334,0.5522388,0,0.0,0.0,0.0,0.0,0.0,0,0,0.0,0.0,0,0,80.0,0.0,51.0,4624.615384615385,3937.435897435898,4508.717948717949,4442.564102564103,4246.153846153847,4542.051282051282,4461.538461538462,4433.333333333334,4398.974358974359,4722.564102564103,4331.282051282052,4251.794871794872,4204.102564102564,4603.076923076924
1389.2407,0.0,0.39664632,0.33333334,0.5522388,0,0.0,0.0,0.0,0.0,0.0,0,0,0.0,0.0,0,0,3.0,0.0,503.0,4627.6923076923085,3936.9230769230776,4521.538461538462,4455.384615384616,4256.410256410257,4554.871794871796,4459.48717948718,4432.307692307693,4398.461538461539,4726.153846153847,4335.8974358974365,4264.102564102564,4204.615384615385,4616.923076923077
1389.5848,0.0,0.39664632,0.33333334,0.5522388,1,0.0,0.0,0.0,0.0,0.20423606,0,0,0.0,0.0,0,0,47.0,0.0,0.0,4626.153846153847,3958.9743589743593,4504.102564102564,4429.743589743591,4243.589743589744,4540.512820512821,4460.512820512821,4429.2307692307695,4397.435897435898,4692.307692307693,4323.076923076924,4247.6923076923085,4165.128205128206,4611.794871794872
1389.835,0.0,0.37542635,0.33333334,0.5522388,0,0.0,0.0,0.0,0.0,0.18246488,0,0,0.0,0.0,0,0,79.0,0.0,469.0,4616.410256410257,3942.0512820512827,4508.205128205129,4432.307692307693,4242.564102564103,4544.102564102564,4459.48717948718,4426.153846153847,4390.769230769231,4689.743589743591,4324.102564102564,4247.179487179487,4157.948717948719,4588.205128205129
1390.0852,0.0,0.37542635,0.33333334,0.5522388,0,0.0,0.0,0.0,0.0,0.11691334,0,0,0.0,0.0,0,0,111.0,0.0,469.0,4611.794871794872,3921.0256410256416,4505.128205128206,4442.051282051282,4242.564102564103,4540.000000000001,4474.871794871796,4458.974358974359,4410.256410256411,4736.923076923077,4332.820512820514,4260.512820512821,4190.769230769231,4576.923076923077
1390.3354,0.0,0.36103997,0.33333334,0.5522388,0,0.0,0.0,0.0,0.0,0.0630326,0,0,0.0,0.0,0,0,14.0,0.0,525.0,4635.384615384616,3947.1794871794878,4515.384615384616,4435.384615384616,4247.6923076923085,4551.282051282052,4460.000000000001,4441.538461538462,4416.410256410257,4742.564102564103,4335.8974358974365,4270.769230769231,4220.512820512821,4617.948717948719
1390.5857,0.0,0.36103997,0.33333334,0.5522388,0,0.0,0.0,0.0,0.0,0.3139895,0,0,0.0,0.0,0,0,46.0,0.0,0.0,4654.358974358975,3981.0256410256416,4524.615384615385,4441.025641025642,4249.74358974359,4552.820512820514,4462.564102564103,4431.794871794872,4397.435897435898,4720.000000000001,4331.282051282052,4276.923076923077,4170.256410256411,4647.6923076923085
1390.8359,0.008767427,0.3734238,0.33333334,0.5522388,0,0.0,0.0,0.0,0.0,0.14188626,0,0,0.0,0.0,0,0,78.0,0.0,525.0,4612.820512820514,3915.8974358974365,4504.615384615385,4437.435897435898,4242.564102564103,4541.025641025642,4456.923076923077,4431.794871794872,4400.512820512821,4737.948717948719,4332.307692307693,4261.538461538462,4204.102564102564,4630.769230769231
1391.086,0.008767427,0.3734238,0.33333334,0.5522388,0,0.0,0.0,0.0,0.0,0.16250223,0,0,0.0,0.0,0,0,110.0,0.0,525.0,4614.871794871796,3944.1025641025644,4493.846153846154,4435.384615384616,4249.74358974359,4546.666666666667,4442.051282051282,4411.282051282052,4381.538461538462,4695.8974358974365,4326.153846153847,4245.128205128206,4135.8974358974365,4645.128205128206
1391.3363,0.0,0.3787994,0.33333334,0.5522388,0,0.0,0.0,0.0,0.0,0.33750913,0,0,0.0,0.0,0,0,13.0,0.0,495.0,4615.384615384616,3936.410256410257,4502.564102564103,4429.2307692307695,4238.461538461539,4541.538461538462,4444.102564102564,4404.615384615385,4384.615384615385,4692.820512820514,4328.205128205129,4240.512820512821,4139.48717948718,4727.6923076923085
1391.5865,0.0,0.3787994,0.33333334,0.5522388,0,0.0,0.0,0.0,0.0,0.37539852,0,0,0.0,0.0,0,1,45.0,0.0,0.0,4624.102564102564,3943.076923076924,4514.871794871796,4439.48717948718,4249.2307692307695,4553.846153846154,4455.384615384616,4414.358974358975,4386.666666666667,4702.051282051282,4329.2307692307695,4260.512820512821,4150.769230769231,4715.384615384616
1391.8993,0.0145548275,0.39268738,0.33333334,0.5522388,1,0.0,0.0,0.0,0.0,0.19215812,0,0,0.0,0.0,0,0,85.0,0.0,495.0,4671.794871794872,3993.8461538461543,4536.923076923077,4444.615384615385,4252.307692307693,4555.8974358974365,4473.333333333334,4443.589743589744,4405.641025641026,4736.410256410257,4343.076923076924,4295.384615384616,4204.102564102564,4708.205128205129
1392.0869,0.0145548275,0.39268738,0.33333334,0.5522388,0,0.0,0.0,0.0,0.0,0.19363056,0,0,0.0,0.0,0,0,109.0,0.0,495.0,4642.051282051282,3942.564102564103,4526.153846153847,4444.615384615385,4251.794871794872,4556.410256410257,4475.8974358974365,4460.512820512821,4403.076923076924,4742.564102564103,4342.564102564103,4278.461538461539,4186.666666666667,4634.871794871796
1392.3372,0.0,0.47471198,0.33333334,0.5522388,0,0.0,0.0,0.0,0.0,0.34364095,0,0,0.0,0.0,0,0,12.0,0.0,51.0,4615.8974358974365,3940.5128205128212,4505.641025641026,4424.615384615385,4231.282051282052,4539.48717948718,4458.974358974359,4429.2307692307695,4380.512820512821,4694.871794871796,4335.384615384616,4245.128205128206,4163.589743589744,4593.333333333334
1392.5874,0.0,0.47471198,0.33333334,0.5522388,0,0.0,0.0,0.0,0.0,0.2965513,0,0,0.0,0.0,0,0,44.0,0.0,0.0,4605.128205128206,3913.333333333334,4494.358974358975,4428.717948717949,4234.358974358975,4540.512820512821,4455.384615384616,4442.051282051282,4391.794871794872,4719.48717948718,4338.461538461539,4243.589743589744,4177.435897435898,4563.076923076924
1392.8376,0.008795572,0.49945685,0.33333334,0.5522388,0,0.0,0.0,0.0,0.0,0.20951046,0,0,0.0,0.0,0,0,76.0,0.0,51.0,4608.717948717949,3906.666666666667,4488.717948717949,4431.282051282052,4232.307692307693,4536.410256410257,4440.512820512821,4407.6923076923085,4373.333333333334,4695.384615384616,4331.794871794872,4228.717948717949,4181.538461538462,4526.153846153847
1393.0878,0.008795572,0.49945685,0.33333334,0.5522388,0,0.0,0.0,0.0,0.0,0.20099856,0,0,0.0,0.0,0,0,108.0,0.0,51.0,4655.384615384616,3958.461538461539,4512.820512820514,4429.2307692307695,4234.871794871796,4540.000000000001,4440.000000000001,4402.564102564103,4376.410256410257,4695.384615384616,4329.2307692307695,4260.000000000001,4197.435897435898,4559.48717948718
1393.338,0.0,0.5472778,0.33333334,0.5522388,0,0.0,0.0,0.0,0.0,0.236993,0,0,0.0,0.0,0,0,11.0,0.0,464.0,4657.435897435898,3945.1282051282055,4507.6923076923085,4414.871794871796,4232.820512820514,4537.948717948719,4442.051282051282,4411.794871794872,4380.512820512821,4712.307692307693,4335.384615384616,4252.307692307693,4212.820512820514,4557.435897435898
1393.5883,0.0,0.5472778,0.33333334,0.5522388,1,0.0,0.0,0.0,0.0,0.18556218,0,0,0.0,0.0,0,0,43.0,0.0,0.0,4636.410256410257,3924.1025641025644,4506.666666666667,4414.871794871796,4228.205128205129,4535.384615384616,4439.48717948718,4419.48717948718,4376.923076923077,4715.384615384616,4330.256410256411,4243.589743589744,4203.076923076924,4521.025641025642
1393.8385,0.022048833,0.5875993,0.33333334,0.5522388,0,0.0,0.0,0.0,0.0,0.29141465,0,0,0.0,0.0,0,0,75.0,0.0,464.0,4625.128205128206,3897.9487179487182,4501.025641025642,4420.000000000001,4231.282051282052,4537.435897435898,4441.538461538462,4431.794871794872,4383.589743589744,4727.6923076923085,4333.846153846154,4232.307692307693,4193.333333333334,4481.025641025642
1394.0886,0.022048833,0.5875993,0.33333334,0.5522388,0,0.0,0.0,0.0,0.0,0.1318666,0,0,0.0,0.0,0,0,107.0,0.0,464.0,4622.051282051282,3927.692307692308,4509.2307692307695,4434.871794871796,4231.282051282052,4537.435897435898,4451.794871794872,4452.307692307693,4393.846153846154,4743.589743589744,4342.564102564103,4258.974358974359,4261.538461538462,4509.2307692307695
1394.3389,0.08798806,0.592423,0.33333334,0.5522388,0,0.0,0.0,0.0,0.0,0.076838836,0,0,0.0,0.0,0,0,10.0,0.0,525.0,4583.589743589744,3913.8461538461543,4486.153846153847,4426.666666666667,4235.8974358974365,4536.923076923077,4436.410256410257,4411.282051282052,4367.6923076923085,4690.256410256411,4325.128205128206,4202.564102564103,4120.512820512821,4456.410256410257
1394.464,0.08798806,0.592423,0.33333334,0.5522388,0,0.0,0.0,0.0,0.0,0.0,0,0,0.0,0.0,0,0,26.0,0.0,0.0,4583.076923076924,3913.333333333334,4486.666666666667,4445.128205128206,4240.512820512821,4540.000000000001,4443.589743589744,4431.794871794872,4378.974358974359,4720.000000000001,4332.307692307693,4200.000000000001,4134.358974358975,4464.102564102564
1394.7455,0.15669577,0.5797984,0.33333334,0.5522388,0,0.0,0.0,0.0,0.0,0.0,0,0,0.0,0.0,0,0,62.0,0.0,0.0,4587.179487179488,3895.3846153846157,4491.282051282052,4450.769230769231,4246.666666666667,4544.615384615385,4451.282051282052,4442.051282051282,4381.538461538462,4717.948717948719,4331.282051282052,4208.205128205129,4155.8974358974365,4481.025641025642
1395.0895,0.15669577,0.5797984,0.33333334,0.5522388,0,0.0,0.0,0.0,0.0,0.0,0,0,0.0,0.0,0,0,106.0,0.0,525.0,4604.102564102564,3925.1282051282055,4523.076923076924,4445.128205128206,4249.2307692307695,4550.769230769231,4448.205128205129,4438.974358974359,4374.871794871796,4743.589743589744,4334.871794871796,4232.820512820514,4162.564102564103,4520.512820512821
1395.2772,0.17364857,0.54775286,0.33333334,0.5522388,1,0.0,0.0,0.0,0.0,0.0,0,0,0.0,0.0,0,0,1.0,0.0,427.0,4655.8974358974365,3957.9487179487182,4571.282051282052,4454.871794871796,4250.769230769231,4557.435897435898,4491.282051282052,4491.794871794872,4404.102564102564,4842.051282051283,4358.974358974359,4312.307692307693,4298.974358974359,4601.538461538462
1395.6525,0.17364857,0.54775286,0.33333334,0.5522388,0,0.0,0.0,0.0,0.0,0.0,1,0,0.0,0.0,0,0,49.0,0.0,0.0,4643.589743589744,3980.5128205128212,4589.2307692307695,4445.641025641026,4248.717948717949,4551.794871794872,4454.871794871796,4452.820512820514,4393.333333333334,4779.48717948718,4349.743589743591,4262.564102564103,4185.128205128206,4580.512820512821
1395.8402,0.17505692,0.50961,0.33333334,0.5522388,0,0.0,0.0,0.0,0.0,0.036680486,1,0,0.0,0.0,0,0,73.0,0.0,481.0,4631.282051282052,3991.2820512820517,4599.48717948718,4471.794871794872,4267.179487179487,4566.153846153847,4455.384615384616,4452.307692307693,4396.410256410257,4777.948717948719,4351.794871794872,4250.256410256411,4185.641025641026,4568.205128205129
1396.153,0.17505692,0.50961,0.33333334,0.5522388,1,0.0,0.0,0.0,0.0,0.18717134,0,0,0.0,0.0,0,0,113.0,0.0,495.0,4692.307692307693,4027.692307692308,4616.410256410257,4444.615384615385,4263.076923076924,4560.000000000001,4452.307692307693,4426.666666666667,4389.743589743591,4776.410256410257,4361.538461538462,4305.128205128206,4258.461538461539,4604.615384615385
1396.3406,0.25531682,0.51215136,0.33333334,0.5522388,0,0.0,0.0,0.0,0.0,0.2345553,0,0,0.0,0.0,0,0,8.0,0.0,378.0,4637.435897435898,3965.6410256410263,4583.589743589744,4441.538461538462,4247.6923076923085,4551.794871794872,4451.794871794872,4443.589743589744,4397.948717948719,4768.717948717949,4357.435897435898,4266.153846153847,4218.461538461539,4537.948717948719
1396.5908,0.25531682,0.51215136,0.33333334,0.5522388,0,0.0,0.0,0.0,0.0,0.23051412,0,0,0.0,0.0,0,0,40.0,0.0,0.0,4640.000000000001,3948.717948717949,4556.923076923077,4445.128205128206,4247.6923076923085,4551.794871794872,4441.025641025642,4425.128205128206,4387.6923076923085,4736.923076923077,4354.358974358975,4247.6923076923085,4201.025641025642,4538.974358974359
1396.8411,0.29105103,0.52008045,0.33333334,0.5522388,0,0.0,0.0,0.0,0.0,0.13069326,0,0,0.0,0.0,0,0,72.0,0.0,378.0,4605.641025641026,3937.435897435898,4534.871794871796,4447.6923076923085,4257.948717948719,4556.410256410257,4440.512820512821,4408.717948717949,4387.6923076923085,4712.820512820514,4346.666666666667,4229.74358974359,4134.871794871796,4461.538461538462
1397.0913,0.29105103,0.52008045,0.33333334,0.5522388,0,0.0,0.0,0.0,0.0,0.21196997,0,0,0.0,0.0,0,0,104.0,0.0,51.0,4571.794871794872,3926.1538461538466,4507.6923076923085,4457.435897435898,4248.717948717949,4552.307692307693,4443.076923076924,4430.769230769231,4394.358974358975,4692.307692307693,4345.128205128206,4218.461538461539,4136.923076923077,4444.102564102564
1397.3414,0.33928224,0.51024824,0.33333334,0.5522388,1,0.0,0.0,0.0,0.0,0.18626148,0,0,0.0,0.0,0,0,7.0,0.0,467.0,4590.256410256411,3957.9487179487182,4523.076923076924,4442.051282051282,4253.333333333334,4556.410256410257,4458.461538461539,4445.641025641026,4396.923076923077,4701.538461538462,4348.205128205129,4267.179487179487,4187.179487179487,4471.794871794872
1397.5917,0.33928224,0.51024824,0.33333334,0.5522388,0,0.0,0.0,0.0,0.0,0.20547111,0,0,0.0,0.0,0,0,39.0,0.0,0.0,4605.128205128206,3950.7692307692314,4506.666666666667,4445.641025641026,4247.179487179487,4549.2307692307695,4450.769230769231,4415.384615384616,4385.641025641026,4700.000000000001,4342.051282051282,4265.641025641026,4169.2307692307695,4436.410256410257
1397.8419,0.31110725,0.50064766,0.33333334,0.5522388,0,0.0,0.0,0.0,0.0,0.22269978,0,0,0.0,0.0,0,0,71.0,0.0,467.0,4569.2307692307695,3908.717948717949,4473.846153846154,4433.846153846154,4245.128205128206,4540.000000000001,4443.589743589744,4436.923076923077,4404.615384615385,4699.48717948718,4337.435897435898,4221.538461538462,4123.076923076924,4379.48717948718
1398.0922,0.31110725,0.50064766,0.33333334,0.5522388,0,0.0,0.0,0.0,0.0,0.08569015,0,0,0.0,0.0,0,0,103.0,0.0,467.0,4583.076923076924,3912.307692307693,4486.153846153847,4436.410256410257,4238.461538461539,4538.461538461539,4438.461538461539,4428.205128205129,4396.410256410257,4695.8974358974365,4334.871794871796,4237.948717948719,4141.538461538462,4395.8974358974365
1398.4049,0.35781798,0.45481184,0.33333334,0.5522388,1,0.0,0.0,0.0,0.0,0.27458444,0,0,0.0,0.0,0,0,14.0,0.0,525.0,4648.205128205129,4004.615384615385,4514.871794871796,4430.769230769231,4248.205128205129,4551.794871794872,4456.923076923077,4442.564102564103,4397.435897435898,4710.769230769231,4341.538461538462,4280.512820512821,4196.410256410257,4475.384615384616
1398.5925,0.35781798,0.45481184,0.33333334,0.5522388,0,0.0,0.0,0.0,0.0,0.21385792,0,0,0.0,0.0,0,0,38.0,0.0,0.0,4587.179487179488,3914.358974358975,4474.358974358975,4427.6923076923085,4238.461538461539,4537.948717948719,4446.153846153847,4425.128205128206,4388.717948717949,4699.48717948718,4334.871794871796,4231.282051282052,4132.307692307693,4408.717948717949
1398.8428,0.36827594,0.44567525,0.33333334,0.5522388,0,0.0,0.0,0.0,0.0,0.1205018,0,0,0.0,0.0,0,0,70.0,0.0,548.0,4621.538461538462,3956.9230769230776,4504.615384615385,4432.820512820514,4243.589743589744,4541.025641025642,4445.641025641026,4450.256410256411,4401.538461538462,4702.564102564103,4340.000000000001,4263.076923076924,4152.307692307693,4453.846153846154
1399.093,0.36827594,0.44567525,0.33333334,0.5522388,0,0.0,0.0,0.0,0.0,0.14155628,0,0,0.0,0.0,0,0,102.0,0.0,525.0,4595.384615384616,3926.1538461538466,4488.205128205129,4435.384615384616,4233.333333333334,4538.974358974359,4440.512820512821,4430.769230769231,4393.846153846154,4726.666666666667,4335.384615384616,4213.846153846154,4111.794871794872,4392.307692307693
1399.3431,0.34631264,0.49925017,0.33333334,0.5522388,0,0.0,0.0,0.0,0.0,0.0,0,0,0.0,0.0,0,0,5.0,0.0,552.0,4628.717948717949,3948.205128205129,4568.717948717949,4442.564102564103,4237.948717948719,4540.512820512821,4426.153846153847,4447.6923076923085,4412.307692307693,4780.000000000001,4342.564102564103,4229.74358974359,4126.666666666667,4386.153846153847
1399.5934,0.34631264,0.49925017,0.33333334,0.5522388,0,0.0,0.0,0.0,0.0,0.04821971,0,0,0.0,0.0,0,0,37.0,0.0,0.0,4674.358974358975,3966.1538461538466,4671.282051282052,4442.564102564103,4246.153846153847,4553.333333333334,4428.205128205129,4415.8974358974365,4400.512820512821,4772.820512820514,4340.512820512821,4228.717948717949,4135.384615384616,4412.307692307693
1399.8436,0.33686647,0.49331468,0.33333334,0.5522388,0,0.0,0.0,0.0,0.0,0.0,0,0,0.0,0.0,0,0,69.0,0.0,552.0,4718.461538461539,3981.538461538462,4731.794871794872,4433.333333333334,4250.256410256411,4557.435897435898,4429.743589743591,4433.846153846154,4425.641025641026,4787.179487179488,4344.615384615385,4245.128205128206,4167.6923076923085,4461.025641025642
1399.8436,0.33686647,0.49331468,0.33333334,0.5522388,0,0.0,0.0,0.0,0.0,0.0,0,0,0.0,0.0,0,0,69.0,0.0,552.0,4718.461538461539,3981.538461538462,4731.794871794872,4433.333333333334,4250.256410256411,4557.435897435898,4429.743589743591,4433.846153846154,4425.641025641026,4787.179487179488,4344.615384615385,4245.128205128206,4167.6923076923085,4461.025641025642
1400.2502,0.36520812,0.53400505,0.33333334,0.5522388,0,0.0,0.0,0.0,0.0,0.0,0,0,0.0,0.0,0,0,121.0,0.0,495.0,4720.000000000001,4002.0512820512827,4718.461538461539,4443.076923076924,4250.769230769231,4561.538461538462,4442.564102564103,4446.153846153847,4426.153846153847,4779.48717948718,4348.717948717949,4261.538461538462,4197.948717948719,4490.256410256411
1400.2502,0.36520812,0.53400505,0.33333334,0.5522388,0,0.0,0.0,0.0,0.0,0.0,0,0,0.0,0.0,0,0,121.0,0.0,495.0,4720.000000000001,4002.0512820512827,4718.461538461539,4443.076923076924,4250.769230769231,4561.538461538462,4442.564102564103,4446.153846153847,4426.153846153847,4779.48717948718,4348.717948717949,4261.538461538462,4197.948717948719,4490.256410256411
1400.7506,0.41987276,0.517868,0.33333334,0.5522388,0,0.0,0.0,0.0,0.0,0.0,0,0,0.0,0.0,0,0,56.0,0.0,0.0,4685.128205128206,3972.307692307693,4635.8974358974365,4438.461538461539,4238.461538461539,4552.820512820514,4456.410256410257,4440.512820512821,4398.461538461539,4721.025641025642,4345.128205128206,4247.6923076923085,4183.076923076924,4412.307692307693
1400.7506,0.41987276,0.517868,0.33333334,0.5522388,0,0.0,0.0,0.0,0.0,0.0,0,0,0.0,0.0,0,0,56.0,0.0,0.0,4685.128205128206,3972.307692307693,4635.8974358974365,4438.461538461539,4238.461538461539,4552.820512820514,4456.410256410257,4440.512820512821,4398.461538461539,4721.025641025642,4345.128205128206,4247.6923076923085,4183.076923076924,4412.307692307693
1401.2511,0.36117807,0.49685377,0.33333334,0.5522388,0,0.0,0.0,0.0,0.0,0.0,0,0,0.0,0.0,0,0,120.0,0.0,51.0,4634.358974358975,3957.435897435898,4552.307692307693,4445.128205128206,4246.153846153847,4553.846153846154,4457.948717948719,4439.48717948718,4386.153846153847,4696.923076923077,4342.051282051282,4255.384615384616,4169.2307692307695,4413.333333333334
1401.2511,0.36117807,0.49685377,0.33333334,0.5522388,0,0.0,0.0,0.0,0.0,0.0,0,0,0.0,0.0,0,0,120.0,0.0,51.0,4634.358974358975,3957.435897435898,4552.307692307693,4445.128205128206,4246.153846153847,4553.846153846154,4457.948717948719,4439.48717948718,4386.153846153847,4696.923076923077,4342.051282051282,4255.384615384616,4169.2307692307695,4413.333333333334
1401.7515,0.32710534,0.4728685,0.33333334,0.5522388,0,0.0,0.0,0.0,0.0,0.0,0,0,0.0,0.0,0,0,55.0,0.0,0.0,4618.974358974359,3899.48717948718,4486.666666666667,4445.641025641026,4236.923076923077,4539.48717948718,4477.435897435898,4476.923076923077,4407.179487179487,4735.8974358974365,4349.743589743591,4285.641025641026,4229.2307692307695,4462.564102564103
1402.0956,0.32710534,0.4728685,0.33333334,0.5522388,0,0.0,0.0,0.0,0.0,0.18993427,0,0,0.0,0.0,0,0,99.0,0.0,471.0,4604.615384615385,3918.461538461539,4469.743589743591,4444.615384615385,4248.205128205129,4550.256410256411,4474.871794871796,4453.333333333334,4412.307692307693,4724.615384615386,4350.256410256411,4292.307692307693,4221.025641025642,4492.307692307693
1402.3458,0.27467674,0.45430017,0.33333334,0.5522388,0,0.0,0.0,0.0,0.0,0.0,0,0,0.0,0.0,0,0,2.0,0.0,456.0,4597.948717948719,3921.538461538462,4454.358974358975,4451.794871794872,4260.512820512821,4557.435897435898,4491.794871794872,4473.846153846154,4420.000000000001,4737.948717948719,4352.820512820514,4287.179487179487,4200.000000000001,4487.6923076923085
1402.3458,0.27467674,0.45430017,0.33333334,0.5522388,0,0.0,0.0,0.0,0.0,0.0,0,0,0.0,0.0,0,0,2.0,0.0,456.0,4597.948717948719,3921.538461538462,4454.358974358975,4451.794871794872,4260.512820512821,4557.435897435898,4491.794871794872,4473.846153846154,4420.000000000001,4737.948717948719,4352.820512820514,4287.179487179487,4200.000000000001,4487.6923076923085
1402.7523,0.2543795,0.4384645,0.33333334,0.5522388,0,0.0,0.0,0.0,0.0,0.0,0,0,0.0,0.0,0,0,54.0,0.0,0.0,4563.589743589744,3965.6410256410263,4417.948717948719,4429.2307692307695,4238.461538461539,4538.461538461539,4441.538461538462,4394.871794871796,4371.794871794872,4648.205128205129,4330.769230769231,4218.461538461539,4071.2820512820517,4428.717948717949
1403.0964,0.2543795,0.4384645,0.33333334,0.5522388,0,0.0,0.0,0.0,0.0,0.111542314,0,0,0.0,0.0,0,0,98.0,0.0,525.0,4608.717948717949,4003.589743589744,4446.666666666667,4437.948717948719,4247.6923076923085,4540.512820512821,4451.794871794872,4417.948717948719,4383.076923076924,4678.461538461539,4340.512820512821,4261.025641025642,4121.025641025642,4477.948717948719
1403.3467,0.25393903,0.44782242,0.33333334,0.5522388,0,0.0,0.0,0.0,0.0,0.13333802,0,0,0.0,0.0,0,0,1.0,0.0,427.0,4591.794871794872,3970.7692307692314,4448.717948717949,4423.076923076924,4240.512820512821,4537.948717948719,4443.076923076924,4413.846153846154,4383.076923076924,4672.307692307693,4336.923076923077,4249.74358974359,4124.615384615385,4470.769230769231
1403.5968,0.25393903,0.44782242,0.33333334,0.5522388,0,0.0,0.0,0.0,0.0,0.107210845,0,0,0.0,0.0,0,0,33.0,0.0,0.0,4597.435897435898,3957.9487179487182,4456.410256410257,4427.179487179487,4247.179487179487,4540.512820512821,4446.666666666667,4428.205128205129,4387.6923076923085,4703.076923076924,4344.102564102564,4249.2307692307695,4139.48717948718,4456.923076923077
1403.847,0.18828878,0.4623375,0.33333334,0.5522388,0,0.0,0.0,0.0,0.0,0.19664223,0,0,0.0,0.0,0,0,65.0,0.0,427.0,4591.282051282052,3942.0512820512827,4475.384615384616,4429.2307692307695,4252.307692307693,4550.256410256411,4457.435897435898,4416.410256410257,4381.538461538462,4689.743589743591,4339.48717948718,4245.128205128206,4140.512820512821,4423.589743589744
1404.0973,0.18828878,0.4623375,0.33333334,0.5522388,0,0.0,0.0,0.0,0.0,0.0,0,0,0.0,0.0,0,0,97.0,0.0,495.0,4616.923076923077,3956.410256410257,4486.666666666667,4434.871794871796,4260.000000000001,4551.794871794872,4458.461538461539,4431.282051282052,4391.794871794872,4721.538461538462,4345.641025641026,4267.6923076923085,4168.717948717949,4424.615384615385
1404.2537,0.16146868,0.47067833,0.33333334,0.5522388,0,0.0,0.0,0.0,0.0,0.0,0,0,0.0,0.0,0,0,117.0,0.0,495.0,4614.358974358975,3956.9230769230776,4482.051282051282,4435.384615384616,4261.538461538462,4554.871794871796,4467.179487179487,4414.358974358975,4386.153846153847,4708.717948717949,4344.615384615385,4255.8974358974365,4158.974358974359,4415.384615384616
1404.2537,0.16146868,0.47067833,0.33333334,0.5522388,0,0.0,0.0,0.0,0.0,0.0,0,0,0.0,0.0,0,0,117.0,0.0,495.0,4614.358974358975,3956.9230769230776,4482.051282051282,4435.384615384616,4261.538461538462,4554.871794871796,4467.179487179487,4414.358974358975,4386.153846153847,4708.717948717949,4344.615384615385,4255.8974358974365,4158.974358974359,4415.384615384616
1404.7542,0.0752449,0.482986,0.33333334,0.5522388,0,0.0,0.0,0.0,0.0,0.0,0,0,0.0,0.0,0,0,52.0,0.0,0.0,4627.6923076923085,3970.2564102564106,4577.948717948719,4436.923076923077,4247.179487179487,4549.743589743591,4448.717948717949,4430.769230769231,4398.461538461539,4755.384615384616,4351.794871794872,4232.307692307693,4170.769230769231,4391.794871794872
1404.7542,0.0752449,0.482986,0.33333334,0.5522388,0,0.0,0.0,0.0,0.0,0.0,0,0,0.0,0.0,0,0,52.0,0.0,0.0,4627.6923076923085,3970.2564102564106,4577.948717948719,4436.923076923077,4247.179487179487,4549.743589743591,4448.717948717949,4430.769230769231,4398.461538461539,4755.384615384616,4351.794871794872,4232.307692307693,4170.769230769231,4391.794871794872
1405.2545,0.13393188,0.5169038,0.33333334,0.5522388,0,0.0,0.0,0.0,0.0,0.0,0,0,0.0,0.0,0,0,116.0,0.0,51.0,4702.564102564103,4004.615384615385,4693.333333333334,4448.205128205129,4261.025641025642,4570.769230769231,4446.153846153847,4417.435897435898,4399.48717948718,4767.179487179488,4353.846153846154,4244.615384615385,4200.512820512821,4452.820512820514
1405.5673,0.13393188,0.5169038,0.33333334,0.5522388,1,0.0,0.0,0.0,0.0,0.0,0,0,0.0,0.0,0,0,27.0,0.0,0.0,4737.948717948719,4015.8974358974365,4687.6923076923085,4432.820512820514,4248.717948717949,4563.589743589744,4457.435897435898,4430.769230769231,4386.666666666667,4756.410256410257,4355.8974358974365,4271.794871794872,4237.948717948719,4505.641025641026
1405.755,0.23901987,0.58459884,0.33333334,0.5522388,0,0.0,0.0,0.0,0.0,0.0,0,0,0.0,0.0,0,0,51.0,0.0,0.0,4763.589743589744,4055.8974358974365,4715.8974358974365,4491.282051282052,4294.358974358975,4608.205128205129,4504.102564102564,4507.6923076923085,4433.333333333334,4820.512820512821,4378.974358974359,4328.717948717949,4307.179487179487,4553.846153846154
1406.099,0.23901987,0.58459884,0.33333334,0.5522388,0,0.0,0.0,0.0,0.0,0.17956091,0,0,0.0,0.0,0,0,95.0,0.0,471.0,4648.205128205129,3957.9487179487182,4600.512820512821,4436.410256410257,4230.256410256411,4543.589743589744,4440.512820512821,4409.2307692307695,4385.641025641026,4704.102564102564,4342.564102564103,4231.282051282052,4183.589743589744,4446.153846153847
1406.3492,0.38202894,0.66111195,0.33333334,0.5522388,0,0.0,0.0,0.0,0.0,0.14677556,0,0,0.0,0.0,0,0,127.0,0.0,471.0,4609.2307692307695,3909.7435897435903,4558.974358974359,4428.717948717949,4220.512820512821,4536.410256410257,4440.000000000001,4411.282051282052,4394.358974358975,4720.000000000001,4344.102564102564,4217.948717948719,4185.641025641026,4456.410256410257
1406.5995,0.38202894,0.66111195,0.33333334,0.5522388,0,0.0,0.0,0.0,0.0,0.20404787,0,0,0.0,0.0,0,0,30.0,0.0,0.0,4602.051282051282,3917.9487179487182,4534.871794871796,4433.846153846154,4236.923076923077,4540.512820512821,4445.128205128206,4407.6923076923085,4395.8974358974365,4727.179487179488,4348.205128205129,4244.615384615385,4188.205128205129,4453.333333333334
1406.8496,0.29977262,0.7183142,0.33333334,0.5522388,0,0.0,0.0,0.0,0.0,0.0,0,0,0.0,0.0,0,0,62.0,0.0,0.0,4584.615384615385,3914.358974358975,4507.6923076923085,4429.743589743591,4232.820512820514,4538.461538461539,4449.743589743591,4408.717948717949,4393.333333333334,4712.307692307693,4343.589743589744,4259.48717948718,4186.153846153847,4445.641025641026
1406.8496,0.29977262,0.7183142,0.33333334,0.5522388,0,0.0,0.0,0.0,0.0,0.0,0,0,0.0,0.0,0,0,62.0,0.0,0.0,4584.615384615385,3914.358974358975,4507.6923076923085,4429.743589743591,4232.820512820514,4538.461538461539,4449.743589743591,4408.717948717949,4393.333333333334,4712.307692307693,4343.589743589744,4259.48717948718,4186.153846153847,4445.641025641026
1407.3501,0.33237252,0.7331088,0.33333334,0.5522388,0,0.0,0.0,0.0,0.0,0.7094504,0,0,0.0,0.0,0,0,126.0,0.0,525.0,4591.282051282052,3936.410256410257,4471.282051282052,4442.051282051282,4239.48717948718,4540.512820512821,4476.410256410257,4434.871794871796,4395.8974358974365,4713.333333333334,4347.6923076923085,4282.051282051282,4201.025641025642,4537.435897435898
1407.6003,0.33237252,0.7331088,0.33333334,0.5522388,0,0.0,0.0,0.0,0.0,0.51289994,0,0,0.0,0.0,0,0,29.0,0.0,0.0,4603.589743589744,3945.1282051282055,4475.384615384616,4450.769230769231,4248.717948717949,4552.307692307693,4473.333333333334,4431.794871794872,4397.948717948719,4727.179487179488,4351.794871794872,4313.333333333334,4220.000000000001,4602.564102564103
1407.8505,0.32099316,0.69438535,0.33333334,0.5522388,0,0.0,0.0,0.0,0.0,0.0,0,0,0.0,0.0,0,0,61.0,0.0,0.0,4573.333333333334,3933.333333333334,4465.128205128206,4475.384615384616,4264.615384615385,4567.179487179488,4484.615384615385,4461.025641025642,4414.358974358975,4750.769230769231,4361.025641025642,4289.74358974359,4201.025641025642,4574.358974358975
1407.8505,0.32099316,0.69438535,0.33333334,0.5522388,0,0.0,0.0,0.0,0.0,0.0,0,0,0.0,0.0,0,0,61.0,0.0,0.0,4573.333333333334,3933.333333333334,4465.128205128206,4475.384615384616,4264.615384615385,4567.179487179488,4484.615384615385,4461.025641025642,4414.358974358975,4750.769230769231,4361.025641025642,4289.74358974359,4201.025641025642,4574.358974358975
1408.2571,0.38582763,0.6550859,0.33333334,0.5522388,0,0.0,0.0,0.0,0.0,0.0,0,0,0.0,0.0,0,0,113.0,0.0,495.0,4563.589743589744,3928.205128205129,4446.153846153847,4454.871794871796,4247.6923076923085,4538.974358974359,4468.717948717949,4429.2307692307695,4400.000000000001,4736.923076923077,4353.333333333334,4268.717948717949,4188.205128205129,4570.256410256411
1408.2571,0.38582763,0.6550859,0.33333334,0.5522388,0,0.0,0.0,0.0,0.0,0.0,0,0,0.0,0.0,0,0,113.0,0.0,495.0,4563.589743589744,3928.205128205129,4446.153846153847,4454.871794871796,4247.6923076923085,4538.974358974359,4468.717948717949,4429.2307692307695,4400.000000000001,4736.923076923077,4353.333333333334,4268.717948717949,4188.205128205129,4570.256410256411
1408.7576,0.3955995,0.6195391,0.33333334,0.5522388,0,0.0,0.0,0.0,0.0,0.0,0,0,0.0,0.0,0,0,48.0,0.0,0.0,4598.974358974359,3946.666666666667,4468.717948717949,4458.461538461539,4262.564102564103,4556.410256410257,4473.333333333334,4443.589743589744,4421.025641025642,4750.256410256411,4354.871794871796,4280.000000000001,4197.435897435898,4522.564102564103
1409.1016,0.3955995,0.6195391,0.33333334,0.5522388,1,0.0,0.0,0.0,0.0,0.0,0,0,0.0,0.0,0,0,92.0,0.0,51.0,4660.512820512821,4022.0512820512827,4516.410256410257,4446.666666666667,4264.615384615385,4569.2307692307695,4477.435897435898,4416.410256410257,4408.717948717949,4750.769230769231,4361.538461538462,4344.102564102564,4268.717948717949,4556.923076923077
1409.3518,0.3877781,0.60205936,0.33333334,0.5522388,0,0.0,0.0,0.0,0.0,0.20672014,0,0,0.0,0.0,0,0,124.0,0.0,51.0,4607.179487179488,3953.333333333334,4476.410256410257,4447.6923076923085,4250.256410256411,4550.256410256411,4474.871794871796,4434.871794871796,4414.871794871796,4736.923076923077,4349.743589743591,4280.512820512821,4202.051282051282,4463.589743589744
1409.602,0.3877781,0.60205936,0.33333334,0.5522388,0,0.0,0.0,0.0,0.0,0.17879288,0,0,0.0,0.0,0,0,27.0,0.0,0.0,4624.615384615385,3956.410256410257,4489.743589743591,4462.564102564103,4263.076923076924,4557.435897435898,4480.512820512821,4438.461538461539,4398.461538461539,4744.615384615386,4350.256410256411,4280.000000000001,4216.923076923077,4470.256410256411
1409.8522,0.34100062,0.5843695,0.33333334,0.5522388,0,0.0,0.0,0.0,0.0,0.079314955,0,0,0.0,0.0,0,0,59.0,0.0,0.0,4630.256410256411,3959.48717948718,4489.2307692307695,4463.076923076924,4265.128205128206,4566.153846153847,4488.717948717949,4460.512820512821,4415.384615384616,4750.256410256411,4356.923076923077,4282.051282051282,4203.076923076924,4484.615384615385
1409.9773,0.34100062,0.5843695,0.33333334,0.5522388,0,0.0,0.0,0.0,0.0,0.0,0,0,0.0,0.0,0,0,75.0,0.0,471.0,4623.589743589744,3956.9230769230776,4485.128205128206,4470.769230769231,4266.153846153847,4569.2307692307695,4482.051282051282,4462.564102564103,4413.846153846154,4743.589743589744,4357.948717948719,4276.410256410257,4195.8974358974365,4472.307692307693
1410.2588,0.33099735,0.55597675,0.33333334,0.5522388,0,0.0,0.0,0.0,0.0,0.0,0,0,0.0,0.0,0,0,111.0,0.0,471.0,4602.051282051282,3929.7435897435903,4482.564102564103,4457.948717948719,4258.974358974359,4554.358974358975,4473.333333333334,4443.589743589744,4399.48717948718,4709.743589743591,4345.128205128206,4251.282051282052,4167.6923076923085,4460.000000000001
1410.6342,0.33099735,0.55597675,0.33333334,0.5522388,0,0.0,0.0,0.0,0.0,0.693061,0,0,0.0,0.0,0,0,30.0,0.0,0.0,4634.358974358975,3953.333333333334,4488.717948717949,4444.102564102564,4245.641025641026,4537.948717948719,4473.846153846154,4456.923076923077,4409.743589743591,4723.076923076924,4351.794871794872,4273.846153846154,4205.641025641026,4547.6923076923085
1410.853,0.3287796,0.53394145,0.33333334,0.5522388,1,0.0,0.0,0.0,0.0,0.21308242,0,0,0.0,0.0,0,0,58.0,0.0,0.0,4651.282051282052,3984.1025641025644,4509.2307692307695,4443.076923076924,4249.74358974359,4544.102564102564,4475.8974358974365,4427.6923076923085,4390.256410256411,4707.6923076923085,4349.743589743591,4279.48717948718,4191.794871794872,4553.333333333334
1411.1033,0.3287796,0.53394145,0.33333334,0.5522388,0,0.0,0.0,0.0,0.0,0.2072175,0,0,0.0,0.0,0,0,90.0,0.0,525.0,4745.641025641026,4150.256410256411,4543.076923076924,4421.025641025642,4248.205128205129,4546.666666666667,4456.923076923077,4430.769230769231,4388.205128205129,4692.820512820514,4352.820512820514,4348.717948717949,4267.179487179487,4645.641025641026
1411.3535,0.3647968,0.6107366,0.33333334,0.5522388,0,0.0,0.0,0.0,0.0,0.16741386,0,0,0.0,0.0,1,0,122.0,0.0,525.0,4596.923076923077,3905.1282051282055,4464.615384615385,4444.615384615385,4233.846153846154,4530.769230769231,4464.102564102564,4447.6923076923085,4402.051282051282,4710.769230769231,4346.153846153847,4234.358974358975,4158.461538461539,4460.000000000001
1411.6038,0.3647968,0.6107366,0.33333334,0.5522388,0,0.0,0.0,0.0,0.0,0.15960425,0,0,0.0,0.0,0,0,25.0,0.0,0.0,4578.461538461539,3891.7948717948725,4463.589743589744,4448.717948717949,4233.846153846154,4536.410256410257,4454.358974358975,4423.589743589744,4385.128205128206,4693.333333333334,4342.051282051282,4216.923076923077,4101.538461538462,4472.820512820514
1411.9165,0.38374135,0.7817514,0.33333334,0.5522388,1,0.0,0.0,0.0,0.0,0.32995725,0,0,0.0,0.0,0,0,65.0,0.0,427.0,4612.820512820514,3907.692307692308,4487.179487179488,4445.128205128206,4243.589743589744,4538.974358974359,4472.820512820514,4443.076923076924,4400.512820512821,4720.512820512821,4351.794871794872,4255.8974358974365,4167.6923076923085,4537.435897435898
1412.1041,0.38374135,0.7817514,0.33333334,0.5522388,0,0.0,0.0,0.0,0.0,0.24133764,0,0,0.0,0.0,0,0,89.0,0.0,495.0,4619.48717948718,3901.538461538462,4491.282051282052,4447.179487179487,4242.564102564103,4538.461538461539,4465.128205128206,4438.461538461539,4399.48717948718,4734.358974358975,4348.717948717949,4259.48717948718,4176.923076923077,4553.846153846154
1412.3544,0.4081094,1.0,0.33333334,0.5522388,0,0.0,0.0,0.0,0.0,0.21946606,0,0,0.0,0.0,0,0,121.0,0.0,495.0,4635.384615384616,3911.7948717948725,4504.102564102564,4430.769230769231,4239.48717948718,4541.025641025642,4490.769230769231,4462.051282051282,4411.282051282052,4720.000000000001,4353.333333333334,4277.948717948719,4173.846153846154,4582.564102564103
1412.4795,0.4081094,1.0,0.33333334,0.5522388,0,0.0,0.0,0.0,0.0,0.0,0,0,0.0,0.0,0,0,8.0,0.0,378.0,4628.717948717949,3903.076923076924,4492.307692307693,4445.128205128206,4241.538461538462,4540.512820512821,4472.820512820514,4430.769230769231,4392.307692307693,4717.435897435898,4349.2307692307695,4263.589743589744,4171.794871794872,4554.358974358975
1412.761,0.3312935,1.0,0.33333334,0.5522388,0,0.0,0.0,0.0,0.0,0.0,0,0,0.0,0.0,0,0,44.0,0.0,0.0,4622.564102564103,3926.1538461538466,4491.282051282052,4435.8974358974365,4243.076923076924,4536.923076923077,4457.435897435898,4412.820512820514,4389.743589743591,4685.641025641026,4343.589743589744,4249.2307692307695,4142.051282051282,4555.384615384616
1412.761,0.3312935,1.0,0.33333334,0.5522388,0,0.0,0.0,0.0,0.0,0.0,0,0,0.0,0.0,0,0,44.0,0.0,0.0,4622.564102564103,3926.1538461538466,4491.282051282052,4435.8974358974365,4243.076923076924,4536.923076923077,4457.435897435898,4412.820512820514,4389.743589743591,4685.641025641026,4343.589743589744,4249.2307692307695,4142.051282051282,4555.384615384616
