timestamp,excitement,frustration,meditation,engagementBoredom,blink,clench,laugh,smile,eyebrow,furrowBrow,lookLeft,lookRight,smirkLeft,smirkRight,winkLeft,winkRight,eeg0,eeg1,eeg2,eeg3,eeg4,eeg5,eeg6,eeg7,eeg8,eeg9,eeg10,eeg11,eeg12,eeg13,eeg14,eeg15,eeg16
1654.5547,1.0,0.7243721,0.33333334,0.5522388,0,0.0,0.0,0.0,0.0,0.0,0,0,0.28619426,0.0,0,0,10.0,0.0,528.0,4638.461538461539,4973.846153846154,4526.666666666667,4392.307692307693,4326.666666666667,4621.025641025642,4521.025641025642,4533.333333333334,4495.384615384616,4787.179487179488,4522.564102564103,4225.641025641026,4156.410256410257,4545.641025641026
1654.8049,1.0,0.7243721,0.33333334,0.5522388,0,0.0,0.0,0.0,0.0,0.0827345,0,0,0.0,0.0,0,0,42.0,0.0,0.0,4618.974358974359,6117.948717948719,4495.8974358974365,4409.743589743591,4337.948717948719,4641.025641025642,4465.128205128206,4455.8974358974365,4446.153846153847,4730.769230769231,4518.974358974359,4198.974358974359,4125.641025641026,4517.435897435898
1655.0552,1.0,0.73828846,0.33333334,0.5522388,0,0.0,0.0,0.0,0.0,0.0,0,0,0.3009846,0.0,1,0,74.0,0.0,528.0,4732.820512820514,6900.000000000001,4575.384615384616,4412.820512820514,4374.358974358975,4674.358974358975,4484.615384615385,4503.589743589744,4467.179487179487,4788.205128205129,4548.717948717949,4345.641025641026,4295.8974358974365,4633.846153846154
1655.3679,1.0,0.73828846,0.33333334,0.5522388,0,0.0,0.0,0.0,0.0,0.0,0,0,0.25334296,0.0,0,0,114.0,0.0,528.0,4594.871794871796,7210.256410256411,4494.871794871796,4444.615384615385,4378.461538461539,4672.820512820514,4478.461538461539,4535.384615384616,4482.564102564103,4769.743589743591,4535.384615384616,4220.512820512821,4170.769230769231,4460.000000000001
1655.5555,1.0,0.75081325,0.33333334,0.5522388,0,0.0,0.0,0.0,0.0,0.57388705,0,0,0.0,0.0,0,0,9.0,0.0,480.0,4556.410256410257,7100.512820512821,4484.102564102564,4453.846153846154,4363.589743589744,4669.743589743591,4476.410256410257,4499.48717948718,4452.307692307693,4748.717948717949,4524.615384615385,4208.717948717949,4150.256410256411,4413.846153846154
1655.8058,1.0,0.75081325,0.33333334,0.5522388,0,0.0,0.0,0.0,0.0,0.038408406,0,0,0.0,0.0,0,0,41.0,0.0,0.0,4539.48717948718,6739.487179487181,4464.102564102564,4451.282051282052,4335.8974358974365,4641.025641025642,4440.000000000001,4396.410256410257,4421.025641025642,4715.384615384616,4497.435897435898,4187.179487179487,4109.2307692307695,4346.153846153847
1656.056,1.0,0.7620855,0.33333334,0.5522388,0,0.0,0.0,0.0,0.0,0.015555839,0,0,0.0,0.0,0,0,73.0,0.0,480.0,4537.435897435898,6585.128205128206,4474.871794871796,4455.384615384616,4326.666666666667,4643.589743589744,4460.512820512821,4469.743589743591,4443.076923076924,4756.923076923077,4500.512820512821,4206.666666666667,4130.256410256411,4329.2307692307695
1656.3062,1.0,0.7620855,0.33333334,0.5522388,0,0.0,0.0,0.0,0.0,0.0,0,0,0.15677127,0.0,1,0,105.0,0.0,496.0,4597.948717948719,6891.282051282052,4518.974358974359,4375.8974358974365,4342.564102564103,4654.871794871796,4442.564102564103,4462.051282051282,4455.384615384616,4776.410256410257,4512.820512820514,4287.179487179487,4233.846153846154,4414.358974358975
1656.5564,1.0,0.77223057,0.33333334,0.5522388,0,0.0,0.0,0.0,0.0,0.0,0,0,0.12911251,0.0,0,0,8.0,0.0,379.0,4586.666666666667,4020.5128205128212,4466.153846153847,4059.48717948718,4119.48717948718,4458.461538461539,4456.923076923077,4494.358974358975,4444.615384615385,4710.256410256411,4460.000000000001,4295.384615384616,4203.076923076924,4788.205128205129
1656.8066,1.0,0.77223057,0.33333334,0.5522388,0,0.0,0.0,0.0,0.0,0.0,0,0,0.25779644,0.0,0,0,40.0,0.0,0.0,4455.384615384616,4818.974358974359,4316.410256410257,4591.794871794872,4009.7435897435903,4383.589743589744,4324.615384615385,4332.307692307693,4347.179487179487,4538.461538461539,4416.923076923077,4133.333333333334,4018.461538461539,4792.820512820514
1657.0569,1.0,0.7813611,0.33333334,0.5522388,0,0.0,0.0,0.0,0.0,0.0,0,0,0.17543204,0.0,0,0,72.0,0.0,379.0,4427.179487179487,5244.615384615386,4283.076923076924,4538.461538461539,4042.564102564103,4391.282051282052,4318.461538461539,4350.256410256411,4340.512820512821,4557.948717948719,4404.102564102564,4104.615384615385,4011.7948717948725,4628.717948717949
1657.3071,1.0,0.7813611,0.33333334,0.5522388,0,0.0,0.0,0.0,0.0,0.18486612,0,0,0.0,0.0,0,0,104.0,0.0,52.0,4455.384615384616,5434.871794871796,4252.307692307693,4485.128205128206,4058.9743589743593,4397.435897435898,4282.564102564103,4264.102564102564,4295.8974358974365,4490.769230769231,4368.717948717949,4068.205128205129,3963.589743589744,4481.538461538462
1657.5573,1.0,0.78957856,0.33333334,0.5522388,0,0.0,0.0,0.0,0.0,0.30059978,0,0,0.0,0.0,0,0,7.0,0.0,468.0,4506.666666666667,4875.8974358974365,4247.6923076923085,4441.538461538462,4073.8461538461543,4412.820512820514,4266.153846153847,4225.641025641026,4285.641025641026,4492.307692307693,4351.282051282052,4061.0256410256416,3993.8461538461543,4468.717948717949
1657.8075,1.0,0.78957856,0.33333334,0.5522388,0,0.0,0.0,0.0,0.0,0.6425749,0,0,0.0,0.0,0,0,39.0,0.0,0.0,4561.025641025642,4865.641025641026,4324.615384615385,4428.717948717949,4123.076923076924,4493.333333333334,4315.384615384616,4292.307692307693,4316.923076923077,4595.384615384616,4366.666666666667,4135.8974358974365,4086.666666666667,4622.051282051282
1658.0577,1.0,0.7969743,0.33333334,0.5522388,0,0.0,0.0,0.0,0.0,0.13682319,0,0,0.0,0.0,0,0,71.0,0.0,468.0,4606.666666666667,1944.6153846153848,4411.794871794872,4450.256410256411,4083.589743589744,4414.871794871796,4376.410256410257,4337.948717948719,4308.205128205129,4630.769230769231,4333.846153846154,4208.717948717949,4162.564102564103,4750.769230769231
1658.308,1.0,0.7969743,0.33333334,0.5522388,0,0.0,0.0,0.0,0.0,0.17062308,0,0,0.0,0.0,0,0,103.0,0.0,465.0,4662.564102564103,688.2051282051283,4488.205128205129,4449.2307692307695,3988.717948717949,4296.923076923077,4417.948717948719,4369.2307692307695,4333.846153846154,4634.358974358975,4308.205128205129,4269.74358974359,4202.564102564103,4793.846153846154
1658.5581,1.0,0.8036305,0.33333334,0.5522388,0,0.0,0.0,0.0,0.0,0.05116429,0,0,0.0,0.0,0,0,6.0,0.0,549.0,4628.717948717949,642.5641025641027,4511.282051282052,4456.410256410257,4014.358974358975,4308.205128205129,4489.743589743591,4497.948717948719,4402.564102564103,4711.794871794872,4318.461538461539,4277.435897435898,4207.179487179487,4742.564102564103
1658.8083,1.0,0.8036305,0.33333334,0.5522388,0,0.0,0.0,0.0,0.0,0.20590077,0,0,0.0,0.0,0,0,38.0,0.0,0.0,4649.2307692307695,2262.564102564103,4537.435897435898,4463.076923076924,4176.923076923077,4476.923076923077,4491.282051282052,4498.974358974359,4410.256410256411,4756.923076923077,4354.871794871796,4323.589743589744,4264.615384615385,4727.6923076923085
1659.0586,0.98778415,0.80962104,0.33333334,0.5522388,0,0.0,0.0,0.0,0.0,0.15903795,0,0,0.0,0.0,0,0,70.0,0.0,549.0,4649.743589743591,3185.1282051282055,4549.743589743591,3969.2307692307695,4248.205128205129,4545.128205128206,4494.871794871796,4476.923076923077,4412.820512820514,4715.8974358974365,4353.846153846154,4307.179487179487,4200.512820512821,4641.538461538462
1659.3088,0.98778415,0.80962104,0.33333334,0.5522388,0,0.0,0.0,0.0,0.0,0.2449432,0,0,0.0,0.0,0,0,102.0,0.0,528.0,4684.615384615386,4102.051282051282,4571.794871794872,4011.2820512820517,4280.000000000001,4585.641025641026,4508.717948717949,4493.333333333334,4430.256410256411,4763.076923076924,4377.948717948719,4356.410256410257,4262.051282051282,4617.948717948719
1659.559,1.0,0.8150125,0.33333334,0.5522388,0,0.0,0.0,0.0,0.0,0.0,0,0,0.19151072,0.0,0,0,5.0,0.0,556.0,4660.000000000001,4006.1538461538466,4551.282051282052,4289.2307692307695,4264.615384615385,4571.794871794872,4504.615384615385,4492.820512820514,4424.102564102564,4774.358974358975,4385.641025641026,4348.205128205129,4250.769230769231,4513.846153846154
1659.8092,1.0,0.8150125,0.33333334,0.5522388,0,0.0,0.0,0.0,0.0,0.0,0,0,0.20103452,0.0,0,0,37.0,0.0,0.0,4655.8974358974365,4254.358974358975,4530.769230769231,4667.6923076923085,4258.461538461539,4569.2307692307695,4493.333333333334,4467.179487179487,4431.282051282052,4751.794871794872,4389.2307692307695,4334.358974358975,4245.641025641026,4488.717948717949
1660.0594,1.0,0.81986487,0.33333334,0.5522388,0,0.0,0.0,0.0,0.0,0.0,0,0,0.23068129,0.0,0,0,69.0,0.0,556.0,4634.871794871796,5221.025641025642,4522.564102564103,4629.2307692307695,4261.538461538462,4569.743589743591,4473.333333333334,4442.051282051282,4425.641025641026,4753.333333333334,4401.025641025642,4308.717948717949,4229.2307692307695,4432.820512820514
1660.3097,1.0,0.81986487,0.33333334,0.5522388,0,0.0,0.0,0.0,0.0,0.15634377,0,0,0.0,0.0,0,0,101.0,0.0,496.0,4625.641025641026,7498.461538461539,4525.128205128206,4602.051282051282,4405.128205128206,4694.358974358975,4490.256410256411,4482.051282051282,4452.820512820514,4779.48717948718,4445.128205128206,4310.769230769231,4227.6923076923085,4367.6923076923085
1660.5598,0.94807434,0.7671604,0.33333334,0.5522388,0,0.0,0.0,0.0,0.0,0.16867629,0,0,0.0,0.0,0,0,4.0,0.0,554.0,4616.923076923077,7306.666666666668,4521.538461538462,4584.102564102564,4388.717948717949,4687.179487179488,4491.794871794872,4467.179487179487,4445.641025641026,4781.025641025642,4437.435897435898,4295.8974358974365,4215.384615384616,4254.871794871796
1660.81,0.94807434,0.7671604,0.33333334,0.5522388,0,0.0,0.0,0.0,0.0,0.08116408,0,0,0.0,0.0,0,0,36.0,0.0,0.0,4618.974358974359,6802.051282051283,4528.205128205129,4557.435897435898,4367.6923076923085,4670.769230769231,4505.641025641026,4497.435897435898,4447.179487179487,4770.769230769231,4426.153846153847,4298.974358974359,4207.179487179487,4268.717948717949
1661.0603,0.94819117,0.72414535,0.33333334,0.5522388,0,0.0,0.0,0.0,0.0,0.1060313,0,0,0.0,0.0,0,0,68.0,0.0,553.0,4646.666666666667,6673.333333333334,4545.128205128206,4548.205128205129,4372.820512820514,4673.333333333334,4482.564102564103,4429.2307692307695,4429.743589743591,4752.820512820514,4415.384615384616,4309.743589743591,4202.564102564103,4254.358974358975
1661.3105,0.94819117,0.72414535,0.33333334,0.5522388,0,0.0,0.0,0.0,0.0,0.118244536,0,0,0.0,0.0,0,0,100.0,0.0,52.0,4625.128205128206,6708.717948717949,4533.846153846154,4531.794871794872,4356.923076923077,4663.076923076924,4486.153846153847,4472.820512820514,4459.48717948718,4809.2307692307695,4426.153846153847,4315.384615384616,4261.025641025642,4192.820512820514
1661.5607,0.9818643,0.6697529,0.33333334,0.5522388,0,0.0,0.0,0.0,0.0,0.24828146,0,0,0.0,0.0,0,0,3.0,0.0,450.0,4619.48717948718,6458.974358974359,4519.48717948718,4520.000000000001,4344.615384615385,4647.6923076923085,4479.48717948718,4463.076923076924,4441.538461538462,4793.846153846154,4420.000000000001,4293.333333333334,4244.102564102564,4153.333333333334
1661.8109,0.9818643,0.6697529,0.33333334,0.5522388,0,0.0,0.0,0.0,0.0,0.110072814,0,0,0.0,0.0,0,0,35.0,0.0,0.0,4622.564102564103,6424.615384615386,4520.000000000001,4511.282051282052,4343.076923076924,4649.2307692307695,4494.871794871796,4475.8974358974365,4444.102564102564,4791.794871794872,4416.410256410257,4295.8974358974365,4229.2307692307695,4119.48717948718
1662.0612,0.9648858,0.6176006,0.33333334,0.5522388,0,0.0,0.0,0.0,0.0,0.116118886,0,0,0.0,0.0,0,0,67.0,0.0,455.0,4620.000000000001,6406.666666666668,4514.871794871796,4497.948717948719,4339.48717948718,4646.153846153847,4464.102564102564,4427.6923076923085,4415.384615384616,4735.384615384616,4403.076923076924,4268.717948717949,4154.871794871796,4053.8461538461543
1662.3114,0.9648858,0.6176006,0.33333334,0.5522388,0,0.0,0.0,0.0,0.0,0.17896958,0,0,0.0,0.0,0,0,99.0,0.0,471.0,4680.512820512821,6303.589743589744,4545.128205128206,4475.384615384616,4341.538461538462,4646.666666666667,4480.000000000001,4446.666666666667,4424.615384615385,4751.794871794872,4403.589743589744,4317.435897435898,4215.384615384616,4077.9487179487187
1662.5615,1.0,0.57813144,0.33333334,0.5522388,0,0.0,0.0,0.0,0.0,0.20516258,0,0,0.0,0.0,0,0,2.0,0.0,453.0,4634.358974358975,6125.128205128206,4519.48717948718,4472.820512820514,4312.307692307693,4629.2307692307695,4475.8974358974365,4466.666666666667,4443.076923076924,4764.102564102564,4404.615384615385,4285.128205128206,4201.025641025642,3954.8717948717954
1662.8118,1.0,0.57813144,0.33333334,0.5522388,0,0.0,0.0,0.0,0.0,0.15801774,0,0,0.0,0.0,0,0,34.0,0.0,0.0,4648.717948717949,6070.256410256411,4526.153846153847,4465.641025641026,4308.717948717949,4616.410256410257,4477.948717948719,4466.153846153847,4441.025641025642,4777.435897435898,4401.025641025642,4311.794871794872,4230.256410256411,3989.23076923077
1663.062,0.861835,0.60240954,0.33333334,0.5522388,0,0.0,0.0,0.0,0.0,0.13435443,0,0,0.0,0.0,0,0,66.0,0.0,453.0,4642.564102564103,6028.205128205129,4523.076923076924,4465.128205128206,4310.256410256411,4620.512820512821,4474.358974358975,4456.410256410257,4431.794871794872,4750.769230769231,4394.358974358975,4296.923076923077,4206.666666666667,4019.48717948718
1663.3123,0.861835,0.60240954,0.33333334,0.5522388,0,0.0,0.0,0.0,0.0,0.0,0,0,0.18608823,0.0,0,0,98.0,0.0,528.0,4598.974358974359,6070.769230769231,4502.051282051282,4471.282051282052,4318.461538461539,4623.589743589744,4482.564102564103,4488.717948717949,4445.641025641026,4753.333333333334,4398.974358974359,4256.923076923077,4176.410256410257,4043.589743589744
1663.5625,0.83552164,0.59159106,0.33333334,0.5522388,0,0.0,0.0,0.0,0.0,0.0,0,0,0.22111195,0.0,0,0,1.0,0.0,408.0,4609.2307692307695,6021.538461538462,4510.769230769231,4472.307692307693,4310.769230769231,4618.461538461539,4465.128205128206,4483.076923076924,4452.820512820514,4797.948717948719,4403.589743589744,4284.102564102564,4225.128205128206,4073.8461538461543
1663.8126,0.83552164,0.59159106,0.33333334,0.5522388,0,0.0,0.0,0.0,0.0,0.0,0,0,0.08000623,0.0,0,0,33.0,0.0,0.0,4582.051282051282,5909.23076923077,4492.307692307693,4471.282051282052,4305.641025641026,4611.282051282052,4474.871794871796,4455.8974358974365,4424.615384615385,4757.948717948719,4398.974358974359,4245.641025641026,4182.564102564103,4068.717948717949
1664.0629,0.8292737,0.5614067,0.33333334,0.5522388,0,0.0,0.0,0.0,0.0,0.024957396,0,0,0.0,0.0,0,0,65.0,0.0,408.0,4613.846153846154,6085.128205128206,4520.512820512821,4475.384615384616,4318.974358974359,4633.333333333334,4491.794871794872,4493.333333333334,4459.48717948718,4789.2307692307695,4406.153846153847,4291.282051282052,4244.102564102564,4071.2820512820517
1664.3131,0.8292737,0.5614067,0.33333334,0.5522388,0,0.0,0.0,0.0,0.0,0.09560122,0,0,0.0,0.0,0,0,97.0,0.0,496.0,4604.615384615385,5277.948717948719,4507.179487179488,4459.48717948718,4262.564102564103,4570.769230769231,4459.48717948718,4466.666666666667,4443.589743589744,4755.8974358974365,4382.564102564103,4258.974358974359,4202.564102564103,4020.0000000000005
1664.5634,0.7961357,0.50615156,0.33333334,0.5522388,0,0.0,0.0,0.0,0.0,0.07360762,0,0,0.0,0.0,0,0,0.0,0.0,483.0,4598.461538461539,6365.641025641026,4504.615384615385,4474.358974358975,4327.179487179487,4634.358974358975,4475.384615384616,4478.461538461539,4455.8974358974365,4763.076923076924,4397.948717948719,4253.333333333334,4202.051282051282,4038.461538461539
1664.8135,0.7961357,0.50615156,0.33333334,0.5522388,0,0.0,0.0,0.0,0.0,0.07358775,0,0,0.0,0.0,0,0,32.0,0.0,0.0,4596.410256410257,6630.769230769231,4511.282051282052,4475.8974358974365,4351.282051282052,4657.948717948719,4481.025641025642,4484.615384615385,4450.256410256411,4774.358974358975,4410.769230769231,4272.820512820514,4221.025641025642,4109.2307692307695
1665.0637,0.69393283,0.4427429,0.33333334,0.5522388,0,0.0,0.0,0.0,0.0,0.24042077,0,0,0.0,0.0,0,0,64.0,0.0,483.0,4600.512820512821,6696.923076923078,4519.48717948718,4470.256410256411,4355.384615384616,4662.051282051282,4470.769230769231,4449.2307692307695,4442.051282051282,4754.358974358975,4408.205128205129,4275.384615384616,4220.512820512821,4220.000000000001
1665.314,0.69393283,0.4427429,0.33333334,0.5522388,0,0.0,0.0,0.0,0.0,0.82686716,0,0,0.0,0.0,0,0,96.0,0.0,52.0,4609.2307692307695,6494.3589743589755,4523.076923076924,4471.282051282052,4343.076923076924,4646.666666666667,4456.923076923077,4457.435897435898,4441.025641025642,4754.871794871796,4406.666666666667,4276.410256410257,4217.435897435898,4308.717948717949
1665.5642,0.64043266,0.38932022,0.33333334,0.5522388,0,0.0,0.0,0.0,0.0,0.43229035,0,0,0.0,0.0,0,0,128.0,0.0,52.0,4633.846153846154,6372.820512820514,4521.538461538462,4467.6923076923085,4334.871794871796,4635.8974358974365,4449.2307692307695,4452.307692307693,4440.000000000001,4747.6923076923085,4407.179487179487,4282.564102564103,4230.769230769231,4217.948717948719
1665.8143,0.64043266,0.38932022,0.33333334,0.5522388,0,0.0,0.0,0.0,0.0,0.35715324,0,0,0.0,0.0,0,0,31.0,0.0,0.0,4627.179487179488,6273.846153846154,4526.153846153847,4458.974358974359,4327.179487179487,4631.282051282052,4462.051282051282,4474.871794871796,4444.615384615385,4757.435897435898,4402.564102564103,4286.666666666667,4235.8974358974365,4211.794871794872
1666.0646,0.62477934,0.3507792,0.33333334,0.5522388,0,0.0,0.0,0.0,0.0,0.10754229,0,0,0.0,0.0,0,0,63.0,0.0,0.0,4648.205128205129,6147.179487179488,4551.282051282052,4458.461538461539,4330.769230769231,4631.282051282052,4467.6923076923085,4477.948717948719,4430.256410256411,4724.102564102564,4390.256410256411,4295.384615384616,4204.102564102564,4243.589743589744
1666.3148,0.62477934,0.3507792,0.33333334,0.5522388,0,0.0,0.0,0.0,0.0,0.09293889,0,0,0.0,0.0,0,0,95.0,0.0,472.0,4644.102564102564,6250.256410256411,4537.435897435898,4461.025641025642,4328.205128205129,4630.256410256411,4463.076923076924,4472.307692307693,4428.717948717949,4733.333333333334,4393.333333333334,4285.641025641026,4213.846153846154,4201.538461538462
1666.5651,0.6904509,0.33197203,0.33333334,0.5522388,0,0.0,0.0,0.0,0.0,0.0,0,0,0.071616076,0.0,0,0,127.0,0.0,472.0,4666.666666666667,6081.538461538462,4551.794871794872,4442.564102564103,4317.948717948719,4623.076923076924,4456.923076923077,4454.871794871796,4426.666666666667,4727.6923076923085,4388.205128205129,4296.410256410257,4231.794871794872,4199.48717948718
1666.8152,0.6904509,0.33197203,0.33333334,0.5522388,0,0.0,0.0,0.0,0.0,0.08932897,0,0,0.0,0.0,0,0,30.0,0.0,0.0,4676.923076923077,6219.487179487181,4557.435897435898,4465.641025641026,4343.589743589744,4648.205128205129,4473.846153846154,4472.820512820514,4445.641025641026,4753.333333333334,4393.846153846154,4312.307692307693,4264.615384615385,4201.538461538462
1667.0654,0.7163702,0.34335965,0.33333334,0.5522388,0,0.0,0.0,0.0,0.0,0.057344496,0,0,0.0,0.0,0,0,62.0,0.0,0.0,4623.076923076924,5988.717948717949,4529.2307692307695,4474.358974358975,4324.102564102564,4627.179487179488,4476.923076923077,4479.48717948718,4449.743589743591,4757.435897435898,4390.256410256411,4277.435897435898,4269.2307692307695,4166.153846153847
1667.3157,0.7163702,0.34335965,0.33333334,0.5522388,0,0.0,0.0,0.0,0.0,0.048916563,0,0,0.0,0.0,0,0,94.0,0.0,528.0,4604.615384615385,5880.000000000001,4519.48717948718,4451.794871794872,4297.948717948719,4603.076923076924,4449.743589743591,4440.000000000001,4411.282051282052,4736.923076923077,4379.48717948718,4261.025641025642,4267.179487179487,4152.820512820514
1667.5659,0.8404058,0.36648157,0.33333334,0.5522388,0,0.0,0.0,0.0,0.0,0.12244543,0,0,0.0,0.0,1,0,126.0,0.0,528.0,4632.307692307693,5886.153846153847,4537.948717948719,4433.846153846154,4298.461538461539,4600.512820512821,4476.410256410257,4479.48717948718,4409.743589743591,4715.8974358974365,4373.333333333334,4286.666666666667,4264.615384615385,4154.358974358975
1667.8787,0.8404058,0.36648157,0.33333334,0.5522388,0,0.0,0.0,0.0,0.0,0.06222397,0,1,0.0,0.0,0,0,37.0,0.0,0.0,4634.871794871796,5623.589743589744,4537.435897435898,4436.923076923077,4289.74358974359,4588.717948717949,4475.384615384616,4480.512820512821,4422.564102564103,4749.743589743591,4375.8974358974365,4297.435897435898,4298.974358974359,4169.74358974359
1668.0663,0.8542899,0.4522319,0.33333334,0.5522388,0,0.0,0.0,0.0,0.0,0.086343355,0,1,0.0,0.0,0,0,61.0,0.0,0.0,4631.794871794872,4626.153846153847,4536.410256410257,4430.769230769231,4249.74358974359,4555.8974358974365,4476.923076923077,4493.846153846154,4417.948717948719,4744.102564102564,4361.538461538462,4297.948717948719,4299.48717948718,4167.179487179487
1668.3165,0.8542899,0.4522319,0.33333334,0.5522388,0,0.0,0.0,0.0,0.0,0.11696453,0,1,0.0,0.0,0,0,93.0,0.0,496.0,4625.641025641026,4818.974358974359,4532.820512820514,4441.538461538462,4249.74358974359,4550.769230769231,4456.410256410257,4453.333333333334,4422.051282051282,4733.333333333334,4357.435897435898,4291.794871794872,4298.974358974359,4247.179487179487
1668.5668,0.96177506,0.5286976,0.33333334,0.5522388,0,0.0,0.0,0.0,0.0,0.20744482,0,1,0.0,0.0,0,0,125.0,0.0,496.0,4649.743589743591,5229.743589743591,4566.153846153847,4476.410256410257,4317.435897435898,4617.948717948719,4506.153846153847,4513.333333333334,4458.974358974359,4763.589743589744,4383.589743589744,4314.358974358975,4307.179487179487,4341.538461538462
1668.817,0.96177506,0.5286976,0.33333334,0.5522388,0,0.0,0.0,0.0,0.0,0.12367824,0,1,0.0,0.0,0,0,28.0,0.0,0.0,4612.820512820514,5223.589743589744,4524.615384615385,4431.794871794872,4266.666666666667,4570.256410256411,4465.641025641026,4462.564102564103,4437.948717948719,4735.384615384616,4370.256410256411,4277.948717948719,4272.307692307693,4367.179487179487
1669.0671,1.0,0.5343134,0.33333334,0.5522388,0,0.0,0.0,0.0,0.0,0.21829401,0,0,0.0,0.0,0,0,60.0,0.0,0.0,4586.153846153847,5165.641025641026,4480.000000000001,4437.948717948719,4250.256410256411,4556.410256410257,4445.128205128206,4422.564102564103,4420.000000000001,4702.051282051282,4356.410256410257,4225.641025641026,4205.128205128206,4306.666666666667
1669.3174,1.0,0.5343134,0.33333334,0.5522388,0,0.0,0.0,0.0,0.0,0.1917989,0,0,0.0,0.0,0,0,92.0,0.0,52.0,4570.256410256411,4989.743589743591,4476.410256410257,4427.6923076923085,4248.717948717949,4546.153846153847,4444.102564102564,4421.538461538462,4413.846153846154,4690.769230769231,4348.717948717949,4211.794871794872,4178.974358974359,4269.74358974359
1669.5676,1.0,0.5393742,0.33333334,0.5522388,0,0.0,0.0,0.0,0.0,0.1478545,0,0,0.0,0.0,0,0,124.0,0.0,52.0,4586.153846153847,4813.333333333334,4491.282051282052,4441.025641025642,4245.128205128206,4545.641025641026,4445.128205128206,4432.307692307693,4415.384615384616,4683.076923076924,4345.641025641026,4218.974358974359,4142.564102564103,4325.641025641026
1669.8179,1.0,0.5393742,0.33333334,0.5522388,0,0.0,0.0,0.0,0.0,0.16141894,0,0,0.0,0.0,0,0,27.0,0.0,0.0,4580.512820512821,4987.6923076923085,4481.538461538462,4429.2307692307695,4233.846153846154,4540.512820512821,4448.205128205129,4446.666666666667,4427.179487179487,4724.615384615386,4348.205128205129,4233.333333333334,4209.74358974359,4364.615384615385
1670.068,1.0,0.5439289,0.33333334,0.5522388,0,0.0,0.0,0.0,0.0,0.36135986,0,0,0.0,0.0,0,0,59.0,0.0,0.0,4594.871794871796,4804.102564102564,4494.871794871796,4443.076923076924,4242.564102564103,4542.564102564103,4445.641025641026,4441.025641025642,4425.641025641026,4728.717948717949,4348.205128205129,4242.564102564103,4204.615384615385,4482.051282051282
1670.3182,1.0,0.5439289,0.33333334,0.5522388,0,0.0,0.0,0.0,0.0,0.9572709,0,0,0.0,0.0,0,0,91.0,0.0,474.0,4631.282051282052,4407.179487179487,4508.205128205129,4427.179487179487,4236.923076923077,4544.615384615385,4471.794871794872,4474.871794871796,4441.025641025642,4783.076923076924,4358.461538461539,4281.025641025642,4322.564102564103,4665.641025641026
1670.5685,1.0,0.54802823,0.33333334,0.5522388,0,0.0,0.0,0.0,0.0,0.8900416,0,0,0.0,0.0,0,0,123.0,0.0,474.0,4620.000000000001,4598.974358974359,4513.846153846154,4438.974358974359,4232.307692307693,4543.589743589744,4457.435897435898,4448.717948717949,4425.641025641026,4776.923076923077,4360.512820512821,4290.256410256411,4300.000000000001,4746.153846153847
1670.8187,1.0,0.54802823,0.33333334,0.5522388,0,0.0,0.0,0.0,0.0,0.21928932,0,0,0.0,0.0,0,0,26.0,0.0,0.0,4580.512820512821,4521.025641025642,4488.205128205129,4428.205128205129,4233.846153846154,4544.615384615385,4454.358974358975,4445.128205128206,4423.076923076924,4694.871794871796,4345.128205128206,4212.820512820514,4151.794871794872,4741.538461538462
1671.0688,0.9278048,0.5517176,0.33333334,0.5522388,0,0.0,0.0,0.0,0.0,0.09963804,0,0,0.0,0.0,0,0,58.0,0.0,0.0,4596.410256410257,4492.820512820514,4498.974358974359,4434.358974358975,4244.615384615385,4550.769230769231,4438.461538461539,4414.871794871796,4422.051282051282,4697.435897435898,4343.589743589744,4237.435897435898,4183.589743589744,4703.589743589744
1671.3191,0.9278048,0.5517176,0.33333334,0.5522388,0,0.0,0.0,0.0,0.0,0.23969263,1,0,0.0,0.0,0,0,90.0,0.0,528.0,4574.871794871796,4391.282051282052,4489.743589743591,4435.384615384616,4247.179487179487,4553.846153846154,4442.051282051282,4418.974358974359,4407.179487179487,4648.717948717949,4330.769230769231,4190.769230769231,4090.7692307692314,4601.538461538462
1671.5693,1.0,0.54502976,0.33333334,0.5522388,0,0.0,0.0,0.0,0.0,0.08891563,1,0,0.0,0.0,0,0,122.0,0.0,528.0,4609.2307692307695,4541.538461538462,4517.435897435898,4437.948717948719,4245.128205128206,4554.871794871796,4474.358974358975,4457.435897435898,4428.205128205129,4728.205128205129,4348.205128205129,4247.6923076923085,4215.384615384616,4638.461538461539
1671.8196,1.0,0.54502976,0.33333334,0.5522388,0,0.0,0.0,0.0,0.0,0.07493025,0,0,0.0,0.0,0,0,25.0,0.0,0.0,4612.820512820514,4858.974358974359,4506.666666666667,4438.974358974359,4244.102564102564,4542.564102564103,4457.435897435898,4443.076923076924,4423.589743589744,4733.846153846154,4353.333333333334,4249.74358974359,4201.538461538462,4605.641025641026
1672.0697,1.0,0.5525011,0.33333334,0.5522388,0,0.0,0.0,0.0,0.0,0.32829756,0,0,0.0,0.0,0,0,57.0,0.0,0.0,4628.717948717949,4801.538461538462,4504.615384615385,4430.256410256411,4247.179487179487,4552.307692307693,4463.076923076924,4448.205128205129,4428.205128205129,4731.282051282052,4351.282051282052,4246.153846153847,4196.410256410257,4537.435897435898
1672.3826,1.0,0.5525011,0.33333334,0.5522388,0,0.0,0.0,0.0,0.0,0.16485463,0,0,0.0,0.0,0,0,97.0,0.0,496.0,4701.538461538462,4669.743589743591,4553.846153846154,4435.384615384616,4247.179487179487,4552.820512820514,4475.384615384616,4479.48717948718,4446.666666666667,4765.128205128206,4364.102564102564,4323.589743589744,4279.48717948718,4609.743589743591
1672.5702,1.0,0.582569,0.33333334,0.5522388,0,0.0,0.0,0.0,0.0,0.052675497,0,0,0.0,0.0,0,0,121.0,0.0,496.0,4667.179487179488,4491.282051282052,4545.641025641026,4430.256410256411,4247.6923076923085,4555.384615384616,4479.48717948718,4475.8974358974365,4428.205128205129,4739.48717948718,4357.435897435898,4293.846153846154,4239.48717948718,4514.871794871796
1672.8204,1.0,0.582569,0.33333334,0.5522388,0,0.0,0.0,0.0,0.0,0.07329569,0,0,0.0,0.0,0,0,24.0,0.0,0.0,4663.589743589744,1770.769230769231,4565.641025641026,4423.076923076924,4140.000000000001,4428.717948717949,4465.128205128206,4447.6923076923085,4415.8974358974365,4735.384615384616,4318.461538461539,4283.076923076924,4199.48717948718,4488.205128205129
1673.0706,0.9943548,0.6096865,0.33333334,0.5522388,0,0.0,0.0,0.0,0.0,0.0,0,0,0.19473597,0.0,0,0,56.0,0.0,0.0,4606.153846153847,1472.820512820513,4605.641025641026,4441.025641025642,4111.794871794872,4401.025641025642,4458.461538461539,4439.48717948718,4404.102564102564,4733.846153846154,4306.153846153847,4227.179487179487,4145.128205128206,4453.333333333334
1673.3208,0.9943548,0.6096865,0.33333334,0.5522388,0,0.0,0.0,0.0,0.0,0.05858985,0,0,0.0,0.0,0,0,88.0,0.0,52.0,4610.769230769231,2273.8461538461543,4712.307692307693,4427.179487179487,4170.256410256411,4461.025641025642,4442.564102564103,4440.000000000001,4395.384615384616,4748.717948717949,4322.051282051282,4228.205128205129,4151.282051282052,4532.307692307693
1673.571,0.89396006,0.6112323,0.33333334,0.5522388,0,0.0,0.0,0.0,0.0,0.041793052,0,0,0.0,0.0,0,0,120.0,0.0,52.0,4635.8974358974365,3959.48717948718,4781.025641025642,4448.205128205129,4248.205128205129,4554.871794871796,4437.948717948719,4438.461538461539,4389.743589743591,4731.794871794872,4343.589743589744,4216.410256410257,4106.153846153847,4555.8974358974365
1673.8525,0.89396006,0.6112323,0.33333334,0.5522388,1,0.0,0.0,0.0,0.0,0.15437555,0,0,0.0,0.0,0,0,27.0,0.0,0.0,4728.717948717949,4524.102564102564,4802.564102564103,4439.48717948718,4247.179487179487,4555.8974358974365,4452.820512820514,4475.384615384616,4430.769230769231,4813.333333333334,4373.846153846154,4310.256410256411,4258.974358974359,4698.974358974359
1674.0715,0.9310946,0.6126457,0.33333334,0.5522388,0,0.0,0.0,0.0,0.0,0.37553802,0,0,0.0,0.0,0,0,55.0,0.0,0.0,4684.615384615386,4705.128205128206,4735.8974358974365,4423.589743589744,4234.871794871796,4552.820512820514,4423.076923076924,4420.512820512821,4401.538461538462,4775.384615384616,4371.282051282052,4260.000000000001,4202.564102564103,4665.128205128206
1674.3217,0.9310946,0.6126457,0.33333334,0.5522388,0,0.0,0.0,0.0,0.0,0.18718061,1,0,0.0,0.0,0,0,87.0,0.0,467.0,4651.282051282052,4826.153846153847,4683.589743589744,4426.666666666667,4233.846153846154,4550.769230769231,4426.153846153847,4437.435897435898,4414.871794871796,4780.000000000001,4373.846153846154,4247.179487179487,4203.589743589744,4648.205128205129
1674.5719,1.0,0.6139177,0.33333334,0.5522388,0,0.0,0.0,0.0,0.0,0.03873808,1,0,0.0,0.0,0,0,119.0,0.0,467.0,4648.205128205129,4653.333333333334,4637.948717948719,4424.102564102564,4230.256410256411,4540.512820512821,4433.846153846154,4425.128205128206,4417.948717948719,4770.769230769231,4369.2307692307695,4260.512820512821,4234.871794871796,4615.8974358974365
1674.8221,1.0,0.6139177,0.33333334,0.5522388,0,0.0,0.0,0.0,0.0,0.030093942,1,0,0.0,0.0,0,0,22.0,0.0,0.0,4653.846153846154,3983.589743589744,4622.051282051282,4431.794871794872,4247.6923076923085,4556.410256410257,4465.641025641026,4465.128205128206,4433.846153846154,4811.794871794872,4373.333333333334,4280.512820512821,4291.794871794872,4648.205128205129
1675.0724,0.9978294,0.6150626,0.33333334,0.5522388,0,0.0,0.0,0.0,0.0,0.06484678,1,0,0.0,0.0,0,0,54.0,0.0,0.0,4625.641025641026,4104.615384615385,4562.564102564103,4449.2307692307695,4248.205128205129,4555.8974358974365,4462.051282051282,4415.8974358974365,4407.179487179487,4747.179487179488,4360.000000000001,4233.333333333334,4188.717948717949,4608.717948717949
1675.3225,0.9978294,0.6150626,0.33333334,0.5522388,0,0.0,0.0,0.0,0.0,0.036482066,1,0,0.0,0.0,0,0,86.0,0.0,528.0,4599.48717948718,4134.871794871796,4534.358974358975,4436.923076923077,4231.282051282052,4538.461538461539,4444.102564102564,4405.128205128206,4407.179487179487,4708.717948717949,4356.923076923077,4226.153846153847,4170.256410256411,4613.846153846154
1675.5728,0.93567544,0.616093,0.33333334,0.5522388,0,0.0,0.0,0.0,0.0,0.18228666,1,0,0.0,0.0,0,0,118.0,0.0,528.0,4625.128205128206,4556.410256410257,4512.307692307693,4388.205128205129,4232.307692307693,4538.461538461539,4443.589743589744,4395.384615384616,4405.128205128206,4707.179487179488,4357.435897435898,4249.74358974359,4172.307692307693,4574.871794871796
1675.823,0.93567544,0.616093,0.33333334,0.5522388,0,0.0,0.0,0.0,0.0,0.11335857,1,0,0.0,0.0,0,0,21.0,0.0,0.0,4632.307692307693,4320.000000000001,4494.871794871796,4402.564102564103,4234.358974358975,4541.538461538462,4443.076923076924,4414.358974358975,4411.282051282052,4725.641025641026,4363.589743589744,4252.820512820514,4187.179487179487,4580.512820512821
1676.0732,0.8445729,0.57898396,0.33333334,0.5522388,0,0.0,0.0,0.0,0.0,0.029204097,1,0,0.0,0.0,0,0,53.0,0.0,0.0,4633.846153846154,4486.153846153847,4478.974358974359,4423.076923076924,4248.205128205129,4551.794871794872,4424.615384615385,4393.333333333334,4405.128205128206,4722.564102564103,4365.641025641026,4260.512820512821,4185.128205128206,4569.743589743591
1676.3234,0.8445729,0.57898396,0.33333334,0.5522388,0,0.0,0.0,0.0,0.0,0.058989022,1,0,0.0,0.0,0,0,85.0,0.0,496.0,4625.128205128206,4663.076923076924,4467.179487179487,4427.179487179487,4242.051282051282,4541.538461538462,4449.2307692307695,4409.743589743591,4396.923076923077,4712.820512820514,4371.282051282052,4250.769230769231,4174.871794871796,4544.615384615385
1676.5736,0.7959217,0.55263007,0.33333334,0.5522388,0,0.0,0.0,0.0,0.0,0.100104116,1,0,0.0,0.0,0,0,117.0,0.0,496.0,4618.974358974359,4650.769230769231,4475.8974358974365,4437.435897435898,4246.666666666667,4541.538461538462,4451.794871794872,4432.820512820514,4410.256410256411,4725.641025641026,4372.307692307693,4268.205128205129,4174.871794871796,4510.256410256411
1676.8239,0.7959217,0.55263007,0.33333334,0.5522388,0,0.0,0.0,0.0,0.0,0.35255745,1,0,0.0,0.0,0,0,20.0,0.0,0.0,4616.923076923077,4815.384615384616,4477.435897435898,4450.256410256411,4248.717948717949,4553.846153846154,4466.153846153847,4465.641025641026,4425.128205128206,4737.435897435898,4380.000000000001,4284.102564102564,4174.358974358975,4490.256410256411
1677.1678,0.72996485,0.51922226,0.33333334,0.5522388,0,0.0,0.0,0.0,0.0,0.08418135,0,0,0.0,0.0,0,0,64.0,0.0,478.0,4598.461538461539,3864.1025641025644,4462.051282051282,4430.256410256411,4233.333333333334,4539.48717948718,4452.307692307693,4427.179487179487,4394.358974358975,4715.8974358974365,4371.794871794872,4278.461538461539,4168.205128205129,4541.025641025642
1677.3242,0.72996485,0.51922226,0.33333334,0.5522388,0,0.0,0.0,0.0,0.0,0.1521464,0,0,0.0,0.0,0,0,84.0,0.0,52.0,4600.512820512821,4180.000000000001,4458.461538461539,4446.153846153847,4244.102564102564,4542.051282051282,4458.974358974359,4427.179487179487,4395.8974358974365,4714.358974358975,4370.256410256411,4274.358974358975,4163.589743589744,4569.2307692307695
1677.5745,0.6749872,0.4738371,0.33333334,0.5522388,0,0.0,0.0,0.0,0.0,0.11715172,0,0,0.0,0.0,0,0,116.0,0.0,52.0,4628.205128205129,2898.461538461539,4474.871794871796,4433.333333333334,4217.948717948719,4506.666666666667,4453.846153846154,4430.769230769231,4383.076923076924,4690.769230769231,4348.717948717949,4281.025641025642,4135.384615384616,4621.025641025642
1677.8247,0.6749872,0.4738371,0.33333334,0.5522388,0,0.0,0.0,0.0,0.0,0.17442614,0,0,0.0,0.0,0,0,19.0,0.0,0.0,4623.589743589744,3130.2564102564106,4474.871794871796,4427.179487179487,4229.74358974359,4518.461538461539,4450.769230769231,4404.615384615385,4364.615384615385,4660.512820512821,4345.641025641026,4287.179487179487,4103.589743589744,4619.48717948718
1678.075,0.5930755,0.4486329,0.33333334,0.5522388,0,0.0,0.0,0.0,0.0,0.10948869,0,0,0.0,0.0,0,0,51.0,0.0,0.0,4604.615384615385,3915.3846153846157,4468.205128205129,4443.589743589744,4251.794871794872,4553.333333333334,4457.948717948719,4415.8974358974365,4383.589743589744,4678.974358974359,4358.974358974359,4281.025641025642,4104.615384615385,4603.589743589744
1678.3251,0.5930755,0.4486329,0.33333334,0.5522388,0,0.0,0.0,0.0,0.0,0.20887148,0,0,0.0,0.0,0,0,83.0,0.0,467.0,4603.589743589744,4284.102564102564,4470.256410256411,4444.102564102564,4249.2307692307695,4557.948717948719,4453.333333333334,4399.48717948718,4382.564102564103,4678.461538461539,4362.564102564103,4278.974358974359,4114.358974358975,4557.435897435898
1678.5753,0.54442966,0.41283464,0.33333334,0.5522388,0,0.0,0.0,0.0,0.0,0.0,0,0,0.1888506,0.0,0,0,115.0,0.0,467.0,4603.076923076924,4293.333333333334,4474.871794871796,4454.871794871796,4262.564102564103,4567.6923076923085,4475.8974358974365,4437.948717948719,4400.000000000001,4708.717948717949,4364.102564102564,4282.564102564103,4138.461538461539,4519.48717948718
1678.8256,0.54442966,0.41283464,0.33333334,0.5522388,0,0.0,0.0,0.0,0.0,0.0,0,0,0.23050371,0.0,0,0,18.0,0.0,0.0,4616.410256410257,4501.025641025642,4475.384615384616,4444.102564102564,4232.307692307693,4553.333333333334,4457.948717948719,4409.2307692307695,4398.461538461539,4704.102564102564,4368.717948717949,4277.435897435898,4154.871794871796,4511.282051282052
1679.0758,0.50529397,0.3757069,0.33333334,0.5522388,0,0.0,0.0,0.0,0.0,0.0,0,0,0.22160895,0.0,0,0,50.0,0.0,0.0,4598.461538461539,6635.384615384616,4467.6923076923085,4469.2307692307695,4299.48717948718,4612.307692307693,4435.8974358974365,4410.256410256411,4399.48717948718,4682.564102564103,4391.282051282052,4263.076923076924,4135.8974358974365,4495.384615384616
1679.326,0.50529397,0.3757069,0.33333334,0.5522388,0,0.0,0.0,0.0,0.0,0.0,0,0,0.25900838,0.0,0,0,82.0,0.0,528.0,4585.128205128206,2189.2307692307695,4470.256410256411,4400.512820512821,4167.6923076923085,4457.948717948719,4463.076923076924,4429.2307692307695,4404.615384615385,4716.410256410257,4344.102564102564,4257.435897435898,4189.2307692307695,4535.384615384616
1679.5762,0.47577217,0.3424883,0.33333334,0.5522388,0,0.05935807,0.0,0.0,0.0,0.0,0,0,0.0,0.0,0,0,114.0,0.0,528.0,4611.794871794872,1706.666666666667,4485.641025641026,4393.846153846154,4124.102564102564,4412.307692307693,4442.051282051282,4400.000000000001,4398.461538461539,4715.384615384616,4338.974358974359,4280.512820512821,4209.2307692307695,4552.820512820514
1679.8264,0.47577217,0.3424883,0.33333334,0.5522388,0,0.056378834,0.0,0.0,0.0,0.0,0,0,0.0,0.0,0,0,17.0,0.0,0.0,4603.076923076924,3178.9743589743593,4472.307692307693,4403.076923076924,4209.74358974359,4507.179487179488,4462.564102564103,4433.846153846154,4401.025641025642,4709.2307692307695,4354.358974358975,4258.461538461539,4187.6923076923085,4476.410256410257
1680.0767,0.4399547,0.32826596,0.33333334,0.5522388,0,0.054169443,0.0,0.0,0.0,0.0,0,0,0.0,0.0,0,0,49.0,0.0,0.0,4582.564102564103,3488.205128205129,4469.2307692307695,4407.6923076923085,4219.48717948718,4523.589743589744,4448.717948717949,4421.538461538462,4406.666666666667,4713.333333333334,4360.512820512821,4252.820512820514,4186.666666666667,4451.794871794872
1680.3269,0.4399547,0.32826596,0.33333334,0.5522388,0,0.064605854,0.0,0.0,0.0,0.0,0,0,0.0,0.0,0,0,81.0,0.0,496.0,4598.974358974359,5521.538461538462,4493.333333333334,4448.717948717949,4267.179487179487,4573.846153846154,4457.435897435898,4427.179487179487,4410.256410256411,4729.743589743591,4392.820512820514,4282.051282051282,4205.641025641026,4428.717948717949
1680.577,0.44392136,0.3137654,0.33333334,0.5522388,0,0.082254715,0.0,0.0,0.0,0.0,0,0,0.0,0.0,0,0,113.0,0.0,496.0,4593.333333333334,4087.692307692308,4483.076923076924,4421.538461538462,4233.333333333334,4540.512820512821,4476.410256410257,4445.128205128206,4415.8974358974365,4709.743589743591,4372.307692307693,4263.076923076924,4204.615384615385,4354.358974358975
1680.8273,0.44392136,0.3137654,0.33333334,0.5522388,0,0.079850845,0.0,0.0,0.0,0.0,0,0,0.0,0.0,0,0,16.0,0.0,0.0,4603.076923076924,3760.0000000000005,4477.948717948719,4421.025641025642,4235.384615384616,4538.974358974359,4455.8974358974365,4397.948717948719,4398.461538461539,4714.871794871796,4366.666666666667,4260.000000000001,4211.282051282052,4288.717948717949
1681.0775,0.40868774,0.3175895,0.33333334,0.5522388,0,0.0,0.0,0.0,0.0,0.0,0,0,0.22742797,0.0,0,0,48.0,0.0,0.0,4624.102564102564,4838.974358974359,4511.282051282052,4460.512820512821,4257.435897435898,4568.717948717949,4477.435897435898,4431.282051282052,4413.333333333334,4736.923076923077,4383.076923076924,4295.384615384616,4240.512820512821,4273.846153846154
1681.3278,0.40868774,0.3175895,0.33333334,0.5522388,0,0.0,0.0,0.0,0.0,0.0,0,0,0.22353481,0.0,0,0,80.0,0.0,52.0,4621.538461538462,4698.461538461539,4492.307692307693,4449.743589743591,4231.794871794872,4550.256410256411,4439.48717948718,4392.820512820514,4401.538461538462,4722.564102564103,4377.435897435898,4282.051282051282,4216.923076923077,4171.282051282052
1681.5779,0.4736695,0.27673247,0.33333334,0.5522388,0,0.0,0.0,0.0,0.0,0.0,0,0,0.21023901,0.0,0,0,112.0,0.0,52.0,4607.6923076923085,4538.461538461539,4485.641025641026,4448.205128205129,4230.769230769231,4538.461538461539,4453.846153846154,4399.48717948718,4401.025641025642,4716.410256410257,4373.846153846154,4266.666666666667,4204.102564102564,4197.435897435898
1681.8281,0.4736695,0.27673247,0.33333334,0.5522388,0,0.0,0.0,0.0,0.0,0.0,0,0,0.20598911,0.0,0,0,15.0,0.0,471.0,4604.615384615385,4173.333333333334,4493.846153846154,4444.102564102564,4235.384615384616,4551.794871794872,4458.974358974359,4385.128205128206,4392.307692307693,4701.538461538462,4369.743589743591,4276.923076923077,4201.025641025642,4224.102564102564
1682.0784,0.43363383,0.24141999,0.33333334,0.5522388,0,0.0,0.0,0.0,0.0,0.0,0,0,0.20248412,0.0,0,0,47.0,0.0,0.0,4590.769230769231,4629.743589743591,4489.743589743591,4441.538461538462,4248.717948717949,4556.410256410257,4476.923076923077,4452.820512820514,4417.435897435898,4710.256410256411,4377.435897435898,4264.615384615385,4175.384615384616,4272.307692307693
1682.3286,0.43363383,0.24141999,0.33333334,0.5522388,0,0.0,0.0,0.0,0.0,0.11016759,0,0,0.0,0.0,0,0,79.0,0.0,471.0,4602.564102564103,4726.666666666667,4497.948717948719,4465.641025641026,4244.615384615385,4551.794871794872,4448.205128205129,4428.205128205129,4418.461538461539,4748.205128205129,4387.6923076923085,4266.666666666667,4189.2307692307695,4362.564102564103
1682.5787,0.45854655,0.20302784,0.33333334,0.5522388,0,0.0,0.0,0.0,0.0,0.31913278,0,0,0.0,0.0,0,0,111.0,0.0,471.0,4623.589743589744,4782.051282051282,4525.128205128206,4460.512820512821,4247.6923076923085,4554.358974358975,4463.076923076924,4427.6923076923085,4411.282051282052,4750.256410256411,4387.179487179487,4265.128205128206,4171.282051282052,4427.179487179487
1682.829,0.45854655,0.20302784,0.33333334,0.5522388,0,0.0,0.0,0.0,0.0,0.10486577,0,0,0.0,0.0,0,0,14.0,0.0,528.0,4634.358974358975,4767.6923076923085,4601.025641025642,4463.076923076924,4251.282051282052,4556.923076923077,4442.564102564103,4408.205128205129,4397.948717948719,4747.6923076923085,4415.8974358974365,4248.717948717949,4125.641025641026,4464.102564102564
1683.0792,0.39231908,0.18703699,0.33333334,0.5522388,0,0.0,0.0,0.0,0.0,0.21549867,0,0,0.0,0.0,0,0,46.0,0.0,0.0,4629.743589743591,4644.615384615385,4630.769230769231,4453.846153846154,4248.717948717949,4566.666666666667,4448.205128205129,4416.923076923077,4398.461538461539,4751.794871794872,4415.8974358974365,4220.512820512821,4121.025641025642,4508.205128205129
1683.3295,0.39231908,0.18703699,0.33333334,0.5522388,0,0.0,0.0,0.0,0.0,0.110672474,0,0,0.0,0.0,0,0,78.0,0.0,528.0,4634.358974358975,4483.076923076924,4645.641025641026,4457.948717948719,4248.717948717949,4562.564102564103,4445.128205128206,4417.948717948719,4398.974358974359,4750.769230769231,4409.2307692307695,4230.769230769231,4135.8974358974365,4530.256410256411
1683.5796,0.42790642,0.19150874,0.33333334,0.5522388,0,0.0,0.0,0.0,0.0,0.0,0,0,0.16437703,0.0,0,0,110.0,0.0,528.0,4652.307692307693,4176.410256410257,4640.512820512821,4457.435897435898,4248.717948717949,4561.538461538462,4441.025641025642,4394.358974358975,4393.846153846154,4737.435897435898,4403.076923076924,4246.666666666667,4145.641025641026,4568.717948717949
1683.8298,0.42790642,0.19150874,0.33333334,0.5522388,0,0.0,0.0,0.0,0.0,0.0,0,0,0.18365155,0.0,0,0,13.0,0.0,496.0,4628.205128205129,4676.410256410257,4610.769230769231,4453.846153846154,4238.974358974359,4552.307692307693,4437.435897435898,4392.307692307693,4385.128205128206,4729.743589743591,4409.743589743591,4249.74358974359,4152.307692307693,4559.48717948718
1684.0801,0.3579668,0.2063963,0.33333334,0.5522388,0,0.0,0.0,0.0,0.0,0.0,0,0,0.2290166,0.0,0,0,45.0,0.0,0.0,4637.435897435898,4460.000000000001,4591.282051282052,4457.948717948719,4247.6923076923085,4554.871794871796,4442.564102564103,4383.076923076924,4384.615384615385,4736.410256410257,4402.051282051282,4264.615384615385,4168.717948717949,4538.974358974359
1684.3303,0.3579668,0.2063963,0.33333334,0.5522388,0,0.0,0.0,0.0,0.0,0.0,0,0,0.13096914,0.0,0,0,77.0,0.0,496.0,4599.48717948718,4418.461538461539,4558.974358974359,4457.948717948719,4242.564102564103,4553.333333333334,4438.974358974359,4395.8974358974365,4381.538461538462,4715.8974358974365,4395.384615384616,4262.051282051282,4167.6923076923085,4490.769230769231
1684.5806,0.3132817,0.21424995,0.33333334,0.5522388,0,0.0,0.0,0.0,0.0,0.0,0,0,0.1266874,0.0,0,0,109.0,0.0,496.0,4610.256410256411,4184.615384615385,4557.948717948719,4461.538461538462,4259.48717948718,4568.717948717949,4460.512820512821,4435.8974358974365,4402.564102564103,4733.333333333334,4397.435897435898,4280.000000000001,4185.641025641026,4426.153846153847
1684.8307,0.3132817,0.21424995,0.33333334,0.5522388,0,0.0,0.0,0.0,0.0,0.0,0,0,0.18750317,0.0,0,0,12.0,0.0,52.0,4590.256410256411,4192.307692307693,4522.564102564103,4461.538461538462,4250.769230769231,4560.000000000001,4468.205128205129,4460.000000000001,4406.153846153847,4726.666666666667,4401.538461538462,4276.923076923077,4182.051282051282,4353.333333333334
1685.0809,0.26731485,0.22405016,0.33333334,0.5522388,0,0.0,0.0,0.0,0.0,0.0,0,0,0.23344867,0.0,0,0,44.0,0.0,0.0,4587.179487179488,4284.102564102564,4500.000000000001,4464.102564102564,4249.2307692307695,4559.48717948718,4473.333333333334,4427.179487179487,4385.641025641026,4705.641025641026,4389.2307692307695,4262.051282051282,4177.948717948719,4478.461538461539
1685.3312,0.26731485,0.22405016,0.33333334,0.5522388,0,0.0,0.0,0.0,0.0,0.0,0,0,0.13766748,0.0,0,0,76.0,0.0,52.0,4576.410256410257,4171.282051282052,4477.948717948719,4459.48717948718,4249.2307692307695,4555.384615384616,4477.948717948719,4477.948717948719,4410.769230769231,4733.846153846154,4394.871794871796,4265.128205128206,4184.615384615385,4462.051282051282
1685.5814,0.24272765,0.22743498,0.33333334,0.5522388,0,0.0,0.0,0.0,0.0,0.0,0,0,0.17262648,0.0,0,0,108.0,0.0,52.0,4564.615384615385,3920.5128205128212,4474.358974358975,4458.974358974359,4247.6923076923085,4554.871794871796,4461.538461538462,4427.179487179487,4396.923076923077,4718.974358974359,4390.769230769231,4274.358974358975,4192.307692307693,4457.948717948719
1685.8315,0.24272765,0.22743498,0.33333334,0.5522388,0,0.0,0.0,0.0,0.0,0.0,0,0,0.13229707,0.0,0,0,11.0,0.0,471.0,4543.589743589744,3918.9743589743593,4450.256410256411,4434.871794871796,4243.589743589744,4540.000000000001,4456.923076923077,4419.48717948718,4381.538461538462,4690.256410256411,4383.589743589744,4248.205128205129,4166.153846153847,4459.48717948718
1686.0818,0.25665575,0.22325465,0.33333334,0.5522388,0,0.0,0.0,0.0,0.0,0.0,0,0,0.06274533,0.0,0,0,43.0,0.0,0.0,4544.615384615385,3889.7435897435903,4437.948717948719,4434.358974358975,4234.871794871796,4540.000000000001,4440.512820512821,4413.333333333334,4379.48717948718,4688.717948717949,4376.410256410257,4242.051282051282,4166.153846153847,4451.282051282052
1686.332,0.25665575,0.22325465,0.33333334,0.5522388,0,0.0,0.0,0.0,0.0,0.0,0,0,0.06775464,0.0,0,0,75.0,0.0,471.0,4569.2307692307695,4186.153846153847,4439.48717948718,4444.102564102564,4231.794871794872,4538.974358974359,4458.461538461539,4432.820512820514,4383.589743589744,4690.256410256411,4382.564102564103,4244.615384615385,4161.025641025642,4443.076923076924
1686.5901,0.19383176,0.21492928,0.33333334,0.5522388,0,0.0,0.0,0.0,0.0,0.18485434,0,0,0.0,0.0,0,0,107.0,0.0,471.0,4570.769230769231,3998.9743589743593,4441.025641025642,4444.102564102564,4232.307692307693,4536.923076923077,4445.641025641026,4387.6923076923085,4360.512820512821,4693.333333333334,4377.948717948719,4247.6923076923085,4170.256410256411,4506.153846153847
1686.8402,0.19383176,0.21492928,0.33333334,0.5522388,0,0.0,0.0,0.0,0.0,0.104135714,0,0,0.0,0.0,0,0,10.0,0.0,528.0,4589.2307692307695,4508.717948717949,4460.512820512821,4460.000000000001,4247.179487179487,4553.333333333334,4465.641025641026,4418.974358974359,4379.48717948718,4704.102564102564,4389.743589743591,4261.538461538462,4166.666666666667,4504.102564102564
1687.0905,0.16911191,0.19870985,0.33333334,0.5522388,0,0.0,0.0,0.0,0.0,0.0,0,0,0.26164722,0.0,0,0,42.0,0.0,0.0,4594.871794871796,5117.435897435898,4457.435897435898,4464.615384615385,4251.282051282052,4557.435897435898,4476.923076923077,4455.8974358974365,4392.820512820514,4713.846153846154,4394.358974358975,4265.641025641026,4187.6923076923085,4606.666666666667
1687.3407,0.16911191,0.19870985,0.33333334,0.5522388,0,0.0,0.0,0.0,0.0,0.0,0,0,0.21764238,0.0,0,0,74.0,0.0,528.0,4619.48717948718,4225.641025641026,4471.282051282052,4455.384615384616,4245.641025641026,4550.769230769231,4466.666666666667,4421.538461538462,4383.589743589744,4704.102564102564,4386.666666666667,4272.307692307693,4198.974358974359,4667.6923076923085
1687.591,0.22562955,0.18649189,0.33333334,0.5522388,0,0.0,0.0,0.0,0.0,0.0,0,0,0.24210006,0.0,0,0,106.0,0.0,528.0,4649.743589743591,4101.025641025642,4501.538461538462,4483.076923076924,4278.461538461539,4582.564102564103,4506.666666666667,4484.615384615385,4411.794871794872,4763.076923076924,4400.512820512821,4301.025641025642,4240.512820512821,4786.666666666667
1687.8411,0.22562955,0.18649189,0.33333334,0.5522388,0,0.0,0.0,0.0,0.0,0.0,0,0,0.25220236,0.0,0,0,9.0,0.0,481.0,4638.974358974359,4237.948717948719,4502.564102564103,4490.256410256411,4269.2307692307695,4575.384615384616,4494.358974358975,4458.461538461539,4400.512820512821,4745.128205128206,4400.512820512821,4291.282051282052,4223.589743589744,4814.871794871796
1688.0913,0.40855402,0.17330068,0.33333334,0.5522388,0,0.0,0.0,0.0,0.0,0.0,0,0,0.30244625,0.0,0,0,41.0,0.0,0.0,4614.358974358975,4563.589743589744,4475.384615384616,4442.564102564103,4236.410256410257,4544.615384615385,4461.538461538462,4450.256410256411,4392.820512820514,4713.333333333334,4393.846153846154,4264.102564102564,4183.589743589744,4781.025641025642
1688.3416,0.40855402,0.17330068,0.33333334,0.5522388,0,0.0,0.0,0.0,0.0,0.0,0,0,0.37104192,0.0,0,0,73.0,0.0,481.0,4610.769230769231,5062.051282051283,4460.000000000001,4448.717948717949,4241.025641025642,4545.128205128206,4439.48717948718,4416.923076923077,4381.025641025642,4696.923076923077,4394.358974358975,4246.153846153847,4166.153846153847,4725.641025641026
1688.5918,0.49464148,0.14972894,0.33333334,0.5522388,0,0.0,0.0,0.0,0.0,0.0,0,0,0.2802279,0.0,0,0,105.0,0.0,496.0,4630.256410256411,3900.0000000000005,4466.666666666667,4440.000000000001,4230.256410256411,4533.846153846154,4449.2307692307695,4423.076923076924,4378.974358974359,4705.128205128206,4383.076923076924,4249.74358974359,4166.666666666667,4657.948717948719
1688.842,0.49464148,0.14972894,0.33333334,0.5522388,0,0.0,0.0,0.0,0.0,0.0,0,0,0.23765743,0.0,1,0,8.0,0.0,379.0,4648.205128205129,3655.3846153846157,4484.102564102564,4429.2307692307695,4235.384615384616,4539.48717948718,4462.564102564103,4425.128205128206,4383.076923076924,4696.410256410257,4376.923076923077,4257.435897435898,4170.256410256411,4617.435897435898
1689.1234,0.45719823,0.1446409,0.33333334,0.5522388,0,0.077248864,0.0,0.0,0.0,0.0,0,0,0.0,0.0,0,0,44.0,0.0,0.0,4634.358974358975,4249.74358974359,4481.025641025642,4435.8974358974365,4233.333333333334,4537.948717948719,4460.512820512821,4426.153846153847,4382.564102564103,4709.743589743591,4382.051282051282,4248.717948717949,4170.256410256411,4572.820512820514
1689.3424,0.45719823,0.1446409,0.33333334,0.5522388,0,0.0,0.0,0.0,0.0,0.0,0,0,0.26420528,0.0,0,0,72.0,0.0,379.0,4660.512820512821,2933.3333333333335,4503.076923076924,4436.410256410257,4229.74358974359,4521.538461538462,4476.410256410257,4461.538461538462,4398.974358974359,4747.179487179488,4378.461538461539,4275.8974358974365,4201.538461538462,4612.307692307693
1689.5927,0.44007665,0.13528396,0.33333334,0.5522388,0,0.0,0.0,0.0,0.0,0.0,0,0,0.23405094,0.0,0,0,104.0,0.0,52.0,4648.205128205129,3285.641025641026,4495.8974358974365,4429.743589743591,4230.769230769231,4520.000000000001,4467.6923076923085,4447.6923076923085,4387.6923076923085,4723.589743589744,4374.871794871796,4268.717948717949,4184.615384615385,4600.512820512821
1689.8429,0.44007665,0.13528396,0.33333334,0.5522388,0,0.0,0.0,0.0,0.0,0.0,0,0,0.24015985,0.0,0,0,7.0,0.0,468.0,4632.820512820514,2713.8461538461543,4504.615384615385,4428.205128205129,4223.076923076924,4512.307692307693,4492.820512820514,4461.538461538462,4398.461538461539,4736.410256410257,4373.333333333334,4269.2307692307695,4181.025641025642,4565.641025641026
1690.093,0.4214003,0.111246236,0.33333334,0.5522388,0,0.0,0.0,0.0,0.0,0.0,0,0,0.21865036,0.0,0,0,39.0,0.0,0.0,4614.358974358975,4709.2307692307695,4479.48717948718,4440.000000000001,4247.6923076923085,4551.282051282052,4451.282051282052,4417.948717948719,4397.948717948719,4716.923076923077,4388.717948717949,4249.2307692307695,4165.128205128206,4523.076923076924
1690.3433,0.4214003,0.111246236,0.33333334,0.5522388,0,0.0,0.0,0.0,0.0,0.0,0,0,0.21651009,0.0,0,0,71.0,0.0,468.0,4629.743589743591,3032.307692307693,4487.179487179488,4412.307692307693,4214.871794871796,4493.846153846154,4458.974358974359,4413.333333333334,4384.102564102564,4720.000000000001,4370.256410256411,4262.564102564103,4166.666666666667,4517.948717948719
1690.5935,0.40657765,0.09943324,0.33333334,0.5522388,0,0.0,0.0,0.0,0.0,0.0,0,0,0.23900524,0.0,0,0,103.0,0.0,467.0,4629.743589743591,3144.615384615385,4491.282051282052,4421.025641025642,4233.846153846154,4521.538461538462,4474.871794871796,4431.282051282052,4397.948717948719,4734.358974358975,4376.923076923077,4267.6923076923085,4170.769230769231,4524.102564102564
1690.8438,0.40657765,0.09943324,0.33333334,0.5522388,0,0.0,0.0,0.0,0.0,0.0,0,0,0.22686093,0.0,0,0,6.0,0.0,549.0,4617.948717948719,3401.538461538462,4486.666666666667,4425.641025641026,4223.076923076924,4515.8974358974365,4458.974358974359,4420.512820512821,4391.794871794872,4713.846153846154,4373.846153846154,4256.410256410257,4156.410256410257,4567.179487179488
1691.0939,0.34908196,0.05939676,0.33333334,0.5522388,0,0.0,0.0,0.0,0.0,0.0,0,0,0.23917139,0.0,0,0,38.0,0.0,0.0,4616.923076923077,3203.0769230769233,4480.000000000001,4418.974358974359,4231.794871794872,4527.179487179488,4461.025641025642,4431.794871794872,4399.48717948718,4727.179487179488,4371.794871794872,4260.512820512821,4167.179487179487,4510.769230769231
1691.3441,0.34908196,0.05939676,0.33333334,0.5522388,0,0.0,0.0,0.0,0.0,0.0,0,0,0.27016464,0.0,0,0,70.0,0.0,549.0,4408.205128205129,3607.1794871794878,4292.307692307693,4247.179487179487,4034.358974358975,4388.717948717949,4227.179487179487,4143.076923076924,4250.769230769231,4443.076923076924,4286.666666666667,4012.307692307693,3909.7435897435903,4251.282051282052
1691.5944,0.5171921,0.023082247,0.33333334,0.5522388,0,0.0,0.0,0.0,0.0,0.0,0,0,0.25519845,0.0,0,0,102.0,0.0,528.0,4431.794871794872,3506.1538461538466,4329.2307692307695,4274.358974358975,4075.3846153846157,4412.307692307693,4276.410256410257,4238.461538461539,4300.000000000001,4524.615384615385,4291.794871794872,4064.615384615385,3970.7692307692314,4247.179487179487
1691.8446,0.5171921,0.023082247,0.33333334,0.5522388,0,0.0,0.0,0.0,0.0,0.0,0,0,0.24297242,0.0,0,0,5.0,0.0,555.0,4485.641025641026,2316.923076923077,4371.282051282052,4285.641025641026,4062.0512820512827,4382.051282051282,4323.589743589744,4283.589743589744,4307.179487179487,4570.256410256411,4283.076923076924,4120.000000000001,4021.538461538462,4327.6923076923085
1692.0947,0.66512907,0.0,0.33333334,0.5522388,0,0.0,0.0,0.0,0.0,0.17429884,0,0,0.0,0.0,0,0,37.0,0.0,0.0,4513.333333333334,1939.4871794871797,4400.000000000001,4305.128205128206,4057.9487179487182,4364.102564102564,4341.025641025642,4274.871794871796,4302.564102564103,4599.48717948718,4282.564102564103,4153.846153846154,4075.8974358974365,4401.538461538462
1692.345,0.66512907,0.0,0.33333334,0.5522388,0,0.0,0.0,0.0,0.0,0.04839203,0,0,0.0,0.0,0,0,69.0,0.0,555.0,4530.769230769231,1736.9230769230771,4411.282051282052,4317.435897435898,4063.589743589744,4369.743589743591,4375.384615384616,4321.538461538462,4314.358974358975,4619.48717948718,4287.179487179487,4170.769230769231,4087.1794871794878,4344.615384615385
1692.5952,0.77004635,0.0,0.33333334,0.5522388,0,0.0,0.0,0.0,0.0,0.0749458,0,0,0.0,0.0,0,0,101.0,0.0,496.0,4545.128205128206,2572.820512820513,4435.384615384616,4343.076923076924,4134.358974358975,4444.102564102564,4402.051282051282,4373.333333333334,4327.6923076923085,4657.435897435898,4308.205128205129,4203.589743589744,4118.974358974359,4519.48717948718
1692.8455,0.77004635,0.0,0.33333334,0.5522388,0,0.0,0.0,0.0,0.0,0.06343048,0,0,0.0,0.0,0,0,4.0,0.0,561.0,4553.846153846154,5065.128205128206,4456.923076923077,4404.615384615385,4217.435897435898,4540.000000000001,4423.589743589744,4385.641025641026,4343.076923076924,4676.410256410257,4348.205128205129,4220.000000000001,4140.000000000001,4624.615384615385
1693.0956,0.79239094,0.0,0.33333334,0.5522388,0,0.0,0.0,0.0,0.0,0.0,0,0,0.2353292,0.0,0,0,36.0,0.0,0.0,4556.923076923077,2671.2820512820517,4446.153846153847,4383.589743589744,4166.153846153847,4474.871794871796,4429.743589743591,4394.358974358975,4351.282051282052,4687.179487179488,4325.128205128206,4231.282051282052,4155.384615384616,4658.461538461539
1693.3458,0.79239094,0.0,0.33333334,0.5522388,0,0.0,0.0,0.0,0.0,0.0,0,0,0.21102922,0.0,0,0,68.0,0.0,561.0,4591.282051282052,3090.2564102564106,4469.743589743591,4389.2307692307695,4199.48717948718,4508.205128205129,4447.179487179487,4392.307692307693,4353.846153846154,4690.256410256411,4327.6923076923085,4231.794871794872,4154.871794871796,4692.820512820514
1693.5961,0.8475942,0.0,0.33333334,0.5522388,0,0.0,0.0,0.0,0.0,0.0,0,0,0.26301783,0.0,0,0,100.0,0.0,52.0,4589.743589743591,3561.538461538462,4478.974358974359,4414.358974358975,4232.820512820514,4537.435897435898,4443.076923076924,4397.948717948719,4369.2307692307695,4703.589743589744,4341.025641025642,4250.256410256411,4175.384615384616,4720.000000000001
1693.8463,0.8475942,0.0,0.33333334,0.5522388,0,0.0,0.0,0.0,0.0,0.0,0,0,0.2780936,0.0,0,0,3.0,0.0,515.0,4607.179487179488,3874.358974358975,4487.179487179488,4420.512820512821,4231.282051282052,4541.025641025642,4442.564102564103,4397.435897435898,4371.282051282052,4697.435897435898,4346.153846153847,4253.333333333334,4183.589743589744,4732.820512820514
1694.0966,0.838411,0.0,0.33333334,0.5522388,0,0.0,0.0,0.0,0.0,0.0,0,0,0.25552213,0.0,0,0,35.0,0.0,0.0,4608.205128205129,4078.9743589743593,4485.128205128206,4435.384615384616,4244.615384615385,4556.410256410257,4466.153846153847,4430.256410256411,4393.846153846154,4720.000000000001,4356.923076923077,4254.358974358975,4192.820512820514,4683.589743589744
1694.3467,0.838411,0.0,0.33333334,0.5522388,0,0.0,0.0,0.0,0.0,0.14675073,0,0,0.0,0.0,0,0,67.0,0.0,513.0,4613.846153846154,4338.974358974359,4479.48717948718,4443.076923076924,4243.076923076924,4552.307692307693,4457.435897435898,4405.128205128206,4384.102564102564,4708.717948717949,4356.410256410257,4244.102564102564,4192.307692307693,4628.717948717949
1694.5969,0.89381284,0.0,0.33333334,0.5522388,0,0.0,0.0,0.0,0.0,0.0,0,0,0.20563231,0.0,0,0,99.0,0.0,466.0,4628.717948717949,4531.282051282052,4497.435897435898,4404.102564102564,4237.435897435898,4546.666666666667,4460.000000000001,4438.461538461539,4387.6923076923085,4725.128205128206,4332.307692307693,4266.153846153847,4212.820512820514,4648.717948717949
1694.8472,0.89381284,0.0,0.33333334,0.5522388,0,0.0,0.0,0.0,0.0,0.0,0,0,0.19515607,0.0,0,0,2.0,0.0,453.0,4592.820512820514,7768.71794871795,4468.717948717949,5611.794871794873,4380.000000000001,4670.769230769231,4413.333333333334,4532.820512820514,4613.846153846154,4802.564102564103,5368.717948717949,4286.153846153847,4184.102564102564,4531.282051282052
1695.0974,0.8046081,0.0,0.33333334,0.5522388,0,0.05694621,0.0,0.0,0.0,0.0,0,0,0.0,0.0,0,0,34.0,0.0,0.0,4608.717948717949,7769.23076923077,4480.512820512821,5714.3589743589755,4385.128205128206,4675.8974358974365,4421.025641025642,4531.282051282052,4618.974358974359,4798.974358974359,5393.846153846154,4301.025641025642,4203.589743589744,4541.538461538462
1695.3475,0.8046081,0.0,0.33333334,0.5522388,0,0.055081602,0.0,0.0,0.0,0.0,0,0,0.0,0.0,0,0,66.0,0.0,453.0,4601.025641025642,7768.71794871795,4471.282051282052,5529.2307692307695,4382.051282051282,4672.307692307693,4409.743589743591,4439.48717948718,4521.025641025642,4731.794871794872,5147.179487179488,4261.025641025642,4184.102564102564,4533.333333333334
1695.5978,0.77168494,0.004823656,0.33333334,0.5522388,0,0.0,0.0,0.0,0.0,0.0,0,0,0.19673868,0.0,0,0,98.0,0.0,528.0,4617.948717948719,7768.71794871795,4492.307692307693,5374.871794871796,4384.615384615385,4675.384615384616,4428.717948717949,4413.333333333334,4474.871794871796,4697.435897435898,4932.820512820514,4251.282051282052,4189.2307692307695,4539.48717948718
1695.848,0.77168494,0.004823656,0.33333334,0.5522388,0,0.0,0.0,0.0,0.0,0.0,0,0,0.17975368,0.0,0,0,1.0,0.0,388.0,4609.743589743591,7768.71794871795,4489.743589743591,5222.051282051283,4388.717948717949,4678.461538461539,4433.846153846154,4423.589743589744,4447.179487179487,4683.076923076924,4768.205128205129,4233.846153846154,4186.153846153847,4507.179487179488
1696.0983,0.793837,0.018928796,0.33333334,0.5522388,0,0.0,0.0,0.0,0.0,0.0,0,0,0.19930157,0.0,0,0,33.0,0.0,0.0,4617.948717948719,7769.23076923077,4504.102564102564,5100.000000000001,4401.025641025642,4696.410256410257,4461.025641025642,4398.461538461539,4416.410256410257,4685.128205128206,4627.179487179488,4243.589743589744,4201.538461538462,4509.2307692307695
1696.3484,0.793837,0.018928796,0.33333334,0.5522388,0,0.0,0.0,0.0,0.0,0.0,0,0,0.23438846,0.0,0,0,65.0,0.0,394.0,4624.102564102564,7768.71794871795,4504.102564102564,5007.6923076923085,4393.846153846154,4685.641025641026,4437.948717948719,4369.2307692307695,4387.179487179487,4673.333333333334,4519.48717948718,4247.179487179487,4201.538461538462,4516.410256410257
1696.5986,0.7863619,0.031623423,0.33333334,0.5522388,0,0.0,0.0,0.0,0.0,0.0,0,0,0.20949236,0.0,0,0,97.0,0.0,496.0,4619.48717948718,7768.71794871795,4503.589743589744,4907.179487179488,4389.743589743591,4678.461538461539,4444.102564102564,4377.435897435898,4368.205128205129,4663.589743589744,4432.307692307693,4234.871794871796,4187.6923076923085,4492.820512820514
1696.8489,0.7863619,0.031623423,0.33333334,0.5522388,0,0.0,0.0,0.0,0.0,0.0,0,0,0.3449506,0.0,0,0,0.0,0.0,483.0,4610.769230769231,7769.23076923077,4487.6923076923085,4823.076923076924,4393.846153846154,4683.589743589744,4444.615384615385,4383.076923076924,4367.179487179487,4666.153846153847,4366.666666666667,4224.102564102564,4183.589743589744,4457.948717948719
1697.0991,0.7908586,0.043048587,0.33333334,0.5522388,0,0.0,0.0,0.0,0.0,0.0,0,0,0.15337148,0.0,0,0,32.0,0.0,0.0,4634.358974358975,7768.71794871795,4509.2307692307695,4758.461538461539,4400.512820512821,4686.666666666667,4458.461538461539,4395.384615384616,4359.48717948718,4681.538461538462,4326.153846153847,4250.256410256411,4188.717948717949,4468.205128205129
1697.3492,0.7908586,0.043048587,0.33333334,0.5522388,0,0.0,0.0,0.0,0.0,0.0,0,0,0.11372932,0.0,0,0,64.0,0.0,483.0,4650.256410256411,7768.71794871795,4523.076923076924,4705.128205128206,4410.256410256411,4692.820512820514,4464.615384615385,4408.205128205129,4364.102564102564,4697.435897435898,4291.282051282052,4264.102564102564,4200.512820512821,4475.8974358974365
1697.5995,0.7807986,0.06591144,0.33333334,0.5522388,0,0.0,0.0,0.0,0.0,0.0,0,0,0.1341418,0.0,0,0,96.0,0.0,49.0,4641.538461538462,7768.71794871795,4521.025641025642,4667.179487179488,4408.205128205129,4692.820512820514,4472.307692307693,4427.6923076923085,4372.307692307693,4706.153846153847,4262.564102564103,4261.538461538462,4185.641025641026,4427.6923076923085
1697.8497,0.7807986,0.06591144,0.33333334,0.5522388,0,0.0,0.0,0.0,0.0,0.0,0,0,0.21136813,0.0,0,0,128.0,0.0,49.0,4632.820512820514,7715.8974358974365,4508.205128205129,4608.717948717949,4402.564102564103,4687.6923076923085,4445.641025641026,4388.717948717949,4355.384615384616,4689.2307692307695,4241.025641025642,4248.205128205129,4185.641025641026,4383.076923076924
1698.1,0.8289502,0.084019065,0.33333334,0.5522388,0,0.0,0.0,0.0,0.0,0.0488507,0,0,0.0,0.0,0,0,31.0,0.0,0.0,4629.2307692307695,7182.051282051283,4514.358974358975,4570.769230769231,4365.128205128206,4659.48717948718,4444.615384615385,4390.256410256411,4358.974358974359,4704.102564102564,4225.641025641026,4247.179487179487,4188.205128205129,4354.358974358975
1698.3501,0.8289502,0.084019065,0.33333334,0.5522388,1,0.0,0.0,0.0,0.0,0.18192057,0,0,0.0,0.0,0,0,63.0,0.0,0.0,4637.435897435898,6675.384615384616,4513.333333333334,4541.025641025642,4327.6923076923085,4632.307692307693,4495.8974358974365,4447.6923076923085,4377.435897435898,4733.333333333334,4227.179487179487,4264.615384615385,4229.74358974359,4364.102564102564
1698.6003,0.84055066,0.100055054,0.33333334,0.5522388,0,0.0,0.0,0.0,0.0,0.025145354,0,1,0.0,0.0,0,0,95.0,0.0,467.0,4597.435897435898,6647.179487179488,4565.128205128206,2741.538461538462,4400.000000000001,4681.025641025642,4516.410256410257,4491.794871794872,4382.051282051282,4780.000000000001,4221.538461538462,4295.8974358974365,4234.358974358975,4357.435897435898
1698.8506,0.84055066,0.100055054,0.33333334,0.5522388,0,0.0,0.0,0.098249115,0.0,0.0,0,0,0.0,0.0,1,0,127.0,0.0,467.0,4582.564102564103,6087.179487179488,4544.102564102564,3112.307692307693,4343.076923076924,4629.2307692307695,4513.846153846154,4532.820512820514,4400.000000000001,4805.641025641026,4213.333333333334,4298.974358974359,4239.48717948718,4288.717948717949
1699.1008,0.8964692,0.114487454,0.33333334,0.5522388,0,0.0,0.0,0.03534149,0.0,0.0,0,0,0.0,0.0,0,0,30.0,0.0,0.0,4544.615384615385,5628.205128205129,4490.769230769231,3365.1282051282055,4280.512820512821,4537.435897435898,4504.615384615385,4522.051282051282,4367.6923076923085,4761.025641025642,4211.794871794872,4268.717948717949,4240.000000000001,4263.589743589744
1699.351,0.8964692,0.114487454,0.33333334,0.5522388,1,0.0,0.0,0.032609373,0.0,0.0,0,0,0.0,0.0,0,0,62.0,0.0,0.0,4597.435897435898,5322.564102564103,4428.717948717949,3546.666666666667,4266.666666666667,4538.974358974359,4445.128205128206,4400.000000000001,4327.6923076923085,4702.051282051282,4200.000000000001,4215.8974358974365,4207.179487179487,4308.717948717949
1699.6012,0.7949264,0.1274766,0.33333334,0.5522388,0,0.0,0.0,0.0,0.0,0.5213737,0,0,0.0,0.0,0,1,94.0,0.0,528.0,4702.051282051282,5025.128205128206,4475.8974358974365,3707.692307692308,4263.076923076924,4575.384615384616,4457.948717948719,4419.48717948718,4347.6923076923085,4710.769230769231,4211.282051282052,4268.717948717949,4227.179487179487,4524.102564102564
1699.8514,0.7949264,0.1274766,0.33333334,0.5522388,0,0.0,0.0,0.0,0.0,0.8577285,0,0,0.0,0.0,0,1,126.0,0.0,528.0,4721.538461538462,4757.948717948719,4495.384615384616,3825.1282051282055,4231.282051282052,4562.564102564103,4471.794871794872,4456.923076923077,4371.282051282052,4738.974358974359,4218.974358974359,4271.282051282052,4214.358974358975,4657.948717948719
1700.1017,0.7444546,0.13916685,0.33333334,0.5522388,0,0.0,0.0,0.0,0.0,0.21991865,0,0,0.0,0.0,0,1,29.0,0.0,0.0,4733.333333333334,4667.179487179488,4521.025641025642,3948.205128205129,4250.256410256411,4556.923076923077,4454.871794871796,4415.384615384616,4361.538461538462,4697.948717948719,4218.974358974359,4282.564102564103,4184.615384615385,4653.333333333334
1700.3832,0.7444546,0.13916685,0.33333334,0.5522388,0,0.0,0.0,0.0,0.0,0.13620007,0,0,0.0,0.0,0,0,65.0,0.0,401.0,4674.871794871796,4432.307692307693,4515.384615384616,4065.6410256410263,4249.2307692307695,4552.307692307693,4469.743589743591,4459.48717948718,4381.538461538462,4744.102564102564,4224.102564102564,4278.461538461539,4220.512820512821,4569.2307692307695
1700.602,0.60393137,0.14968807,0.33333334,0.5522388,0,0.0,0.0,0.0,0.0,0.3337962,0,0,0.0,0.0,0,0,93.0,0.0,496.0,4683.589743589744,4354.358974358975,4516.923076923077,4128.205128205129,4247.6923076923085,4551.282051282052,4472.307692307693,4466.153846153847,4383.589743589744,4733.846153846154,4215.384615384616,4278.974358974359,4222.564102564103,4502.051282051282
1700.8523,0.60393137,0.14968807,0.33333334,0.5522388,0,0.0,0.0,0.0,0.0,0.7470515,0,0,0.0,0.0,0,0,125.0,0.0,496.0,4633.846153846154,4306.153846153847,4482.051282051282,4190.769230769231,4246.153846153847,4552.307692307693,4468.205128205129,4436.923076923077,4364.615384615385,4677.435897435898,4200.000000000001,4223.589743589744,4135.8974358974365,4386.666666666667
1701.1025,0.62678707,0.15915716,0.33333334,0.5522388,0,0.0,0.0,0.0,0.0,0.18654399,0,0,0.0,0.0,0,0,28.0,0.0,0.0,4662.051282051282,4253.846153846154,4531.794871794872,4281.025641025642,4276.923076923077,4581.025641025642,4483.589743589744,4460.512820512821,4404.102564102564,4787.6923076923085,4224.615384615385,4294.871794871796,4304.615384615385,4425.128205128206
1701.3528,0.62678707,0.15915716,0.33333334,0.5522388,0,0.0,0.0,0.0,0.0,0.095811315,0,0,0.0,0.0,0,0,60.0,0.0,0.0,4752.820512820514,4391.282051282052,4577.435897435898,4279.48717948718,4266.153846153847,4571.282051282052,4478.974358974359,4456.410256410257,4392.820512820514,4754.358974358975,4243.589743589744,4377.948717948719,4375.384615384616,4563.076923076924
1701.6029,0.6746939,0.16767934,0.33333334,0.5522388,0,0.0,0.0,0.0,0.0,0.1503196,0,0,0.0,0.0,0,0,92.0,0.0,56.0,4625.128205128206,4166.666666666667,4506.153846153847,4300.000000000001,4245.641025641026,4553.846153846154,4476.923076923077,4447.6923076923085,4383.589743589744,4709.743589743591,4223.589743589744,4260.512820512821,4207.6923076923085,4420.000000000001
1701.8531,0.6746939,0.16767934,0.33333334,0.5522388,0,0.0,0.0,0.0,0.0,0.112073585,0,0,0.0,0.0,0,0,124.0,0.0,56.0,4635.8974358974365,4202.564102564103,4509.2307692307695,4327.6923076923085,4250.256410256411,4553.333333333334,4461.025641025642,4434.871794871796,4371.794871794872,4673.333333333334,4222.051282051282,4247.6923076923085,4155.8974358974365,4401.538461538462
1702.1034,0.69536567,0.17534931,0.33333334,0.5522388,0,0.0,0.0,0.0,0.0,0.12985592,0,0,0.0,0.0,0,0,27.0,0.0,0.0,4635.384615384616,4230.769230769231,4507.6923076923085,4351.794871794872,4246.153846153847,4552.307692307693,4460.000000000001,4442.564102564103,4381.538461538462,4696.923076923077,4222.564102564103,4248.205128205129,4168.205128205129,4372.820512820514
1702.3536,0.69536567,0.17534931,0.33333334,0.5522388,0,0.0,0.0,0.0,0.0,0.14908925,0,0,0.0,0.0,0,0,59.0,0.0,0.0,4604.102564102564,4149.2307692307695,4504.102564102564,4375.384615384616,4245.128205128206,4543.589743589744,4465.128205128206,4444.102564102564,4390.256410256411,4744.615384615386,4238.974358974359,4260.000000000001,4230.769230769231,4376.410256410257
1702.6351,0.6529621,0.18600143,0.33333334,0.5522388,0,0.0,0.0,0.0,0.0,0.13912852,0,0,0.0,0.0,1,0,95.0,0.0,469.0,4636.923076923077,4222.564102564103,4544.102564102564,4397.435897435898,4248.205128205129,4553.333333333334,4488.205128205129,4486.666666666667,4387.6923076923085,4754.871794871796,4249.74358974359,4302.564102564103,4239.48717948718,4438.461538461539
1702.854,0.6529621,0.18600143,0.33333334,0.5522388,0,0.0,0.0,0.0,0.0,0.12913476,0,0,0.0,0.0,1,0,123.0,0.0,469.0,4500.000000000001,4058.461538461539,4490.769230769231,4445.128205128206,4276.923076923077,4558.461538461539,4505.128205128206,4527.6923076923085,4404.615384615385,4784.615384615386,4287.179487179487,4244.102564102564,4133.333333333334,4456.410256410257
1703.1042,0.54792154,0.19545545,0.33333334,0.5522388,0,0.0,0.0,0.0,0.0,0.67688674,0,0,0.0,0.0,0,0,26.0,0.0,0.0,4569.2307692307695,4140.512820512821,4466.153846153847,4447.179487179487,4260.512820512821,4571.794871794872,4463.076923076924,4489.743589743591,4393.846153846154,4735.384615384616,4297.948717948719,4237.948717948719,4186.666666666667,4634.358974358975
1703.3857,0.54792154,0.19545545,0.33333334,0.5522388,0,0.0,0.0,0.0,0.0,0.60117203,0,0,0.0,0.0,0,0,62.0,0.0,0.0,4521.538461538462,4031.2820512820517,4410.256410256411,4409.2307692307695,4183.589743589744,4524.615384615385,4416.923076923077,4443.076923076924,4378.974358974359,4682.564102564103,4275.384615384616,4188.717948717949,4136.923076923077,4674.871794871796
1703.6046,0.5972997,0.20396405,0.33333334,0.5522388,0,0.0,0.0,0.0,0.0,0.36400166,0,0,0.0,0.0,1,0,90.0,0.0,528.0,4621.025641025642,4031.2820512820517,4449.743589743591,4414.358974358975,4181.025641025642,4521.025641025642,4425.128205128206,4464.102564102564,4385.128205128206,4706.153846153847,4282.051282051282,4231.282051282052,4167.6923076923085,4737.948717948719
1703.9175,0.5972997,0.20396405,0.33333334,0.5522388,1,0.0,0.0,0.0,0.0,0.20390278,0,0,0.0,0.0,0,0,1.0,0.0,404.0,4702.564102564103,4014.358974358975,4407.179487179487,4404.102564102564,4149.74358974359,4488.205128205129,4408.205128205129,4409.2307692307695,4379.48717948718,4684.102564102564,4293.333333333334,4213.846153846154,4144.102564102564,4743.076923076924
1704.1051,0.61056775,0.2116218,0.33333334,0.5522388,0,0.0,0.0,0.0,0.0,0.35073578,0,0,0.0,0.0,0,0,25.0,0.0,0.0,4723.076923076924,3963.076923076924,4401.025641025642,4389.743589743591,4193.333333333334,4504.615384615385,4413.846153846154,4425.128205128206,4376.410256410257,4657.948717948719,4320.512820512821,4199.48717948718,4124.615384615385,4870.256410256411
1704.3553,0.61056775,0.2116218,0.33333334,0.5522388,0,0.0,0.0,0.0,0.0,1.0,0,0,0.0,0.0,0,0,57.0,0.0,0.0,4723.589743589744,3985.6410256410263,4389.2307692307695,4371.794871794872,4202.051282051282,4494.358974358975,4397.435897435898,4382.564102564103,4348.205128205129,4588.717948717949,4303.589743589744,4169.2307692307695,4044.615384615385,4906.666666666667
1704.6055,0.65675646,0.21851379,0.33333334,0.5522388,1,0.0,0.0,0.0,0.0,0.7524413,0,0,0.0,0.0,0,0,89.0,0.0,496.0,4850.769230769231,4003.076923076924,4452.307692307693,4395.8974358974365,4212.820512820514,4505.641025641026,4424.615384615385,4424.102564102564,4367.6923076923085,4637.435897435898,4317.435897435898,4237.948717948719,4138.461538461539,4994.358974358975
1704.8557,0.65675646,0.21851379,0.33333334,0.5522388,0,0.0,0.0,0.0,0.0,0.2246596,0,0,0.0,0.0,1,0,121.0,0.0,496.0,4814.358974358975,4007.1794871794878,4475.384615384616,4400.000000000001,4237.435897435898,4509.743589743591,4430.769230769231,4400.512820512821,4366.153846153847,4648.205128205129,4302.564102564103,4246.666666666667,4125.641025641026,4922.564102564103
1705.106,0.78794575,0.98869616,0.33333334,0.5522388,0,0.0,0.0,0.0,0.0,0.2790151,0,0,0.0,0.0,0,0,24.0,0.0,0.0,4788.205128205129,4012.820512820513,4488.717948717949,4423.589743589744,4265.641025641026,4536.410256410257,4454.871794871796,4398.461538461539,4356.923076923077,4641.025641025642,4292.820512820514,4230.769230769231,4078.461538461539,4923.589743589744
1705.3562,0.78794575,0.98869616,0.33333334,0.5522388,0,0.0,0.0,0.0,0.0,1.0,0,0,0.0,0.0,0,0,56.0,0.0,0.0,4749.743589743591,4012.820512820513,4523.076923076924,4416.923076923077,4277.948717948719,4552.307692307693,4495.384615384616,4447.179487179487,4380.000000000001,4700.000000000001,4316.923076923077,4277.948717948719,4153.333333333334,4997.948717948719
1705.6064,0.87415093,1.0,0.33333334,0.5522388,0,0.0,0.0,0.0,0.0,0.17823611,0,0,0.0,0.0,1,0,88.0,0.0,56.0,4742.051282051282,4092.820512820513,4544.615384615385,4409.743589743591,4280.512820512821,4557.435897435898,4464.102564102564,4410.769230769231,4372.307692307693,4678.974358974359,4308.717948717949,4295.8974358974365,4140.000000000001,5024.615384615386
1705.8566,0.87415093,1.0,0.33333334,0.5522388,0,0.0,0.0,0.0,0.0,0.18969604,0,0,0.0,0.0,1,0,120.0,0.0,56.0,4670.769230769231,4000.5128205128212,4525.128205128206,4407.6923076923085,4271.282051282052,4556.410256410257,4466.153846153847,4425.641025641026,4383.076923076924,4694.871794871796,4317.435897435898,4258.461538461539,4106.666666666667,4940.512820512821
1706.1068,0.917841,1.0,0.33333334,0.5522388,0,0.0,0.0,0.0,0.0,0.40539655,0,0,0.0,0.0,0,0,23.0,0.0,0.0,4674.358974358975,4006.1538461538466,4537.948717948719,4424.102564102564,4269.2307692307695,4561.538461538462,4472.307692307693,4423.076923076924,4382.051282051282,4711.282051282052,4307.179487179487,4272.307692307693,4126.666666666667,4910.769230769231
1706.357,0.917841,1.0,0.33333334,0.5522388,0,0.0,0.0,0.0,0.0,0.15699916,0,0,0.0,0.0,0,0,55.0,0.0,0.0,4701.538461538462,4052.307692307693,4560.512820512821,4419.48717948718,4263.076923076924,4563.076923076924,4476.923076923077,4445.128205128206,4394.871794871796,4727.6923076923085,4317.435897435898,4314.358974358975,4212.307692307693,4941.538461538462
1706.6073,0.8868101,1.0,0.33333334,0.5522388,0,0.0,0.0,0.0,0.0,0.15384807,0,0,0.0,0.0,1,0,87.0,0.0,456.0,4652.820512820514,4006.666666666667,4539.48717948718,4420.512820512821,4262.564102564103,4554.358974358975,4474.871794871796,4443.076923076924,4386.153846153847,4714.358974358975,4316.410256410257,4276.410256410257,4149.2307692307695,4871.794871794872
1706.8574,0.8868101,1.0,0.33333334,0.5522388,0,0.0,0.0,0.0,0.0,0.18909062,0,0,0.0,0.0,0,0,119.0,0.0,456.0,4626.153846153847,3967.692307692308,4528.717948717949,4427.179487179487,4253.333333333334,4546.153846153847,4478.461538461539,4444.102564102564,4395.8974358974365,4736.923076923077,4314.358974358975,4262.051282051282,4157.948717948719,4814.358974358975
1707.1077,0.88603324,1.0,0.33333334,0.5522388,0,0.0,0.0,0.0,0.0,0.39899448,0,0,0.0,0.0,0,0,22.0,0.0,0.0,4640.512820512821,3980.0000000000005,4529.743589743591,4432.307692307693,4256.923076923077,4551.794871794872,4473.846153846154,4456.410256410257,4392.307692307693,4712.820512820514,4310.256410256411,4255.8974358974365,4132.307692307693,4772.820512820514
1707.3579,0.88603324,1.0,0.33333334,0.5522388,0,0.0,0.0,0.0,0.0,0.078793325,0,0,0.0,0.0,0,0,54.0,0.0,0.0,4635.384615384616,3997.435897435898,4527.6923076923085,4435.8974358974365,4261.025641025642,4556.410256410257,4476.923076923077,4443.589743589744,4389.743589743591,4730.256410256411,4312.307692307693,4270.769230769231,4181.538461538462,4784.102564102564
1707.6082,0.8297213,1.0,0.33333334,0.5522388,0,0.0,0.0,0.0,0.0,0.1069867,0,0,0.0,0.0,0,0,86.0,0.0,527.0,4775.8974358974365,4268.205128205129,4601.025641025642,4409.743589743591,4265.128205128206,4567.179487179488,4475.8974358974365,4427.6923076923085,4386.666666666667,4718.974358974359,4322.564102564103,4380.512820512821,4282.564102564103,4937.948717948719
1707.8583,0.8297213,1.0,0.33333334,0.5522388,0,0.0,0.0,0.0,0.0,0.124652654,0,0,0.0,0.0,1,0,118.0,0.0,527.0,4645.641025641026,3981.0256410256416,4538.461538461539,4439.48717948718,4262.564102564103,4567.6923076923085,4491.794871794872,4473.333333333334,4404.102564102564,4734.871794871796,4315.384615384616,4286.666666666667,4176.410256410257,4761.025641025642
1708.1085,0.7519755,1.0,0.33333334,0.5522388,0,0.0,0.0,0.0,0.0,0.14612623,0,0,0.0,0.0,0,0,21.0,0.0,0.0,4616.923076923077,4042.0512820512827,4523.076923076924,4433.333333333334,4245.128205128206,4541.538461538462,4474.871794871796,4457.948717948719,4402.051282051282,4744.102564102564,4315.8974358974365,4275.384615384616,4197.948717948719,4732.307692307693
1708.3588,0.7519755,1.0,0.33333334,0.5522388,0,0.0,0.0,0.0,0.0,0.08516231,0,0,0.0,0.0,0,0,53.0,0.0,0.0,4669.2307692307695,4137.948717948719,4536.410256410257,4435.8974358974365,4247.6923076923085,4555.8974358974365,4474.871794871796,4425.641025641026,4386.666666666667,4692.307692307693,4310.769230769231,4281.538461538462,4155.384615384616,4744.102564102564
1708.6715,0.6481727,1.0,0.33333334,0.5522388,0,0.0,0.0,0.0,0.0,0.15872906,0,0,0.0,0.0,0,0,93.0,0.0,496.0,4661.025641025642,4150.256410256411,4554.871794871796,4460.000000000001,4262.564102564103,4571.282051282052,4505.641025641026,4477.435897435898,4416.410256410257,4751.794871794872,4328.717948717949,4294.358974358975,4189.2307692307695,4766.153846153847
1708.8591,0.6481727,1.0,0.33333334,0.5522388,0,0.0,0.0,0.0,0.0,0.19569823,0,0,0.0,0.0,0,0,117.0,0.0,496.0,4647.179487179488,4069.23076923077,4536.410256410257,4466.153846153847,4254.358974358975,4576.923076923077,4490.769230769231,4456.410256410257,4403.076923076924,4745.641025641026,4322.564102564103,4272.820512820514,4176.923076923077,4708.205128205129
1709.1094,0.5271195,1.0,0.33333334,0.5522388,0,0.0,0.0,0.0,0.0,0.13623787,0,0,0.0,0.0,1,0,20.0,0.0,0.0,4700.512820512821,4161.538461538462,4565.128205128206,4464.615384615385,4263.076923076924,4589.2307692307695,4487.179487179488,4463.589743589744,4416.923076923077,4750.769230769231,4331.282051282052,4311.794871794872,4204.102564102564,4756.410256410257
1709.4221,0.5271195,1.0,0.33333334,0.5522388,0,0.0,0.0,0.0,0.0,0.16608262,0,0,0.0,0.0,0,0,60.0,0.0,0.0,4647.6923076923085,3972.307692307693,4539.48717948718,4473.846153846154,4245.641025641026,4572.820512820514,4501.538461538462,4477.435897435898,4436.410256410257,4800.000000000001,4335.384615384616,4292.307692307693,4249.2307692307695,4684.102564102564
1709.6099,0.5086337,1.0,0.33333334,0.5522388,0,0.0,0.0,0.0,0.0,0.10898602,0,0,0.0,0.0,0,0,84.0,0.0,56.0,4646.153846153847,3962.0512820512827,4533.333333333334,4463.589743589744,4245.641025641026,4572.307692307693,4505.641025641026,4471.794871794872,4423.589743589744,4783.589743589744,4330.256410256411,4281.025641025642,4231.794871794872,4648.205128205129
1709.86,0.5086337,1.0,0.33333334,0.5522388,0,0.0,0.0,0.0,0.0,0.45018092,0,0,0.0,0.0,0,0,116.0,0.0,56.0,4631.794871794872,3972.307692307693,4522.051282051282,4464.615384615385,4245.128205128206,4584.102564102564,4489.743589743591,4461.025641025642,4419.48717948718,4780.000000000001,4327.179487179487,4265.641025641026,4201.538461538462,4598.974358974359
1710.1102,0.5718522,1.0,0.33333334,0.5522388,0,0.0,0.0,0.0,0.0,0.14952561,0,0,0.0,0.0,1,0,19.0,0.0,0.0,4632.820512820514,3945.6410256410263,4518.461538461539,4443.076923076924,4228.717948717949,4568.205128205129,4482.051282051282,4456.410256410257,4424.615384615385,4770.769230769231,4329.2307692307695,4260.000000000001,4214.871794871796,4597.435897435898
1710.3917,0.5718522,1.0,0.33333334,0.5522388,0,0.0,0.0,0.0,0.0,0.15605736,0,0,0.0,0.0,0,0,55.0,0.0,0.0,4625.128205128206,3970.2564102564106,4506.666666666667,4441.538461538462,4231.282051282052,4566.666666666667,4476.923076923077,4442.051282051282,4409.743589743591,4732.307692307693,4320.512820512821,4242.564102564103,4176.923076923077,4588.205128205129
1710.6107,0.6308398,1.0,0.33333334,0.5522388,0,0.0,0.0,0.0,0.0,0.095530026,0,0,0.0,0.0,0,0,83.0,0.0,458.0,4676.923076923077,4060.5128205128212,4529.2307692307695,4430.256410256411,4240.000000000001,4571.282051282052,4471.282051282052,4440.512820512821,4411.282051282052,4745.128205128206,4331.282051282052,4288.717948717949,4230.256410256411,4659.48717948718
1710.861,0.6308398,1.0,0.33333334,0.5522388,0,0.0,0.0,0.0,0.0,0.14814547,0,0,0.0,0.0,1,0,115.0,0.0,458.0,4615.8974358974365,3947.692307692308,4498.974358974359,4436.923076923077,4236.923076923077,4568.205128205129,4481.025641025642,4449.2307692307695,4414.358974358975,4741.025641025642,4325.128205128206,4231.282051282052,4171.282051282052,4580.000000000001
1711.1111,0.64339536,1.0,0.33333334,0.5522388,0,0.0,0.0,0.0,0.0,0.15078095,0,0,0.0,0.0,0,0,18.0,0.0,0.0,4617.435897435898,3938.9743589743593,4492.820512820514,4435.8974358974365,4234.871794871796,4557.435897435898,4476.410256410257,4454.871794871796,4415.8974358974365,4753.333333333334,4326.153846153847,4248.205128205129,4202.051282051282,4545.128205128206
1711.3613,0.64339536,1.0,0.33333334,0.5522388,0,0.0,0.0,0.0,0.0,0.12321173,0,0,0.0,0.0,0,0,50.0,0.0,0.0,4615.8974358974365,3986.1538461538466,4488.205128205129,4436.410256410257,4247.6923076923085,4565.641025641026,4470.256410256411,4429.743589743591,4407.179487179487,4711.794871794872,4322.564102564103,4244.102564102564,4157.435897435898,4544.102564102564
1711.6116,0.5675559,1.0,0.33333334,0.5522388,0,0.0,0.0,0.0,0.0,0.021458764,0,0,0.0,0.0,0,0,82.0,0.0,527.0,4633.333333333334,3971.7948717948725,4503.076923076924,4435.8974358974365,4246.666666666667,4566.666666666667,4460.512820512821,4425.641025641026,4409.2307692307695,4746.666666666667,4324.102564102564,4276.410256410257,4231.282051282052,4555.384615384616
1711.8618,0.5675559,1.0,0.33333334,0.5522388,1,0.0,0.0,0.0,0.0,0.1245029,0,0,0.0,0.0,0,0,114.0,0.0,527.0,4671.282051282052,4044.615384615385,4519.48717948718,4441.538461538462,4249.74358974359,4569.2307692307695,4474.358974358975,4426.153846153847,4405.641025641026,4749.2307692307695,4331.282051282052,4308.205128205129,4263.589743589744,4561.025641025642
1712.1119,0.61240125,1.0,0.33333334,0.5522388,0,0.0,0.0,0.0,0.0,0.207594,0,0,0.0,0.0,0,0,17.0,0.0,0.0,4591.282051282052,3924.615384615385,4470.769230769231,4446.153846153847,4244.615384615385,4555.8974358974365,4466.666666666667,4432.307692307693,4397.435897435898,4724.102564102564,4319.48717948718,4242.051282051282,4188.717948717949,4427.179487179487
1712.3622,0.61240125,1.0,0.33333334,0.5522388,0,0.0,0.0,0.0,0.0,0.2638137,0,0,0.0,0.0,0,0,49.0,0.0,0.0,4607.179487179488,3976.9230769230776,4472.820512820514,4439.48717948718,4244.615384615385,4553.333333333334,4443.076923076924,4414.358974358975,4390.769230769231,4697.948717948719,4311.282051282052,4234.358974358975,4141.025641025642,4394.871794871796
1712.6124,0.6207671,1.0,0.33333334,0.5522388,0,0.0,0.0,0.0,0.0,0.14835723,0,0,0.0,0.0,0,0,81.0,0.0,496.0,4607.6923076923085,3993.8461538461543,4479.48717948718,4435.8974358974365,4247.179487179487,4552.307692307693,4478.461538461539,4465.128205128206,4413.846153846154,4738.974358974359,4324.102564102564,4266.153846153847,4194.871794871796,4381.538461538462
1712.8939,0.6207671,1.0,0.33333334,0.5522388,1,0.0,0.0,0.0,0.0,0.13388255,0,0,0.0,0.0,0,0,117.0,0.0,496.0,4631.282051282052,4017.9487179487182,4480.512820512821,4455.384615384616,4236.923076923077,4554.871794871796,4455.384615384616,4426.666666666667,4396.410256410257,4723.589743589744,4323.076923076924,4265.128205128206,4214.358974358975,4427.179487179487
1713.1128,0.65365046,1.0,0.33333334,0.5522388,0,0.0,0.0,0.0,0.0,0.13035017,0,0,0.0,0.0,0,0,16.0,0.0,0.0,4608.717948717949,3965.6410256410263,4476.410256410257,4439.48717948718,4234.871794871796,4552.820512820514,4448.717948717949,4417.948717948719,4395.8974358974365,4732.820512820514,4324.102564102564,4251.282051282052,4205.128205128206,4393.333333333334
1713.363,0.65365046,1.0,0.33333334,0.5522388,0,0.0,0.0,0.0,0.0,0.0883612,0,0,0.0,0.0,0,0,48.0,0.0,0.0,4614.871794871796,3987.1794871794878,4487.179487179488,4452.307692307693,4247.179487179487,4554.871794871796,4460.000000000001,4440.000000000001,4402.051282051282,4737.435897435898,4328.717948717949,4263.589743589744,4204.102564102564,4415.384615384616
1713.6133,0.65336454,1.0,0.33333334,0.5522388,0,0.0,0.0,0.0,0.0,0.124117024,0,0,0.0,0.0,0,0,80.0,0.0,56.0,4627.179487179488,3968.717948717949,4492.307692307693,4443.589743589744,4231.794871794872,4535.8974358974365,4457.948717948719,4441.025641025642,4413.333333333334,4785.128205128206,4336.923076923077,4293.846153846154,4301.025641025642,4456.923076923077
1713.8635,0.65336454,1.0,0.33333334,0.5522388,0,0.0,0.0,0.0,0.0,0.13064152,0,1,0.0,0.0,0,0,112.0,0.0,56.0,4641.538461538462,3929.7435897435903,4510.256410256411,4440.512820512821,4232.820512820514,4541.538461538462,4473.846153846154,4478.974358974359,4428.717948717949,4832.307692307693,4355.384615384616,4328.717948717949,4377.948717948719,4494.358974358975
1714.1136,0.66715276,1.0,0.33333334,0.5522388,0,0.0,0.0,0.0,0.0,0.10519677,0,1,0.0,0.0,0,0,15.0,0.0,466.0,4605.128205128206,3922.0512820512827,4488.717948717949,4441.538461538462,4231.794871794872,4540.000000000001,4444.615384615385,4437.435897435898,4411.282051282052,4778.461538461539,4346.666666666667,4277.948717948719,4261.538461538462,4476.410256410257
1714.3639,0.66715276,1.0,0.33333334,0.5522388,0,0.0,0.0,0.0,0.0,0.26560578,0,1,0.0,0.0,0,0,47.0,0.0,0.0,4625.641025641026,3945.1282051282055,4500.512820512821,4451.282051282052,4244.102564102564,4552.820512820514,4458.461538461539,4436.410256410257,4405.128205128206,4788.205128205129,4351.794871794872,4295.384615384616,4284.102564102564,4537.435897435898
1714.6141,0.59601194,1.0,0.33333334,0.5522388,0,0.0,0.0,0.0,0.0,0.46525446,0,0,0.0,0.0,0,0,79.0,0.0,466.0,4647.179487179488,3957.435897435898,4516.923076923077,4430.769230769231,4235.384615384616,4543.589743589744,4460.000000000001,4444.102564102564,4414.358974358975,4791.794871794872,4358.461538461539,4311.282051282052,4307.179487179487,4582.564102564103
1714.8644,0.59601194,1.0,0.33333334,0.5522388,0,0.0,0.0,0.0,0.0,0.2128225,0,0,0.0,0.0,0,0,111.0,0.0,466.0,4657.948717948719,3990.7692307692314,4523.589743589744,4428.717948717949,4246.666666666667,4554.358974358975,4465.641025641026,4444.102564102564,4412.307692307693,4769.2307692307695,4356.923076923077,4314.358974358975,4285.128205128206,4586.666666666667
1715.1145,0.5775383,1.0,0.33333334,0.5522388,0,0.0,0.0,0.0,0.0,0.1528114,0,0,0.0,0.0,0,0,14.0,0.0,527.0,4618.974358974359,4043.076923076924,4490.769230769231,4436.410256410257,4260.000000000001,4555.384615384616,4430.256410256411,4366.153846153847,4359.48717948718,4617.435897435898,4321.538461538462,4201.025641025642,4009.7435897435903,4497.435897435898
1715.3647,0.5775383,1.0,0.33333334,0.5522388,0,0.0,0.0,0.0,0.0,0.13067943,0,0,0.0,0.0,0,0,46.0,0.0,0.0,4625.128205128206,3987.692307692308,4495.8974358974365,4437.435897435898,4244.615384615385,4549.2307692307695,4442.051282051282,4409.2307692307695,4381.025641025642,4682.564102564103,4329.743589743591,4230.256410256411,4093.8461538461543,4555.384615384616
1715.615,0.6599963,1.0,0.33333334,0.5522388,0,0.0,0.0,0.0,0.0,0.6566506,0,0,0.0,0.0,0,0,78.0,0.0,527.0,4635.384615384616,3989.23076923077,4507.6923076923085,4448.717948717949,4254.871794871796,4553.333333333334,4452.307692307693,4428.205128205129,4392.307692307693,4711.794871794872,4340.000000000001,4246.666666666667,4123.076923076924,4601.025641025642
1715.8652,0.6599963,1.0,0.33333334,0.5522388,0,0.0,0.0,0.0,0.0,0.23321381,0,0,0.0,0.0,0,0,110.0,0.0,527.0,4616.923076923077,3991.2820512820517,4506.666666666667,4444.615384615385,4260.000000000001,4541.025641025642,4446.153846153847,4410.769230769231,4382.564102564103,4686.666666666667,4329.743589743591,4231.282051282052,4089.23076923077,4554.358974358975
1716.1155,0.6235945,1.0,0.33333334,0.5522388,0,0.0,0.0,0.0,0.0,0.17385264,0,0,0.0,0.0,0,0,13.0,0.0,496.0,4661.025641025642,3992.307692307693,4553.333333333334,4489.2307692307695,4279.48717948718,4570.769230769231,4493.846153846154,4463.076923076924,4426.153846153847,4781.025641025642,4354.871794871796,4306.153846153847,4228.205128205129,4606.666666666667
1716.3656,0.6235945,1.0,0.33333334,0.5522388,0,0.0,0.0,0.0,0.0,0.050255768,0,0,0.0,0.0,0,0,45.0,0.0,0.0,4687.6923076923085,3973.8461538461543,4582.564102564103,4514.358974358975,4305.641025641026,4594.358974358975,4538.974358974359,4531.282051282052,4454.871794871796,4860.512820512821,4381.025641025642,4364.102564102564,4347.6923076923085,4630.769230769231
1716.6158,0.69313246,1.0,0.33333334,0.5522388,0,0.0,0.0,0.0,0.0,0.04022548,0,0,0.0,0.0,0,0,77.0,0.0,496.0,4641.025641025642,3914.8717948717954,4527.6923076923085,4455.384615384616,4244.615384615385,4538.974358974359,4494.871794871796,4465.128205128206,4422.564102564103,4796.410256410257,4358.974358974359,4313.333333333334,4279.48717948718,4585.641025641026
1716.8661,0.69313246,1.0,0.33333334,0.5522388,0,0.0,0.0,0.0,0.0,0.01689776,0,0,0.0,0.0,0,0,109.0,0.0,496.0,4618.461538461539,3957.9487179487182,4522.051282051282,4445.128205128206,4230.769230769231,4523.589743589744,4457.435897435898,4402.051282051282,4397.435897435898,4737.948717948719,4348.717948717949,4272.307692307693,4187.179487179487,4547.6923076923085
1717.1163,0.69952244,0.9986564,0.33333334,0.5522388,0,0.0,0.0,0.0,0.0,0.17694357,0,0,0.0,0.0,0,0,12.0,0.0,56.0,4613.333333333334,4031.7948717948725,4518.461538461539,4440.512820512821,4232.820512820514,4536.923076923077,4441.025641025642,4359.48717948718,4360.512820512821,4642.564102564103,4328.717948717949,4232.307692307693,4053.8461538461543,4468.717948717949
1717.3665,0.69952244,0.9986564,0.33333334,0.5522388,0,0.0,0.0,0.0,0.0,0.7094929,0,0,0.0,0.0,0,0,44.0,0.0,0.0,4598.974358974359,4002.0512820512827,4521.025641025642,4429.743589743591,4232.307692307693,4534.358974358975,4442.564102564103,4373.333333333334,4370.769230769231,4663.589743589744,4326.153846153847,4233.846153846154,4077.9487179487187,4413.333333333334
1717.6167,0.6993126,0.90090764,0.33333334,0.5522388,0,0.0,0.0,0.0,0.0,0.987346,0,0,0.0,0.0,0,0,76.0,0.0,56.0,4587.6923076923085,3993.8461538461543,4520.512820512821,4435.384615384616,4243.076923076924,4540.512820512821,4448.205128205129,4388.717948717949,4371.794871794872,4666.153846153847,4322.564102564103,4233.333333333334,4076.9230769230776,4370.256410256411
1717.867,0.6993126,0.90090764,0.33333334,0.5522388,0,0.0,0.0,0.0,0.0,0.34301886,0,0,0.0,0.0,0,0,108.0,0.0,56.0,4588.717948717949,3943.589743589744,4513.846153846154,4429.743589743591,4232.307692307693,4534.871794871796,4460.000000000001,4404.102564102564,4381.025641025642,4698.461538461539,4328.717948717949,4247.179487179487,4151.282051282052,4341.538461538462
1718.1484,0.68353146,0.8199763,0.33333334,0.5522388,1,0.0,0.0,0.0,0.0,0.1036783,0,0,0.0,0.0,0,0,15.0,0.0,466.0,4620.000000000001,3995.8974358974365,4542.051282051282,4421.025641025642,4234.358974358975,4537.435897435898,4456.410256410257,4411.282051282052,4382.051282051282,4704.102564102564,4326.666666666667,4276.923076923077,4183.589743589744,4329.2307692307695
1718.3673,0.68353146,0.8199763,0.33333334,0.5522388,0,0.0,0.0,0.0,0.0,0.19091009,0,0,0.0,0.0,0,0,43.0,0.0,0.0,4584.102564102564,3911.2820512820517,4513.333333333334,4429.2307692307695,4232.820512820514,4535.8974358974365,4457.948717948719,4420.512820512821,4381.538461538462,4708.205128205129,4322.564102564103,4231.282051282052,4149.2307692307695,4245.641025641026
1718.6176,0.6150373,0.74957645,0.33333334,0.5522388,0,0.0,0.0,0.0,0.0,0.17637724,0,0,0.0,0.0,0,0,75.0,0.0,470.0,4600.000000000001,3927.692307692308,4524.615384615385,4426.666666666667,4235.384615384616,4541.025641025642,4458.974358974359,4419.48717948718,4379.48717948718,4710.256410256411,4325.641025641026,4252.307692307693,4154.358974358975,4266.153846153847
1718.8678,0.6150373,0.74957645,0.33333334,0.5522388,0,0.0,0.0,0.0,0.0,0.07872597,0,0,0.0,0.0,0,0,107.0,0.0,470.0,4597.435897435898,3924.615384615385,4521.025641025642,4413.846153846154,4233.846153846154,4539.48717948718,4461.538461538462,4408.205128205129,4369.2307692307695,4688.205128205129,4322.564102564103,4234.358974358975,4144.102564102564,4261.025641025642
1719.118,0.6298472,0.6980672,0.33333334,0.5522388,0,0.0,0.0,0.0,0.0,0.0,0,0,0.0,0.0,0,0,10.0,0.0,527.0,4591.282051282052,3945.6410256410263,4525.128205128206,4429.743589743591,4247.179487179487,4542.051282051282,4461.538461538462,4407.6923076923085,4378.974358974359,4712.307692307693,4323.076923076924,4246.153846153847,4161.538461538462,4266.666666666667
1719.118,0.6298472,0.6980672,0.33333334,0.5522388,0,0.0,0.0,0.0,0.0,0.0,0,0,0.0,0.0,0,0,10.0,0.0,527.0,4591.282051282052,3945.6410256410263,4525.128205128206,4429.743589743591,4247.179487179487,4542.051282051282,4461.538461538462,4407.6923076923085,4378.974358974359,4712.307692307693,4323.076923076924,4246.153846153847,4161.538461538462,4266.666666666667
1719.6184,0.5597908,0.6467088,0.33333334,0.5522388,0,0.0,0.0,0.0,0.0,0.021508742,0,0,0.0,0.0,0,0,74.0,0.0,527.0,4590.769230769231,3956.410256410257,4522.564102564103,4422.051282051282,4235.384615384616,4539.48717948718,4452.307692307693,4411.794871794872,4373.333333333334,4690.769230769231,4320.000000000001,4236.923076923077,4142.564102564103,4259.48717948718
1719.7435,0.5597908,0.6467088,0.33333334,0.5522388,0,0.0,0.0,0.0,0.0,0.0,0,0,0.0,0.0,0,0,90.0,0.0,527.0,4553.333333333334,3944.615384615385,4492.820512820514,4432.307692307693,4248.205128205129,4549.2307692307695,4444.102564102564,4396.923076923077,4361.025641025642,4662.564102564103,4312.307692307693,4184.615384615385,4080.5128205128212,4204.615384615385
1720.1189,0.58822757,0.5909858,0.33333334,0.5522388,1,0.0,0.0,0.0,0.0,0.0,0,0,0.0,0.0,0,0,9.0,0.0,481.0,4621.025641025642,3976.9230769230776,4535.8974358974365,4430.256410256411,4233.846153846154,4542.051282051282,4463.076923076924,4429.2307692307695,4380.512820512821,4690.256410256411,4322.051282051282,4251.282051282052,4158.461538461539,4290.769230769231
1720.2753,0.58822757,0.5909858,0.33333334,0.5522388,0,0.0,0.0,0.0,0.0,0.0,0,0,0.0,0.0,0,0,29.0,0.0,0.0,4650.256410256411,4006.1538461538466,4554.358974358975,4431.282051282052,4237.435897435898,4541.538461538462,4467.179487179487,4448.717948717949,4395.384615384616,4730.256410256411,4329.2307692307695,4290.256410256411,4230.256410256411,4340.000000000001
1720.5255,0.5850216,0.55743873,0.33333334,0.5522388,0,0.0,0.0,0.0,0.0,0.0,0,0,0.0,0.0,0,0,61.0,0.0,0.0,4635.384615384616,3990.7692307692314,4547.6923076923085,4434.358974358975,4245.128205128206,4544.615384615385,4476.410256410257,4460.000000000001,4397.948717948719,4737.948717948719,4334.871794871796,4287.179487179487,4213.846153846154,4351.794871794872
1720.5255,0.5850216,0.55743873,0.33333334,0.5522388,0,0.0,0.0,0.0,0.0,0.0,0,0,0.0,0.0,0,0,61.0,0.0,0.0,4635.384615384616,3990.7692307692314,4547.6923076923085,4434.358974358975,4245.128205128206,4544.615384615385,4476.410256410257,4460.000000000001,4397.948717948719,4737.948717948719,4334.871794871796,4287.179487179487,4213.846153846154,4351.794871794872
1721.1198,0.5195503,0.5494643,0.33333334,0.5522388,0,0.0,0.0,0.0,0.0,0.14418398,0,0,0.0,0.0,0,0,8.0,0.0,377.0,4617.435897435898,3970.2564102564106,4522.564102564103,4437.948717948719,4234.358974358975,4540.512820512821,4458.974358974359,4438.461538461539,4384.102564102564,4706.153846153847,4326.666666666667,4241.538461538462,4170.256410256411,4310.769230769231
1721.37,0.5195503,0.5494643,0.33333334,0.5522388,0,0.0,0.0,0.0,0.0,0.118659906,0,0,0.0,0.0,0,0,40.0,0.0,0.0,4640.512820512821,3944.615384615385,4541.025641025642,4576.410256410257,4246.666666666667,4539.48717948718,4467.179487179487,4455.8974358974365,4398.974358974359,4753.333333333334,4339.48717948718,4271.794871794872,4225.641025641026,4366.666666666667
1721.6201,0.46667254,0.5447332,0.33333334,0.5522388,0,0.0,0.0,0.0,0.0,0.28893307,0,0,0.0,0.0,0,0,72.0,0.0,377.0,4624.102564102564,3976.410256410257,4538.974358974359,4480.512820512821,4246.153846153847,4538.461538461539,4461.025641025642,4428.717948717949,4383.589743589744,4705.641025641026,4329.2307692307695,4242.564102564103,4157.435897435898,4396.923076923077
1721.8704,0.46667254,0.5447332,0.33333334,0.5522388,0,0.0,0.0,0.0,0.0,0.34675422,0,0,0.0,0.0,0,0,104.0,0.0,56.0,4633.333333333334,3940.5128205128212,4553.333333333334,4454.871794871796,4248.205128205129,4550.256410256411,4486.666666666667,4472.307692307693,4415.8974358974365,4780.000000000001,4347.179487179487,4281.538461538462,4261.025641025642,4443.589743589744
1722.1206,0.4143105,0.5435357,0.33333334,0.5522388,0,0.0,0.0,0.0,0.0,0.099324316,0,0,0.0,0.0,0,0,7.0,0.0,467.0,4614.871794871796,3927.1794871794878,4522.051282051282,4456.410256410257,4245.641025641026,4538.974358974359,4451.282051282052,4422.564102564103,4396.410256410257,4745.128205128206,4339.48717948718,4237.435897435898,4205.128205128206,4405.128205128206
1722.3708,0.4143105,0.5435357,0.33333334,0.5522388,0,0.0,0.0,0.0,0.0,0.073430665,0,0,0.0,0.0,0,0,39.0,0.0,0.0,4616.923076923077,3927.692307692308,4526.666666666667,4442.564102564103,4244.615384615385,4540.512820512821,4458.461538461539,4425.641025641026,4396.923076923077,4741.025641025642,4337.948717948719,4245.128205128206,4203.589743589744,4417.948717948719
1722.621,0.4587481,0.5039262,0.33333334,0.5522388,0,0.0,0.0,0.0,0.0,0.0,0,0,0.0,0.0,0,0,71.0,0.0,467.0,4626.666666666667,3944.1025641025644,4538.461538461539,4443.076923076924,4246.153846153847,4542.051282051282,4458.461538461539,4407.179487179487,4387.179487179487,4731.282051282052,4340.000000000001,4263.589743589744,4201.025641025642,4477.435897435898
1722.621,0.4587481,0.5039262,0.33333334,0.5522388,0,0.0,0.0,0.0,0.0,0.0,0,0,0.0,0.0,0,0,71.0,0.0,467.0,4626.666666666667,3944.1025641025644,4538.461538461539,4443.076923076924,4246.153846153847,4542.051282051282,4458.461538461539,4407.179487179487,4387.179487179487,4731.282051282052,4340.000000000001,4263.589743589744,4201.025641025642,4477.435897435898
1723.1215,0.49403635,0.46007553,0.33333334,0.5522388,0,0.0,0.0,0.0,0.0,0.08853867,0,0,0.0,0.0,0,0,6.0,0.0,549.0,4615.8974358974365,3925.1282051282055,4546.153846153847,4445.128205128206,4245.641025641026,4541.025641025642,4471.282051282052,4445.641025641026,4398.461538461539,4749.743589743591,4352.307692307693,4262.564102564103,4246.153846153847,4522.564102564103
1723.2466,0.49403635,0.46007553,0.33333334,0.5522388,0,0.0,0.0,0.0,0.0,0.0,0,0,0.0,0.0,0,0,22.0,0.0,0.0,4620.512820512821,3942.0512820512827,4552.307692307693,4444.615384615385,4248.205128205129,4550.256410256411,4463.589743589744,4461.025641025642,4409.2307692307695,4764.615384615386,4355.384615384616,4266.153846153847,4252.307692307693,4542.564102564103
1723.5281,0.5281349,0.4254291,0.33333334,0.5522388,0,0.0,0.0,0.0,0.0,0.0,0,0,0.0,0.0,0,0,58.0,0.0,0.0,4615.384615384616,3928.717948717949,4536.410256410257,4437.948717948719,4246.153846153847,4540.000000000001,4459.48717948718,4430.769230769231,4393.846153846154,4731.794871794872,4348.717948717949,4249.2307692307695,4229.2307692307695,4510.769230769231
1723.8721,0.5281349,0.4254291,0.33333334,0.5522388,0,0.0,0.0,0.0,0.0,0.0,1,0,0.0,0.0,0,0,102.0,0.0,528.0,4597.435897435898,3979.48717948718,4518.974358974359,4434.871794871796,4247.6923076923085,4540.512820512821,4458.461538461539,4441.025641025642,4381.025641025642,4659.48717948718,4334.871794871796,4207.179487179487,4105.641025641026,4473.846153846154
1724.1223,0.5229181,0.3858099,0.33333334,0.5522388,0,0.0,0.0,0.0,0.0,0.2293778,1,0,0.0,0.0,0,0,5.0,0.0,552.0,4585.641025641026,3984.1025641025644,4520.000000000001,4445.641025641026,4250.769230769231,4551.794871794872,4460.512820512821,4445.128205128206,4386.666666666667,4690.769230769231,4335.384615384616,4227.179487179487,4141.025641025642,4522.051282051282
1724.3726,0.5229181,0.3858099,0.33333334,0.5522388,0,0.0,0.0,0.0,0.0,0.29249603,1,0,0.0,0.0,0,0,37.0,0.0,0.0,4591.282051282052,3981.538461538462,4524.102564102564,4453.846153846154,4261.025641025642,4557.948717948719,4461.538461538462,4442.564102564103,4386.666666666667,4707.179487179488,4338.461538461539,4239.48717948718,4173.846153846154,4555.384615384616
1724.6227,0.591386,0.34719586,0.33333334,0.5522388,0,0.0,0.0,0.0,0.0,0.0,1,0,0.0,0.0,0,0,69.0,0.0,552.0,4603.589743589744,3987.692307692308,4538.974358974359,4454.358974358975,4256.410256410257,4556.923076923077,4461.025641025642,4456.923076923077,4394.871794871796,4716.923076923077,4338.974358974359,4264.102564102564,4191.282051282052,4553.333333333334
1724.6227,0.591386,0.34719586,0.33333334,0.5522388,0,0.0,0.0,0.0,0.0,0.0,1,0,0.0,0.0,0,0,69.0,0.0,552.0,4603.589743589744,3987.692307692308,4538.974358974359,4454.358974358975,4256.410256410257,4556.923076923077,4461.025641025642,4456.923076923077,4394.871794871796,4716.923076923077,4338.974358974359,4264.102564102564,4191.282051282052,4553.333333333334
1725.1232,0.52419984,0.30653033,0.33333334,0.5522388,0,0.0,0.0,0.0,0.0,0.17180085,1,0,0.0,0.0,0,0,4.0,0.0,556.0,4622.051282051282,3975.8974358974365,4536.410256410257,4453.846153846154,4255.384615384616,4555.8974358974365,4458.974358974359,4463.076923076924,4388.717948717949,4724.615384615386,4342.051282051282,4256.410256410257,4204.615384615385,4508.205128205129
1725.3734,0.52419984,0.30653033,0.33333334,0.5522388,0,0.0,0.0,0.0,0.0,0.033230826,1,0,0.0,0.0,0,0,36.0,0.0,0.0,4609.743589743591,3969.2307692307695,4522.051282051282,4445.128205128206,4250.256410256411,4551.794871794872,4473.333333333334,4476.410256410257,4382.564102564103,4712.820512820514,4336.923076923077,4252.820512820514,4198.461538461539,4506.153846153847
1725.5298,0.48046073,0.27187794,0.33333334,0.5522388,0,0.0,0.0,0.0,0.0,0.0,1,0,0.0,0.0,0,0,56.0,0.0,0.0,4611.794871794872,3971.2820512820517,4509.2307692307695,4443.589743589744,4251.282051282052,4552.820512820514,4453.846153846154,4443.076923076924,4376.923076923077,4710.256410256411,4338.461538461539,4257.948717948719,4203.076923076924,4521.538461538462
1725.5298,0.48046073,0.27187794,0.33333334,0.5522388,0,0.0,0.0,0.0,0.0,0.0,1,0,0.0,0.0,0,0,56.0,0.0,0.0,4611.794871794872,3971.2820512820517,4509.2307692307695,4443.589743589744,4251.282051282052,4552.820512820514,4453.846153846154,4443.076923076924,4376.923076923077,4710.256410256411,4338.461538461539,4257.948717948719,4203.076923076924,4521.538461538462
1726.0302,0.4399357,0.25028184,0.33333334,0.5522388,0,0.0,0.0,0.0,0.0,0.0,1,0,0.0,0.0,0,0,120.0,0.0,56.0,4616.923076923077,3948.717948717949,4505.128205128206,4435.384615384616,4259.48717948718,4556.410256410257,4474.871794871796,4463.589743589744,4387.6923076923085,4726.153846153847,4340.000000000001,4250.256410256411,4211.282051282052,4536.923076923077
1726.3743,0.4399357,0.25028184,0.33333334,0.5522388,0,0.0,0.0,0.0,0.0,0.021089127,1,0,0.0,0.0,0,0,35.0,0.0,0.0,4614.871794871796,3957.9487179487182,4503.076923076924,4437.948717948719,4262.564102564103,4557.435897435898,4461.538461538462,4448.717948717949,4391.282051282052,4736.410256410257,4341.025641025642,4257.948717948719,4218.461538461539,4523.589743589744
1726.6245,0.3499274,0.25473133,0.33333334,0.5522388,0,0.0,0.0,0.0,0.0,0.039509375,1,0,0.0,0.0,0,0,67.0,0.0,534.0,4623.076923076924,3956.410256410257,4512.820512820514,4431.282051282052,4248.717948717949,4554.871794871796,4466.666666666667,4428.717948717949,4379.48717948718,4717.948717948719,4342.051282051282,4266.153846153847,4217.948717948719,4536.410256410257
1726.8746,0.3499274,0.25473133,0.33333334,0.5522388,0,0.0,0.0,0.0,0.0,0.09649125,1,0,0.0,0.0,0,0,99.0,0.0,470.0,4627.6923076923085,3945.1282051282055,4520.000000000001,4425.128205128206,4252.307692307693,4555.384615384616,4461.538461538462,4431.282051282052,4382.051282051282,4722.051282051282,4337.435897435898,4264.102564102564,4204.102564102564,4541.025641025642
1727.1249,0.26640356,0.25881246,0.33333334,0.5522388,0,0.0,0.0,0.0,0.0,0.050177667,1,0,0.0,0.0,0,0,2.0,0.0,449.0,4623.076923076924,3943.076923076924,4510.256410256411,4423.589743589744,4255.384615384616,4552.307692307693,4458.974358974359,4430.256410256411,4385.641025641026,4724.102564102564,4334.871794871796,4245.641025641026,4184.615384615385,4537.948717948719
1727.25,0.26640356,0.25881246,0.33333334,0.5522388,0,0.0,0.0,0.0,0.0,0.0,1,0,0.0,0.0,0,0,18.0,0.0,0.0,4641.538461538462,3955.8974358974365,4531.282051282052,4431.282051282052,4260.000000000001,4551.282051282052,4458.461538461539,4430.769230769231,4382.051282051282,4728.205128205129,4340.000000000001,4270.769230769231,4196.410256410257,4558.461538461539
1727.5315,0.24066064,0.28061602,0.33333334,0.5522388,0,0.0,0.0,0.0,0.0,0.0,1,0,0.0,0.0,0,0,54.0,0.0,0.0,4615.8974358974365,3942.0512820512827,4511.282051282052,4427.6923076923085,4253.846153846154,4551.794871794872,4467.6923076923085,4432.820512820514,4385.641025641026,4716.923076923077,4340.000000000001,4248.717948717949,4183.076923076924,4557.435897435898
1727.5315,0.24066064,0.28061602,0.33333334,0.5522388,0,0.0,0.0,0.0,0.0,0.0,1,0,0.0,0.0,0,0,54.0,0.0,0.0,4615.8974358974365,3942.0512820512827,4511.282051282052,4427.6923076923085,4253.846153846154,4551.794871794872,4467.6923076923085,4432.820512820514,4385.641025641026,4716.923076923077,4340.000000000001,4248.717948717949,4183.076923076924,4557.435897435898
1728.0319,0.24589792,0.28971562,0.33333334,0.5522388,0,0.0,0.0,0.0,0.0,0.0,0,0,0.0,0.0,0,0,118.0,0.0,528.0,4622.564102564103,3959.48717948718,4523.076923076924,4427.6923076923085,4250.256410256411,4553.846153846154,4458.974358974359,4419.48717948718,4387.6923076923085,4723.076923076924,4342.051282051282,4263.076923076924,4189.2307692307695,4597.948717948719
1728.0319,0.24589792,0.28971562,0.33333334,0.5522388,0,0.0,0.0,0.0,0.0,0.0,0,0,0.0,0.0,0,0,118.0,0.0,528.0,4622.564102564103,3959.48717948718,4523.076923076924,4427.6923076923085,4250.256410256411,4553.846153846154,4458.974358974359,4419.48717948718,4387.6923076923085,4723.076923076924,4342.051282051282,4263.076923076924,4189.2307692307695,4597.948717948719
1728.5323,0.20186181,0.28256506,0.33333334,0.5522388,0,0.0,0.0,0.0,0.0,0.0,0,0,0.0,0.0,0,0,53.0,0.0,0.0,4629.743589743591,3943.076923076924,4520.000000000001,4427.179487179487,4248.717948717949,4551.282051282052,4458.974358974359,4413.333333333334,4389.2307692307695,4720.512820512821,4338.974358974359,4258.461538461539,4187.6923076923085,4626.666666666667
1728.5323,0.20186181,0.28256506,0.33333334,0.5522388,0,0.0,0.0,0.0,0.0,0.0,0,0,0.0,0.0,0,0,53.0,0.0,0.0,4629.743589743591,3943.076923076924,4520.000000000001,4427.179487179487,4248.717948717949,4551.282051282052,4458.974358974359,4413.333333333334,4389.2307692307695,4720.512820512821,4338.974358974359,4258.461538461539,4187.6923076923085,4626.666666666667
1729.0327,0.21548368,0.27620178,0.33333334,0.5522388,0,0.0,0.0,0.0,0.0,0.0,0,0,0.0,0.0,0,0,117.0,0.0,496.0,4615.384615384616,3938.9743589743593,4506.153846153847,4414.871794871796,4235.8974358974365,4540.000000000001,4458.461538461539,4437.948717948719,4420.512820512821,4721.538461538462,4347.6923076923085,4248.717948717949,4199.48717948718,4631.794871794872
1729.0327,0.21548368,0.27620178,0.33333334,0.5522388,0,0.0,0.0,0.0,0.0,0.0,0,0,0.0,0.0,0,0,117.0,0.0,496.0,4615.384615384616,3938.9743589743593,4506.153846153847,4414.871794871796,4235.8974358974365,4540.000000000001,4458.461538461539,4437.948717948719,4420.512820512821,4721.538461538462,4347.6923076923085,4248.717948717949,4199.48717948718,4631.794871794872
1729.5332,0.18398762,0.24720056,0.33333334,0.5522388,0,0.0,0.0,0.0,0.0,0.0,0,0,0.0,0.0,0,0,52.0,0.0,0.0,4631.282051282052,3956.410256410257,4536.410256410257,4426.153846153847,4244.102564102564,4538.461538461539,4459.48717948718,4421.538461538462,4415.384615384616,4715.8974358974365,4345.128205128206,4262.051282051282,4200.000000000001,4646.666666666667
1729.5332,0.18398762,0.24720056,0.33333334,0.5522388,0,0.0,0.0,0.0,0.0,0.0,0,0,0.0,0.0,0,0,52.0,0.0,0.0,4631.282051282052,3956.410256410257,4536.410256410257,4426.153846153847,4244.102564102564,4538.461538461539,4459.48717948718,4421.538461538462,4415.384615384616,4715.8974358974365,4345.128205128206,4262.051282051282,4200.000000000001,4646.666666666667
1730.0337,0.13313854,0.21599951,0.33333334,0.5522388,0,0.0,0.0,0.0,0.0,0.0,0,0,0.0,0.0,0,0,116.0,0.0,56.0,4646.153846153847,3969.7435897435903,4687.6923076923085,4438.974358974359,4252.307692307693,4555.384615384616,4461.025641025642,4442.564102564103,4423.589743589744,4764.615384615386,4356.923076923077,4271.282051282052,4214.358974358975,4631.794871794872
1730.0337,0.13313854,0.21599951,0.33333334,0.5522388,0,0.0,0.0,0.0,0.0,0.0,0,0,0.0,0.0,0,0,116.0,0.0,56.0,4646.153846153847,3969.7435897435903,4687.6923076923085,4438.974358974359,4252.307692307693,4555.384615384616,4461.025641025642,4442.564102564103,4423.589743589744,4764.615384615386,4356.923076923077,4271.282051282052,4214.358974358975,4631.794871794872
1730.6279,0.16970119,0.1866205,0.33333334,0.5522388,0,0.0,0.0,0.0,0.0,0.30783284,0,0,0.0,0.0,0,0,63.0,0.0,0.0,4609.2307692307695,3925.1282051282055,4705.128205128206,4415.384615384616,4228.205128205129,4536.410256410257,4445.128205128206,4412.820512820514,4405.641025641026,4725.641025641026,4343.589743589744,4231.282051282052,4178.461538461539,4526.153846153847
1730.878,0.16970119,0.1866205,0.33333334,0.5522388,0,0.0,0.0,0.0,0.0,0.12553185,0,0,0.0,0.0,0,0,95.0,0.0,469.0,4612.820512820514,3927.692307692308,4681.025641025642,4408.205128205129,4230.769230769231,4536.923076923077,4438.461538461539,4412.307692307693,4421.538461538462,4727.179487179488,4346.666666666667,4233.333333333334,4170.769230769231,4524.615384615385
1731.1283,0.13480176,0.16448402,0.33333334,0.5522388,0,0.0,0.0,0.0,0.0,0.0,0,0,0.0,0.0,0,0,127.0,0.0,469.0,4611.282051282052,3928.717948717949,4646.153846153847,4408.717948717949,4230.769230769231,4538.974358974359,4442.564102564103,4417.948717948719,4424.615384615385,4717.948717948719,4347.179487179487,4231.794871794872,4167.6923076923085,4551.282051282052
1731.1283,0.13480176,0.16448402,0.33333334,0.5522388,0,0.0,0.0,0.0,0.0,0.0,0,0,0.0,0.0,0,0,127.0,0.0,469.0,4611.282051282052,3928.717948717949,4646.153846153847,4408.717948717949,4230.769230769231,4538.974358974359,4442.564102564103,4417.948717948719,4424.615384615385,4717.948717948719,4347.179487179487,4231.794871794872,4167.6923076923085,4551.282051282052
1731.5349,0.10104435,0.14336066,0.33333334,0.5522388,0,0.0,0.0,0.0,0.0,0.0,0,0,0.0,0.0,0,0,50.0,0.0,0.0,4628.205128205129,3930.2564102564106,4598.461538461539,4422.051282051282,4231.794871794872,4539.48717948718,4447.179487179487,4416.410256410257,4428.717948717949,4729.743589743591,4350.256410256411,4248.717948717949,4168.717948717949,4570.769230769231
1731.8789,0.10104435,0.14336066,0.33333334,0.5522388,1,0.0,0.0,0.0,0.0,0.22585972,0,0,0.0,0.0,0,0,94.0,0.0,528.0,4656.410256410257,3992.307692307693,4569.2307692307695,4412.307692307693,4234.871794871796,4538.461538461539,4458.461538461539,4415.8974358974365,4413.846153846154,4712.820512820514,4351.794871794872,4281.025641025642,4177.435897435898,4615.8974358974365
1732.1292,0.10321235,0.13823809,0.33333334,0.5522388,0,0.0,0.0,0.0,0.0,0.15055805,0,0,0.0,0.0,0,0,126.0,0.0,528.0,4601.538461538462,3921.538461538462,4507.6923076923085,4431.282051282052,4233.333333333334,4538.974358974359,4459.48717948718,4413.333333333334,4411.282051282052,4714.358974358975,4344.102564102564,4233.846153846154,4149.2307692307695,4540.000000000001
1732.3794,0.10321235,0.13823809,0.33333334,0.5522388,0,0.0,0.0,0.0,0.0,0.27126464,0,0,0.0,0.0,0,0,29.0,0.0,0.0,4615.8974358974365,3942.0512820512827,4505.641025641026,4444.102564102564,4246.666666666667,4551.794871794872,4456.410256410257,4426.153846153847,4415.384615384616,4733.333333333334,4347.6923076923085,4261.538461538462,4171.282051282052,4553.333333333334
1732.6296,0.06612785,0.1414559,0.33333334,0.5522388,0,0.0,0.0,0.0,0.0,0.0,0,0,0.0,0.0,0,0,61.0,0.0,0.0,4618.974358974359,3937.435897435898,4492.820512820514,4441.025641025642,4252.307692307693,4554.871794871796,4475.384615384616,4435.384615384616,4420.000000000001,4732.307692307693,4348.205128205129,4248.205128205129,4167.179487179487,4553.333333333334
1732.6296,0.06612785,0.1414559,0.33333334,0.5522388,0,0.0,0.0,0.0,0.0,0.0,0,0,0.0,0.0,0,0,61.0,0.0,0.0,4618.974358974359,3937.435897435898,4492.820512820514,4441.025641025642,4252.307692307693,4554.871794871796,4475.384615384616,4435.384615384616,4420.000000000001,4732.307692307693,4348.205128205129,4248.205128205129,4167.179487179487,4553.333333333334
1733.0363,0.103945486,0.1705585,0.33333334,0.5522388,0,0.0,0.0,0.0,0.0,0.0,0,0,0.0,0.0,0,0,113.0,0.0,496.0,4633.846153846154,3960.5128205128212,4501.538461538462,4468.717948717949,4280.000000000001,4575.8974358974365,4494.358974358975,4462.051282051282,4431.794871794872,4757.948717948719,4358.974358974359,4281.025641025642,4193.846153846154,4538.461538461539
1733.0363,0.103945486,0.1705585,0.33333334,0.5522388,0,0.0,0.0,0.0,0.0,0.0,0,0,0.0,0.0,0,0,113.0,0.0,496.0,4633.846153846154,3960.5128205128212,4501.538461538462,4468.717948717949,4280.000000000001,4575.8974358974365,4494.358974358975,4462.051282051282,4431.794871794872,4757.948717948719,4358.974358974359,4281.025641025642,4193.846153846154,4538.461538461539
1733.5366,0.19105636,0.21310464,0.33333334,0.5522388,0,0.0,0.0,0.0,0.0,0.0,0,0,0.0,0.0,0,0,48.0,0.0,0.0,4621.538461538462,3951.2820512820517,4487.6923076923085,4453.846153846154,4248.205128205129,4537.948717948719,4472.307692307693,4443.076923076924,4420.000000000001,4739.48717948718,4354.871794871796,4266.153846153847,4185.128205128206,4508.717948717949
1733.5366,0.19105636,0.21310464,0.33333334,0.5522388,0,0.0,0.0,0.0,0.0,0.0,0,0,0.0,0.0,0,0,48.0,0.0,0.0,4621.538461538462,3951.2820512820517,4487.6923076923085,4453.846153846154,4248.205128205129,4537.948717948719,4472.307692307693,4443.076923076924,4420.000000000001,4739.48717948718,4354.871794871796,4266.153846153847,4185.128205128206,4508.717948717949
1734.0371,0.1968638,0.24154912,0.33333334,0.5522388,0,0.0,0.0,0.0,0.0,0.0,0,0,0.0,0.0,0,0,112.0,0.0,56.0,4632.820512820514,3961.538461538462,4477.948717948719,4443.076923076924,4247.179487179487,4528.205128205129,4460.512820512821,4425.641025641026,4412.820512820514,4721.538461538462,4347.179487179487,4255.384615384616,4186.666666666667,4504.615384615385
1734.0371,0.1968638,0.24154912,0.33333334,0.5522388,0,0.0,0.0,0.0,0.0,0.0,0,0,0.0,0.0,0,0,112.0,0.0,56.0,4632.820512820514,3961.538461538462,4477.948717948719,4443.076923076924,4247.179487179487,4528.205128205129,4460.512820512821,4425.641025641026,4412.820512820514,4721.538461538462,4347.179487179487,4255.384615384616,4186.666666666667,4504.615384615385
1734.5375,0.13538085,0.2725313,0.33333334,0.5522388,0,0.0,0.0,0.0,0.0,0.0,0,0,0.0,0.0,0,0,47.0,0.0,0.0,4616.923076923077,3942.0512820512827,4489.2307692307695,4436.923076923077,4231.282051282052,4523.076923076924,4440.512820512821,4422.564102564103,4414.871794871796,4726.153846153847,4348.717948717949,4253.333333333334,4205.641025641026,4521.025641025642
1734.5375,0.13538085,0.2725313,0.33333334,0.5522388,0,0.0,0.0,0.0,0.0,0.0,0,0,0.0,0.0,0,0,47.0,0.0,0.0,4616.923076923077,3942.0512820512827,4489.2307692307695,4436.923076923077,4231.282051282052,4523.076923076924,4440.512820512821,4422.564102564103,4414.871794871796,4726.153846153847,4348.717948717949,4253.333333333334,4205.641025641026,4521.025641025642
1735.038,0.068530686,0.30456597,0.33333334,0.5522388,0,0.0,0.0,0.0,0.0,0.0,0,0,0.0,0.0,0,0,111.0,0.0,469.0,4632.820512820514,3954.358974358975,4549.2307692307695,4443.589743589744,4241.025641025642,4538.461538461539,4449.2307692307695,4411.282051282052,4398.461538461539,4709.2307692307695,4345.641025641026,4260.512820512821,4217.435897435898,4569.743589743591
1735.038,0.068530686,0.30456597,0.33333334,0.5522388,0,0.0,0.0,0.0,0.0,0.0,0,0,0.0,0.0,0,0,111.0,0.0,469.0,4632.820512820514,3954.358974358975,4549.2307692307695,4443.589743589744,4241.025641025642,4538.461538461539,4449.2307692307695,4411.282051282052,4398.461538461539,4709.2307692307695,4345.641025641026,4260.512820512821,4217.435897435898,4569.743589743591
1735.6322,0.05640676,0.34772387,0.33333334,0.5522388,0,0.0,0.0,0.0,0.0,0.14101917,0,0,0.0,0.0,1,0,58.0,0.0,0.0,4631.282051282052,3944.615384615385,4563.076923076924,4423.076923076924,4234.871794871796,4527.179487179488,4460.512820512821,4429.743589743591,4398.974358974359,4715.384615384616,4345.641025641026,4256.923076923077,4248.717948717949,4591.794871794872
1735.8824,0.05640676,0.34772387,0.33333334,0.5522388,0,0.0,0.0,0.0,0.0,0.1090116,0,0,0.0,0.0,0,0,90.0,0.0,528.0,4622.564102564103,3932.820512820513,4553.846153846154,4430.256410256411,4236.410256410257,4527.6923076923085,4455.8974358974365,4424.102564102564,4406.666666666667,4716.923076923077,4342.051282051282,4249.74358974359,4259.48717948718,4600.512820512821
1736.1326,0.06758674,0.393305,0.33333334,0.5522388,0,0.0,0.0,0.0,0.0,0.042241,0,0,0.0,0.0,0,0,122.0,0.0,528.0,4629.743589743591,3933.8461538461543,4547.6923076923085,4422.051282051282,4230.769230769231,4526.666666666667,4460.000000000001,4423.076923076924,4398.974358974359,4703.589743589744,4343.589743589744,4251.282051282052,4246.666666666667,4602.564102564103
1736.2577,0.06758674,0.393305,0.33333334,0.5522388,0,0.0,0.0,0.0,0.0,0.0,0,0,0.0,0.0,0,0,9.0,0.0,481.0,4633.333333333334,3944.1025641025644,4542.564102564103,4425.128205128206,4234.871794871796,4537.435897435898,4447.6923076923085,4416.410256410257,4397.948717948719,4707.6923076923085,4339.48717948718,4261.538461538462,4245.128205128206,4601.025641025642
1736.5392,0.044582877,0.42494848,0.33333334,0.5522388,0,0.0,0.0,0.0,0.0,0.0,0,0,0.0,0.0,0,0,45.0,0.0,0.0,4624.615384615385,3926.666666666667,4508.717948717949,4426.153846153847,4229.2307692307695,4524.102564102564,4449.743589743591,4418.974358974359,4400.512820512821,4700.512820512821,4340.512820512821,4231.282051282052,4216.923076923077,4569.743589743591
1736.5392,0.044582877,0.42494848,0.33333334,0.5522388,0,0.0,0.0,0.0,0.0,0.0,0,0,0.0,0.0,0,0,45.0,0.0,0.0,4624.615384615385,3926.666666666667,4508.717948717949,4426.153846153847,4229.2307692307695,4524.102564102564,4449.743589743591,4418.974358974359,4400.512820512821,4700.512820512821,4340.512820512821,4231.282051282052,4216.923076923077,4569.743589743591
1737.0397,0.013957675,0.44612336,0.33333334,0.5522388,0,0.0,0.0,0.0,0.0,0.0,0,0,0.0,0.0,0,0,109.0,0.0,496.0,4649.2307692307695,3958.461538461539,4519.48717948718,4431.794871794872,4245.128205128206,4542.051282051282,4462.051282051282,4428.205128205129,4397.948717948719,4729.2307692307695,4342.564102564103,4264.615384615385,4231.794871794872,4604.102564102564
