timestamp,excitement,frustration,meditation,engagementBoredom,blink,clench,laugh,smile,eyebrow,furrowBrow,lookLeft,lookRight,smirkLeft,smirkRight,winkLeft,winkRight,eeg0,eeg1,eeg2,eeg3,eeg4,eeg5,eeg6,eeg7,eeg8,eeg9,eeg10,eeg11,eeg12,eeg13,eeg14,eeg15,eeg16
305.43436,0.45125115,0.75166416,0.33496043,0.5811967,0,0.0,0.0,0.0,0.0,1.0,0,0,0.0,0.0,0,0,105.0,0.0,487.0,4553.333333333334,3844.1025641025644,4278.461538461539,4229.74358974359,4416.410256410257,4560.000000000001,4366.666666666667,4237.948717948719,4456.410256410257,4607.6923076923085,4125.128205128206,4560.512820512821,4190.256410256411,4440.000000000001
305.84097,0.4652228,0.7540487,0.33479714,0.5782944,0,0.0,0.0,0.0,0.0,0.6157669,0,0,0.0,0.0,0,0,28.0,0.0,0.0,4596.923076923077,3919.48717948718,4550.769230769231,4353.333333333334,4301.538461538462,4554.871794871796,4527.179487179488,4400.000000000001,4488.717948717949,4773.333333333334,4393.333333333334,4687.6923076923085,4308.717948717949,4473.846153846154
306.0599,0.4652228,0.7540487,0.33479714,0.5782944,0,0.0,0.0,0.0,0.0,0.2538772,0,0,0.0,0.0,0,0,56.0,0.0,0.0,4642.051282051282,3973.8461538461543,4583.076923076924,4410.256410256411,4339.48717948718,4605.641025641026,4565.128205128206,4463.076923076924,4507.6923076923085,4846.666666666667,4477.948717948719,5177.435897435898,4402.051282051282,4474.358974358975
306.3414,0.5841374,0.75619483,0.33465058,0.5756867,0,0.0,0.0,0.0,0.0,0.13643853,0,0,0.0,0.0,0,0,92.0,0.0,436.0,4601.538461538462,3981.538461538462,4670.769230769231,4434.358974358975,4292.820512820514,4587.6923076923085,4591.282051282052,4482.564102564103,4505.128205128206,4846.666666666667,4495.384615384616,4420.512820512821,4293.333333333334,4463.589743589744
306.56033,0.5841374,0.75619483,0.33465058,0.5756867,0,0.0,0.0,0.0,0.022113323,0.0,0,0,0.0,0.0,0,0,120.0,0.0,436.0,4599.48717948718,3970.2564102564106,4725.128205128206,4446.666666666667,4232.307692307693,4561.025641025642,4623.589743589744,4505.128205128206,4505.641025641026,4829.2307692307695,4395.384615384616,4066.666666666667,4119.48717948718,4386.153846153847
306.81055,0.65287364,0.7581263,0.33451763,0.5733279,0,0.0,0.0,0.0,0.061839104,0.0,0,0,0.0,0.0,0,0,23.0,0.0,0.0,4587.6923076923085,3956.410256410257,4684.615384615386,4458.974358974359,4227.6923076923085,4550.256410256411,4578.974358974359,4464.615384615385,4495.8974358974365,4823.076923076924,4410.769230769231,4045.1282051282055,4198.461538461539,4448.205128205129
307.06076,0.65287364,0.7581263,0.33451763,0.5733279,0,0.0,0.0,0.0,0.0,0.019286249,0,0,0.0,0.0,0,0,55.0,0.0,0.0,4567.179487179488,3935.3846153846157,4625.128205128206,4474.871794871796,4348.717948717949,4680.000000000001,4516.410256410257,4395.8974358974365,4481.025641025642,4780.000000000001,4355.8974358974365,3747.1794871794878,4230.769230769231,4433.333333333334
307.31097,0.6431356,0.7598646,0.33439785,0.5712037,0,0.0,0.0,0.0,0.0,0.0,0,0,0.0,0.0,0,0,87.0,0.0,400.0,4568.205128205129,3929.7435897435903,4563.589743589744,4446.153846153847,4340.000000000001,4656.410256410257,4514.871794871796,4397.435897435898,4483.076923076924,4764.615384615386,4320.000000000001,3628.205128205129,4223.589743589744,4453.333333333334
307.31097,0.6431356,0.7598646,0.33439785,0.5712037,0,0.0,0.0,0.0,0.0,0.0,0,0,0.0,0.0,0,0,87.0,0.0,400.0,4568.205128205129,3929.7435897435903,4563.589743589744,4446.153846153847,4340.000000000001,4656.410256410257,4514.871794871796,4397.435897435898,4483.076923076924,4764.615384615386,4320.000000000001,3628.205128205129,4223.589743589744,4453.333333333334
307.8114,0.6259891,0.7614292,0.33428994,0.56929076,0,0.0,0.0,0.0,0.0,0.0,0,0,0.0,0.0,0,0,22.0,0.0,0.0,4567.6923076923085,3936.9230769230776,4506.153846153847,4437.435897435898,4356.923076923077,4611.794871794872,4512.307692307693,4413.333333333334,4475.384615384616,4741.538461538462,4277.435897435898,3549.2307692307695,4206.666666666667,4469.2307692307695
307.8114,0.6259891,0.7614292,0.33428994,0.56929076,0,0.0,0.0,0.0,0.0,0.0,0,0,0.0,0.0,0,0,22.0,0.0,0.0,4567.6923076923085,3936.9230769230776,4506.153846153847,4437.435897435898,4356.923076923077,4611.794871794872,4512.307692307693,4413.333333333334,4475.384615384616,4741.538461538462,4277.435897435898,3549.2307692307695,4206.666666666667,4469.2307692307695
308.31183,0.6555401,0.76283723,0.33419284,0.56756943,0,0.0,0.0,0.0,0.0,0.0,0,0,0.0,0.0,0,0,86.0,0.0,522.0,4620.512820512821,3969.7435897435903,4574.358974358975,4503.076923076924,4362.051282051282,4602.051282051282,4507.179487179488,4397.948717948719,4461.538461538462,4716.923076923077,4226.153846153847,3503.0769230769233,4172.820512820514,4416.923076923077
308.31183,0.6555401,0.76283723,0.33419284,0.56756943,0,0.0,0.0,0.0,0.0,0.0,0,0,0.0,0.0,0,0,86.0,0.0,522.0,4620.512820512821,3969.7435897435903,4574.358974358975,4503.076923076924,4362.051282051282,4602.051282051282,4507.179487179488,4397.948717948719,4461.538461538462,4716.923076923077,4226.153846153847,3503.0769230769233,4172.820512820514,4416.923076923077
308.81226,0.6730326,0.7641045,0.3341056,0.5660219,0,0.0,0.0,0.0,0.0,0.0,0,0,0.0,0.0,0,0,21.0,0.0,0.0,4601.538461538462,3957.435897435898,4528.205128205129,4491.794871794872,4350.256410256411,4579.48717948718,4490.256410256411,4430.769230769231,4468.205128205129,4737.948717948719,4302.051282051282,3592.820512820513,4182.051282051282,4416.923076923077
308.81226,0.6730326,0.7641045,0.3341056,0.5660219,0,0.0,0.0,0.0,0.0,0.0,0,0,0.0,0.0,0,0,21.0,0.0,0.0,4601.538461538462,3957.435897435898,4528.205128205129,4491.794871794872,4350.256410256411,4579.48717948718,4490.256410256411,4430.769230769231,4468.205128205129,4737.948717948719,4302.051282051282,3592.820512820513,4182.051282051282,4416.923076923077
309.31268,0.68940306,0.765245,0.33402702,0.56971097,0,0.0,0.0,0.0,0.0,0.0,0,0,0.0,0.0,0,0,85.0,0.0,490.0,4604.102564102564,3963.076923076924,4541.025641025642,4523.589743589744,4383.076923076924,4620.000000000001,4533.333333333334,4482.564102564103,4473.333333333334,4801.538461538462,4329.2307692307695,3794.8717948717954,4264.615384615385,4481.538461538462
309.31268,0.68940306,0.765245,0.33402702,0.56971097,0,0.0,0.0,0.0,0.0,0.0,0,0,0.0,0.0,0,0,85.0,0.0,490.0,4604.102564102564,3963.076923076924,4541.025641025642,4523.589743589744,4383.076923076924,4620.000000000001,4533.333333333334,4482.564102564103,4473.333333333334,4801.538461538462,4329.2307692307695,3794.8717948717954,4264.615384615385,4481.538461538462
309.8131,0.6275139,0.7701708,0.3339562,0.58415294,0,0.0,0.0,0.0,0.0,0.0,0,0,0.0,0.0,0,0,20.0,0.0,0.0,4656.923076923077,3970.2564102564106,4503.589743589744,4519.48717948718,4354.358974358975,4586.666666666667,4594.358974358975,4554.871794871796,4485.641025641026,4826.153846153847,4357.948717948719,3917.9487179487182,4247.6923076923085,4470.769230769231
309.8131,0.6275139,0.7701708,0.3339562,0.58415294,0,0.0,0.0,0.0,0.0,0.0,0,0,0.0,0.0,0,0,20.0,0.0,0.0,4656.923076923077,3970.2564102564106,4503.589743589744,4519.48717948718,4354.358974358975,4586.666666666667,4594.358974358975,4554.871794871796,4485.641025641026,4826.153846153847,4357.948717948719,3917.9487179487182,4247.6923076923085,4470.769230769231
310.31354,0.62608373,0.77816486,0.33510837,0.61121273,0,0.0,0.0,0.0,0.0,0.0,0,0,0.0,0.0,0,0,84.0,0.0,442.0,4648.717948717949,3938.9743589743593,4408.717948717949,4384.615384615385,4245.128205128206,4499.48717948718,4599.48717948718,4572.307692307693,4475.384615384616,4775.384615384616,4295.8974358974365,3906.1538461538466,4117.435897435898,4458.974358974359
310.31354,0.62608373,0.77816486,0.33510837,0.61121273,0,0.0,0.0,0.0,0.0,0.0,0,0,0.0,0.0,0,0,84.0,0.0,442.0,4648.717948717949,3938.9743589743593,4408.717948717949,4384.615384615385,4245.128205128206,4499.48717948718,4599.48717948718,4572.307692307693,4475.384615384616,4775.384615384616,4295.8974358974365,3906.1538461538466,4117.435897435898,4458.974358974359
310.814,0.62735844,0.7670299,0.3382126,0.6489297,0,0.0,0.0,0.0,0.0,0.0,0,0,0.0,0.0,0,0,19.0,0.0,0.0,4616.923076923077,3928.717948717949,4470.769230769231,4409.743589743591,4259.48717948718,4483.589743589744,4582.564102564103,4546.153846153847,4470.256410256411,4774.358974358975,4315.8974358974365,3999.48717948718,4137.435897435898,4434.871794871796
310.814,0.62735844,0.7670299,0.3382126,0.6489297,0,0.0,0.0,0.0,0.0,0.0,0,0,0.0,0.0,0,0,19.0,0.0,0.0,4616.923076923077,3928.717948717949,4470.769230769231,4409.743589743591,4259.48717948718,4483.589743589744,4582.564102564103,4546.153846153847,4470.256410256411,4774.358974358975,4315.8974358974365,3999.48717948718,4137.435897435898,4434.871794871796
311.31442,0.61143935,0.75110406,0.33807397,0.6828188,0,0.0,0.0,0.0,0.0,0.0056129843,0,0,0.0,0.0,0,0,83.0,0.0,400.0,4577.948717948719,3921.0256410256416,4495.8974358974365,4413.846153846154,4226.666666666667,4465.641025641026,4503.589743589744,4418.974358974359,4445.128205128206,4741.538461538462,4273.846153846154,4033.8461538461543,4133.333333333334,4422.564102564103
311.56464,0.61143935,0.75110406,0.33807397,0.6828188,0,0.0,0.0,0.0,0.0,0.0052116076,0,0,0.0,0.0,0,0,115.0,0.0,400.0,4556.410256410257,3910.7692307692314,4511.282051282052,4415.384615384616,4218.974358974359,4458.974358974359,4479.48717948718,4382.564102564103,4444.102564102564,4747.179487179488,4289.74358974359,4030.7692307692314,4166.666666666667,4409.743589743591
311.81485,0.5902367,0.7167417,0.33529803,0.7132328,0,0.0,0.0,0.0,0.0,0.02528144,0,0,0.0,0.0,0,0,18.0,0.0,0.0,4543.076923076924,3898.9743589743593,4488.205128205129,4395.384615384616,4212.307692307693,4449.2307692307695,4440.000000000001,4330.769230769231,4435.384615384616,4715.384615384616,4237.948717948719,4057.435897435898,4149.2307692307695,4424.615384615385
312.06506,0.5902367,0.7167417,0.33529803,0.7132328,0,0.0,0.0,0.0,0.0,0.1056675,0,0,0.0,0.0,0,0,50.0,0.0,0.0,4540.000000000001,3892.307692307693,4479.48717948718,4400.512820512821,4220.000000000001,4450.256410256411,4421.538461538462,4306.666666666667,4424.615384615385,4703.589743589744,4257.435897435898,4030.7692307692314,4121.025641025642,4418.974358974359
312.31528,0.596279,0.6843795,0.33351618,0.7399943,0,0.0,0.0,0.0,0.0,0.0,0,0,0.0,0.0,0,0,82.0,0.0,523.0,4542.051282051282,3893.333333333334,4475.8974358974365,4400.000000000001,4215.8974358974365,4455.384615384616,4413.333333333334,4294.358974358975,4425.128205128206,4701.538461538462,4264.102564102564,4009.7435897435903,4120.512820512821,4412.820512820514
312.31528,0.596279,0.6843795,0.33351618,0.7399943,0,0.0,0.0,0.0,0.0,0.0,0,0,0.0,0.0,0,0,82.0,0.0,523.0,4542.051282051282,3893.333333333334,4475.8974358974365,4400.000000000001,4215.8974358974365,4455.384615384616,4413.333333333334,4294.358974358975,4425.128205128206,4701.538461538462,4264.102564102564,4009.7435897435903,4120.512820512821,4412.820512820514
312.8157,0.58189934,0.6468303,0.33499128,0.755144,0,0.0,0.0,0.0,0.0,0.0,0,0,0.0,0.0,0,0,17.0,0.0,0.0,4520.512820512821,3861.538461538462,4388.205128205129,4363.589743589744,4193.333333333334,4427.6923076923085,4409.743589743591,4274.358974358975,4413.333333333334,4688.205128205129,4245.128205128206,4057.435897435898,4104.102564102564,4445.128205128206
312.8157,0.58189934,0.6468303,0.33499128,0.755144,0,0.0,0.0,0.0,0.0,0.0,0,0,0.0,0.0,0,0,17.0,0.0,0.0,4520.512820512821,3861.538461538462,4388.205128205129,4363.589743589744,4193.333333333334,4427.6923076923085,4409.743589743591,4274.358974358975,4413.333333333334,4688.205128205129,4245.128205128206,4057.435897435898,4104.102564102564,4445.128205128206
313.31613,0.5779395,0.6086572,0.33609146,0.7656741,0,0.0,0.0,0.0,0.0,0.0,0,0,0.0,0.0,0,0,81.0,0.0,490.0,4502.564102564103,3848.205128205129,4419.48717948718,4377.948717948719,4197.435897435898,4420.512820512821,4402.051282051282,4218.974358974359,4403.589743589744,4695.8974358974365,4257.948717948719,4047.692307692308,4113.333333333334,4417.948717948719
313.31613,0.5779395,0.6086572,0.33609146,0.7656741,0,0.0,0.0,0.0,0.0,0.0,0,0,0.0,0.0,0,0,81.0,0.0,490.0,4502.564102564103,3848.205128205129,4419.48717948718,4377.948717948719,4197.435897435898,4420.512820512821,4402.051282051282,4218.974358974359,4403.589743589744,4695.8974358974365,4257.948717948719,4047.692307692308,4113.333333333334,4417.948717948719
313.81656,0.5567948,0.5634925,0.33708137,0.77505857,0,0.0,0.0,0.0,0.0,0.028495707,0,0,0.0,0.0,0,0,16.0,0.0,0.0,4488.717948717949,3717.9487179487182,4440.512820512821,4387.179487179487,4233.333333333334,4455.8974358974365,4391.794871794872,4084.615384615385,4395.8974358974365,4662.564102564103,4192.307692307693,4036.410256410257,4102.051282051282,4402.051282051282
314.06677,0.5567948,0.5634925,0.33708137,0.77505857,0,0.0,0.0,0.0,0.0,0.03393538,0,0,0.0,0.0,0,0,48.0,0.0,0.0,4492.307692307693,3748.717948717949,4474.358974358975,4402.564102564103,4242.051282051282,4455.384615384616,4388.205128205129,4076.410256410257,4389.2307692307695,4660.000000000001,4203.589743589744,4010.2564102564106,4131.794871794872,4412.307692307693
314.317,0.6143949,0.5219209,0.33976975,0.7863274,0,0.0,0.0,0.0,0.0,0.12713614,0,0,0.0,0.0,0,0,80.0,0.0,442.0,4505.641025641026,3786.666666666667,4488.205128205129,4422.564102564103,4250.256410256411,4476.923076923077,4401.025641025642,4118.974358974359,4392.820512820514,4677.948717948719,4244.102564102564,4057.435897435898,4133.333333333334,4435.8974358974365
314.5672,0.6143949,0.5219209,0.33976975,0.7863274,0,0.0,0.0,0.0,0.0,0.0,0,0,0.0,0.0,0,0,112.0,0.0,442.0,4498.974358974359,3792.820512820513,4485.128205128206,4415.8974358974365,4266.153846153847,4477.435897435898,4381.025641025642,4136.923076923077,4381.538461538462,4668.205128205129,4231.794871794872,4021.538461538462,4140.000000000001,4438.461538461539
314.8174,0.59173024,0.48455992,0.34221914,0.79381305,0,0.0,0.0,0.0,0.0,0.0,0,0,0.0,0.0,0,0,15.0,0.0,402.0,4504.615384615385,3816.9230769230776,4517.435897435898,4431.282051282052,4288.205128205129,4497.948717948719,4394.358974358975,4164.102564102564,4385.128205128206,4680.000000000001,4241.025641025642,4013.333333333334,4157.948717948719,4441.025641025642
314.8174,0.59173024,0.48455992,0.34221914,0.79381305,0,0.0,0.0,0.0,0.0,0.0,0,0,0.0,0.0,0,0,15.0,0.0,402.0,4504.615384615385,3816.9230769230776,4517.435897435898,4431.282051282052,4288.205128205129,4497.948717948719,4394.358974358975,4164.102564102564,4385.128205128206,4680.000000000001,4241.025641025642,4013.333333333334,4157.948717948719,4441.025641025642
315.31784,0.5952492,0.4564446,0.34442273,0.80237204,0,0.0,0.0,0.0,0.0,0.0,0,0,0.0,0.0,0,0,79.0,0.0,402.0,4498.461538461539,3857.435897435898,4481.025641025642,4415.8974358974365,4258.974358974359,4493.333333333334,4385.128205128206,4172.820512820514,4371.794871794872,4697.948717948719,4341.538461538462,4041.538461538462,4171.794871794872,4443.076923076924
315.31784,0.5952492,0.4564446,0.34442273,0.80237204,0,0.0,0.0,0.0,0.0,0.0,0,0,0.0,0.0,0,0,79.0,0.0,402.0,4498.461538461539,3857.435897435898,4481.025641025642,4415.8974358974365,4258.974358974359,4493.333333333334,4385.128205128206,4172.820512820514,4371.794871794872,4697.948717948719,4341.538461538462,4041.538461538462,4171.794871794872,4443.076923076924
315.81827,0.5749197,0.44235736,0.34617645,0.8099582,0,0.0,0.0,0.0,0.0,0.0,0,0,0.0,0.0,0,0,14.0,0.0,523.0,4442.051282051282,3878.9743589743593,4337.435897435898,4346.153846153847,4237.435897435898,4439.48717948718,4304.102564102564,4095.8974358974365,4345.641025641026,4644.615384615385,4353.846153846154,4370.769230769231,4174.871794871796,4471.794871794872
315.81827,0.5749197,0.44235736,0.34617645,0.8099582,0,0.0,0.0,0.0,0.0,0.0,0,0,0.0,0.0,0,0,14.0,0.0,523.0,4442.051282051282,3878.9743589743593,4337.435897435898,4346.153846153847,4237.435897435898,4439.48717948718,4304.102564102564,4095.8974358974365,4345.641025641026,4644.615384615385,4353.846153846154,4370.769230769231,4174.871794871796,4471.794871794872
316.31873,0.5591254,0.45793423,0.34630966,0.81919557,0,0.0,0.0,0.0,0.0,0.0,0,0,0.0,0.0,0,0,78.0,0.0,523.0,4437.435897435898,3827.1794871794878,4177.435897435898,4237.948717948719,4132.307692307693,4307.179487179487,4384.102564102564,4217.435897435898,4355.8974358974365,4703.589743589744,4468.717948717949,5103.076923076924,4123.076923076924,4601.538461538462
316.56894,0.5591254,0.45793423,0.34630966,0.81919557,0,0.0,0.0,0.0,0.0,0.05879756,0,0,0.0,0.0,0,0,110.0,0.0,523.0,4443.589743589744,3785.1282051282055,4275.8974358974365,4262.564102564103,4119.48717948718,4314.871794871796,4412.820512820514,4287.6923076923085,4337.435897435898,4636.410256410257,4393.846153846154,4864.615384615386,3989.23076923077,4649.743589743591
316.81915,0.5368901,0.4858922,0.34642828,0.8258483,0,0.0,0.0,0.0,0.0,0.023617415,0,0,0.0,0.0,0,0,13.0,0.0,472.0,4427.6923076923085,3792.307692307693,4477.435897435898,4343.076923076924,4153.846153846154,4378.974358974359,4414.358974358975,4327.179487179487,4325.641025641026,4600.000000000001,4293.846153846154,4500.000000000001,3918.9743589743593,4616.410256410257
317.06937,0.5368901,0.4858922,0.34642828,0.8258483,0,0.0,0.0,0.0,0.0,0.066773206,0,0,0.0,0.0,0,0,45.0,0.0,0.0,4410.769230769231,3817.435897435898,4556.923076923077,4391.794871794872,4203.589743589744,4446.666666666667,4392.820512820514,4337.435897435898,4327.6923076923085,4614.358974358975,4263.589743589744,4273.333333333334,3951.2820512820517,4573.846153846154
317.31958,0.52625394,0.50876546,0.34653378,0.83170813,0,0.0,0.0,0.0,0.0,0.0,0,0,0.0,0.4241843,0,0,77.0,0.0,484.0,4403.076923076924,3834.358974358975,4590.256410256411,4410.769230769231,4215.8974358974365,4461.025641025642,4417.948717948719,4346.153846153847,4337.435897435898,4634.358974358975,4264.102564102564,4303.076923076924,3964.615384615385,4604.615384615385
317.44467,0.52625394,0.50876546,0.34653378,0.83170813,0,0.0,0.0,0.0,0.0,0.0,0,0,0.0,0.0,0,0,93.0,0.0,484.0,4396.923076923077,3817.435897435898,4572.307692307693,4406.153846153847,4244.102564102564,4495.384615384616,4401.025641025642,4328.717948717949,4328.205128205129,4615.384615384616,4248.717948717949,4267.179487179487,3936.410256410257,4606.666666666667
317.82,0.5059678,0.52905095,0.3469128,0.8395565,0,0.0,0.0,0.0,0.0,0.0,0,0,0.0,0.0,0,0,12.0,0.0,437.0,4393.846153846154,3779.48717948718,4505.641025641026,4353.333333333334,4291.282051282052,4509.2307692307695,4394.358974358975,4311.282051282052,4325.128205128206,4599.48717948718,4187.179487179487,3911.2820512820517,3897.435897435898,4556.410256410257
317.82,0.5059678,0.52905095,0.3469128,0.8395565,0,0.0,0.0,0.0,0.0,0.0,0,0,0.0,0.0,0,0,12.0,0.0,437.0,4393.846153846154,3779.48717948718,4505.641025641026,4353.333333333334,4291.282051282052,4509.2307692307695,4394.358974358975,4311.282051282052,4325.128205128206,4599.48717948718,4187.179487179487,3911.2820512820517,3897.435897435898,4556.410256410257
318.32043,0.5007428,0.52236474,0.34912413,0.8467439,0,0.0,0.0,0.0,0.0,0.0,0,0,0.0,0.0,0,0,76.0,0.0,437.0,4395.8974358974365,3752.820512820513,4430.256410256411,4300.512820512821,4218.461538461539,4442.051282051282,4452.307692307693,4421.025641025642,4327.6923076923085,4616.410256410257,4138.461538461539,3635.8974358974365,3835.8974358974365,4652.820512820514
318.32043,0.5007428,0.52236474,0.34912413,0.8467439,0,0.0,0.0,0.0,0.0,0.0,0,0,0.0,0.0,0,0,76.0,0.0,437.0,4395.8974358974365,3752.820512820513,4430.256410256411,4300.512820512821,4218.461538461539,4442.051282051282,4452.307692307693,4421.025641025642,4327.6923076923085,4616.410256410257,4138.461538461539,3635.8974358974365,3835.8974358974365,4652.820512820514
318.82086,0.52618587,0.5121215,0.35152194,0.8569425,0,0.0,0.0,0.0,0.0,0.89158875,0,0,0.0,0.0,0,0,11.0,0.0,395.0,4405.641025641026,3757.435897435898,4482.564102564103,4350.769230769231,4259.48717948718,4481.538461538462,4458.461538461539,4411.282051282052,4323.076923076924,4623.076923076924,4219.48717948718,3717.9487179487182,3825.1282051282055,4837.435897435898
319.07108,0.52618587,0.5121215,0.35152194,0.8569425,0,0.0,0.0,0.0,0.0,0.0,0,0,0.0,0.0,0,0,43.0,0.0,0.0,4423.589743589744,3766.1538461538466,4470.769230769231,4356.923076923077,4245.128205128206,4473.333333333334,4442.051282051282,4377.948717948719,4314.871794871796,4604.102564102564,4207.179487179487,3747.692307692308,3827.692307692308,4828.205128205129
319.3213,0.5399628,0.5086313,0.3536782,0.86623234,0,0.0,0.0,0.0,0.0,0.0,0,0,0.0,0.0,0,0,75.0,0.0,395.0,4420.512820512821,3785.1282051282055,4466.153846153847,4356.923076923077,4233.846153846154,4462.051282051282,4441.538461538462,4383.076923076924,4325.128205128206,4637.435897435898,4249.2307692307695,3796.410256410257,3896.9230769230776,4824.615384615386
319.3213,0.5399628,0.5086313,0.3536782,0.86623234,0,0.0,0.0,0.0,0.0,0.0,0,0,0.0,0.0,0,0,75.0,0.0,395.0,4420.512820512821,3785.1282051282055,4466.153846153847,4356.923076923077,4233.846153846154,4462.051282051282,4441.538461538462,4383.076923076924,4325.128205128206,4637.435897435898,4249.2307692307695,3796.410256410257,3896.9230769230776,4824.615384615386
319.8061,0.5087357,0.49413088,0.35561684,0.8777571,0,0.0,0.0,0.0,0.0,0.0,0,0,0.0,0.0,0,0,10.0,0.0,523.0,4450.256410256411,3831.2820512820517,4445.641025641026,4388.205128205129,4244.102564102564,4485.128205128206,4431.794871794872,4348.205128205129,4325.641025641026,4674.871794871796,4311.794871794872,3956.9230769230776,3979.48717948718,4801.025641025642
319.8061,0.5087357,0.49413088,0.35561684,0.8777571,0,0.0,0.0,0.0,0.0,0.0,0,0,0.0,0.0,0,0,10.0,0.0,523.0,4450.256410256411,3831.2820512820517,4445.641025641026,4388.205128205129,4244.102564102564,4485.128205128206,4431.794871794872,4348.205128205129,4325.641025641026,4674.871794871796,4311.794871794872,3956.9230769230776,3979.48717948718,4801.025641025642
320.30652,0.479066,0.48617122,0.35617593,0.8899838,0,0.0,0.0,0.0,0.0,0.0,0,0,0.0,0.0,0,0,74.0,0.0,523.0,4471.794871794872,3848.717948717949,4443.589743589744,4395.8974358974365,4252.307692307693,4489.743589743591,4424.615384615385,4335.384615384616,4331.794871794872,4686.153846153847,4304.615384615385,4054.358974358975,4058.9743589743593,4740.000000000001
320.55673,0.479066,0.48617122,0.35617593,0.8899838,0,0.0,0.0,0.0,0.0,1.0,0,0,0.0,0.0,0,0,106.0,0.0,523.0,4476.923076923077,3796.9230769230776,4446.666666666667,4394.358974358975,4233.333333333334,4473.846153846154,4421.538461538462,4327.6923076923085,4328.205128205129,4678.461538461539,4300.000000000001,4022.0512820512827,4065.6410256410263,4673.846153846154
320.80695,0.4343653,0.48558542,0.35434532,0.9038635,0,0.0,0.0,0.0,0.0,1.0,0,0,0.0,0.0,0,0,9.0,0.0,461.0,4489.2307692307695,3815.3846153846157,4464.102564102564,4413.333333333334,4266.153846153847,4496.410256410257,4429.2307692307695,4344.615384615385,4328.717948717949,4680.512820512821,4279.48717948718,3972.820512820513,4081.538461538462,4590.256410256411
320.93204,0.4343653,0.48558542,0.35434532,0.9038635,0,0.0,0.0,0.0,0.0,0.0,0,0,0.0,0.0,0,0,25.0,0.0,0.0,4490.769230769231,3811.7948717948725,4457.948717948719,4414.358974358975,4270.256410256411,4515.8974358974365,4418.974358974359,4337.435897435898,4333.333333333334,4690.256410256411,4290.769230769231,4054.8717948717954,4100.000000000001,4603.589743589744
321.30737,0.39672923,0.49039492,0.3510841,0.9190157,0,0.0,0.0,0.0,0.0,0.0,0,0,0.0,0.0,0,0,73.0,0.0,461.0,4509.2307692307695,3818.461538461539,4480.512820512821,4422.564102564103,4259.48717948718,4492.820512820514,4402.564102564103,4334.871794871796,4326.666666666667,4676.923076923077,4274.871794871796,4033.8461538461543,4104.102564102564,4516.410256410257
321.30737,0.39672923,0.49039492,0.3510841,0.9190157,0,0.0,0.0,0.0,0.0,0.0,0,0,0.0,0.0,0,0,73.0,0.0,461.0,4509.2307692307695,3818.461538461539,4480.512820512821,4422.564102564103,4259.48717948718,4492.820512820514,4402.564102564103,4334.871794871796,4326.666666666667,4676.923076923077,4274.871794871796,4033.8461538461543,4104.102564102564,4516.410256410257
321.8078,0.42829323,0.5072383,0.34704113,0.9322767,0,0.0,0.0,0.0,0.0,0.0,0,0,0.0,0.0,0,0,8.0,0.0,316.0,4534.358974358975,3849.7435897435903,4476.923076923077,4429.2307692307695,4237.435897435898,4494.358974358975,4438.974358974359,4322.051282051282,4338.461538461539,4699.48717948718,4300.000000000001,4184.102564102564,4146.666666666667,4502.564102564103
321.8078,0.42829323,0.5072383,0.34704113,0.9322767,0,0.0,0.0,0.0,0.0,0.0,0,0,0.0,0.0,0,0,8.0,0.0,316.0,4534.358974358975,3849.7435897435903,4476.923076923077,4429.2307692307695,4237.435897435898,4494.358974358975,4438.974358974359,4322.051282051282,4338.461538461539,4699.48717948718,4300.000000000001,4184.102564102564,4146.666666666667,4502.564102564103
322.30823,0.405465,0.49488196,0.3420887,0.94170547,0,0.0,0.0,0.0,0.0,0.0,0,0,0.0,0.0,0,0,72.0,0.0,316.0,4557.435897435898,3877.9487179487182,4492.820512820514,4446.153846153847,4252.820512820514,4511.282051282052,4429.743589743591,4312.307692307693,4336.923076923077,4703.589743589744,4296.410256410257,4181.025641025642,4182.564102564103,4453.333333333334
322.30823,0.405465,0.49488196,0.3420887,0.94170547,0,0.0,0.0,0.0,0.0,0.0,0,0,0.0,0.0,0,0,72.0,0.0,316.0,4557.435897435898,3877.9487179487182,4492.820512820514,4446.153846153847,4252.820512820514,4511.282051282052,4429.743589743591,4312.307692307693,4336.923076923077,4703.589743589744,4296.410256410257,4181.025641025642,4182.564102564103,4453.333333333334
322.80865,0.39027122,0.4854479,0.33640793,0.94878244,0,0.0,0.0,0.0,0.0,0.0,0,0,0.0,0.0,0,0,7.0,0.0,467.0,4560.000000000001,3894.358974358975,4487.6923076923085,4462.051282051282,4266.666666666667,4516.923076923077,4431.282051282052,4300.000000000001,4334.871794871796,4689.743589743591,4285.641025641026,4285.128205128206,4203.589743589744,4478.974358974359
322.80865,0.39027122,0.4854479,0.33640793,0.94878244,0,0.0,0.0,0.0,0.0,0.0,0,0,0.0,0.0,0,0,7.0,0.0,467.0,4560.000000000001,3894.358974358975,4487.6923076923085,4462.051282051282,4266.666666666667,4516.923076923077,4431.282051282052,4300.000000000001,4334.871794871796,4689.743589743591,4285.641025641026,4285.128205128206,4203.589743589744,4478.974358974359
323.30908,0.41233793,0.48860174,0.33015698,0.9548351,0,0.0,0.0,0.0,0.0,0.0,0,0,0.0,0.0,0,0,71.0,0.0,467.0,4551.794871794872,3867.1794871794878,4474.358974358975,4426.666666666667,4249.74358974359,4497.948717948719,4396.410256410257,4295.8974358974365,4327.6923076923085,4669.2307692307695,4275.384615384616,4269.74358974359,4182.564102564103,4492.307692307693
323.30908,0.41233793,0.48860174,0.33015698,0.9548351,0,0.0,0.0,0.0,0.0,0.0,0,0,0.0,0.0,0,0,71.0,0.0,467.0,4551.794871794872,3867.1794871794878,4474.358974358975,4426.666666666667,4249.74358974359,4497.948717948719,4396.410256410257,4295.8974358974365,4327.6923076923085,4669.2307692307695,4275.384615384616,4269.74358974359,4182.564102564103,4492.307692307693
323.80954,0.3985473,0.47734165,0.3245314,0.95963717,0,0.0,0.0,0.0,0.0,0.0,0,0,0.0,0.3889024,0,0,6.0,0.0,535.0,4556.923076923077,3863.076923076924,4467.179487179487,4414.358974358975,4255.8974358974365,4495.384615384616,4372.820512820514,4289.2307692307695,4320.512820512821,4635.384615384616,4228.717948717949,4181.538461538462,4113.333333333334,4449.743589743591
323.93463,0.3985473,0.47734165,0.3245314,0.95963717,0,0.0,0.0,0.0,0.0,0.0,0,0,0.0,1.0,0,0,22.0,0.0,0.0,4559.48717948718,3868.205128205129,4465.128205128206,4417.948717948719,4281.025641025642,4503.076923076924,4385.641025641026,4310.256410256411,4325.128205128206,4663.076923076924,4262.051282051282,4269.2307692307695,4123.076923076924,4487.6923076923085
324.30997,0.3727219,0.47617427,0.31971636,0.9636595,0,0.0,0.0,0.0,0.0,0.0,0,0,0.0,0.33888388,0,0,70.0,0.0,535.0,4573.333333333334,3881.538461538462,4493.333333333334,4425.641025641026,4253.333333333334,4501.538461538462,4405.128205128206,4331.794871794872,4327.6923076923085,4677.435897435898,4272.307692307693,4235.8974358974365,4156.923076923077,4461.538461538462
324.56018,0.3727219,0.47617427,0.31971636,0.9636595,0,0.0,0.0,0.0,0.0,0.0,0,0,0.0,1.0,0,0,102.0,0.0,526.0,4584.615384615385,3873.8461538461543,4516.410256410257,4442.564102564103,4241.025641025642,4522.564102564103,4411.794871794872,4339.48717948718,4330.769230769231,4701.025641025642,4296.410256410257,4212.820512820514,4179.48717948718,4469.2307692307695
324.8104,0.36629927,0.489934,0.31598157,0.967777,0,0.0,0.0,0.0,0.0,0.0,0,0,0.0,0.0,0,0,5.0,0.0,515.0,4584.615384615385,3894.358974358975,4526.666666666667,4449.2307692307695,4238.461538461539,4511.794871794872,4405.128205128206,4348.717948717949,4333.846153846154,4706.153846153847,4296.923076923077,4196.410256410257,4189.2307692307695,4463.076923076924
324.8104,0.36629927,0.489934,0.31598157,0.967777,0,0.0,0.0,0.0,0.0,0.0,0,0,0.0,0.0,0,0,5.0,0.0,515.0,4584.615384615385,3894.358974358975,4526.666666666667,4449.2307692307695,4238.461538461539,4511.794871794872,4405.128205128206,4348.717948717949,4333.846153846154,4706.153846153847,4296.923076923077,4196.410256410257,4189.2307692307695,4463.076923076924
325.31082,0.35477638,0.5112694,0.31390056,0.9711802,0,0.0,0.0,0.0,0.0,0.0,0,0,0.0,0.0,0,0,69.0,0.0,515.0,4574.358974358975,3883.076923076924,4494.871794871796,4434.358974358975,4209.2307692307695,4493.846153846154,4395.8974358974365,4345.128205128206,4330.256410256411,4699.48717948718,4266.666666666667,4100.000000000001,4175.384615384616,4450.256410256411
325.31082,0.35477638,0.5112694,0.31390056,0.9711802,0,0.0,0.0,0.0,0.0,0.0,0,0,0.0,0.0,0,0,69.0,0.0,515.0,4574.358974358975,3883.076923076924,4494.871794871796,4434.358974358975,4209.2307692307695,4493.846153846154,4395.8974358974365,4345.128205128206,4330.256410256411,4699.48717948718,4266.666666666667,4100.000000000001,4175.384615384616,4450.256410256411
325.81125,0.3496945,0.5324119,0.312558,0.97394705,0,0.0,0.0,0.0,0.0,0.0,0,0,0.0,1.0,0,0,4.0,0.0,472.0,4570.769230769231,3883.589743589744,4476.410256410257,4417.435897435898,4280.512820512821,4535.384615384616,4387.179487179487,4359.48717948718,4330.256410256411,4690.256410256411,4265.128205128206,4067.692307692308,4157.435897435898,4426.153846153847
326.06146,0.3496945,0.5324119,0.312558,0.97394705,0,0.0,0.0,0.0,0.0,0.0,0,0,0.0,0.4301926,0,0,36.0,0.0,0.0,4584.615384615385,3888.717948717949,4483.589743589744,4438.461538461539,4277.435897435898,4537.948717948719,4377.948717948719,4349.2307692307695,4328.205128205129,4684.615384615386,4277.435897435898,4125.128205128206,4161.538461538462,4440.512820512821
326.31168,0.32742372,0.5529022,0.31135166,0.9729913,0,0.0,0.0,0.0,0.0,0.0,0,0,0.0,0.0,0,0,68.0,0.0,472.0,4575.8974358974365,3881.0256410256416,4487.179487179488,4432.307692307693,4264.102564102564,4511.282051282052,4379.48717948718,4352.307692307693,4323.589743589744,4685.128205128206,4287.179487179487,4160.000000000001,4159.48717948718,4438.974358974359
326.31168,0.32742372,0.5529022,0.31135166,0.9729913,0,0.0,0.0,0.0,0.0,0.0,0,0,0.0,0.0,0,0,68.0,0.0,472.0,4575.8974358974365,3881.0256410256416,4487.179487179488,4432.307692307693,4264.102564102564,4511.282051282052,4379.48717948718,4352.307692307693,4323.589743589744,4685.128205128206,4287.179487179487,4160.000000000001,4159.48717948718,4438.974358974359
326.8121,0.292083,0.5342318,0.3098716,0.968762,0,0.0,0.0,0.0,0.0,0.0,0,0,0.0,0.0,0,0,3.0,0.0,324.0,4572.820512820514,3893.8461538461543,4491.794871794872,4428.717948717949,4249.74358974359,4508.205128205129,4385.128205128206,4361.025641025642,4328.717948717949,4698.974358974359,4321.025641025642,4234.358974358975,4180.512820512821,4447.6923076923085
326.8121,0.292083,0.5342318,0.3098716,0.968762,0,0.0,0.0,0.0,0.0,0.0,0,0,0.0,0.0,0,0,3.0,0.0,324.0,4572.820512820514,3893.8461538461543,4491.794871794872,4428.717948717949,4249.74358974359,4508.205128205129,4385.128205128206,4361.025641025642,4328.717948717949,4698.974358974359,4321.025641025642,4234.358974358975,4180.512820512821,4447.6923076923085
327.31253,0.2764015,0.5048402,0.30801177,0.95918894,0,0.0,0.0,0.0,0.0,0.0,0,0,0.0,0.0,0,0,67.0,0.0,324.0,4599.48717948718,3899.48717948718,4517.435897435898,4409.2307692307695,4268.717948717949,4510.256410256411,4407.179487179487,4386.666666666667,4338.974358974359,4724.102564102564,4348.717948717949,4254.871794871796,4221.538461538462,4414.871794871796
327.31253,0.2764015,0.5048402,0.30801177,0.95918894,0,0.0,0.0,0.0,0.0,0.0,0,0,0.0,0.0,0,0,67.0,0.0,324.0,4599.48717948718,3899.48717948718,4517.435897435898,4409.2307692307695,4268.717948717949,4510.256410256411,4407.179487179487,4386.666666666667,4338.974358974359,4724.102564102564,4348.717948717949,4254.871794871796,4221.538461538462,4414.871794871796
327.81296,0.29402283,0.49193838,0.30634028,0.9505125,0,0.0,0.0,0.0,0.0,0.0,0,0,0.0,0.0,0,0,2.0,0.0,296.0,4548.205128205129,3878.461538461539,4423.076923076924,4384.102564102564,4345.128205128206,4562.564102564103,4326.666666666667,4293.846153846154,4314.871794871796,4662.051282051282,4274.871794871796,4244.102564102564,4145.641025641026,4417.435897435898
327.81296,0.29402283,0.49193838,0.30634028,0.9505125,0,0.0,0.0,0.0,0.0,0.0,0,0,0.0,0.0,0,0,2.0,0.0,296.0,4548.205128205129,3878.461538461539,4423.076923076924,4384.102564102564,4345.128205128206,4562.564102564103,4326.666666666667,4293.846153846154,4314.871794871796,4662.051282051282,4274.871794871796,4244.102564102564,4145.641025641026,4417.435897435898
328.3134,0.29739812,0.50040936,0.30521426,0.9443034,0,0.0,0.0,0.0,0.0,0.0,0,0,0.0,0.0,0,0,66.0,0.0,296.0,4618.461538461539,3911.2820512820517,4302.564102564103,4358.974358974359,4289.2307692307695,4446.666666666667,4222.051282051282,4231.794871794872,4301.025641025642,4660.000000000001,4310.769230769231,4871.282051282052,4256.410256410257,5448.717948717949
328.4385,0.29739812,0.50040936,0.30521426,0.9443034,0,0.0,0.0,0.0,0.0,1.0,0,0,0.0,0.0,0,0,82.0,0.0,526.0,4630.769230769231,3900.0000000000005,4261.538461538462,4323.076923076924,4202.051282051282,4378.974358974359,4163.076923076924,4153.846153846154,4278.974358974359,4594.358974358975,4249.74358974359,4694.871794871796,4165.641025641026,5569.2307692307695
328.8138,0.3772811,0.5080471,0.30420348,0.9386149,0,0.0,0.0,0.0,0.0,1.0,0,0,0.0,0.0,0,0,1.0,0.0,403.0,4585.641025641026,3863.589743589744,4235.8974358974365,4298.461538461539,4172.820512820514,4300.000000000001,4133.333333333334,4146.666666666667,4256.410256410257,4569.2307692307695,4249.2307692307695,4531.794871794872,4204.615384615385,7112.307692307693
329.06403,0.3772811,0.5080471,0.30420348,0.9386149,0,0.0,0.0,0.0,1.0,0.0,0,0,0.0,0.0,0,0,33.0,0.0,0.0,4702.051282051282,3906.1538461538466,4320.000000000001,4406.153846153847,4269.74358974359,4335.8974358974365,4197.435897435898,4178.461538461539,4253.846153846154,4578.461538461539,4184.615384615385,4176.923076923077,4197.435897435898,6700.000000000001
329.31427,0.46978402,0.5149211,0.30547953,0.93339276,0,0.0,0.0,0.0,0.5119387,0.0,0,0,0.0,0.0,0,0,65.0,0.0,403.0,4688.717948717949,3881.0256410256416,4274.871794871796,4392.820512820514,4253.846153846154,4351.794871794872,4225.641025641026,4189.2307692307695,4251.282051282052,4554.871794871796,4134.871794871796,3912.307692307693,4172.820512820514,6721.538461538463
329.56448,0.46978402,0.5149211,0.30547953,0.93339276,1,0.0,0.0,0.0,0.11965484,0.0,0,0,0.0,0.0,0,0,97.0,0.0,498.0,4728.205128205129,3878.9743589743593,4239.48717948718,4380.512820512821,4245.128205128206,4370.256410256411,4252.820512820514,4188.717948717949,4254.871794871796,4551.794871794872,4133.846153846154,3781.538461538462,4102.564102564103,6718.97435897436
329.8147,0.46350843,0.5211077,0.31006444,0.92978126,0,0.0,0.0,0.0,0.0,0.11494446,0,0,0.0,0.0,0,0,0.0,0.0,507.0,4679.48717948718,3864.1025641025644,4289.74358974359,4382.051282051282,4203.076923076924,4373.846153846154,4284.102564102564,4237.948717948719,4265.128205128206,4575.8974358974365,4113.846153846154,3743.076923076924,4102.051282051282,6737.435897435898
330.0649,0.46350843,0.5211077,0.31006444,0.92978126,0,0.0,0.0,0.0,0.0,1.0,0,0,0.0,0.0,0,0,32.0,0.0,0.0,4640.000000000001,3860.512820512821,4347.179487179487,4400.000000000001,4236.923076923077,4449.743589743591,4304.615384615385,4252.307692307693,4267.6923076923085,4585.128205128206,4122.564102564103,3865.1282051282055,4121.025641025642,6858.97435897436
330.31512,0.45734602,0.5266756,0.31989837,0.9337653,0,0.0,0.0,0.0,0.0,0.16973597,0,0,0.0,0.0,0,0,64.0,0.0,507.0,4632.820512820514,3828.717948717949,4380.512820512821,4391.794871794872,4234.871794871796,4453.333333333334,4314.358974358975,4290.769230769231,4277.948717948719,4689.2307692307695,4434.871794871796,5647.179487179488,4165.128205128206,7211.282051282053
330.58096,0.45734602,0.5266756,0.31989837,0.9337653,0,0.0,0.0,0.0,0.08325729,0.0,0,0,0.0,0.0,0,0,96.0,0.0,443.0,4616.923076923077,3833.333333333334,4446.153846153847,4416.410256410257,4217.948717948719,4472.820512820514,4375.8974358974365,4355.8974358974365,4280.512820512821,4676.410256410257,4326.153846153847,4885.641025641026,4131.794871794872,7080.000000000001
330.83118,0.43070808,0.5316867,0.32874584,0.9365904,0,0.0,0.0,0.0,0.25689563,0.0,0,0,0.0,0.0,0,0,128.0,0.0,443.0,4650.256410256411,3849.7435897435903,4542.564102564103,4459.48717948718,4264.615384615385,4530.256410256411,4406.153846153847,4410.256410256411,4281.025641025642,4623.076923076924,4238.461538461539,4201.538461538462,4089.7435897435903,6448.717948717949
331.0814,0.43070808,0.5316867,0.32874584,0.9365904,0,0.0,0.0,0.0,1.0,0.0,0,0,0.0,0.0,0,0,31.0,0.0,0.0,4662.564102564103,3879.48717948718,4639.48717948718,4483.076923076924,4280.000000000001,4546.666666666667,4440.000000000001,4415.8974358974365,4280.000000000001,4628.717948717949,4257.435897435898,3921.538461538462,4073.333333333334,5893.333333333334
331.3316,0.44370773,0.78092533,0.3367054,0.93311036,0,0.0,0.0,0.0,0.0,1.0,0,0,0.0,0.0,0,0,63.0,0.0,0.0,4601.538461538462,3876.9230769230776,4657.435897435898,4497.435897435898,4318.974358974359,4605.128205128206,4433.846153846154,4418.461538461539,4280.000000000001,4634.358974358975,4234.358974358975,3826.666666666667,4109.2307692307695,5648.205128205129
331.3316,0.44370773,0.78092533,0.3367054,0.93311036,0,0.0,0.0,0.0,0.0,1.0,0,0,0.0,0.0,0,0,63.0,0.0,0.0,4601.538461538462,3876.9230769230776,4657.435897435898,4497.435897435898,4318.974358974359,4605.128205128206,4433.846153846154,4418.461538461539,4280.000000000001,4634.358974358975,4234.358974358975,3826.666666666667,4109.2307692307695,5648.205128205129
331.83203,0.46241558,0.8941106,0.34219366,0.9175425,0,0.0,0.0,0.0,0.0,1.0,0,0,0.0,0.0,0,0,105.0,0.0,494.0,4553.333333333334,3907.692307692308,4669.743589743591,4521.538461538462,4312.307692307693,4599.48717948718,4451.794871794872,4427.6923076923085,4291.794871794872,4682.051282051282,4231.794871794872,3597.435897435898,4187.6923076923085,5280.512820512821
331.83203,0.46241558,0.8941106,0.34219366,0.9175425,0,0.0,0.0,0.0,0.0,1.0,0,0,0.0,0.0,0,0,127.0,0.0,369.0,4534.871794871796,3905.1282051282055,4644.102564102564,4523.589743589744,4334.871794871796,4614.871794871796,4442.564102564103,4416.923076923077,4299.48717948718,4704.102564102564,4260.000000000001,3682.564102564103,4207.179487179487,5351.282051282052
332.3325,0.5215762,0.812543,0.34129927,0.87981635,0,0.0,0.0,0.0,0.0,1.0,0,0,0.0,0.0,0,0,52.0,0.0,0.0,4593.846153846154,3973.8461538461543,4706.666666666667,4598.461538461539,4356.410256410257,4643.589743589744,4518.974358974359,4482.051282051282,4333.333333333334,4827.6923076923085,4380.000000000001,3851.7948717948725,4306.153846153847,4977.435897435898
332.3325,0.5215762,0.812543,0.34129927,0.87981635,0,0.0,0.0,0.0,0.0,1.0,0,0,0.0,0.0,0,0,62.0,0.0,0.0,4570.256410256411,3974.8717948717954,4690.256410256411,4591.794871794872,4360.000000000001,4647.179487179488,4511.794871794872,4475.8974358974365,4325.641025641026,4817.435897435898,4364.102564102564,3828.205128205129,4314.871794871796,4855.8974358974365
332.83292,0.5684031,0.740442,0.34049246,0.84611547,0,0.0,0.0,0.0,0.0,1.0,0,0,0.0,0.0,0,0,123.0,0.0,389.0,4560.512820512821,3982.0512820512827,4671.282051282052,4588.717948717949,4342.051282051282,4636.410256410257,4513.846153846154,4492.307692307693,4345.128205128206,4860.000000000001,4423.589743589744,3962.0512820512827,4353.846153846154,4413.846153846154
332.83292,0.5684031,0.740442,0.34049246,0.84611547,0,0.0,0.0,0.0,0.0,1.0,0,0,0.0,0.0,0,0,126.0,0.0,523.0,4566.153846153847,3990.7692307692314,4676.410256410257,4586.153846153847,4324.615384615385,4633.333333333334,4523.076923076924,4501.025641025642,4344.102564102564,4866.666666666667,4433.846153846154,3950.7692307692314,4361.025641025642,4399.48717948718
333.33334,0.632797,0.67555106,0.33976534,0.81596285,0,0.0,0.0,0.0,0.0,0.23887102,0,0,0.0,0.0,0,0,61.0,0.0,0.0,4553.333333333334,3926.666666666667,4507.179487179488,4490.769230769231,4216.923076923077,4492.307692307693,4535.8974358974365,4501.538461538462,4338.461538461539,4818.974358974359,4374.358974358975,3851.2820512820517,4267.6923076923085,4074.8717948717954
333.58356,0.632797,0.67555106,0.33976534,0.81596285,0,0.0,0.0,0.0,0.0,0.0888525,0,0,0.0,0.0,0,0,93.0,0.0,491.0,4535.8974358974365,3913.8461538461543,4428.205128205129,4441.538461538462,4201.025641025642,4473.333333333334,4564.615384615385,4546.666666666667,4338.461538461539,4813.333333333334,4378.974358974359,3974.358974358975,4210.769230769231,3982.0512820512827
333.83377,0.622421,0.6171493,0.3383397,0.7990564,0,0.0,0.0,0.0,0.0,0.29858035,0,0,0.0,0.0,0,0,125.0,0.0,491.0,4509.743589743591,3921.0256410256416,4457.435897435898,4450.769230769231,4231.282051282052,4501.025641025642,4557.948717948719,4549.743589743591,4339.48717948718,4791.794871794872,4374.358974358975,3961.538461538462,4180.512820512821,3934.8717948717954
334.08398,0.622421,0.6171493,0.3383397,0.7990564,0,0.0,0.0,0.0,0.0,0.0,0,0,0.0,0.48410514,0,0,28.0,0.0,0.0,4504.615384615385,3942.0512820512827,4532.820512820514,4496.410256410257,4276.923076923077,4565.128205128206,4572.820512820514,4546.666666666667,4350.769230769231,4813.333333333334,4417.435897435898,3995.8974358974365,4207.6923076923085,4001.538461538462
334.3342,0.58045065,0.56458765,0.33650064,0.7966136,0,0.0,0.0,0.0,0.0,0.0,0,0,0.0,0.05995381,0,0,60.0,0.0,0.0,4524.102564102564,3987.692307692308,4595.8974358974365,4541.025641025642,4308.205128205129,4620.000000000001,4565.128205128206,4534.358974358975,4352.820512820514,4801.025641025642,4413.333333333334,4050.7692307692314,4212.307692307693,3991.7948717948725
334.5844,0.58045065,0.56458765,0.33650064,0.7966136,0,0.0,0.0,0.0,0.0,0.0,0,0,0.0,0.0,0,0,92.0,0.0,442.0,4464.102564102564,3936.410256410257,4537.948717948719,4523.076923076924,4459.48717948718,4851.282051282052,4430.256410256411,4385.641025641026,4314.871794871796,4690.769230769231,4326.153846153847,3987.1794871794878,4137.435897435898,3919.48717948718
334.83463,0.626816,0.5172821,0.33484662,0.79491174,0,0.0,0.0,0.0,0.0,0.0,0,0,0.0,0.0,0,0,124.0,0.0,442.0,4474.358974358975,3931.2820512820517,4564.615384615385,4508.717948717949,4419.48717948718,4803.076923076924,4414.358974358975,4365.128205128206,4326.153846153847,4701.025641025642,4337.948717948719,3992.820512820513,4188.205128205129,3923.589743589744
335.08484,0.626816,0.5172821,0.33484662,0.79491174,0,0.0,0.0,0.0,0.0,0.0,0,0,0.0,0.66296655,0,0,27.0,0.0,0.0,4487.179487179488,3924.1025641025644,4577.435897435898,4491.282051282052,4389.2307692307695,4756.410256410257,4396.410256410257,4344.102564102564,4324.615384615385,4692.820512820514,4354.358974358975,4000.0000000000005,4197.435897435898,3882.0512820512827
335.33505,0.6640972,0.47470722,0.333358,0.7928513,0,0.0,0.0,0.0,0.0,0.0,0,0,0.0,0.8410837,0,0,59.0,0.0,0.0,4506.153846153847,3942.564102564103,4560.000000000001,4477.435897435898,4356.410256410257,4747.179487179488,4404.615384615385,4375.8974358974365,4326.666666666667,4718.461538461539,4344.102564102564,4070.2564102564106,4240.512820512821,3888.717948717949
335.58527,0.6640972,0.47470722,0.333358,0.7928513,0,0.0,0.0,0.0,0.0,0.0,0,0,0.0,0.56154835,0,0,91.0,0.0,407.0,4525.128205128206,3945.1282051282055,4613.333333333334,4508.205128205129,4376.923076923077,4702.564102564103,4432.820512820514,4369.743589743591,4334.871794871796,4736.410256410257,4363.076923076924,4036.9230769230776,4286.666666666667,3845.1282051282055
335.83548,0.6730173,0.4363898,0.332795,0.77834475,0,0.0,0.0,0.0,0.0,0.0,0,0,0.0,0.20340204,0,0,123.0,0.0,407.0,4535.8974358974365,3935.8974358974365,4595.384615384616,4488.717948717949,4355.384615384616,4648.205128205129,4425.128205128206,4368.205128205129,4328.205128205129,4707.6923076923085,4321.538461538462,4026.1538461538466,4261.025641025642,3748.717948717949
336.0857,0.6730173,0.4363898,0.332795,0.77834475,0,0.0,0.0,0.0,0.0,0.0,0,0,0.0,0.051365357,0,0,26.0,0.0,0.0,4505.128205128206,3885.1282051282055,4468.205128205129,4413.846153846154,4303.076923076924,4567.6923076923085,4377.435897435898,4328.717948717949,4309.2307692307695,4629.2307692307695,4246.666666666667,3993.333333333334,4124.102564102564,3731.794871794872
336.3359,0.7218673,0.4019041,0.33284932,0.7553678,0,0.0,0.0,0.0,0.0,0.0,0,0,0.0,0.0,0,0,58.0,0.0,0.0,4493.846153846154,3844.615384615385,4371.794871794872,4363.076923076924,4240.000000000001,4491.794871794872,4421.025641025642,4378.461538461539,4308.205128205129,4614.871794871796,4225.641025641026,3924.615384615385,4035.8974358974365,3699.48717948718
336.3359,0.7218673,0.4019041,0.33284932,0.7553678,0,0.0,0.0,0.0,0.0,0.0,0,0,0.0,0.0,0,0,58.0,0.0,0.0,4493.846153846154,3844.615384615385,4371.794871794872,4363.076923076924,4240.000000000001,4491.794871794872,4421.025641025642,4378.461538461539,4308.205128205129,4614.871794871796,4225.641025641026,3924.615384615385,4035.8974358974365,3699.48717948718
336.83633,0.7529311,0.42377412,0.33289826,0.7347398,0,0.0,0.0,0.0,0.0,0.01082307,0,0,0.0,0.0,0,0,74.0,0.0,530.0,4506.666666666667,3857.9487179487182,4360.512820512821,4359.48717948718,4227.179487179487,4468.717948717949,4442.051282051282,4407.6923076923085,4308.717948717949,4613.333333333334,4208.717948717949,3864.615384615385,3999.48717948718,3678.9743589743593
337.08655,0.7529311,0.42377412,0.33289826,0.7347398,0,0.0,0.0,0.0,0.0,0.074731484,0,0,0.0,0.0,0,0,25.0,0.0,0.0,4509.2307692307695,3819.48717948718,4481.025641025642,4443.076923076924,4252.307692307693,4490.769230769231,4470.256410256411,4432.307692307693,4325.128205128206,4652.307692307693,4293.846153846154,4030.2564102564106,4079.48717948718,3733.8461538461543
337.21167,0.7529311,0.42377412,0.33289826,0.7347398,0,0.0,0.0,0.0,0.0,0.043763194,0,0,0.0,0.0,0,0,41.0,0.0,0.0,4509.743589743591,3832.307692307693,4496.410256410257,4449.743589743591,4264.102564102564,4520.512820512821,4472.820512820514,4431.794871794872,4331.794871794872,4689.743589743591,4325.128205128206,4145.641025641026,4107.179487179487,3736.9230769230776
337.587,0.7353565,0.44117552,0.3329424,0.7162096,0,0.0,0.0,0.0,0.0,0.005541366,0,0,0.0,0.0,0,0,89.0,0.0,490.0,4536.410256410257,3876.410256410257,4556.923076923077,4481.538461538462,4281.538461538462,4542.051282051282,4449.2307692307695,4392.307692307693,4339.48717948718,4712.820512820514,4395.384615384616,4451.282051282052,4177.948717948719,3820.0000000000005
337.7121,0.7353565,0.44117552,0.3329424,0.7162096,0,0.0,0.0,0.0,0.0,0.02312179,0,0,0.0,0.0,0,0,105.0,0.0,490.0,4537.435897435898,3884.615384615385,4562.051282051282,4490.769230769231,4287.179487179487,4550.769230769231,4458.461538461539,4407.6923076923085,4349.743589743591,4744.615384615386,4435.8974358974365,4554.358974358975,4236.410256410257,3850.7692307692314
337.83722,0.73397547,0.45084807,0.33298212,0.72162014,0,0.0,0.0,0.0,0.0,0.0,0,0,0.0,0.0,0,0,121.0,0.0,490.0,4539.48717948718,3897.9487179487182,4584.615384615385,4506.666666666667,4301.538461538462,4566.666666666667,4459.48717948718,4425.128205128206,4354.358974358975,4765.128205128206,4452.307692307693,4623.076923076924,4267.179487179487,3831.2820512820517
337.83722,0.73397547,0.45084807,0.33298212,0.72162014,0,0.0,0.0,0.0,0.0,0.0,0,0,0.0,0.0,0,0,121.0,0.0,490.0,4539.48717948718,3897.9487179487182,4584.615384615385,4506.666666666667,4301.538461538462,4566.666666666667,4459.48717948718,4425.128205128206,4354.358974358975,4765.128205128206,4452.307692307693,4623.076923076924,4267.179487179487,3831.2820512820517
338.33765,0.7799661,0.45559937,0.3327877,0.7491811,0,0.0,0.0,0.0,0.0,0.0,0,0,0.0,0.0,0,0,56.0,0.0,0.0,4585.128205128206,3932.307692307693,4643.589743589744,4551.282051282052,4306.666666666667,4583.589743589744,4482.564102564103,4447.179487179487,4364.102564102564,4793.333333333334,4447.6923076923085,4466.666666666667,4311.282051282052,3890.7692307692314
338.33765,0.7799661,0.45559937,0.3327877,0.7491811,0,0.0,0.0,0.0,0.0,0.0,0,0,0.0,0.0,0,0,56.0,0.0,0.0,4585.128205128206,3932.307692307693,4643.589743589744,4551.282051282052,4306.666666666667,4583.589743589744,4482.564102564103,4447.179487179487,4364.102564102564,4793.333333333334,4447.6923076923085,4466.666666666667,4311.282051282052,3890.7692307692314
339.0883,0.7728767,0.46589643,0.33066913,0.77383906,0,0.0,0.0,0.0,0.0,0.0,0,0,0.0,0.21195272,0,0,23.0,0.0,0.0,4586.153846153847,3913.8461538461543,4606.666666666667,4509.743589743591,4283.076923076924,4542.051282051282,4447.6923076923085,4404.102564102564,4352.820512820514,4697.435897435898,4265.128205128206,4328.717948717949,4249.2307692307695,3894.8717948717954
339.21338,0.7728767,0.46589643,0.33066913,0.77383906,0,0.0,0.0,0.0,0.0,0.0,0,0,0.0,0.33775267,0,0,39.0,0.0,0.0,4587.179487179488,3914.8717948717954,4608.717948717949,4508.717948717949,4290.769230769231,4552.307692307693,4452.820512820514,4412.307692307693,4357.948717948719,4696.410256410257,4260.512820512821,4353.846153846154,4225.128205128206,3918.461538461539
339.5887,0.7542866,0.47641075,0.32876268,0.79633456,0,0.0,0.0,0.0,0.0,0.0,0,0,0.0,0.2638441,0,0,87.0,0.0,407.0,4665.641025641026,3924.615384615385,4599.48717948718,4536.923076923077,4296.923076923077,4560.512820512821,4458.461538461539,4427.6923076923085,4361.025641025642,4726.666666666667,4289.74358974359,4219.48717948718,4278.974358974359,3989.23076923077
339.7138,0.7542866,0.47641075,0.32876268,0.79633456,0,0.0,0.0,0.0,0.0,0.0,0,0,0.0,0.0,0,0,103.0,0.0,407.0,4651.794871794872,3912.820512820513,4586.666666666667,4536.410256410257,4331.794871794872,4606.153846153847,4450.256410256411,4421.025641025642,4357.948717948719,4715.384615384616,4263.589743589744,4158.461538461539,4260.512820512821,3972.307692307693
340.08914,0.7088931,0.50446093,0.32900053,0.8163881,0,0.0,0.0,0.0,0.0,0.0,0,0,0.0,0.0,0,0,22.0,0.0,0.0,4758.461538461539,3903.076923076924,4572.820512820514,4553.333333333334,4364.615384615385,4658.974358974359,4416.410256410257,4390.256410256411,4353.333333333334,4684.615384615386,4234.871794871796,4049.23076923077,4193.846153846154,4006.666666666667
340.21423,0.7088931,0.50446093,0.32900053,0.8163881,0,0.0,0.0,0.0,0.0,1.0,0,0,0.0,0.0,0,0,38.0,0.0,0.0,4762.564102564103,3904.1025641025644,4569.2307692307695,4537.948717948719,4379.48717948718,4662.564102564103,4402.564102564103,4381.538461538462,4353.846153846154,4700.000000000001,4247.6923076923085,4018.461538461539,4214.871794871796,4034.8717948717954
340.58957,0.6555245,0.60721344,0.329215,0.83422774,0,0.0,0.0,0.0,0.0,1.0,0,0,0.0,0.0,0,0,86.0,0.0,528.0,4715.8974358974365,3906.1538461538466,4562.564102564103,4522.564102564103,4342.564102564103,4604.615384615385,4407.179487179487,4374.871794871796,4352.307692307693,4702.564102564103,4231.282051282052,3809.7435897435903,4250.769230769231,4103.076923076924
340.58957,0.6555245,0.60721344,0.329215,0.83422774,0,0.0,0.0,0.0,0.0,1.0,0,0,0.0,0.0,0,0,86.0,0.0,528.0,4715.8974358974365,3906.1538461538466,4562.564102564103,4522.564102564103,4342.564102564103,4604.615384615385,4407.179487179487,4374.871794871796,4352.307692307693,4702.564102564103,4231.282051282052,3809.7435897435903,4250.769230769231,4103.076923076924
340.9649,0.62044495,0.7185337,0.3294955,0.8471416,0,0.0,0.0,0.0,1.0,0.0,0,0,0.0,0.0,0,0,5.0,0.0,510.0,4695.8974358974365,3912.307692307693,4542.051282051282,4503.076923076924,4326.153846153847,4593.846153846154,4410.256410256411,4406.666666666667,4357.948717948719,4731.282051282052,4281.538461538462,3982.564102564103,4274.358974358975,4322.564102564103
341.3402,0.59277177,0.80767405,0.3297483,0.85584843,0,0.0,0.0,0.0,1.0,0.0,0,0,0.0,0.0,0,0,11.0,0.0,528.0,4717.435897435898,3911.7948717948725,4543.589743589744,4498.461538461539,4294.871794871796,4563.589743589744,4398.461538461539,4389.743589743591,4345.128205128206,4723.076923076924,4276.410256410257,3971.2820512820517,4265.128205128206,4366.666666666667
341.59042,0.59277177,0.80767405,0.3297483,0.85584843,0,0.0,0.0,0.0,0.32311946,0.0,0,0,0.0,0.0,0,1,85.0,0.0,487.0,4585.641025641026,3895.8974358974365,4521.025641025642,4472.307692307693,4278.974358974359,4530.769230769231,4409.2307692307695,4411.282051282052,4366.666666666667,4790.256410256411,4505.128205128206,5232.307692307693,4289.2307692307695,4620.512820512821
341.7781,0.59277177,0.80767405,0.3297483,0.85584843,0,0.0,0.0,0.0,0.063338004,0.0,0,0,0.0,0.0,0,0,109.0,0.0,487.0,4569.2307692307695,3881.538461538462,4502.051282051282,4453.846153846154,4271.282051282052,4529.743589743591,4406.666666666667,4421.538461538462,4372.820512820514,4855.384615384616,4759.48717948718,6598.97435897436,4338.461538461539,4713.846153846154
342.09085,0.59223485,0.9802323,0.33126065,0.86597514,0,0.0,0.0,0.0,0.051075306,0.0,0,0,0.0,0.0,0,0,20.0,0.0,0.0,4610.256410256411,3910.7692307692314,4542.564102564103,4472.820512820514,4288.717948717949,4545.128205128206,4402.564102564103,4421.025641025642,4370.769230769231,4933.846153846154,4582.564102564103,5540.000000000001,4261.538461538462,4587.179487179488
342.34106,0.5701891,1.0,0.33261272,0.8728975,0,0.0,0.0,0.0,0.0,0.0,0,0,0.0,0.0,0,0,47.0,0.0,0.0,4606.153846153847,3911.2820512820517,4549.743589743591,4471.282051282052,4304.102564102564,4541.538461538462,4428.205128205129,4446.666666666667,4368.717948717949,4889.2307692307695,4493.846153846154,4972.820512820514,4235.8974358974365,4507.6923076923085
342.37234,0.5701891,1.0,0.33261272,0.8728975,0,0.0,0.0,0.0,0.0,0.0,0,0,0.0,0.0,0,0,56.0,0.0,0.0,4617.435897435898,3922.0512820512827,4557.948717948719,4478.461538461539,4311.282051282052,4554.871794871796,4445.128205128206,4461.025641025642,4367.6923076923085,4875.384615384616,4471.282051282052,4770.256410256411,4226.153846153847,4496.923076923077
342.37234,0.5701891,1.0,0.33261272,0.8728975,0,0.0,0.0,0.0,0.0,0.0,0,0,0.0,0.0,0,0,56.0,0.0,0.0,4617.435897435898,3922.0512820512827,4557.948717948719,4478.461538461539,4311.282051282052,4554.871794871796,4445.128205128206,4461.025641025642,4367.6923076923085,4875.384615384616,4471.282051282052,4770.256410256411,4226.153846153847,4496.923076923077
343.09174,0.53739893,1.0,0.33268535,0.87264025,0,0.0,0.0,0.0,0.0,0.015383268,0,0,0.0,0.0,0,0,19.0,0.0,0.0,4593.333333333334,3868.717948717949,4395.384615384616,4381.025641025642,4233.846153846154,4461.538461538462,4527.179487179488,4539.48717948718,4361.538461538462,4782.564102564103,4353.846153846154,4075.8974358974365,4057.9487179487182,4548.205128205129
343.21683,0.53739893,1.0,0.33268535,0.87264025,0,0.0,0.0,0.0,0.0,0.0,0,0,0.0,0.0,0,0,35.0,0.0,0.0,4584.615384615385,3871.7948717948725,4377.948717948719,4364.102564102564,4218.461538461539,4441.025641025642,4535.384615384616,4537.435897435898,4353.333333333334,4758.461538461539,4318.974358974359,3995.8974358974365,4029.7435897435903,4551.282051282052
343.59216,0.51158243,1.0,0.33275074,0.8536664,0,0.0,0.0,0.0,0.0,0.1777802,0,0,0.0,0.0,0,0,83.0,0.0,398.0,4580.512820512821,3897.435897435898,4441.025641025642,4398.974358974359,4251.794871794872,4479.48717948718,4505.128205128206,4538.974358974359,4351.794871794872,4743.589743589744,4312.820512820514,3940.0000000000005,4055.3846153846157,4526.153846153847
343.71725,0.51158243,1.0,0.33275074,0.8536664,0,0.0,0.0,0.0,0.0,0.14872721,0,0,0.0,0.0,0,0,99.0,0.0,398.0,4573.333333333334,3902.564102564103,4454.358974358975,4405.641025641026,4283.589743589744,4517.948717948719,4497.948717948719,4518.974358974359,4350.769230769231,4725.128205128206,4290.769230769231,3961.538461538462,4072.820512820513,4530.769230769231
344.0926,0.47758654,1.0,0.33280966,0.82281053,0,0.0,0.0,0.0,0.0,0.1312459,0,0,0.0,0.0,0,0,18.0,0.0,0.0,4570.256410256411,3917.435897435898,4509.743589743591,4430.256410256411,4272.820512820514,4512.307692307693,4451.794871794872,4496.923076923077,4361.025641025642,4777.948717948719,4328.205128205129,4066.666666666667,4155.8974358974365,4453.846153846154
344.3428,0.42196652,1.0,0.3328627,0.7951727,0,0.0,0.0,0.0,0.0,0.14857335,0,0,0.0,0.0,0,0,43.0,0.0,0.0,4551.794871794872,3897.435897435898,4510.256410256411,4422.564102564103,4267.179487179487,4503.076923076924,4410.769230769231,4445.641025641026,4343.589743589744,4736.923076923077,4294.871794871796,3980.5128205128212,4130.769230769231,4389.2307692307695
344.59302,0.42196652,1.0,0.3328627,0.7951727,0,0.0,0.0,0.0,0.0,0.08552089,0,0,0.0,0.0,0,0,82.0,0.0,525.0,4558.461538461539,3909.2307692307695,4530.769230769231,4428.205128205129,4243.076923076924,4479.48717948718,4388.205128205129,4421.538461538462,4350.256410256411,4737.435897435898,4293.333333333334,4030.2564102564106,4160.000000000001,4353.333333333334
344.7181,0.42196652,1.0,0.3328627,0.7951727,0,0.0,0.0,0.0,0.0,0.059310377,0,0,0.0,0.0,0,0,98.0,0.0,525.0,4568.205128205129,3914.8717948717954,4546.153846153847,4441.538461538462,4258.974358974359,4503.076923076924,4380.000000000001,4423.076923076924,4351.794871794872,4746.666666666667,4308.717948717949,4144.615384615385,4171.794871794872,4351.282051282052
345.09344,0.416532,1.0,0.33291048,0.77039146,0,0.0,0.0,0.0,0.0,0.083430395,0,0,0.0,0.0,0,0,17.0,0.0,0.0,4580.512820512821,3909.7435897435903,4550.256410256411,4412.307692307693,4240.000000000001,4492.307692307693,4382.051282051282,4397.435897435898,4352.307692307693,4743.076923076924,4254.358974358975,4166.666666666667,4234.358974358975,4332.307692307693
345.21854,0.416532,1.0,0.33291048,0.77039146,0,0.0,0.0,0.0,0.0,0.38530937,0,0,0.0,0.0,0,0,33.0,0.0,0.0,4574.358974358975,3903.076923076924,4539.48717948718,4398.974358974359,4228.717948717949,4495.384615384616,4375.8974358974365,4365.128205128206,4342.051282051282,4711.282051282052,4227.6923076923085,4081.538461538462,4196.410256410257,4360.512820512821
345.59387,0.38305026,1.0,0.33295354,0.76638514,0,0.0,0.0,0.0,0.0,0.33441278,0,0,0.0,0.0,0,0,81.0,0.0,488.0,4598.461538461539,3914.8717948717954,4542.051282051282,4407.6923076923085,4243.589743589744,4500.000000000001,4402.564102564103,4406.153846153847,4353.333333333334,4737.435897435898,4275.384615384616,4051.2820512820517,4231.794871794872,4412.307692307693
345.719,0.38305026,1.0,0.33295354,0.76638514,0,0.0,0.0,0.0,0.0,0.06009859,0,0,0.0,0.0,0,0,97.0,0.0,488.0,4585.641025641026,3893.333333333334,4509.2307692307695,4340.000000000001,4231.794871794872,4487.6923076923085,4402.564102564103,4403.589743589744,4347.6923076923085,4723.589743589744,4270.769230769231,4037.9487179487182,4212.307692307693,4385.641025641026
345.9692,0.40739882,1.0,0.33301538,0.7841479,0,0.0,0.0,0.0,0.0,0.0,0,0,0.0,0.0,0,0,0.0,0.0,500.0,4584.102564102564,3883.076923076924,4489.2307692307695,4266.666666666667,4237.435897435898,4489.743589743591,4403.589743589744,4395.384615384616,4346.153846153847,4723.076923076924,4285.641025641026,4073.333333333334,4193.333333333334,4391.282051282052
345.9692,0.40739882,1.0,0.33301538,0.7841479,0,0.0,0.0,0.0,0.0,0.0,0,0,0.0,0.0,0,0,0.0,0.0,500.0,4584.102564102564,3883.076923076924,4489.2307692307695,4266.666666666667,4237.435897435898,4489.743589743591,4403.589743589744,4395.384615384616,4346.153846153847,4723.076923076924,4285.641025641026,4073.333333333334,4193.333333333334,4391.282051282052
346.59473,0.38941774,1.0,0.333071,0.809201,0,0.0,0.0,0.0,0.0,0.0,0,0,0.0,0.53870076,0,0,80.0,0.0,441.0,4568.205128205129,3865.1282051282055,4504.102564102564,4276.410256410257,4206.666666666667,4457.948717948719,4384.102564102564,4365.128205128206,4337.948717948719,4683.076923076924,4318.974358974359,4214.358974358975,4169.2307692307695,4385.641025641026
346.71985,0.38941774,1.0,0.333071,0.809201,0,0.0,0.0,0.0,0.0,0.0,0,0,0.0,1.0,0,0,96.0,0.0,441.0,4569.2307692307695,3871.7948717948725,4516.410256410257,4291.794871794872,4223.076923076924,4480.512820512821,4392.820512820514,4375.384615384616,4339.48717948718,4613.846153846154,4298.461538461539,4198.974358974359,4174.358974358975,4402.564102564103
346.84494,0.396343,0.9982767,0.33228168,0.8319944,0,0.0,0.0,0.0,0.0,0.0,0,0,0.0,1.0,0,0,112.0,0.0,441.0,4570.256410256411,3878.9743589743593,4507.6923076923085,4051.7948717948725,4228.717948717949,4474.871794871796,4383.589743589744,4370.769230769231,4331.794871794872,4604.615384615385,4274.358974358975,4222.051282051282,4153.846153846154,4432.820512820514
347.34537,0.42242968,0.9529647,0.3323629,0.8462621,0,0.0,0.0,0.0,0.0,0.0,0,0,0.0,0.0,0,0,40.0,0.0,0.0,4569.743589743591,3881.538461538462,4524.615384615385,4000.0000000000005,4243.589743589744,4492.307692307693,4380.512820512821,4368.205128205129,4329.2307692307695,4635.384615384616,4296.923076923077,4193.846153846154,4180.512820512821,4435.384615384616
347.59558,0.42242968,0.9529647,0.3323629,0.8462621,0,0.0,0.0,0.0,0.0,0.0,0,0,0.0,0.42952082,0,0,79.0,0.0,402.0,4543.076923076924,3878.9743589743593,4503.076923076924,4053.333333333334,4225.641025641026,4463.076923076924,4370.769230769231,4374.871794871796,4327.179487179487,4623.589743589744,4277.948717948719,4120.512820512821,4142.564102564103,4423.589743589744
347.7207,0.42242968,0.9529647,0.3323629,0.8462621,0,0.0,0.0,0.0,0.0,0.0,0,0,0.0,0.0,0,0,95.0,0.0,402.0,4547.6923076923085,3875.8974358974365,4503.076923076924,4064.1025641025644,4211.282051282052,4462.564102564103,4371.282051282052,4378.461538461539,4326.153846153847,4634.871794871796,4287.179487179487,4155.384615384616,4168.205128205129,4456.410256410257
348.096,0.38206324,0.91133106,0.33243605,0.8552545,0,0.0,0.0,0.0,0.0,0.0,0,0,0.0,0.0,0,0,14.0,0.0,525.0,4533.846153846154,3864.1025641025644,4491.794871794872,4117.435897435898,4204.102564102564,4451.282051282052,4384.102564102564,4372.307692307693,4323.076923076924,4611.282051282052,4228.717948717949,4045.1282051282055,4142.564102564103,4469.2307692307695
348.096,0.38206324,0.91133106,0.33243605,0.8552545,0,0.0,0.0,0.0,0.0,0.0,0,0,0.0,0.0,0,0,14.0,0.0,525.0,4533.846153846154,3864.1025641025644,4491.794871794872,4117.435897435898,4204.102564102564,4451.282051282052,4384.102564102564,4372.307692307693,4323.076923076924,4611.282051282052,4228.717948717949,4045.1282051282055,4142.564102564103,4469.2307692307695
348.58862,0.37549683,0.87479526,0.332502,0.86288625,0,0.0,0.0,0.0,0.0,0.0,0,0,0.0,0.28625706,0,0,78.0,0.0,525.0,4552.307692307693,3871.2820512820517,4491.282051282052,4150.769230769231,4225.128205128206,4466.153846153847,4394.871794871796,4397.948717948719,4323.076923076924,4643.076923076924,4225.641025641026,4023.076923076924,4150.256410256411,4473.333333333334
348.83884,0.36275896,0.85389835,0.33169568,0.87005615,0,0.0,0.0,0.0,0.0,0.0,0,0,0.0,0.33670026,0,0,110.0,0.0,525.0,4550.769230769231,3881.0256410256416,4498.974358974359,4167.179487179487,4232.307692307693,4471.282051282052,4404.615384615385,4406.666666666667,4326.153846153847,4667.179487179488,4258.974358974359,4051.2820512820517,4166.666666666667,4470.256410256411
349.08905,0.36275896,0.85389835,0.33169568,0.87005615,0,0.0,0.0,0.0,0.0,0.0,0,0,0.0,0.16369797,0,0,13.0,0.0,493.0,4558.461538461539,3895.8974358974365,4518.974358974359,4216.410256410257,4250.769230769231,4498.461538461539,4425.128205128206,4434.358974358975,4339.48717948718,4693.333333333334,4276.410256410257,4117.435897435898,4183.076923076924,4471.794871794872
349.33926,0.34861758,0.82577264,0.33521625,0.87229604,0,0.0,0.0,0.0,0.0,0.0,0,0,0.0,0.0,0,0,45.0,0.0,0.0,4554.871794871796,3894.8717948717954,4527.179487179488,4265.641025641026,4263.589743589744,4506.666666666667,4431.282051282052,4446.153846153847,4342.564102564103,4715.384615384616,4296.923076923077,4149.74358974359,4209.2307692307695,4442.051282051282
349.33926,0.34861758,0.82577264,0.33521625,0.87229604,0,0.0,0.0,0.0,0.0,0.0,0,0,0.0,0.0,0,0,45.0,0.0,0.0,4554.871794871796,3894.8717948717954,4527.179487179488,4265.641025641026,4263.589743589744,4506.666666666667,4431.282051282052,4446.153846153847,4342.564102564103,4715.384615384616,4296.923076923077,4149.74358974359,4209.2307692307695,4442.051282051282
349.83972,0.3589797,0.7926497,0.3407013,0.8741841,0,0.0,0.0,0.0,0.0,0.0,0,0,0.0,0.0,0,0,90.0,0.0,525.0,4569.743589743591,3912.307692307693,4548.205128205129,4322.051282051282,4266.666666666667,4506.666666666667,4439.48717948718,4444.102564102564,4342.564102564103,4735.384615384616,4334.871794871796,4122.564102564103,4227.6923076923085,4387.6923076923085
349.83972,0.3589797,0.7926497,0.3407013,0.8741841,0,0.0,0.0,0.0,0.0,0.0,0,0,0.0,0.0,0,0,109.0,0.0,493.0,4569.2307692307695,3913.333333333334,4551.282051282052,4343.589743589744,4267.6923076923085,4510.256410256411,4433.333333333334,4443.589743589744,4346.153846153847,4730.769230769231,4318.974358974359,4113.846153846154,4212.820512820514,4386.666666666667
350.34015,0.39548296,0.7658855,0.34563726,0.8770313,0,0.0,0.0,0.0,0.0,0.0,0,0,0.0,0.0,0,0,21.0,0.0,0.0,4570.256410256411,3915.8974358974365,4529.743589743591,4326.153846153847,4268.205128205129,4499.48717948718,4431.282051282052,4435.384615384616,4347.179487179487,4723.076923076924,4284.102564102564,4058.461538461539,4194.871794871796,4360.512820512821
350.34015,0.39548296,0.7658855,0.34563726,0.8770313,0,0.0,0.0,0.0,0.0,0.0,0,0,0.0,0.0,0,0,44.0,0.0,0.0,4615.384615384616,3958.461538461539,4608.205128205129,4401.025641025642,4316.410256410257,4556.410256410257,4495.8974358974365,4502.051282051282,4373.846153846154,4843.589743589744,4349.743589743591,4116.923076923077,4269.2307692307695,4396.923076923077
350.84058,0.48106584,0.7599871,0.34563777,0.8794552,0,0.0,0.0,0.0,0.0,0.0,0,0,0.0,0.0,0,0,79.0,0.0,402.0,4620.512820512821,3969.2307692307695,4607.179487179488,4394.871794871796,4385.641025641026,4590.769230769231,4490.769230769231,4493.846153846154,4369.743589743591,4857.948717948719,4371.794871794872,4101.538461538462,4282.564102564103,4370.769230769231
350.84058,0.48106584,0.7599871,0.34563777,0.8794552,0,0.0,0.0,0.0,0.0,0.0,0,0,0.0,0.0,0,0,108.0,0.0,442.0,4616.410256410257,3951.2820512820517,4571.794871794872,4350.256410256411,4336.923076923077,4544.615384615385,4475.8974358974365,4481.025641025642,4364.102564102564,4827.6923076923085,4376.923076923077,4150.256410256411,4264.615384615385,4387.6923076923085
351.341,0.5050271,0.7276436,0.34137103,0.88089716,0,0.0,0.0,0.0,0.0,0.0,0,0,0.0,0.0,0,0,20.0,0.0,0.0,4616.923076923077,3947.1794871794878,4572.307692307693,4375.384615384616,4315.384615384616,4529.2307692307695,4468.205128205129,4472.307692307693,4360.512820512821,4786.666666666667,4338.461538461539,4071.7948717948725,4232.307692307693,4369.2307692307695
351.341,0.5050271,0.7276436,0.34137103,0.88089716,0,0.0,0.0,0.0,0.0,0.0,0,0,0.0,0.0,0,0,43.0,0.0,0.0,4612.820512820514,3942.0512820512827,4570.769230769231,4377.948717948719,4262.051282051282,4464.615384615385,4467.6923076923085,4470.256410256411,4365.641025641026,4788.717948717949,4340.512820512821,4069.7435897435903,4240.512820512821,4375.8974358974365
351.84143,0.46570373,0.693217,0.33635283,0.87928456,0,0.0,0.0,0.0,0.0,0.0,0,0,0.0,0.0,0,0,85.0,0.0,493.0,4615.384615384616,3955.3846153846157,4558.461538461539,4390.769230769231,4250.256410256411,4460.512820512821,4473.846153846154,4478.461538461539,4358.974358974359,4654.871794871796,4318.461538461539,4141.538461538462,4237.948717948719,4394.871794871796
351.84143,0.46570373,0.693217,0.33635283,0.87928456,0,0.0,0.0,0.0,0.0,0.0,0,0,0.0,0.0,0,0,107.0,0.0,402.0,4618.974358974359,3961.538461538462,4561.538461538462,4404.615384615385,4253.846153846154,4473.333333333334,4481.538461538462,4490.256410256411,4360.000000000001,4688.205128205129,4357.948717948719,4190.256410256411,4250.256410256411,4390.256410256411
352.34186,0.46396583,0.66136277,0.33183616,0.8805141,0,0.0,0.0,0.0,0.0,0.0,0,0,0.0,0.0,0,0,26.0,0.0,0.0,4608.717948717949,3943.589743589744,4532.307692307693,4411.794871794872,4246.153846153847,4476.923076923077,4434.871794871796,4441.538461538462,4348.717948717949,4672.307692307693,4313.846153846154,4148.205128205129,4202.564102564103,4314.358974358975
352.34186,0.46396583,0.66136277,0.33183616,0.8805141,0,0.0,0.0,0.0,0.0,0.0,0,0,0.0,0.0,0,0,42.0,0.0,0.0,4609.743589743591,3939.48717948718,4528.717948717949,4412.820512820514,4232.820512820514,4466.153846153847,4433.333333333334,4443.076923076924,4349.743589743591,4679.48717948718,4313.333333333334,4170.769230769231,4209.74358974359,4324.615384615385
352.8423,0.4487298,0.61500454,0.3265803,0.88149554,0,0.0,0.0,0.0,0.0,0.0,0,0,0.0,0.0,0,0,78.0,0.0,493.0,4598.461538461539,3923.076923076924,4528.717948717949,4415.8974358974365,4226.153846153847,4468.205128205129,4447.6923076923085,4449.2307692307695,4348.717948717949,4695.384615384616,4332.307692307693,4242.051282051282,4206.666666666667,4322.564102564103
353.0925,0.4487298,0.61500454,0.3265803,0.88149554,0,0.0,0.0,0.0,0.0,0.115920715,0,0,0.0,0.0,0,0,9.0,0.0,463.0,4618.461538461539,3942.0512820512827,4534.871794871796,4422.051282051282,4264.615384615385,4518.974358974359,4454.871794871796,4460.512820512821,4355.384615384616,4740.512820512821,4371.282051282052,4332.307692307693,4217.435897435898,4349.2307692307695
353.3427,0.43032336,0.59384316,0.32185054,0.8785912,0,0.0,0.0,0.0,0.0,0.6311322,0,0,0.0,0.0,0,0,41.0,0.0,0.0,4617.948717948719,3933.333333333334,4543.076923076924,4430.769230769231,4249.74358974359,4500.000000000001,4454.871794871796,4453.333333333334,4354.358974358975,4737.948717948719,4381.538461538462,4416.923076923077,4217.948717948719,4416.923076923077
353.59293,0.43032336,0.59384316,0.32185054,0.8785912,0,0.0,0.0,0.0,0.0,0.3814504,0,0,0.0,0.0,0,0,73.0,0.0,463.0,4605.128205128206,3908.205128205129,4537.948717948719,4429.2307692307695,4245.641025641026,4501.538461538462,4446.666666666667,4452.307692307693,4353.333333333334,4736.410256410257,4377.948717948719,4438.461538461539,4212.307692307693,4423.589743589744
353.84314,0.3869573,0.5838943,0.31899285,0.8722496,0,0.0,0.0,0.0,0.0,0.28453207,0,0,0.0,0.0,0,0,105.0,0.0,493.0,4610.256410256411,3931.2820512820517,4539.48717948718,4415.8974358974365,4242.564102564103,4526.153846153847,4456.410256410257,4450.769230769231,4352.307692307693,4731.282051282052,4347.6923076923085,4424.102564102564,4223.076923076924,4425.641025641026
354.09335,0.3869573,0.5838943,0.31899285,0.8722496,0,0.0,0.0,0.0,0.0,0.0,0,0,0.0,0.0,0,0,8.0,0.0,321.0,4603.589743589744,3936.9230769230776,4535.384615384616,4422.564102564103,4233.846153846154,4518.974358974359,4460.000000000001,4451.794871794872,4358.461538461539,4748.205128205129,4372.307692307693,4449.2307692307695,4225.128205128206,4424.615384615385
354.34357,0.3526915,0.5750376,0.31825042,0.8653509,0,0.0,0.0,0.0,0.0,0.0,0,0,0.0,0.0,0,0,24.0,0.0,0.0,4617.948717948719,3937.9487179487182,4548.205128205129,4435.384615384616,4247.6923076923085,4525.128205128206,4465.641025641026,4459.48717948718,4357.948717948719,4759.48717948718,4390.769230769231,4462.564102564103,4236.410256410257,4432.820512820514
354.34357,0.3526915,0.5750376,0.31825042,0.8653509,0,0.0,0.0,0.0,0.0,0.0,0,0,0.0,0.0,0,0,40.0,0.0,0.0,4615.8974358974365,3942.564102564103,4554.871794871796,4440.000000000001,4234.871794871796,4514.871794871796,4468.205128205129,4447.6923076923085,4362.564102564103,4756.923076923077,4375.8974358974365,4445.128205128206,4242.051282051282,4428.717948717949
354.844,0.30922958,0.5548132,0.31837216,0.86079717,0,0.0,0.0,0.0,0.0,0.0,0,0,0.0,0.0,0,0,55.0,0.0,0.0,4616.410256410257,3929.2307692307695,4547.6923076923085,4440.512820512821,4249.2307692307695,4524.102564102564,4461.538461538462,4462.564102564103,4359.48717948718,4754.358974358975,4375.8974358974365,4402.564102564103,4233.846153846154,4406.153846153847
355.09424,0.30922958,0.5548132,0.31837216,0.86079717,0,0.0,0.0,0.0,0.0,0.10417737,0,0,0.0,0.0,0,0,7.0,0.0,465.0,4617.435897435898,3929.7435897435903,4535.384615384616,4469.2307692307695,4256.923076923077,4532.820512820514,4462.564102564103,4457.435897435898,4354.871794871796,4741.025641025642,4374.358974358975,4291.794871794872,4210.769230769231,4412.307692307693
355.34445,0.27341866,0.5282058,0.318483,0.8566442,0,0.0,0.0,0.0,0.0,0.15620947,0,0,0.0,0.0,0,0,37.0,0.0,0.0,4635.8974358974365,3945.6410256410263,4561.538461538462,4480.512820512821,4270.256410256411,4557.948717948719,4480.000000000001,4471.794871794872,4370.256410256411,4710.769230769231,4380.512820512821,4283.076923076924,4240.512820512821,4438.461538461539
355.46954,0.27341866,0.5282058,0.318483,0.8566442,0,0.0,0.0,0.0,0.0,0.0,0,0,0.0,0.0,0,0,55.0,0.0,0.0,4623.076923076924,3926.1538461538466,4535.384615384616,4473.846153846154,4271.794871794872,4555.8974358974365,4452.820512820514,4442.051282051282,4356.923076923077,4685.128205128206,4343.589743589744,4228.717948717949,4202.051282051282,4410.256410256411
355.84488,0.24589433,0.50824094,0.31873226,0.85285085,0,0.0,0.0,0.0,0.0,0.0,0,0,0.0,0.13624772,0,0,99.0,0.0,525.0,4632.307692307693,3913.8461538461543,4510.256410256411,4460.000000000001,4252.307692307693,4523.589743589744,4467.179487179487,4467.179487179487,4358.974358974359,4714.358974358975,4337.948717948719,4223.076923076924,4190.256410256411,4416.923076923077
356.0951,0.24589433,0.50824094,0.31873226,0.85285085,0,0.0,0.0,0.0,0.0,0.0,0,0,0.0,0.17092416,0,0,6.0,0.0,534.0,4617.948717948719,3895.3846153846157,4464.102564102564,4438.461538461539,4225.641025641026,4483.076923076924,4506.666666666667,4498.461538461539,4361.538461538462,4730.256410256411,4331.282051282052,4183.076923076924,4153.333333333334,4411.794871794872
356.3453,0.20563148,0.49415338,0.3200981,0.84777486,0,0.0,0.0,0.0,0.0,0.0,0,0,0.0,0.10567927,0,0,34.0,0.0,0.0,4642.564102564103,3898.9743589743593,4452.307692307693,4431.794871794872,4208.717948717949,4461.025641025642,4520.512820512821,4503.589743589744,4363.589743589744,4735.384615384616,4331.794871794872,4207.6923076923085,4158.461538461539,4413.333333333334
356.59552,0.20563148,0.49415338,0.3200981,0.84777486,0,0.0,0.0,0.0,0.0,0.0,0,0,0.0,0.0,0,0,70.0,0.0,534.0,4636.410256410257,3911.2820512820517,4456.923076923077,4444.102564102564,4232.820512820514,4484.102564102564,4530.256410256411,4531.282051282052,4382.051282051282,4763.589743589744,4346.666666666667,4262.564102564103,4174.871794871796,4434.871794871796
356.84573,0.21501467,0.49487734,0.31956443,0.84316313,0,0.0,0.0,0.0,0.0,0.0,0,0,0.0,0.0,0,0,82.0,0.0,525.0,4622.564102564103,3895.8974358974365,4457.435897435898,4441.025641025642,4229.2307692307695,4473.333333333334,4522.564102564103,4525.641025641026,4382.051282051282,4769.743589743591,4352.307692307693,4245.641025641026,4192.307692307693,4437.435897435898
356.84573,0.21501467,0.49487734,0.31956443,0.84316313,0,0.0,0.0,0.0,0.0,0.0,0,0,0.0,0.0,0,0,102.0,0.0,525.0,4616.923076923077,3894.8717948717954,4467.6923076923085,4444.102564102564,4222.564102564103,4465.641025641026,4515.384615384616,4525.128205128206,4378.461538461539,4768.205128205129,4356.410256410257,4221.538461538462,4205.128205128206,4435.384615384616
356.84573,0.21501467,0.49487734,0.31956443,0.84316313,0,0.0,0.0,0.0,0.0,0.0,0,0,0.0,0.0,0,0,102.0,0.0,525.0,4616.923076923077,3894.8717948717954,4467.6923076923085,4444.102564102564,4222.564102564103,4465.641025641026,4515.384615384616,4525.128205128206,4378.461538461539,4768.205128205129,4356.410256410257,4221.538461538462,4205.128205128206,4435.384615384616
357.34616,0.222836,0.48800856,0.31769383,0.83896774,0,0.0,0.0,0.0,0.0,0.0,0,0,0.0,0.0,0,0,37.0,0.0,0.0,4616.410256410257,3906.1538461538466,4491.282051282052,4444.615384615385,4207.179487179487,4458.461538461539,4480.512820512821,4486.666666666667,4363.589743589744,4728.205128205129,4312.820512820514,4160.512820512821,4193.333333333334,4384.102564102564
357.34616,0.222836,0.48800856,0.31769383,0.83896774,0,0.0,0.0,0.0,0.0,0.0,0,0,0.0,0.0,0,0,37.0,0.0,0.0,4616.410256410257,3906.1538461538466,4491.282051282052,4444.615384615385,4207.179487179487,4458.461538461539,4480.512820512821,4486.666666666667,4363.589743589744,4728.205128205129,4312.820512820514,4160.512820512821,4193.333333333334,4384.102564102564
357.8466,0.18835512,0.47800714,0.31538865,0.84378356,0,0.0,0.0,0.0,0.0,0.0,0,0,0.0,0.0,0,0,101.0,0.0,492.0,4647.179487179488,3948.717948717949,4561.025641025642,4494.871794871796,4246.153846153847,4505.641025641026,4486.666666666667,4500.000000000001,4376.410256410257,4753.333333333334,4348.717948717949,4176.410256410257,4253.846153846154,4388.717948717949
357.8466,0.18835512,0.47800714,0.31538865,0.84378356,0,0.0,0.0,0.0,0.0,0.0,0,0,0.0,0.0,0,0,101.0,0.0,492.0,4647.179487179488,3948.717948717949,4561.025641025642,4494.871794871796,4246.153846153847,4505.641025641026,4486.666666666667,4500.000000000001,4376.410256410257,4753.333333333334,4348.717948717949,4176.410256410257,4253.846153846154,4388.717948717949
358.59723,0.18500283,0.45596325,0.31331554,0.8454166,0,0.0,0.0,0.0,0.0,0.0,0,0,0.0,0.19946596,0,0,68.0,0.0,476.0,4632.307692307693,3938.9743589743593,4557.435897435898,4503.589743589744,4248.205128205129,4510.256410256411,4456.410256410257,4451.794871794872,4366.666666666667,4722.051282051282,4316.923076923077,4142.051282051282,4236.923076923077,4380.000000000001
358.72235,0.18500283,0.45596325,0.31331554,0.8454166,0,0.0,0.0,0.0,0.0,0.0,0,0,0.0,0.377203,0,0,84.0,0.0,442.0,4625.641025641026,3936.410256410257,4550.256410256411,4508.205128205129,4276.410256410257,4543.076923076924,4458.974358974359,4453.846153846154,4369.743589743591,4713.846153846154,4310.769230769231,4128.205128205129,4224.615384615385,4381.025641025642
359.09766,0.19241664,0.44065797,0.31017786,0.84332204,0,0.0,0.0,0.0,0.0,0.022408046,0,0,0.0,0.0,0,0,3.0,0.0,331.0,4616.410256410257,3910.7692307692314,4494.871794871796,4519.48717948718,4373.846153846154,4672.820512820514,4434.871794871796,4445.641025641026,4362.564102564103,4694.358974358975,4285.641025641026,4106.153846153847,4155.8974358974365,4369.2307692307695
359.22278,0.19241664,0.44065797,0.31017786,0.84332204,0,0.0,0.0,0.0,0.0,0.0,0,0,0.0,0.23015764,0,0,19.0,0.0,0.0,4621.538461538462,3882.0512820512827,4475.8974358974365,4504.102564102564,4351.794871794872,4627.6923076923085,4433.846153846154,4448.717948717949,4358.461538461539,4676.923076923077,4268.205128205129,4101.538461538462,4116.410256410257,4372.820512820514
359.59808,0.1877084,0.44228488,0.3073335,0.8415841,0,0.0,0.0,0.0,0.0,0.0,0,0,0.0,0.20128977,0,0,67.0,0.0,331.0,4616.410256410257,3869.2307692307695,4366.153846153847,4423.589743589744,4254.871794871796,4527.6923076923085,4492.820512820514,4512.307692307693,4370.256410256411,4726.666666666667,4290.769230769231,4105.128205128206,4123.076923076924,4396.410256410257
359.7232,0.1877084,0.44228488,0.3073335,0.8415841,0,0.0,0.0,0.0,0.0,0.0,0,0,0.0,0.20535277,0,0,83.0,0.0,403.0,4600.000000000001,3870.7692307692314,4345.128205128206,4408.717948717949,4254.871794871796,4514.358974358975,4491.282051282052,4511.282051282052,4367.6923076923085,4714.358974358975,4274.871794871796,4068.205128205129,4125.128205128206,4409.743589743591
360.0985,0.19725537,0.4448496,0.30607292,0.8391773,0,0.0,0.0,0.0,0.0,0.0,0,0,0.0,0.42064416,0,0,2.0,0.0,301.0,4585.128205128206,3880.512820512821,4439.48717948718,4433.333333333334,4250.256410256411,4511.282051282052,4464.102564102564,4492.307692307693,4359.48717948718,4718.461538461539,4281.025641025642,3974.358974358975,4136.923076923077,4376.923076923077
360.22363,0.19725537,0.4448496,0.30607292,0.8391773,0,0.0,0.0,0.0,0.0,0.0,0,0,0.0,0.0,0,0,18.0,0.0,0.0,4586.666666666667,3891.7948717948725,4465.641025641026,4454.871794871796,4251.282051282052,4513.846153846154,4466.666666666667,4483.589743589744,4361.538461538462,4713.846153846154,4295.384615384616,4006.666666666667,4145.128205128206,4394.358974358975
360.59897,0.16851488,0.4395323,0.3071919,0.82524925,0,0.0,0.0,0.0,0.0,0.0,0,0,0.0,0.3061317,0,0,66.0,0.0,301.0,4601.025641025642,3922.0512820512827,4511.282051282052,4475.384615384616,4264.102564102564,4532.307692307693,4464.102564102564,4485.641025641026,4365.641025641026,4703.076923076924,4283.589743589744,4042.564102564103,4185.128205128206,4383.589743589744
360.72406,0.16851488,0.4395323,0.3071919,0.82524925,0,0.0,0.0,0.0,0.0,0.0,0,0,0.0,0.16115266,0,0,82.0,0.0,525.0,4601.025641025642,3930.2564102564106,4529.743589743591,4477.948717948719,4280.512820512821,4538.461538461539,4456.410256410257,4472.820512820514,4366.666666666667,4698.461538461539,4278.974358974359,4036.9230769230776,4183.589743589744,4370.256410256411
360.97427,0.1334148,0.42627677,0.3098285,0.7974101,0,0.0,0.0,0.0,0.0,0.0,0,0,0.0,0.0,0,0,114.0,0.0,525.0,4625.128205128206,3941.0256410256416,4572.307692307693,4506.153846153847,4304.615384615385,4562.051282051282,4456.410256410257,4484.102564102564,4367.179487179487,4733.846153846154,4311.282051282052,4118.461538461539,4254.358974358975,4391.282051282052
360.97427,0.1334148,0.42627677,0.3098285,0.7974101,0,0.0,0.0,0.0,0.0,0.0,0,0,0.0,0.0,0,0,114.0,0.0,525.0,4625.128205128206,3941.0256410256416,4572.307692307693,4506.153846153847,4304.615384615385,4562.051282051282,4456.410256410257,4484.102564102564,4367.179487179487,4733.846153846154,4311.282051282052,4118.461538461539,4254.358974358975,4391.282051282052
361.59982,0.14706244,0.42514122,0.31220332,0.7724467,0,0.0,0.0,0.0,0.0,0.19265638,0,0,0.0,0.0,0,0,65.0,0.0,406.0,4616.410256410257,3920.0000000000005,4460.000000000001,4429.2307692307695,4269.74358974359,4503.589743589744,4384.102564102564,4351.794871794872,4368.205128205129,4715.384615384616,4495.8974358974365,5414.871794871796,4275.384615384616,4894.871794871796
361.7249,0.14706244,0.42514122,0.31220332,0.7724467,0,0.0,0.0,0.0,0.0,0.83866835,0,0,0.0,0.0,0,0,81.0,0.0,468.0,4618.461538461539,3926.666666666667,4457.948717948719,4431.282051282052,4262.051282051282,4497.435897435898,4375.8974358974365,4350.769230769231,4358.974358974359,4701.025641025642,4465.128205128206,5258.461538461539,4258.461538461539,4992.307692307693
361.85004,0.22049415,0.44755083,0.31434244,0.75004363,0,0.0,0.0,0.0,0.0,1.0,0,0,0.0,0.0,0,0,97.0,0.0,468.0,4629.743589743591,3942.564102564103,4458.974358974359,4440.000000000001,4291.794871794872,4523.076923076924,4373.846153846154,4346.153846153847,4361.025641025642,4703.589743589744,4441.538461538462,5158.974358974359,4254.358974358975,5433.846153846154
361.85004,0.22049415,0.44755083,0.31434244,0.75004363,0,0.0,0.0,0.0,0.0,1.0,0,0,0.0,0.0,0,0,97.0,0.0,468.0,4629.743589743591,3942.564102564103,4458.974358974359,4440.000000000001,4291.794871794872,4523.076923076924,4373.846153846154,4346.153846153847,4361.025641025642,4703.589743589744,4441.538461538462,5158.974358974359,4254.358974358975,5433.846153846154
362.60068,0.30326742,0.43589544,0.3162692,0.7360346,0,0.0,0.0,0.0,0.0,0.23290968,0,0,0.0,0.0,0,0,62.0,0.0,0.0,4613.333333333334,3932.307692307693,4495.384615384616,4462.051282051282,4293.846153846154,4558.974358974359,4398.461538461539,4377.948717948719,4361.025641025642,4722.564102564103,4385.128205128206,4558.974358974359,4318.461538461539,5812.820512820514
362.72577,0.30326742,0.43589544,0.3162692,0.7360346,0,0.0,0.0,0.0,0.0,0.29403257,0,0,0.0,0.0,0,0,80.0,0.0,439.0,4640.512820512821,3943.589743589744,4513.846153846154,4459.48717948718,4276.410256410257,4543.589743589744,4386.666666666667,4364.615384615385,4358.461538461539,4706.153846153847,4332.307692307693,4414.871794871796,4296.410256410257,5686.666666666667
363.1011,0.3114562,0.4316288,0.3180047,0.7284528,0,0.0,0.0,0.0,0.0,0.8384537,0,0,0.0,0.0,0,0,128.0,0.0,439.0,4627.6923076923085,3931.2820512820517,4494.871794871796,4422.051282051282,4276.410256410257,4534.358974358975,4381.025641025642,4372.307692307693,4348.717948717949,4700.512820512821,4231.794871794872,4147.179487179487,4229.74358974359,5502.564102564103
363.22623,0.3114562,0.4316288,0.3180047,0.7284528,0,0.0,0.0,0.0,0.0,0.6950755,0,0,0.0,0.0,0,0,15.0,0.0,373.0,4628.205128205129,3924.1025641025644,4486.666666666667,4408.205128205129,4267.179487179487,4515.8974358974365,4386.666666666667,4377.435897435898,4352.307692307693,4726.153846153847,4270.769230769231,4162.564102564103,4265.128205128206,5460.000000000001
363.47644,0.36109382,0.40848634,0.3211852,0.7227551,0,0.0,0.0,0.0,0.0,1.0,0,0,0.0,0.0,0,0,47.0,0.0,0.0,4641.025641025642,3920.0000000000005,4477.435897435898,4377.948717948719,4225.128205128206,4495.384615384616,4403.076923076924,4400.000000000001,4354.871794871796,4750.769230769231,4269.2307692307695,4145.128205128206,4248.717948717949,5233.846153846154
363.72665,0.36109382,0.40848634,0.3211852,0.7227551,0,0.0,0.0,0.0,0.0,0.75288254,0,0,0.0,0.0,0,0,79.0,0.0,377.0,4633.846153846154,3894.8717948717954,4445.128205128206,4363.076923076924,4197.948717948719,4460.512820512821,4411.282051282052,4406.153846153847,4353.333333333334,4735.8974358974365,4269.74358974359,4021.538461538462,4220.512820512821,5081.538461538462
364.10196,0.35833743,0.39086145,0.3251823,0.72168565,0,0.0,0.0,0.0,0.0,0.43296385,0,0,0.0,0.0,0,0,127.0,0.0,377.0,4625.641025641026,3898.9743589743593,4436.410256410257,4362.051282051282,4177.948717948719,4441.025641025642,4432.307692307693,4425.128205128206,4354.871794871796,4735.8974358974365,4269.2307692307695,4007.1794871794878,4218.461538461539,4969.743589743591
364.22708,0.35833743,0.39086145,0.3251823,0.72168565,0,0.0,0.0,0.0,0.0,0.0,0,0,0.0,0.17966974,0,0,14.0,0.0,521.0,4632.820512820514,3908.205128205129,4452.820512820514,4371.794871794872,4184.615384615385,4445.128205128206,4428.717948717949,4428.717948717949,4360.512820512821,4748.205128205129,4292.820512820514,3996.9230769230776,4249.74358974359,4926.666666666667
364.6024,0.34203073,0.3889639,0.32878032,0.7207041,0,0.0,0.0,0.0,0.0,1.0,0,0,0.0,0.0,0,0,62.0,0.0,0.0,4641.025641025642,3913.8461538461543,4496.923076923077,4400.512820512821,4197.948717948719,4451.282051282052,4428.205128205129,4428.205128205129,4354.358974358975,4711.794871794872,4240.000000000001,3954.8717948717954,4190.769230769231,4517.435897435898
364.6024,0.34203073,0.3889639,0.32878032,0.7207041,0,0.0,0.0,0.0,0.0,1.0,0,0,0.0,0.0,0,0,62.0,0.0,0.0,4641.025641025642,3913.8461538461543,4496.923076923077,4400.512820512821,4197.948717948719,4451.282051282052,4428.205128205129,4428.205128205129,4354.358974358975,4711.794871794872,4240.000000000001,3954.8717948717954,4190.769230769231,4517.435897435898
364.8526,0.36661142,0.37871093,0.33201897,0.71980166,0,0.0,0.0,0.0,0.0,1.0,0,0,0.0,0.0,0,0,94.0,0.0,522.0,4634.358974358975,3925.1282051282055,4531.282051282052,4429.743589743591,4299.48717948718,4493.333333333334,4417.948717948719,4424.102564102564,4357.948717948719,4714.358974358975,4256.410256410257,4013.8461538461543,4211.282051282052,4473.333333333334
365.22794,0.36661142,0.37871093,0.33201897,0.71980166,0,0.0,0.0,0.0,0.0,0.0,0,0,0.0,1.0,0,0,13.0,0.0,489.0,4632.307692307693,3932.820512820513,4576.410256410257,4456.410256410257,4260.000000000001,4489.2307692307695,4422.564102564103,4427.6923076923085,4355.384615384616,4720.512820512821,4266.153846153847,3956.9230769230776,4216.923076923077,4426.153846153847
365.60324,0.36869857,0.37754348,0.33072942,0.73051786,0,0.0,0.0,0.0,0.0,0.0,0,0,0.0,0.79899824,0,0,61.0,0.0,0.0,4631.282051282052,3931.2820512820517,4569.2307692307695,4460.512820512821,4265.128205128206,4515.8974358974365,4433.333333333334,4442.051282051282,4369.2307692307695,4735.8974358974365,4280.000000000001,3991.7948717948725,4223.589743589744,4474.871794871796
365.72836,0.36869857,0.37754348,0.33072942,0.73051786,0,0.0,0.0,0.0,0.0,0.0,0,0,0.0,0.6548159,0,0,77.0,0.0,489.0,4637.435897435898,3931.2820512820517,4564.615384615385,4454.358974358975,4246.153846153847,4507.179487179488,4440.512820512821,4447.179487179487,4371.794871794872,4742.051282051282,4289.74358974359,3975.3846153846157,4243.589743589744,4489.743589743591
366.1037,0.41422746,0.37663636,0.32519978,0.75196105,0,0.0,0.0,0.0,0.0,0.0,0,0,0.0,0.088714115,0,0,125.0,0.0,489.0,4629.743589743591,3928.205128205129,4545.641025641026,4436.410256410257,4262.564102564103,4508.717948717949,4464.615384615385,4467.6923076923085,4374.871794871796,4738.974358974359,4262.564102564103,3912.820512820513,4213.333333333334,4411.794871794872
366.2288,0.41422746,0.37663636,0.32519978,0.75196105,0,0.0,0.0,0.0,0.0,0.0,0,0,0.0,0.08094353,0,0,12.0,0.0,440.0,4632.307692307693,3930.2564102564106,4537.948717948719,4429.2307692307695,4265.128205128206,4515.384615384616,4477.435897435898,4487.179487179488,4379.48717948718,4746.666666666667,4281.538461538462,3972.820512820513,4204.102564102564,4400.512820512821
366.60413,0.39633074,0.36779836,0.32022375,0.7711443,0,0.0,0.0,0.0,0.0,0.0,0,0,0.0,0.03588861,0,0,60.0,0.0,0.0,4624.102564102564,3920.0000000000005,4500.000000000001,4407.6923076923085,4238.461538461539,4483.076923076924,4465.641025641026,4478.461538461539,4371.282051282052,4720.000000000001,4267.179487179487,3963.076923076924,4144.615384615385,4166.153846153847
366.72922,0.39633074,0.36779836,0.32022375,0.7711443,0,0.0,0.0,0.0,0.0,0.97900105,0,0,0.0,0.0,0,0,76.0,0.0,440.0,4616.923076923077,3907.692307692308,4473.846153846154,4387.179487179487,4214.871794871796,4454.358974358975,4472.307692307693,4486.666666666667,4363.589743589744,4715.8974358974365,4281.538461538462,3954.8717948717954,4137.435897435898,4164.615384615385
367.10455,0.4831081,0.3479855,0.31574643,0.7888995,0,0.0,0.0,0.0,0.0,0.0,0,0,0.0,0.0018977146,0,0,122.0,0.0,522.0,4585.128205128206,3877.9487179487182,4357.435897435898,4341.025641025642,4165.641025641026,4408.717948717949,4502.051282051282,4487.179487179488,4362.051282051282,4686.666666666667,4244.102564102564,3874.358974358975,4047.1794871794878,4177.435897435898
367.22964,0.4831081,0.3479855,0.31574643,0.7888995,0,0.0,0.0,0.0,0.0,0.05213409,0,0,0.0,0.0,0,0,11.0,0.0,407.0,4586.153846153847,3891.2820512820517,4367.179487179487,4361.025641025642,4174.358974358975,4422.564102564103,4512.820512820514,4503.076923076924,4365.128205128206,4696.923076923077,4265.641025641026,3850.7692307692314,4060.5128205128212,4181.538461538462
367.60498,0.5052786,0.32592103,0.3118969,0.80473673,0,0.0,0.0,0.0,0.0,0.15304986,0,0,0.0,0.0,0,0,52.0,0.0,0.0,4554.871794871796,3895.3846153846157,4432.307692307693,4401.538461538462,4203.589743589744,4450.256410256411,4507.6923076923085,4510.769230769231,4369.743589743591,4691.282051282052,4235.8974358974365,3709.7435897435903,4076.9230769230776,4183.589743589744
367.73007,0.5052786,0.32592103,0.3118969,0.80473673,0,0.0,0.0,0.0,0.0,0.0,0,0,0.0,0.0,0,0,75.0,0.0,408.0,4570.256410256411,3917.9487179487182,4497.948717948719,4442.051282051282,4217.948717948719,4469.2307692307695,4489.2307692307695,4488.717948717949,4368.205128205129,4698.461538461539,4243.076923076924,3725.1282051282055,4090.7692307692314,4215.384615384616
367.8552,0.525973,0.31312865,0.30770075,0.8142776,0,0.0,0.0,0.0,0.0,0.0,0,0,0.0,0.0,0,0,91.0,0.0,408.0,4583.589743589744,3924.615384615385,4527.6923076923085,4460.512820512821,4185.128205128206,4488.205128205129,4480.000000000001,4473.333333333334,4367.179487179487,4679.48717948718,4243.589743589744,3744.1025641025644,4067.692307692308,4213.333333333334
367.8552,0.525973,0.31312865,0.30770075,0.8142776,0,0.0,0.0,0.0,0.0,0.0,0,0,0.0,0.0,0,0,91.0,0.0,408.0,4583.589743589744,3924.615384615385,4527.6923076923085,4460.512820512821,4185.128205128206,4488.205128205129,4480.000000000001,4473.333333333334,4367.179487179487,4679.48717948718,4243.589743589744,3744.1025641025644,4067.692307692308,4213.333333333334
368.35562,0.5162544,0.32079065,0.3055513,0.8207761,0,0.0,0.0,0.0,0.0,0.0,0,0,0.0,0.0,0,0,26.0,0.0,0.0,4564.615384615385,3924.1025641025644,4510.769230769231,4470.769230769231,4193.333333333334,4473.846153846154,4475.384615384616,4475.384615384616,4366.153846153847,4705.641025641026,4284.615384615385,3867.1794871794878,4108.717948717949,4274.358974358975
368.73096,0.5162544,0.32079065,0.3055513,0.8207761,0,0.0,0.0,0.0,0.0,0.0,0,0,0.0,0.0,0,0,74.0,0.0,524.0,4584.615384615385,3928.717948717949,4470.256410256411,4456.410256410257,4223.589743589744,4505.128205128206,4530.256410256411,4547.6923076923085,4380.000000000001,4728.717948717949,4328.717948717949,3805.1282051282055,4115.8974358974365,4292.820512820514
368.98117,0.51043046,0.34872845,0.3040791,0.8241297,0,0.0,0.0,0.0,0.0,0.0,0,0,0.0,0.0,0,0,106.0,0.0,524.0,4570.256410256411,3941.0256410256416,4542.564102564103,4512.307692307693,4311.794871794872,4581.538461538462,4548.205128205129,4557.435897435898,4380.512820512821,4733.846153846154,4311.794871794872,3902.0512820512827,4105.128205128206,4294.871794871796
369.23138,0.51043046,0.34872845,0.3040791,0.8241297,0,0.0,0.0,0.0,0.0,0.0,0,0,0.0,0.31714594,0,0,9.0,0.0,463.0,4556.410256410257,3931.7948717948725,4580.512820512821,4536.923076923077,4323.589743589744,4584.615384615385,4518.461538461539,4532.820512820514,4370.769230769231,4698.461538461539,4298.974358974359,3900.5128205128212,4081.538461538462,4289.74358974359
369.4816,0.4952099,0.37595215,0.3027565,0.8270591,0,0.0,0.0,0.0,0.0,0.0,0,0,0.0,0.08409562,0,0,41.0,0.0,0.0,4551.794871794872,3930.2564102564106,4585.641025641026,4526.153846153847,4301.025641025642,4555.8974358974365,4477.948717948719,4509.2307692307695,4364.102564102564,4681.025641025642,4286.666666666667,3930.2564102564106,4085.1282051282055,4271.794871794872
369.7318,0.4952099,0.37595215,0.3027565,0.8270591,0,0.0,0.0,0.0,0.0,0.0,0,0,0.0,0.02621677,0,0,73.0,0.0,463.0,4523.589743589744,3913.333333333334,4586.666666666667,4520.000000000001,4282.051282051282,4534.871794871796,4443.076923076924,4464.615384615385,4363.076923076924,4662.051282051282,4276.410256410257,4001.0256410256416,4089.7435897435903,4293.846153846154
369.98203,0.4807045,0.38261575,0.3015687,0.8282291,0,0.0,0.0,0.0,0.0,0.032139532,0,0,0.0,0.0,0,0,105.0,0.0,489.0,4523.076923076924,3931.2820512820517,4633.846153846154,4527.179487179488,4312.307692307693,4555.8974358974365,4444.615384615385,4470.769230769231,4375.8974358974365,4690.769230769231,4310.256410256411,4053.333333333334,4138.974358974359,4313.846153846154
370.23224,0.4807045,0.38261575,0.3015687,0.8282291,0,0.0,0.0,0.0,0.0,0.0,0,0,0.0,0.016137391,0,0,8.0,0.0,321.0,4537.435897435898,3937.9487179487182,4665.128205128206,4546.666666666667,4321.025641025642,4557.435897435898,4440.512820512821,4471.282051282052,4383.589743589744,4727.6923076923085,4381.538461538462,4126.666666666667,4205.641025641026,4362.051282051282
370.48245,0.4566141,0.37509307,0.3022039,0.8305819,0,0.0,0.0,0.0,0.0,0.0,0,0,0.0,0.0490121,0,0,40.0,0.0,0.0,4536.410256410257,3928.717948717949,4640.000000000001,4524.615384615385,4291.282051282052,4542.564102564103,4413.333333333334,4425.641025641026,4370.256410256411,4702.051282051282,4326.153846153847,4167.179487179487,4187.179487179487,4376.923076923077
370.73267,0.4566141,0.37509307,0.3022039,0.8305819,0,0.0,0.0,0.0,0.0,0.0,0,0,0.0,0.090991095,0,0,72.0,0.0,321.0,4553.846153846154,3940.0000000000005,4660.000000000001,4534.871794871796,4289.74358974359,4535.8974358974365,4415.384615384616,4422.564102564103,4376.923076923077,4718.974358974359,4346.153846153847,4154.871794871796,4201.025641025642,4405.128205128206
370.85776,0.4258984,0.36289737,0.3027781,0.83500236,0,0.0,0.0,0.0,0.0,0.0,0,0,0.0,0.0,0,0,88.0,0.0,444.0,4569.743589743591,3940.5128205128212,4663.589743589744,4527.179487179488,4280.000000000001,4530.256410256411,4413.846153846154,4411.282051282052,4372.307692307693,4708.205128205129,4337.948717948719,4147.179487179487,4201.538461538462,4428.717948717949
370.85776,0.4258984,0.36289737,0.3027781,0.83500236,0,0.0,0.0,0.0,0.0,0.0,0,0,0.0,0.0,0,0,88.0,0.0,444.0,4569.743589743591,3940.5128205128212,4663.589743589744,4527.179487179488,4280.000000000001,4530.256410256411,4413.846153846154,4411.282051282052,4372.307692307693,4708.205128205129,4337.948717948719,4147.179487179487,4201.538461538462,4428.717948717949
371.35822,0.41607788,0.35630602,0.30329734,0.8453466,0,0.0,0.0,0.0,0.0,0.0,0,0,0.0,0.0,0,0,23.0,0.0,0.0,4584.615384615385,3927.1794871794878,4609.2307692307695,4505.128205128206,4272.307692307693,4518.974358974359,4411.794871794872,4400.512820512821,4365.128205128206,4685.641025641026,4311.282051282052,4139.48717948718,4162.051282051282,4438.974358974359
371.35822,0.41607788,0.35630602,0.30329734,0.8453466,0,0.0,0.0,0.0,0.0,0.0,0,0,0.0,0.0,0,0,23.0,0.0,0.0,4584.615384615385,3927.1794871794878,4609.2307692307695,4505.128205128206,4272.307692307693,4518.974358974359,4411.794871794872,4400.512820512821,4365.128205128206,4685.641025641026,4311.282051282052,4139.48717948718,4162.051282051282,4438.974358974359
371.85864,0.43485248,0.34765872,0.30344164,0.8552535,0,0.0,0.0,0.0,0.0,0.0,0,0,0.0,0.0,0,0,87.0,0.0,409.0,4571.282051282052,3894.358974358975,4524.102564102564,4434.871794871796,4220.512820512821,4475.8974358974365,4394.871794871796,4377.948717948719,4345.128205128206,4643.076923076924,4262.051282051282,4087.692307692308,4100.000000000001,4421.025641025642
372.23395,0.43485248,0.34765872,0.30344164,0.8552535,0,0.0,0.0,0.0,0.0,0.0,0,0,0.0,0.0,0,0,6.0,0.0,535.0,4557.435897435898,3874.8717948717954,4471.282051282052,4393.333333333334,4197.435897435898,4456.410256410257,4382.051282051282,4375.384615384616,4343.076923076924,4638.461538461539,4268.205128205129,4123.076923076924,4100.000000000001,4400.000000000001
372.35907,0.44858196,0.33265656,0.30100736,0.8639987,0,0.0,0.0,0.0,0.0,0.0,0,0,0.0,0.0,0,0,22.0,0.0,0.0,4553.333333333334,3873.8461538461543,4465.641025641026,4385.641025641026,4205.128205128206,4457.435897435898,4385.128205128206,4371.282051282052,4342.051282051282,4649.743589743591,4269.74358974359,4140.512820512821,4115.384615384616,4414.871794871796
372.35907,0.44858196,0.33265656,0.30100736,0.8639987,0,0.0,0.0,0.0,0.0,0.0,0,0,0.0,0.0,0,0,22.0,0.0,0.0,4553.333333333334,3873.8461538461543,4465.641025641026,4385.641025641026,4205.128205128206,4457.435897435898,4385.128205128206,4371.282051282052,4342.051282051282,4649.743589743591,4269.74358974359,4140.512820512821,4115.384615384616,4414.871794871796
372.8595,0.46242693,0.33718362,0.29758418,0.87169737,0,0.0,0.0,0.0,0.0,0.0,0,0,0.0,0.0,0,0,86.0,0.0,524.0,4569.743589743591,3881.538461538462,4496.923076923077,4406.153846153847,4214.358974358975,4463.589743589744,4387.179487179487,4377.948717948719,4347.179487179487,4650.769230769231,4268.717948717949,4186.153846153847,4088.717948717949,4413.846153846154
372.8595,0.46242693,0.33718362,0.29758418,0.87169737,0,0.0,0.0,0.0,0.0,0.0,0,0,0.0,0.0,0,0,86.0,0.0,524.0,4569.743589743591,3881.538461538462,4496.923076923077,4406.153846153847,4214.358974358975,4463.589743589744,4387.179487179487,4377.948717948719,4347.179487179487,4650.769230769231,4268.717948717949,4186.153846153847,4088.717948717949,4413.846153846154
373.35992,0.44918427,0.33897772,0.2945063,0.8778344,0,0.0,0.0,0.0,0.0,0.0,0,0,0.0,0.0,0,0,21.0,0.0,0.0,4598.461538461539,3894.8717948717954,4504.615384615385,4397.948717948719,4237.435897435898,4470.769230769231,4396.410256410257,4376.923076923077,4344.615384615385,4655.8974358974365,4262.564102564103,4105.128205128206,4095.3846153846157,4389.2307692307695
373.35992,0.44918427,0.33897772,0.2945063,0.8778344,0,0.0,0.0,0.0,0.0,0.0,0,0,0.0,0.0,0,0,21.0,0.0,0.0,4598.461538461539,3894.8717948717954,4504.615384615385,4397.948717948719,4237.435897435898,4470.769230769231,4396.410256410257,4376.923076923077,4344.615384615385,4655.8974358974365,4262.564102564103,4105.128205128206,4095.3846153846157,4389.2307692307695
373.86035,0.38742456,0.34929076,0.2917395,0.880897,0,0.0,0.0,0.0,0.0,0.0,0,0,0.0,0.0,0,0,85.0,0.0,490.0,4581.538461538462,3893.333333333334,4493.846153846154,4382.051282051282,4234.358974358975,4462.564102564103,4395.384615384616,4377.435897435898,4342.564102564103,4660.000000000001,4251.282051282052,4145.641025641026,4114.871794871796,4407.179487179487
373.86035,0.38742456,0.34929076,0.2917395,0.880897,0,0.0,0.0,0.0,0.0,0.0,0,0,0.0,0.0,0,0,85.0,0.0,490.0,4581.538461538462,3893.333333333334,4493.846153846154,4382.051282051282,4234.358974358975,4462.564102564103,4395.384615384616,4377.435897435898,4342.564102564103,4660.000000000001,4251.282051282052,4145.641025641026,4114.871794871796,4407.179487179487
374.36078,0.34496677,0.36987764,0.29061723,0.87915176,0,0.0,0.0,0.0,0.0,0.0,0,0,0.0,0.0,0,0,20.0,0.0,0.0,4573.333333333334,3896.9230769230776,4490.256410256411,4349.2307692307695,4240.512820512821,4463.076923076924,4393.333333333334,4366.666666666667,4335.8974358974365,4661.025641025642,4234.871794871796,4059.48717948718,4148.205128205129,4388.205128205129
374.36078,0.34496677,0.36987764,0.29061723,0.87915176,0,0.0,0.0,0.0,0.0,0.0,0,0,0.0,0.0,0,0,20.0,0.0,0.0,4573.333333333334,3896.9230769230776,4490.256410256411,4349.2307692307695,4240.512820512821,4463.076923076924,4393.333333333334,4366.666666666667,4335.8974358974365,4661.025641025642,4234.871794871796,4059.48717948718,4148.205128205129,4388.205128205129
374.8612,0.32002655,0.37315208,0.2918674,0.87409157,0,0.0,0.0,0.0,0.0,0.0,0,0,0.0,0.0,0,0,84.0,0.0,444.0,4567.6923076923085,3892.307692307693,4483.589743589744,4347.179487179487,4257.435897435898,4475.384615384616,4409.743589743591,4387.6923076923085,4345.641025641026,4691.794871794872,4283.076923076924,4175.8974358974365,4171.794871794872,4423.589743589744
374.8612,0.32002655,0.37315208,0.2918674,0.87409157,0,0.0,0.0,0.0,0.0,0.0,0,0,0.0,0.0,0,0,84.0,0.0,444.0,4567.6923076923085,3892.307692307693,4483.589743589744,4347.179487179487,4257.435897435898,4475.384615384616,4409.743589743591,4387.6923076923085,4345.641025641026,4691.794871794872,4283.076923076924,4175.8974358974365,4171.794871794872,4423.589743589744
375.36163,0.3243697,0.37363195,0.2937038,0.87148386,0,0.0,0.0,0.0,0.0,0.0,0,0,0.0,0.0,0,0,19.0,0.0,0.0,4583.076923076924,3898.9743589743593,4494.358974358975,4385.128205128206,4312.820512820514,4548.717948717949,4417.435897435898,4397.948717948719,4341.025641025642,4684.102564102564,4334.358974358975,4179.48717948718,4155.8974358974365,4441.538461538462
375.36163,0.3243697,0.37363195,0.2937038,0.87148386,0,0.0,0.0,0.0,0.0,0.0,0,0,0.0,0.0,0,0,19.0,0.0,0.0,4583.076923076924,3898.9743589743593,4494.358974358975,4385.128205128206,4312.820512820514,4548.717948717949,4417.435897435898,4397.948717948719,4341.025641025642,4684.102564102564,4334.358974358975,4179.48717948718,4155.8974358974365,4441.538461538462
375.86206,0.32268512,0.37330142,0.29535967,0.8724486,0,0.0,0.0,0.0,0.0,0.0,0,0,0.0,0.0,0,0,83.0,0.0,409.0,4600.512820512821,3891.7948717948725,4492.820512820514,4390.256410256411,4296.410256410257,4526.666666666667,4435.8974358974365,4411.794871794872,4339.48717948718,4678.974358974359,4278.461538461539,4091.7948717948725,4131.794871794872,4429.743589743591
375.86206,0.32268512,0.37330142,0.29535967,0.8724486,0,0.0,0.0,0.0,0.0,0.0,0,0,0.0,0.0,0,0,83.0,0.0,409.0,4600.512820512821,3891.7948717948725,4492.820512820514,4390.256410256411,4296.410256410257,4526.666666666667,4435.8974358974365,4411.794871794872,4339.48717948718,4678.974358974359,4278.461538461539,4091.7948717948725,4131.794871794872,4429.743589743591
376.3625,0.28041726,0.37828007,0.29685295,0.86982775,0,0.0,0.0,0.0,0.0,0.0,0,0,0.0,0.0,0,0,18.0,0.0,0.0,4553.333333333334,3823.076923076924,4296.410256410257,4296.923076923077,4204.615384615385,4424.102564102564,4482.564102564103,4468.205128205129,4336.923076923077,4680.512820512821,4273.333333333334,4128.717948717949,4053.8461538461543,4429.2307692307695
376.3625,0.28041726,0.37828007,0.29685295,0.86982775,0,0.0,0.0,0.0,0.0,0.0,0,0,0.0,0.0,0,0,18.0,0.0,0.0,4553.333333333334,3823.076923076924,4296.410256410257,4296.923076923077,4204.615384615385,4424.102564102564,4482.564102564103,4468.205128205129,4336.923076923077,4680.512820512821,4273.333333333334,4128.717948717949,4053.8461538461543,4429.2307692307695
376.86295,0.26519024,0.40665776,0.29606304,0.8653108,0,0.0,0.0,0.0,0.0,0.0,0,0,0.0,0.0,0,0,82.0,0.0,524.0,4569.743589743591,3845.6410256410263,4309.2307692307695,4279.48717948718,4155.384615384616,4387.179487179487,4506.153846153847,4512.307692307693,4336.410256410257,4695.384615384616,4281.025641025642,4072.820512820513,4111.282051282052,4430.256410256411
376.86295,0.26519024,0.40665776,0.29606304,0.8653108,0,0.0,0.0,0.0,0.0,0.0,0,0,0.0,0.0,0,0,82.0,0.0,524.0,4569.743589743591,3845.6410256410263,4309.2307692307695,4279.48717948718,4155.384615384616,4387.179487179487,4506.153846153847,4512.307692307693,4336.410256410257,4695.384615384616,4281.025641025642,4072.820512820513,4111.282051282052,4430.256410256411
377.36337,0.26560616,0.41655543,0.29511824,0.86119074,0,0.0,0.0,0.0,0.0,0.0,0,0,0.0,0.0,0,0,17.0,0.0,0.0,4555.8974358974365,3875.8974358974365,4434.358974358975,4341.025641025642,4214.871794871796,4448.717948717949,4476.923076923077,4492.820512820514,4336.923076923077,4697.435897435898,4335.8974358974365,4084.615384615385,4146.666666666667,4434.871794871796
377.36337,0.26560616,0.41655543,0.29511824,0.86119074,0,0.0,0.0,0.0,0.0,0.0,0,0,0.0,0.0,0,0,17.0,0.0,0.0,4555.8974358974365,3875.8974358974365,4434.358974358975,4341.025641025642,4214.871794871796,4448.717948717949,4476.923076923077,4492.820512820514,4336.923076923077,4697.435897435898,4335.8974358974365,4084.615384615385,4146.666666666667,4434.871794871796
377.8638,0.27174464,0.39686346,0.29246143,0.8554893,0,0.0,0.0,0.0,0.0,0.0,0,0,0.0,0.0,0,0,81.0,0.0,491.0,4568.205128205129,3902.564102564103,4560.000000000001,4413.846153846154,4278.974358974359,4527.179487179488,4449.2307692307695,4454.871794871796,4349.743589743591,4722.564102564103,4333.333333333334,4136.410256410257,4187.6923076923085,4476.410256410257
377.8638,0.27174464,0.39686346,0.29246143,0.8554893,0,0.0,0.0,0.0,0.0,0.0,0,0,0.0,0.0,0,0,81.0,0.0,491.0,4568.205128205129,3902.564102564103,4560.000000000001,4413.846153846154,4278.974358974359,4527.179487179488,4449.2307692307695,4454.871794871796,4349.743589743591,4722.564102564103,4333.333333333334,4136.410256410257,4187.6923076923085,4476.410256410257
378.36423,0.28812113,0.37539223,0.28990868,0.8503181,0,0.0,0.0,0.0,0.0,0.0,0,0,0.0,0.0,0,0,16.0,0.0,0.0,4587.6923076923085,3934.8717948717954,4618.461538461539,4475.8974358974365,4327.179487179487,4587.179487179488,4450.256410256411,4460.512820512821,4364.615384615385,4754.358974358975,4354.871794871796,4168.205128205129,4240.512820512821,4476.923076923077
378.36423,0.28812113,0.37539223,0.28990868,0.8503181,0,0.0,0.0,0.0,0.0,0.0,0,0,0.0,0.0,0,0,16.0,0.0,0.0,4587.6923076923085,3934.8717948717954,4618.461538461539,4475.8974358974365,4327.179487179487,4587.179487179488,4450.256410256411,4460.512820512821,4364.615384615385,4754.358974358975,4354.871794871796,4168.205128205129,4240.512820512821,4476.923076923077
378.86465,0.33181173,0.35540086,0.2877799,0.8429913,0,0.0,0.0,0.0,0.0,0.0,0,0,0.0,0.0,0,0,80.0,0.0,444.0,4599.48717948718,3933.8461538461543,4588.205128205129,4469.743589743591,4324.615384615385,4585.641025641026,4426.666666666667,4438.461538461539,4360.000000000001,4746.666666666667,4348.717948717949,4204.102564102564,4227.6923076923085,4490.256410256411
378.86465,0.33181173,0.35540086,0.2877799,0.8429913,0,0.0,0.0,0.0,0.0,0.0,0,0,0.0,0.0,0,0,80.0,0.0,444.0,4599.48717948718,3933.8461538461543,4588.205128205129,4469.743589743591,4324.615384615385,4585.641025641026,4426.666666666667,4438.461538461539,4360.000000000001,4746.666666666667,4348.717948717949,4204.102564102564,4227.6923076923085,4490.256410256411
379.36508,0.32237098,0.35962722,0.28622153,0.8390021,0,0.0,0.0,0.0,0.0,0.0,0,0,0.0,0.0,0,0,15.0,0.0,407.0,4619.48717948718,3946.1538461538466,4598.461538461539,4489.2307692307695,4309.2307692307695,4567.6923076923085,4434.871794871796,4442.564102564103,4360.000000000001,4760.512820512821,4339.48717948718,4213.333333333334,4270.256410256411,4479.48717948718
379.36508,0.32237098,0.35962722,0.28622153,0.8390021,0,0.0,0.0,0.0,0.0,0.0,0,0,0.0,0.0,0,0,15.0,0.0,407.0,4619.48717948718,3946.1538461538466,4598.461538461539,4489.2307692307695,4309.2307692307695,4567.6923076923085,4434.871794871796,4442.564102564103,4360.000000000001,4760.512820512821,4339.48717948718,4213.333333333334,4270.256410256411,4479.48717948718
379.8577,0.32468125,0.3714018,0.28557813,0.83530235,0,0.0,0.0,0.0,0.0,0.0,0,0,0.0,0.0,0,0,79.0,0.0,407.0,4616.923076923077,3938.461538461539,4552.820512820514,4473.333333333334,4287.6923076923085,4546.153846153847,4433.333333333334,4436.923076923077,4358.974358974359,4749.2307692307695,4351.282051282052,4232.820512820514,4256.410256410257,4456.410256410257
379.8577,0.32468125,0.3714018,0.28557813,0.83530235,0,0.0,0.0,0.0,0.0,0.0,0,0,0.0,0.0,0,0,79.0,0.0,407.0,4616.923076923077,3938.461538461539,4552.820512820514,4473.333333333334,4287.6923076923085,4546.153846153847,4433.333333333334,4436.923076923077,4358.974358974359,4749.2307692307695,4351.282051282052,4232.820512820514,4256.410256410257,4456.410256410257
380.48322,0.3273015,0.3834362,0.2841033,0.83107424,0,0.0,0.0,0.0,0.0,0.0,0,0,0.0,0.46539614,0,0,30.0,0.0,0.0,4616.410256410257,3927.1794871794878,4530.769230769231,4458.974358974359,4278.974358974359,4525.128205128206,4426.666666666667,4440.000000000001,4361.538461538462,4761.538461538462,4398.974358974359,4272.820512820514,4213.846153846154,4472.307692307693
380.73346,0.3273015,0.3834362,0.2841033,0.83107424,0,0.0,0.0,0.0,0.0,0.0,0,0,0.0,0.46991575,0,0,62.0,0.0,0.0,4616.923076923077,3930.2564102564106,4525.641025641026,4461.025641025642,4282.564102564103,4523.076923076924,4432.820512820514,4445.128205128206,4362.564102564103,4748.205128205129,4385.128205128206,4318.461538461539,4165.641025641026,4462.564102564103
380.98367,0.31342492,0.37154388,0.28230318,0.82985693,0,0.0,0.0,0.0,0.0,0.0,0,0,0.0,0.18521874,0,0,94.0,0.0,524.0,4600.000000000001,3924.615384615385,4514.358974358975,4453.333333333334,4266.666666666667,4515.384615384616,4426.666666666667,4433.846153846154,4354.871794871796,4728.717948717949,4353.846153846154,4259.48717948718,4115.8974358974365,4435.384615384616
381.10876,0.31342492,0.37154388,0.28230318,0.82985693,0,0.0,0.0,0.0,0.0,0.0,0,0,0.0,0.0,0,0,110.0,0.0,524.0,4610.256410256411,3922.0512820512827,4523.076923076924,4462.564102564103,4273.333333333334,4526.666666666667,4433.846153846154,4443.076923076924,4361.538461538462,4750.769230769231,4350.256410256411,4257.435897435898,4146.153846153847,4444.615384615385
381.35898,0.30023822,0.36149672,0.28076994,0.8287018,0,0.0,0.0,0.0,0.0,0.0,0,0,0.0,0.0,0,0,13.0,0.0,491.0,4606.666666666667,3922.564102564103,4505.128205128206,4460.000000000001,4275.384615384616,4523.589743589744,4441.025641025642,4435.8974358974365,4361.538461538462,4754.358974358975,4409.743589743591,4309.2307692307695,4140.512820512821,4462.051282051282
381.35898,0.30023822,0.36149672,0.28076994,0.8287018,0,0.0,0.0,0.0,0.0,0.0,0,0,0.0,0.0,0,0,13.0,0.0,491.0,4606.666666666667,3922.564102564103,4505.128205128206,4460.000000000001,4275.384615384616,4523.589743589744,4441.025641025642,4435.8974358974365,4361.538461538462,4754.358974358975,4409.743589743591,4309.2307692307695,4140.512820512821,4462.051282051282
381.8594,0.2586756,0.34247497,0.27924624,0.82760286,0,0.0,0.0,0.0,0.0,0.0,0,0,0.0,0.0,0,0,77.0,0.0,491.0,4599.48717948718,3927.692307692308,4513.333333333334,4470.256410256411,4293.846153846154,4542.564102564103,4446.153846153847,4424.615384615385,4364.615384615385,4758.974358974359,4390.769230769231,4235.384615384616,4161.025641025642,4444.615384615385
382.23474,0.2586756,0.34247497,0.27924624,0.82760286,0,0.0,0.0,0.0,0.0,0.0,0,0,0.0,0.0,0,0,125.0,0.0,491.0,4612.820512820514,3941.538461538462,4523.076923076924,4473.846153846154,4276.923076923077,4535.384615384616,4454.871794871796,4432.307692307693,4369.743589743591,4770.769230769231,4369.743589743591,4294.871794871796,4195.8974358974365,4478.461538461539
382.35983,0.24919163,0.31991598,0.27695546,0.82689965,0,0.0,0.0,0.0,0.0,0.0,0,0,0.0,0.0,0,0,12.0,0.0,443.0,4605.128205128206,3938.461538461539,4516.923076923077,4474.358974358975,4282.564102564103,4533.333333333334,4447.6923076923085,4428.717948717949,4365.641025641026,4766.666666666667,4367.179487179487,4285.128205128206,4202.051282051282,4480.512820512821
382.35983,0.24919163,0.31991598,0.27695546,0.82689965,0,0.0,0.0,0.0,0.0,0.0,0,0,0.0,0.0,0,0,12.0,0.0,443.0,4605.128205128206,3938.461538461539,4516.923076923077,4474.358974358975,4282.564102564103,4533.333333333334,4447.6923076923085,4428.717948717949,4365.641025641026,4766.666666666667,4367.179487179487,4285.128205128206,4202.051282051282,4480.512820512821
382.86026,0.24137373,0.3167882,0.27408034,0.8291067,0,0.0,0.0,0.0,0.0,0.0,0,0,0.0,0.0,0,0,76.0,0.0,443.0,4632.307692307693,3953.8461538461543,4551.282051282052,4504.615384615385,4288.717948717949,4537.435897435898,4438.461538461539,4426.666666666667,4365.128205128206,4743.076923076924,4336.923076923077,4229.2307692307695,4163.589743589744,4468.717948717949
382.86026,0.24137373,0.3167882,0.27408034,0.8291067,0,0.0,0.0,0.0,0.0,0.0,0,0,0.0,0.0,0,0,76.0,0.0,443.0,4632.307692307693,3953.8461538461543,4551.282051282052,4504.615384615385,4288.717948717949,4537.435897435898,4438.461538461539,4426.666666666667,4365.128205128206,4743.076923076924,4336.923076923077,4229.2307692307695,4163.589743589744,4468.717948717949
383.3607,0.22186717,0.33235604,0.27052915,0.8351412,0,0.0,0.0,0.0,0.0,0.0,0,0,0.0,0.0,0,0,11.0,0.0,407.0,4617.948717948719,3952.307692307693,4546.153846153847,4491.794871794872,4304.615384615385,4549.743589743591,4457.948717948719,4435.8974358974365,4380.000000000001,4765.128205128206,4359.48717948718,4309.2307692307695,4210.256410256411,4484.102564102564
383.3607,0.22186717,0.33235604,0.27052915,0.8351412,0,0.0,0.0,0.0,0.0,0.0,0,0,0.0,0.0,0,0,11.0,0.0,407.0,4617.948717948719,3952.307692307693,4546.153846153847,4491.794871794872,4304.615384615385,4549.743589743591,4457.948717948719,4435.8974358974365,4380.000000000001,4765.128205128206,4359.48717948718,4309.2307692307695,4210.256410256411,4484.102564102564
383.87677,0.19645107,0.3495152,0.2681578,0.8379836,0,0.0,0.0,0.0,0.0,0.0,0,0,0.0,0.0,0,0,75.0,0.0,407.0,4616.410256410257,3942.0512820512827,4533.846153846154,4470.256410256411,4278.461538461539,4534.358974358975,4458.974358974359,4434.358974358975,4375.8974358974365,4748.717948717949,4350.256410256411,4304.102564102564,4178.974358974359,4472.820512820514
383.87677,0.19645107,0.3495152,0.2681578,0.8379836,0,0.0,0.0,0.0,0.0,0.0,0,0,0.0,0.0,0,0,75.0,0.0,407.0,4616.410256410257,3942.0512820512827,4533.846153846154,4470.256410256411,4278.461538461539,4534.358974358975,4458.974358974359,4434.358974358975,4375.8974358974365,4748.717948717949,4350.256410256411,4304.102564102564,4178.974358974359,4472.820512820514
384.3772,0.16443941,0.37338594,0.26679972,0.8377499,0,0.0,0.0,0.0,0.0,0.0,0,0,0.0,0.0,0,0,10.0,0.0,524.0,4625.641025641026,3928.205128205129,4520.512820512821,4456.923076923077,4276.410256410257,4529.2307692307695,4469.743589743591,4441.025641025642,4381.538461538462,4757.435897435898,4362.051282051282,4261.025641025642,4196.410256410257,4517.435897435898
384.3772,0.16443941,0.37338594,0.26679972,0.8377499,0,0.0,0.0,0.0,0.0,0.0,0,0,0.0,0.0,0,0,10.0,0.0,524.0,4625.641025641026,3928.205128205129,4520.512820512821,4456.923076923077,4276.410256410257,4529.2307692307695,4469.743589743591,4441.025641025642,4381.538461538462,4757.435897435898,4362.051282051282,4261.025641025642,4196.410256410257,4517.435897435898
384.87762,0.17503163,0.3945795,0.2662572,0.8415801,0,0.0,0.0,0.0,0.0,0.0,0,0,0.0,0.0,0,0,74.0,0.0,524.0,4586.666666666667,3861.0256410256416,4292.820512820514,4309.743589743591,4163.076923076924,4385.641025641026,4488.205128205129,4467.6923076923085,4360.512820512821,4696.410256410257,4296.923076923077,4178.974358974359,4045.1282051282055,4426.153846153847
384.87762,0.17503163,0.3945795,0.2662572,0.8415801,0,0.0,0.0,0.0,0.0,0.0,0,0,0.0,0.0,0,0,74.0,0.0,524.0,4586.666666666667,3861.0256410256416,4292.820512820514,4309.743589743591,4163.076923076924,4385.641025641026,4488.205128205129,4467.6923076923085,4360.512820512821,4696.410256410257,4296.923076923077,4178.974358974359,4045.1282051282055,4426.153846153847
385.37805,0.2509131,0.3912539,0.26892805,0.844924,0,0.0,0.0,0.0,0.0,0.0,0,0,0.0,0.0,0,0,9.0,0.0,464.0,4568.205128205129,3863.589743589744,4337.948717948719,4296.923076923077,4151.794871794872,4373.333333333334,4441.538461538462,4480.000000000001,4357.435897435898,4676.410256410257,4291.794871794872,4101.538461538462,4044.615384615385,4412.307692307693
385.7534,0.2509131,0.3912539,0.26892805,0.844924,0,0.0,0.0,0.0,0.0,0.4474518,0,0,0.0,0.0,0,0,57.0,0.0,0.0,4524.615384615385,3865.6410256410263,4372.820512820514,4321.025641025642,4186.666666666667,4419.48717948718,4435.8974358974365,4474.871794871796,4356.410256410257,4681.538461538462,4289.74358974359,4124.615384615385,4098.974358974359,4408.205128205129
386.0036,0.28129068,0.40463573,0.27275223,0.84382296,0,0.0,0.0,0.0,0.0,0.026892608,0,0,0.0,0.0,0,0,89.0,0.0,492.0,4526.153846153847,3881.538461538462,4429.743589743591,4351.794871794872,4215.8974358974365,4461.538461538462,4413.333333333334,4444.102564102564,4358.461538461539,4686.153846153847,4294.871794871796,4093.8461538461543,4134.358974358975,4413.333333333334
386.2538,0.28129068,0.40463573,0.27275223,0.84382296,0,0.0,0.0,0.0,0.0,0.0,0,0,0.0,0.0035507116,0,0,121.0,0.0,492.0,4535.8974358974365,3897.9487179487182,4502.564102564103,4389.2307692307695,4234.871794871796,4488.205128205129,4413.846153846154,4437.435897435898,4365.128205128206,4706.666666666667,4303.589743589744,4109.74358974359,4156.410256410257,4434.358974358975
386.3789,0.2791311,0.40035993,0.27835187,0.8400124,0,0.0,0.0,0.0,0.0,0.0,0,0,0.0,0.0,0,0,8.0,0.0,321.0,4534.358974358975,3910.7692307692314,4505.128205128206,4397.435897435898,4247.6923076923085,4501.025641025642,4413.846153846154,4441.025641025642,4366.153846153847,4714.871794871796,4316.410256410257,4167.6923076923085,4152.307692307693,4445.641025641026
386.3789,0.2791311,0.40035993,0.27835187,0.8400124,0,0.0,0.0,0.0,0.0,0.0,0,0,0.0,0.0,0,0,8.0,0.0,321.0,4534.358974358975,3910.7692307692314,4505.128205128206,4397.435897435898,4247.6923076923085,4501.025641025642,4413.846153846154,4441.025641025642,4366.153846153847,4714.871794871796,4316.410256410257,4167.6923076923085,4152.307692307693,4445.641025641026
386.87936,0.27710974,0.40987527,0.28608122,0.8389291,0,0.0,0.0,0.0,0.0,0.0,0,0,0.0,0.0,0,0,72.0,0.0,321.0,4563.589743589744,3926.666666666667,4569.743589743591,4441.538461538462,4280.000000000001,4540.000000000001,4404.102564102564,4393.333333333334,4362.564102564103,4710.256410256411,4312.820512820514,4182.564102564103,4148.717948717949,4442.564102564103
386.87936,0.27710974,0.40987527,0.28608122,0.8389291,0,0.0,0.0,0.0,0.0,0.0,0,0,0.0,0.0,0,0,72.0,0.0,321.0,4563.589743589744,3926.666666666667,4569.743589743591,4441.538461538462,4280.000000000001,4540.000000000001,4404.102564102564,4393.333333333334,4362.564102564103,4710.256410256411,4312.820512820514,4182.564102564103,4148.717948717949,4442.564102564103
387.3798,0.26445335,0.42802483,0.29310128,0.837889,0,0.0,0.0,0.0,0.0,0.0,0,0,0.0,0.0,0,0,7.0,0.0,465.0,4571.282051282052,3927.1794871794878,4560.000000000001,4460.512820512821,4280.000000000001,4543.076923076924,4403.589743589744,4406.153846153847,4367.179487179487,4730.769230769231,4332.820512820514,4245.128205128206,4168.205128205129,4470.769230769231
387.3798,0.26445335,0.42802483,0.29310128,0.837889,0,0.0,0.0,0.0,0.0,0.0,0,0,0.0,0.0,0,0,7.0,0.0,465.0,4571.282051282052,3927.1794871794878,4560.000000000001,4460.512820512821,4280.000000000001,4543.076923076924,4403.589743589744,4406.153846153847,4367.179487179487,4730.769230769231,4332.820512820514,4245.128205128206,4168.205128205129,4470.769230769231
387.88022,0.23086987,0.46188337,0.30064195,0.8368883,0,0.0,0.0,0.0,0.0,0.0,0,0,0.0,0.0,0,0,71.0,0.0,465.0,4567.6923076923085,3915.8974358974365,4550.769230769231,4448.717948717949,4268.205128205129,4521.538461538462,4407.6923076923085,4401.538461538462,4362.051282051282,4706.666666666667,4305.128205128206,4226.153846153847,4142.564102564103,4448.717948717949
387.88022,0.23086987,0.46188337,0.30064195,0.8368883,0,0.0,0.0,0.0,0.0,0.0,0,0,0.0,0.0,0,0,71.0,0.0,465.0,4567.6923076923085,3915.8974358974365,4550.769230769231,4448.717948717949,4268.205128205129,4521.538461538462,4407.6923076923085,4401.538461538462,4362.051282051282,4706.666666666667,4305.128205128206,4226.153846153847,4142.564102564103,4448.717948717949
