timestamp,excitement,frustration,meditation,engagementBoredom,blink,clench,laugh,smile,eyebrow,furrowBrow,lookLeft,lookRight,smirkLeft,smirkRight,winkLeft,winkRight,eeg0,eeg1,eeg2,eeg3,eeg4,eeg5,eeg6,eeg7,eeg8,eeg9,eeg10,eeg11,eeg12,eeg13,eeg14,eeg15,eeg16
930.8703,0.5717157,1.0,0.34390795,0.5596631,0,0.0,0.0,0.0,0.0,0.017298963,0,0,0.0,0.0,0,0,13.0,0.0,499.0,4522.564102564103,3951.2820512820517,4571.794871794872,4424.102564102564,4318.461538461539,4606.666666666667,4271.794871794872,4307.179487179487,4452.820512820514,4622.564102564103,4278.461538461539,3798.9743589743593,4150.769230769231,4280.000000000001
931.1205,0.5717157,1.0,0.34390795,0.5596631,0,0.0,0.0,0.0,0.0,0.016686194,0,0,0.0,0.0,0,0,45.0,0.0,0.0,4549.2307692307695,3966.666666666667,4667.179487179488,4443.589743589744,4293.846153846154,4585.641025641026,4283.589743589744,4256.923076923077,4447.179487179487,4665.128205128206,4327.179487179487,3894.8717948717954,4204.615384615385,4304.102564102564
931.3707,0.6022637,1.0,0.34448162,0.55678445,0,0.0,0.0,0.0,0.0,0.0,0,0,0.0,0.0,0,0,77.0,0.0,499.0,4568.717948717949,4003.076923076924,4695.384615384616,4447.179487179487,4272.307692307693,4541.538461538462,4305.128205128206,4256.410256410257,4454.358974358975,4686.666666666667,4362.564102564103,4021.0256410256416,4195.384615384616,4306.666666666667
931.3707,0.6022637,1.0,0.34448162,0.55678445,0,0.0,0.0,0.0,0.0,0.0,0,0,0.0,0.0,0,0,77.0,0.0,499.0,4568.717948717949,4003.076923076924,4695.384615384616,4447.179487179487,4272.307692307693,4541.538461538462,4305.128205128206,4256.410256410257,4454.358974358975,4686.666666666667,4362.564102564103,4021.0256410256416,4195.384615384616,4306.666666666667
931.87115,0.6127565,1.0,0.3392951,0.55313486,0,0.0,0.0,0.0,0.0,0.0,0,0,0.0,0.0,0,0,105.0,0.0,499.0,4615.8974358974365,3994.358974358975,4725.641025641026,4488.205128205129,4264.615384615385,4553.333333333334,4342.564102564103,4280.000000000001,4447.6923076923085,4723.076923076924,4407.179487179487,4134.871794871796,4260.512820512821,4376.410256410257
931.87115,0.6127565,1.0,0.3392951,0.55313486,0,0.0,0.0,0.0,0.0,0.0,0,0,0.0,0.0,0,0,12.0,0.0,472.0,4602.051282051282,3970.7692307692314,4602.051282051282,4460.000000000001,4253.846153846154,4521.538461538462,4408.717948717949,4346.666666666667,4423.589743589744,4714.358974358975,4383.589743589744,4090.2564102564106,4209.74358974359,4374.358974358975
932.3716,0.5433876,1.0,0.3332976,0.54895085,0,0.0,0.0,0.0,0.0,0.0048129098,0,0,0.0,0.0,0,0,76.0,0.0,472.0,4584.615384615385,3989.7435897435903,4507.179487179488,4474.871794871796,4280.000000000001,4553.846153846154,4497.435897435898,4466.153846153847,4411.794871794872,4712.307692307693,4385.128205128206,3970.7692307692314,4113.333333333334,4380.000000000001
932.62177,0.5433876,1.0,0.3332976,0.54895085,0,0.0,0.0,0.0,0.0,0.03425126,0,0,0.0,0.0,0,0,108.0,0.0,472.0,4570.256410256411,3974.8717948717954,4575.384615384616,4522.051282051282,4341.025641025642,4630.256410256411,4465.128205128206,4401.538461538462,4422.564102564103,4742.051282051282,4455.384615384616,3969.2307692307695,4164.102564102564,4360.512820512821
932.7469,0.5433876,1.0,0.3332976,0.54895085,0,0.0,0.0,0.0,0.0,0.0,0,0,0.0,0.0,0,0,124.0,0.0,472.0,4576.410256410257,3989.7435897435903,4612.307692307693,4539.48717948718,4344.615384615385,4632.307692307693,4474.358974358975,4400.000000000001,4430.256410256411,4789.743589743591,4492.307692307693,4037.9487179487182,4217.435897435898,4368.717948717949
932.872,0.47214064,1.0,0.32789987,0.5451853,0,0.0,0.0,0.0,0.0,0.0,0,0,0.0,0.0,0,0,11.0,0.0,416.0,4583.589743589744,4013.333333333334,4636.410256410257,4550.769230769231,4343.589743589744,4628.717948717949,4474.871794871796,4427.179487179487,4445.641025641026,4827.6923076923085,4522.051282051282,4153.333333333334,4276.410256410257,4387.179487179487
933.37244,0.5005019,1.0,0.32331333,0.54243404,0,0.0,0.0,0.0,0.0,0.0,0,0,0.0,0.0,0,0,40.0,0.0,0.0,4601.025641025642,4031.2820512820517,4670.769230769231,4573.333333333334,4337.948717948719,4605.641025641026,4474.358974358975,4393.846153846154,4454.871794871796,4854.871794871796,4550.769230769231,4240.000000000001,4332.820512820514,4414.871794871796
933.37244,0.5005019,1.0,0.32331333,0.54243404,0,0.0,0.0,0.0,0.0,0.0,0,0,0.0,0.0,0,0,75.0,0.0,416.0,4620.512820512821,4037.435897435898,4660.000000000001,4559.48717948718,4285.641025641026,4554.358974358975,4470.256410256411,4386.153846153847,4463.589743589744,4858.974358974359,4534.871794871796,4240.000000000001,4345.641025641026,4411.794871794872
933.87286,0.45321319,1.0,0.31913307,0.53932047,0,0.0,0.0,0.0,0.0,0.0,0,0,0.0,0.0,0,0,86.0,0.0,530.0,4636.923076923077,4041.0256410256416,4666.153846153847,4562.051282051282,4283.589743589744,4550.769230769231,4475.8974358974365,4397.948717948719,4474.358974358975,4861.025641025642,4530.769230769231,4240.512820512821,4348.205128205129,4405.128205128206
933.87286,0.45321319,1.0,0.31913307,0.53932047,0,0.0,0.0,0.0,0.0,0.0,0,0,0.0,0.0,0,0,10.0,0.0,530.0,4650.256410256411,4048.205128205129,4684.102564102564,4564.102564102564,4255.8974358974365,4512.307692307693,4485.641025641026,4414.358974358975,4481.025641025642,4858.461538461539,4501.025641025642,4346.666666666667,4356.410256410257,4429.743589743591
934.3733,0.4315734,1.0,0.31537127,0.5365187,0,0.0,0.0,0.0,0.0,0.0,0,0,0.0,0.0,0,0,21.0,0.0,0.0,4653.846153846154,4047.692307692308,4674.871794871796,4562.564102564103,4251.794871794872,4506.153846153847,4476.923076923077,4413.333333333334,4476.410256410257,4844.615384615386,4475.384615384616,4329.2307692307695,4344.102564102564,4422.051282051282
934.3733,0.4315734,1.0,0.31537127,0.5365187,0,0.0,0.0,0.0,0.0,0.0,0,0,0.0,0.0,0,0,74.0,0.0,530.0,4631.282051282052,4029.23076923077,4616.923076923077,4538.461538461539,4221.538461538462,4492.820512820514,4503.589743589744,4434.358974358975,4476.923076923077,4800.000000000001,4383.589743589744,4349.2307692307695,4306.153846153847,4477.948717948719
934.8737,0.47991064,1.0,0.31198618,0.53284883,0,0.0,0.0,0.0,0.0,0.0,0,0,0.0,0.0,0,0,87.0,0.0,416.0,4640.000000000001,4041.0256410256416,4622.564102564103,4551.794871794872,4231.282051282052,4493.333333333334,4516.410256410257,4460.000000000001,4494.358974358975,4815.8974358974365,4396.923076923077,4357.948717948719,4322.051282051282,4489.2307692307695
934.8737,0.47991064,1.0,0.31198618,0.53284883,0,0.0,0.0,0.0,0.0,0.0,0,0,0.0,0.0,0,0,9.0,0.0,488.0,4634.871794871796,4015.8974358974365,4590.256410256411,4536.410256410257,4231.794871794872,4493.846153846154,4513.846153846154,4491.794871794872,4491.282051282052,4796.410256410257,4361.025641025642,4293.333333333334,4278.974358974359,4481.538461538462
934.8737,0.47991064,1.0,0.31198618,0.53284883,0,0.0,0.0,0.0,0.0,0.0,0,0,0.0,0.0,0,0,9.0,0.0,488.0,4634.871794871796,4015.8974358974365,4590.256410256411,4536.410256410257,4231.794871794872,4493.846153846154,4513.846153846154,4491.794871794872,4491.282051282052,4796.410256410257,4361.025641025642,4293.333333333334,4278.974358974359,4481.538461538462
935.6244,0.43678585,1.0,0.30941904,0.5301788,0,0.0,0.0,0.0,0.0,0.0,0,0,0.0,0.19445136,0,0,105.0,0.0,499.0,4647.179487179488,3970.7692307692314,4427.179487179487,4445.128205128206,4240.512820512821,4500.000000000001,4524.102564102564,4475.384615384616,4467.179487179487,4728.717948717949,4211.282051282052,4220.000000000001,4197.435897435898,4504.102564102564
935.74945,0.43678585,1.0,0.30941904,0.5301788,0,0.0,0.0,0.0,0.0,0.0,0,0,0.0,0.07866006,0,0,121.0,0.0,499.0,4695.384615384616,4025.1282051282055,4473.846153846154,4503.589743589744,4313.846153846154,4571.282051282052,4621.025641025642,4576.923076923077,4492.307692307693,4825.641025641026,4299.48717948718,4288.205128205129,4270.769230769231,4540.512820512821
936.1248,0.4699831,0.994792,0.30711654,0.52778226,0,0.0,0.0,0.0,0.0,4.8460803E-4,0,0,0.0,0.0,0,0,40.0,0.0,0.0,4616.923076923077,3941.538461538462,4310.256410256411,4396.410256410257,4243.589743589744,4491.794871794872,4615.8974358974365,4627.6923076923085,4436.410256410257,4709.743589743591,4195.8974358974365,4182.564102564103,4103.076923076924,4476.410256410257
936.2499,0.4699831,0.994792,0.30711654,0.52778226,0,0.0,0.0,0.0,0.0,0.0,0,0,0.0,0.0,0,0,56.0,0.0,0.0,4589.2307692307695,3929.2307692307695,4306.153846153847,4383.076923076924,4207.179487179487,4459.48717948718,4595.8974358974365,4629.743589743591,4426.153846153847,4688.717948717949,4185.128205128206,4137.435897435898,4088.205128205129,4449.743589743591
936.62524,0.5404721,0.94887406,0.3075025,0.5271862,0,0.0,0.0,0.0,0.0,0.018150544,0,0,0.0,0.0,0,0,104.0,0.0,468.0,4582.564102564103,3953.8461538461543,4410.256410256411,4410.769230769231,4214.871794871796,4476.410256410257,4544.102564102564,4572.307692307693,4422.051282051282,4678.974358974359,4229.2307692307695,4046.1538461538466,4110.256410256411,4428.205128205129
936.75037,0.5404721,0.94887406,0.3075025,0.5271862,0,0.0,0.0,0.0,0.0,0.018033203,0,0,0.0,0.0,0,0,120.0,0.0,468.0,4589.2307692307695,3970.7692307692314,4454.871794871796,4422.051282051282,4216.410256410257,4476.410256410257,4537.435897435898,4570.256410256411,4442.051282051282,4715.384615384616,4262.564102564103,4073.8461538461543,4152.307692307693,4432.307692307693
937.1257,0.5141992,0.9019496,0.3100934,0.5296981,0,0.0,0.0,0.0,0.0,0.037831273,0,0,0.0,0.0,0,0,39.0,0.0,0.0,4670.256410256411,4014.8717948717954,4606.666666666667,4493.846153846154,4246.666666666667,4508.205128205129,4501.025641025642,4492.820512820514,4442.564102564103,4708.717948717949,4153.846153846154,4151.794871794872,4193.846153846154,4396.410256410257
937.2508,0.5141992,0.9019496,0.3100934,0.5296981,0,0.0,0.0,0.0,0.0,0.030906308,0,0,0.0,0.0,0,0,55.0,0.0,0.0,4672.307692307693,4024.615384615385,4630.769230769231,4508.717948717949,4250.769230769231,4518.461538461539,4498.461538461539,4480.000000000001,4451.282051282052,4735.384615384616,4232.307692307693,4205.128205128206,4226.153846153847,4428.205128205129
937.6261,0.46047246,0.8753033,0.31241956,0.53195393,0,0.0,0.0,0.0,0.0,0.013246205,0,0,0.0,0.0,0,0,103.0,0.0,416.0,4667.6923076923085,4046.1538461538466,4665.128205128206,4536.923076923077,4262.051282051282,4533.846153846154,4491.794871794872,4427.179487179487,4461.025641025642,4777.948717948719,4337.435897435898,4213.846153846154,4297.435897435898,4453.333333333334
937.7512,0.46047246,0.8753033,0.31241956,0.53195393,0,0.0,0.0,0.0,0.0,0.017539475,0,0,0.0,0.0,0,0,119.0,0.0,416.0,4670.256410256411,4042.564102564103,4647.179487179488,4532.307692307693,4263.589743589744,4537.948717948719,4497.435897435898,4442.051282051282,4464.615384615385,4789.743589743591,4359.48717948718,4238.974358974359,4303.589743589744,4475.384615384616
937.8763,0.45611423,0.82699573,0.3145188,0.53398895,0,0.0,0.0,0.0,0.0,0.0,0,0,0.0,0.0,0,0,6.0,0.0,543.0,4684.102564102564,4034.358974358975,4642.564102564103,4535.384615384616,4258.461538461539,4529.743589743591,4491.794871794872,4435.8974358974365,4462.564102564103,4800.512820512821,4392.820512820514,4258.974358974359,4309.743589743591,4488.717948717949
937.8763,0.45611423,0.82699573,0.3145188,0.53398895,0,0.0,0.0,0.0,0.0,0.0,0,0,0.0,0.0,0,0,6.0,0.0,543.0,4684.102564102564,4034.358974358975,4642.564102564103,4535.384615384616,4258.461538461539,4529.743589743591,4491.794871794872,4435.8974358974365,4462.564102564103,4800.512820512821,4392.820512820514,4258.974358974359,4309.743589743591,4488.717948717949
938.3767,0.38433737,0.8044143,0.31640723,0.53581977,0,0.0,0.0,0.0,0.0,0.0,0,0,0.0,0.0,0,0,70.0,0.0,543.0,4700.000000000001,4032.307692307693,4609.2307692307695,4523.589743589744,4250.256410256411,4514.871794871796,4509.743589743591,4435.384615384616,4458.461538461539,4792.307692307693,4417.435897435898,4192.307692307693,4272.307692307693,4455.384615384616
938.3767,0.38433737,0.8044143,0.31640723,0.53581977,0,0.0,0.0,0.0,0.0,0.0,0,0,0.0,0.0,0,0,70.0,0.0,543.0,4700.000000000001,4032.307692307693,4609.2307692307695,4523.589743589744,4250.256410256411,4514.871794871796,4509.743589743591,4435.384615384616,4458.461538461539,4792.307692307693,4417.435897435898,4192.307692307693,4272.307692307693,4455.384615384616
938.87714,0.40226302,0.7666288,0.3181066,0.53746724,0,0.0,0.0,0.0,0.0,0.0,0,0,0.0,0.0,0,0,5.0,0.0,520.0,4687.179487179488,4009.23076923077,4572.820512820514,4506.153846153847,4260.000000000001,4516.410256410257,4509.743589743591,4432.820512820514,4459.48717948718,4788.205128205129,4418.461538461539,4258.461538461539,4235.8974358974365,4449.2307692307695
938.87714,0.40226302,0.7666288,0.3181066,0.53746724,0,0.0,0.0,0.0,0.0,0.0,0,0,0.0,0.0,0,0,5.0,0.0,520.0,4687.179487179488,4009.23076923077,4572.820512820514,4506.153846153847,4260.000000000001,4516.410256410257,4509.743589743591,4432.820512820514,4459.48717948718,4788.205128205129,4418.461538461539,4258.461538461539,4235.8974358974365,4449.2307692307695
939.3776,0.38431254,0.70807564,0.31963646,0.5389504,0,0.0,0.0,0.0,0.0,0.0,0,0,0.0,0.0,0,0,69.0,0.0,520.0,4687.6923076923085,3990.2564102564106,4554.871794871796,4466.666666666667,4251.794871794872,4509.2307692307695,4501.538461538462,4416.923076923077,4453.846153846154,4784.615384615386,4378.974358974359,4232.307692307693,4222.051282051282,4413.333333333334
939.3776,0.38431254,0.70807564,0.31963646,0.5389504,0,0.0,0.0,0.0,0.0,0.0,0,0,0.0,0.0,0,0,69.0,0.0,520.0,4687.6923076923085,3990.2564102564106,4554.871794871796,4466.666666666667,4251.794871794872,4509.2307692307695,4501.538461538462,4416.923076923077,4453.846153846154,4784.615384615386,4378.974358974359,4232.307692307693,4222.051282051282,4413.333333333334
940.12823,0.3539429,0.66291505,0.32101318,0.5402855,0,0.0,0.0,0.0,0.0,0.10300316,0,0,0.0,0.0,0,0,27.0,0.0,0.0,4713.846153846154,4005.1282051282055,4553.333333333334,4474.358974358975,4264.615384615385,4523.076923076924,4507.179487179488,4454.871794871796,4447.6923076923085,4815.8974358974365,4447.179487179487,4250.256410256411,4251.282051282052,4415.8974358974365
940.3785,0.32397592,0.61624384,0.3222482,0.54148424,0,0.0,0.0,0.0,0.0,0.16318619,0,0,0.0,0.0,0,0,60.0,0.0,0.0,4717.948717948719,3300.0000000000005,4554.358974358975,4482.051282051282,4268.717948717949,4523.076923076924,4506.153846153847,4459.48717948718,4445.641025641026,4815.384615384616,4438.461538461539,4273.846153846154,4256.923076923077,4490.256410256411
940.62866,0.32397592,0.61624384,0.3222482,0.54148424,0,0.0,0.0,0.0,0.0,0.08514259,0,0,0.0,0.0,0,0,100.0,0.0,471.0,4736.923076923077,3561.0256410256416,4556.923076923077,4491.794871794872,4287.179487179487,4539.48717948718,4513.846153846154,4463.589743589744,4450.256410256411,4834.358974358975,4461.025641025642,4333.333333333334,4269.2307692307695,4534.871794871796
940.7538,0.32397592,0.61624384,0.3222482,0.54148424,0,0.0,0.0,0.0,0.0,0.031023145,0,0,0.0,0.0,0,0,116.0,0.0,471.0,4753.846153846154,3654.358974358975,4575.8974358974365,4508.205128205129,4284.102564102564,4539.48717948718,4514.358974358975,4452.820512820514,4445.641025641026,4812.820512820514,4429.2307692307695,4310.769230769231,4233.846153846154,4526.153846153847
941.1291,0.419534,0.6041009,0.32336095,0.5425647,0,0.0,0.0,0.0,0.0,0.12528713,0,0,0.0,0.0,0,0,35.0,0.0,0.0,4722.564102564103,3783.076923076924,4551.282051282052,4501.538461538462,4289.74358974359,4544.102564102564,4509.2307692307695,4451.282051282052,4443.589743589744,4796.410256410257,4412.307692307693,4335.384615384616,4208.205128205129,4538.974358974359
941.2542,0.419534,0.6041009,0.32336095,0.5425647,0,0.0,0.0,0.0,0.0,0.19864105,0,0,0.0,0.0,0,0,51.0,0.0,0.0,4713.333333333334,3791.7948717948725,4531.282051282052,4490.256410256411,4289.74358974359,4557.435897435898,4509.743589743591,4454.358974358975,4444.615384615385,4796.923076923077,4403.076923076924,4326.666666666667,4202.564102564103,4521.025641025642
941.6295,0.43391433,0.59154177,0.32436147,0.5435358,0,0.0,0.0,0.0,0.0,0.279765,0,0,0.0,0.0,0,0,99.0,0.0,416.0,4663.076923076924,3820.512820512821,4442.564102564103,4418.974358974359,4235.8974358974365,4493.846153846154,4487.6923076923085,4432.820512820514,4414.358974358975,4748.717948717949,4351.282051282052,4280.512820512821,4165.641025641026,4535.8974358974365
941.75464,0.43391433,0.59154177,0.32436147,0.5435358,0,0.0,0.0,0.0,0.0,0.07968556,0,0,0.0,0.0,0,0,115.0,0.0,416.0,4652.820512820514,3797.9487179487182,4398.974358974359,4397.948717948719,4222.564102564103,4484.102564102564,4500.512820512821,4448.205128205129,4408.717948717949,4750.256410256411,4349.743589743591,4269.2307692307695,4152.307692307693,4535.8974358974365
942.12994,0.4184525,0.5752274,0.32526192,0.5444091,0,0.0,0.0,0.0,0.0,0.032048102,0,0,0.0,0.0,0,0,34.0,0.0,0.0,4670.256410256411,3814.358974358975,4312.820512820514,4342.051282051282,4176.410256410257,4429.743589743591,4523.589743589744,4473.333333333334,4383.076923076924,4700.000000000001,4285.641025641026,4284.102564102564,4047.1794871794878,4485.641025641026
942.25507,0.4184525,0.5752274,0.32526192,0.5444091,0,0.0,0.0,0.0,0.0,0.068598315,0,0,0.0,0.0,0,0,50.0,0.0,0.0,4617.435897435898,3863.076923076924,4276.410256410257,4322.051282051282,4169.2307692307695,4423.589743589744,4507.6923076923085,4449.2307692307695,4375.8974358974365,4680.512820512821,4263.589743589744,4206.666666666667,4029.23076923077,4421.538461538462
942.6304,0.41561258,0.59806573,0.32607257,0.545195,0,0.0,0.0,0.0,0.0,0.28234535,0,0,0.0,0.0,0,0,98.0,0.0,531.0,4601.025641025642,3932.820512820513,4344.102564102564,4342.051282051282,4174.871794871796,4445.128205128206,4476.410256410257,4448.205128205129,4372.307692307693,4695.384615384616,4323.076923076924,4127.6923076923085,4083.589743589744,4403.076923076924
942.7555,0.41561258,0.59806573,0.32607257,0.545195,0,0.0,0.0,0.0,0.0,0.014900152,0,0,0.0,0.0,0,0,114.0,0.0,531.0,4600.000000000001,3957.9487179487182,4376.923076923077,4351.794871794872,4184.615384615385,4443.589743589744,4460.000000000001,4420.512820512821,4369.743589743591,4687.179487179488,4309.2307692307695,4123.589743589744,4096.923076923077,4410.769230769231
943.1308,0.42688632,0.57648766,0.32680267,0.54590243,0,0.0,0.0,0.0,0.0,0.02679737,0,0,0.0,0.0,0,0,33.0,0.0,0.0,4595.384615384616,3973.333333333334,4448.717948717949,4388.205128205129,4201.025641025642,4476.410256410257,4440.000000000001,4396.410256410257,4386.153846153847,4731.794871794872,4375.384615384616,4193.846153846154,4192.307692307693,4414.871794871796
943.2559,0.42688632,0.57648766,0.32680267,0.54590243,0,0.0,0.0,0.0,0.0,0.042832796,0,0,0.0,0.0,0,0,49.0,0.0,0.0,4611.794871794872,3990.7692307692314,4478.974358974359,4405.128205128206,4218.974358974359,4490.769230769231,4429.743589743591,4389.743589743591,4390.256410256411,4737.948717948719,4393.333333333334,4188.717948717949,4209.74358974359,4426.153846153847
943.6312,0.42874834,0.57378846,0.3347518,0.5465393,0,0.0,0.0,0.0,0.0,0.09196015,0,0,0.0,0.0,0,0,97.0,0.0,500.0,4615.8974358974365,3958.461538461539,4457.435897435898,4407.6923076923085,4227.179487179487,4508.717948717949,4436.410256410257,4375.384615384616,4372.307692307693,4725.128205128206,4375.384615384616,4209.74358974359,4173.333333333334,4391.794871794872
943.75635,0.42874834,0.57378846,0.3347518,0.5465393,0,0.0,0.0,0.0,0.0,0.0,0,0,0.0,0.0,0,0,113.0,0.0,500.0,4609.743589743591,3926.1538461538466,4428.205128205129,4392.820512820514,4202.051282051282,4476.410256410257,4453.846153846154,4393.333333333334,4358.461538461539,4714.358974358975,4372.307692307693,4211.282051282052,4154.871794871796,4403.589743589744
944.13165,0.39817324,0.5847376,0.34713405,0.5511298,0,0.0,0.0,0.0,0.0,0.016946655,0,0,0.0,0.0,0,0,32.0,0.0,0.0,4538.974358974359,3884.1025641025644,4334.358974358975,4338.974358974359,4152.820512820514,4415.384615384616,4464.615384615385,4423.076923076924,4330.256410256411,4666.153846153847,4334.358974358975,4087.692307692308,4094.358974358975,4401.538461538462
944.2568,0.39817324,0.5847376,0.34713405,0.5511298,0,0.0,0.0,0.0,0.0,0.037486378,0,0,0.0,0.0,0,0,48.0,0.0,0.0,4509.2307692307695,3882.0512820512827,4327.6923076923085,4329.743589743591,4144.102564102564,4405.128205128206,4431.794871794872,4403.076923076924,4322.051282051282,4645.128205128206,4312.307692307693,4028.717948717949,4089.7435897435903,4383.076923076924
944.6321,0.40996042,0.5466954,0.35827762,0.55990803,0,0.0,0.0,0.0,0.0,0.005937651,0,0,0.0,0.0,0,0,96.0,0.0,470.0,4505.128205128206,3931.7948717948725,4414.358974358975,4363.589743589744,4175.8974358974365,4460.512820512821,4365.641025641026,4364.102564102564,4328.717948717949,4658.461538461539,4298.974358974359,4007.692307692308,4136.923076923077,4383.076923076924
944.7572,0.40996042,0.5466954,0.35827762,0.55990803,0,0.0,0.0,0.0,0.0,0.0041102027,0,0,0.0,0.0,0,0,112.0,0.0,470.0,4510.256410256411,3947.692307692308,4462.564102564103,4390.256410256411,4192.307692307693,4480.512820512821,4357.435897435898,4357.948717948719,4344.102564102564,4685.128205128206,4318.461538461539,4000.0000000000005,4181.538461538462,4395.384615384616
945.13257,0.45011815,0.5344074,0.36830598,0.5678082,0,0.0,0.0,0.0,0.0,0.0028055646,0,0,0.0,0.0,0,0,31.0,0.0,0.0,4541.025641025642,3962.564102564103,4586.666666666667,4454.871794871796,4237.435897435898,4529.743589743591,4341.025641025642,4317.435897435898,4368.205128205129,4730.256410256411,4368.717948717949,4074.358974358975,4251.282051282052,4431.282051282052
945.2576,0.45011815,0.5344074,0.36830598,0.5678082,0,0.0,0.0,0.0,0.0,0.0021546092,0,0,0.0,0.0,0,0,47.0,0.0,0.0,4537.948717948719,3953.8461538461543,4584.615384615385,4442.564102564103,4248.717948717949,4538.974358974359,4331.282051282052,4302.564102564103,4367.179487179487,4719.48717948718,4360.512820512821,4115.384615384616,4232.820512820514,4429.2307692307695
945.633,0.47230485,0.525869,0.3743454,0.57491785,0,0.0,0.0,0.0,0.0,0.050655738,0,0,0.0,0.0,0,0,95.0,0.0,416.0,4572.820512820514,3945.6410256410263,4595.8974358974365,4447.179487179487,4247.179487179487,4523.589743589744,4356.410256410257,4280.000000000001,4379.48717948718,4728.205128205129,4373.846153846154,4172.307692307693,4255.384615384616,4470.256410256411
945.75806,0.47230485,0.525869,0.3743454,0.57491785,0,0.0,0.0,0.0,0.0,0.0,0,0,0.0,0.0,0,0,111.0,0.0,416.0,4600.000000000001,3934.8717948717954,4589.743589743591,4446.153846153847,4238.974358974359,4518.974358974359,4395.384615384616,4302.051282051282,4375.384615384616,4727.6923076923085,4377.948717948719,4170.256410256411,4242.564102564103,4491.282051282052
946.1334,0.40412912,0.50928575,0.37853685,0.582402,0,0.0,0.0,0.0,0.0,0.010702035,0,0,0.0,0.0,0,0,30.0,0.0,0.0,4568.717948717949,3878.9743589743593,4369.2307692307695,4363.589743589744,4189.2307692307695,4460.512820512821,4480.000000000001,4382.564102564103,4326.153846153847,4666.153846153847,4303.589743589744,4116.410256410257,4097.435897435898,4512.307692307693
946.2585,0.40412912,0.50928575,0.37853685,0.582402,0,0.0,0.0,0.0,0.0,0.006392011,0,0,0.0,0.0,0,0,46.0,0.0,0.0,4536.923076923077,3860.512820512821,4290.256410256411,4322.564102564103,4165.641025641026,4430.769230769231,4492.820512820514,4402.051282051282,4309.2307692307695,4626.666666666667,4267.179487179487,4045.6410256410263,4038.9743589743593,4496.923076923077
946.63385,0.40420568,0.49927625,0.3791258,0.5896809,0,0.0,0.0,0.0,0.0,0.04442369,0,0,0.0,0.0,0,0,94.0,0.0,531.0,4504.102564102564,3881.538461538462,4394.358974358975,4368.717948717949,4217.435897435898,4460.000000000001,4470.769230769231,4404.615384615385,4306.666666666667,4606.153846153847,4236.410256410257,3915.8974358974365,4034.358974358975,4454.871794871796
946.7589,0.40420568,0.49927625,0.3791258,0.5896809,0,0.0,0.0,0.0,0.0,0.12195762,0,0,0.0,0.0,0,0,110.0,0.0,531.0,4492.307692307693,3882.564102564103,4458.461538461539,4398.461538461539,4206.666666666667,4472.307692307693,4449.2307692307695,4395.384615384616,4314.358974358975,4615.384615384616,4247.179487179487,3908.205128205129,4060.5128205128212,4444.102564102564
947.1343,0.31398633,0.48151493,0.3757539,0.5950043,0,0.0,0.0,0.0,0.0,0.022152737,0,0,0.0,0.0,0,0,29.0,0.0,0.0,4522.564102564103,3943.076923076924,4601.025641025642,4477.435897435898,4256.923076923077,4542.564102564103,4426.153846153847,4381.538461538462,4342.564102564103,4698.461538461539,4333.333333333334,3986.666666666667,4186.666666666667,4473.333333333334
947.25934,0.31398633,0.48151493,0.3757539,0.5950043,0,0.0,0.0,0.0,0.0,0.012864824,0,0,0.0,0.0,0,0,45.0,0.0,0.0,4539.48717948718,3960.5128205128212,4643.589743589744,4506.153846153847,4264.615384615385,4558.974358974359,4407.6923076923085,4352.820512820514,4348.205128205129,4715.8974358974365,4360.512820512821,4003.589743589744,4229.2307692307695,4474.358974358975
947.6347,0.31967196,0.46841338,0.3701567,0.6021966,0,0.0,0.0,0.0,0.0,0.057630107,0,0,0.0,0.0,0,0,93.0,0.0,500.0,4608.205128205129,4010.2564102564106,4737.435897435898,4568.717948717949,4298.974358974359,4586.153846153847,4438.461538461539,4366.666666666667,4391.282051282052,4781.538461538462,4441.025641025642,4140.512820512821,4272.307692307693,4480.000000000001
947.8849,0.37654114,0.50360686,0.36070588,0.6124239,0,0.0,0.0,0.0,0.0,0.0,0,0,0.0,0.0,0,0,117.0,0.0,500.0,4616.410256410257,4003.076923076924,4693.846153846154,4539.48717948718,4275.384615384616,4567.179487179488,4438.974358974359,4374.358974358975,4397.435897435898,4783.076923076924,4455.8974358974365,4211.794871794872,4275.8974358974365,4455.8974358974365
947.8849,0.37654114,0.50360686,0.36070588,0.6124239,0,0.0,0.0,0.0,0.0,0.0,0,0,0.0,0.0,0,0,125.0,0.0,500.0,4635.384615384616,3995.3846153846157,4685.641025641026,4540.000000000001,4278.974358974359,4570.256410256411,4450.256410256411,4392.820512820514,4398.461538461539,4796.410256410257,4471.282051282052,4254.871794871796,4298.974358974359,4486.153846153847
948.3853,0.33170524,0.5474831,0.35219935,0.6224466,0,0.0,0.0,0.0,0.0,0.0,0,0,0.0,0.0,0,0,4.0,0.0,501.0,4615.384615384616,3982.564102564103,4650.769230769231,4517.435897435898,4265.128205128206,4564.615384615385,4446.666666666667,4386.153846153847,4394.358974358975,4796.923076923077,4468.205128205129,4277.435897435898,4296.410256410257,4487.6923076923085
948.3853,0.33170524,0.5474831,0.35219935,0.6224466,0,0.0,0.0,0.0,0.0,0.0,0,0,0.0,0.0,0,0,60.0,0.0,0.0,4652.820512820514,3977.435897435898,4588.205128205129,4489.2307692307695,4229.74358974359,4517.948717948719,4474.871794871796,4404.615384615385,4402.564102564103,4787.179487179488,4453.333333333334,4322.564102564103,4274.358974358975,4492.820512820514
948.88574,0.307206,0.62288064,0.3445463,0.6303583,0,0.0,0.0,0.0,0.0,0.0,0,0,0.0,0.0,0,0,68.0,0.0,501.0,4657.948717948719,3973.333333333334,4579.48717948718,4488.205128205129,4238.461538461539,4522.051282051282,4482.564102564103,4406.666666666667,4405.641025641026,4786.666666666667,4441.538461538462,4350.256410256411,4260.000000000001,4490.256410256411
949.136,0.307206,0.62288064,0.3445463,0.6303583,0,0.0,0.0,0.0,0.0,0.018454427,0,0,0.0,0.0,0,0,27.0,0.0,0.0,4655.8974358974365,3958.461538461539,4468.205128205129,4428.717948717949,4201.025641025642,4461.538461538462,4471.794871794872,4388.717948717949,4341.025641025642,4639.48717948718,4266.153846153847,4171.794871794872,4043.589743589744,4422.051282051282
949.38617,0.3849943,0.65120834,0.33806062,0.63400036,0,0.0,0.0,0.0,0.0,0.03768431,0,0,0.0,0.0,0,0,54.0,0.0,0.0,4655.8974358974365,3957.435897435898,4448.717948717949,4412.820512820514,4212.820512820514,4473.333333333334,4476.923076923077,4391.282051282052,4347.179487179487,4625.641025641026,4249.74358974359,4149.2307692307695,4026.666666666667,4430.256410256411
949.5113,0.3849943,0.65120834,0.33806062,0.63400036,0,0.0,0.0,0.0,0.0,0.0,0,0,0.0,0.0,0,0,75.0,0.0,416.0,4656.410256410257,3941.0256410256416,4452.307692307693,4411.794871794872,4202.564102564103,4469.743589743591,4467.179487179487,4395.8974358974365,4346.666666666667,4640.000000000001,4269.2307692307695,4133.846153846154,4053.333333333334,4431.282051282052
949.5113,0.3849943,0.65120834,0.33806062,0.63400036,0,0.0,0.0,0.0,0.0,0.0,0,0,0.0,0.0,0,0,75.0,0.0,416.0,4656.410256410257,3941.0256410256416,4452.307692307693,4411.794871794872,4202.564102564103,4469.743589743591,4467.179487179487,4395.8974358974365,4346.666666666667,4640.000000000001,4269.2307692307695,4133.846153846154,4053.333333333334,4431.282051282052
949.8866,0.4222709,0.66023844,0.33655497,0.6328521,0,0.0,0.0,0.0,0.0,0.0,0,0,0.0,0.0,0,0,123.0,0.0,416.0,4648.205128205129,3960.5128205128212,4501.025641025642,4441.538461538462,4232.307692307693,4502.564102564103,4473.846153846154,4406.666666666667,4373.333333333334,4717.435897435898,4362.051282051282,4190.769230769231,4167.179487179487,4429.743589743591
949.8866,0.4222709,0.66023844,0.33655497,0.6328521,0,0.0,0.0,0.0,0.0,0.0,0,0,0.0,0.0,0,0,123.0,0.0,416.0,4648.205128205129,3960.5128205128212,4501.025641025642,4441.538461538462,4232.307692307693,4502.564102564103,4473.846153846154,4406.666666666667,4373.333333333334,4717.435897435898,4362.051282051282,4190.769230769231,4167.179487179487,4429.743589743591
950.3871,0.37079027,0.6640913,0.33623147,0.62476593,0,0.0,0.0,0.0,0.0,0.0,0,0,0.0,0.0,0,0,58.0,0.0,0.0,4655.8974358974365,3965.6410256410263,4536.923076923077,4458.974358974359,4250.256410256411,4520.000000000001,4471.282051282052,4418.974358974359,4395.8974358974365,4782.564102564103,4438.974358974359,4329.743589743591,4250.256410256411,4416.410256410257
950.3871,0.37079027,0.6640913,0.33623147,0.62476593,0,0.0,0.0,0.0,0.0,0.0,0,0,0.0,0.0,0,0,58.0,0.0,0.0,4655.8974358974365,3965.6410256410263,4536.923076923077,4458.974358974359,4250.256410256411,4520.000000000001,4471.282051282052,4418.974358974359,4395.8974358974365,4782.564102564103,4438.974358974359,4329.743589743591,4250.256410256411,4416.410256410257
950.8875,0.35874596,0.67328745,0.33594036,0.6174836,0,0.0,0.0,0.0,0.0,0.0,0,0,0.0,0.0,0,0,122.0,0.0,532.0,4689.2307692307695,3986.666666666667,4551.794871794872,4474.871794871796,4272.307692307693,4546.153846153847,4477.948717948719,4428.205128205129,4415.384615384616,4797.948717948719,4430.769230769231,4331.282051282052,4263.589743589744,4435.8974358974365
950.8875,0.35874596,0.67328745,0.33594036,0.6174836,0,0.0,0.0,0.0,0.0,0.0,0,0,0.0,0.0,0,0,122.0,0.0,532.0,4689.2307692307695,3986.666666666667,4551.794871794872,4474.871794871796,4272.307692307693,4546.153846153847,4477.948717948719,4428.205128205129,4415.384615384616,4797.948717948719,4430.769230769231,4331.282051282052,4263.589743589744,4435.8974358974365
951.6381,0.3639416,0.68662393,0.3356783,0.6109267,0,0.0,0.0,0.0,0.0,0.34813958,0,0,0.0,0.0,0,0,89.0,0.0,500.0,4670.256410256411,3960.0000000000005,4509.2307692307695,4429.743589743591,4233.333333333334,4508.205128205129,4461.538461538462,4412.820512820514,4406.153846153847,4773.333333333334,4413.846153846154,4301.025641025642,4233.846153846154,4508.717948717949
951.76324,0.3639416,0.68662393,0.3356783,0.6109267,0,0.0,0.0,0.0,0.0,0.21826993,0,0,0.0,0.0,0,0,105.0,0.0,500.0,4661.538461538462,3943.589743589744,4493.333333333334,4416.410256410257,4216.410256410257,4487.6923076923085,4456.410256410257,4411.282051282052,4410.769230769231,4778.461538461539,4414.358974358975,4345.128205128206,4232.307692307693,4523.076923076924
951.88837,0.35601532,0.6857228,0.33544263,0.60502666,0,0.0,0.0,0.0,0.0,0.0,0,0,0.0,0.0,0,0,121.0,0.0,500.0,4665.641025641026,3944.1025641025644,4494.871794871796,4412.307692307693,4223.589743589744,4491.794871794872,4465.641025641026,4427.6923076923085,4405.641025641026,4775.384615384616,4411.282051282052,4321.538461538462,4227.6923076923085,4502.564102564103
951.88837,0.35601532,0.6857228,0.33544263,0.60502666,0,0.0,0.0,0.0,0.0,0.0,0,0,0.0,0.0,0,0,121.0,0.0,500.0,4665.641025641026,3944.1025641025644,4494.871794871796,4412.307692307693,4223.589743589744,4491.794871794872,4465.641025641026,4427.6923076923085,4405.641025641026,4775.384615384616,4411.282051282052,4321.538461538462,4227.6923076923085,4502.564102564103
952.3888,0.37014875,0.6705112,0.33527768,0.5995215,0,0.0,0.0,0.0,0.0,0.0,0,0,0.0,0.0,0,0,56.0,0.0,0.0,4617.948717948719,3913.8461538461543,4442.564102564103,4342.051282051282,4183.589743589744,4443.076923076924,4415.384615384616,4367.179487179487,4379.48717948718,4714.358974358975,4347.179487179487,4214.358974358975,4174.358974358975,4384.102564102564
952.8892,0.3758555,0.6555309,0.33512917,0.5945681,0,0.0,0.0,0.0,0.0,0.0,0,0,0.0,0.0,0,0,120.0,0.0,470.0,4633.846153846154,3928.205128205129,4461.025641025642,4392.820512820514,4201.538461538462,4458.974358974359,4429.743589743591,4377.948717948719,4378.974358974359,4707.179487179488,4333.846153846154,4193.846153846154,4149.2307692307695,4411.794871794872
952.8892,0.3758555,0.6555309,0.33512917,0.5945681,0,0.0,0.0,0.0,0.0,0.0,0,0,0.0,0.0,0,0,120.0,0.0,470.0,4633.846153846154,3928.205128205129,4461.025641025642,4392.820512820514,4201.538461538462,4458.974358974359,4429.743589743591,4377.948717948719,4378.974358974359,4707.179487179488,4333.846153846154,4193.846153846154,4149.2307692307695,4411.794871794872
952.8892,0.3758555,0.6555309,0.33512917,0.5945681,0,0.0,0.0,0.0,0.0,0.0,0,0,0.0,0.0,0,0,120.0,0.0,470.0,4633.846153846154,3928.205128205129,4461.025641025642,4392.820512820514,4201.538461538462,4458.974358974359,4429.743589743591,4377.948717948719,4378.974358974359,4707.179487179488,4333.846153846154,4193.846153846154,4149.2307692307695,4411.794871794872
953.63983,0.33428422,0.64330095,0.3338013,0.5918175,0,0.0,0.0,0.0,0.0,1.0,0,0,0.0,0.0,0,0,87.0,0.0,417.0,4621.538461538462,3926.666666666667,4461.538461538462,4394.871794871796,4201.538461538462,4460.000000000001,4427.179487179487,4378.461538461539,4376.923076923077,4713.846153846154,4310.769230769231,4198.974358974359,4167.6923076923085,4569.2307692307695
953.63983,0.33428422,0.64330095,0.3338013,0.5918175,0,0.0,0.0,0.0,0.0,1.0,0,0,0.0,0.0,0,0,87.0,0.0,417.0,4621.538461538462,3926.666666666667,4461.538461538462,4394.871794871796,4201.538461538462,4460.000000000001,4427.179487179487,4378.461538461539,4376.923076923077,4713.846153846154,4310.769230769231,4198.974358974359,4167.6923076923085,4569.2307692307695
954.14026,0.32356337,0.6286439,0.32888913,0.5929467,0,0.0,0.0,0.0,0.0,0.5753336,0,0,0.0,0.0,0,0,22.0,0.0,0.0,4598.974358974359,3906.1538461538466,4458.974358974359,4391.282051282052,4211.794871794872,4474.358974358975,4425.128205128206,4379.48717948718,4369.2307692307695,4703.076923076924,4307.6923076923085,4196.410256410257,4144.615384615385,4503.076923076924
954.3905,0.29574972,0.6289661,0.3236864,0.5957696,0,0.0,0.0,0.0,0.0,0.0,0,0,0.0,0.0,0,0,48.0,0.0,0.0,4606.153846153847,3909.7435897435903,4463.076923076924,4397.435897435898,4212.820512820514,4474.358974358975,4437.948717948719,4383.076923076924,4367.6923076923085,4706.153846153847,4327.6923076923085,4204.102564102564,4135.8974358974365,4498.461538461539
954.3905,0.29574972,0.6289661,0.3236864,0.5957696,0,0.0,0.0,0.0,0.0,0.0,0,0,0.0,0.0,0,0,54.0,0.0,0.0,4604.615384615385,3903.076923076924,4456.410256410257,4392.820512820514,4203.589743589744,4464.615384615385,4424.615384615385,4369.743589743591,4365.641025641026,4696.923076923077,4318.974358974359,4189.74358974359,4133.846153846154,4488.717948717949
954.8909,0.33674186,0.621328,0.31900418,0.6021686,0,0.0,0.0,0.0,0.0,0.4020521,0,0,0.0,0.0,0,0,61.0,0.0,0.0,4608.205128205129,3907.692307692308,4453.333333333334,4396.923076923077,4201.538461538462,4468.205128205129,4428.205128205129,4375.8974358974365,4368.205128205129,4703.076923076924,4328.205128205129,4193.846153846154,4142.564102564103,4504.102564102564
955.1411,0.33674186,0.621328,0.31900418,0.6021686,0,0.0,0.0,0.0,0.0,0.17237365,0,0,0.0,0.0,0,0,21.0,0.0,0.0,4616.923076923077,3849.2307692307695,4403.076923076924,4366.666666666667,4168.717948717949,4435.384615384616,4375.384615384616,4338.461538461539,4343.076923076924,4672.307692307693,4307.179487179487,4184.102564102564,4135.8974358974365,4525.128205128206
955.26624,0.33674186,0.621328,0.31900418,0.6021686,0,0.0,0.0,0.0,0.0,0.10388064,0,0,0.0,0.0,0,0,37.0,0.0,0.0,4615.384615384616,3851.7948717948725,4404.102564102564,4371.282051282052,4169.2307692307695,4438.974358974359,4388.205128205129,4350.769230769231,4344.615384615385,4675.384615384616,4307.179487179487,4193.333333333334,4135.8974358974365,4521.025641025642
955.6416,0.36738497,0.60443574,0.31479064,0.6079256,0,0.0,0.0,0.0,0.0,0.6487275,0,0,0.0,0.0,0,0,85.0,0.0,500.0,4649.2307692307695,3902.564102564103,4407.6923076923085,4381.025641025642,4180.512820512821,4444.615384615385,4400.000000000001,4353.333333333334,4332.820512820514,4671.794871794872,4308.205128205129,4179.48717948718,4134.358974358975,4520.000000000001
955.76666,0.36738497,0.60443574,0.31479064,0.6079256,0,0.0,0.0,0.0,0.0,0.41510195,0,0,0.0,0.0,0,0,101.0,0.0,500.0,4631.794871794872,3901.538461538462,4389.2307692307695,4370.256410256411,4186.153846153847,4450.256410256411,4404.102564102564,4352.307692307693,4332.820512820514,4672.307692307693,4310.256410256411,4208.205128205129,4129.2307692307695,4542.051282051282
956.0169,0.3756273,0.6068967,0.31239107,0.6131045,0,0.0,0.0,0.0,0.0,0.0,0,0,0.0,0.0,0,0,4.0,0.0,501.0,4615.384615384616,3895.8974358974365,4384.615384615385,4372.820512820514,4185.128205128206,4451.282051282052,4417.435897435898,4364.615384615385,4331.794871794872,4667.6923076923085,4300.512820512821,4189.2307692307695,4123.589743589744,4551.794871794872
956.0169,0.3756273,0.6068967,0.31239107,0.6131045,0,0.0,0.0,0.0,0.0,0.0,0,0,0.0,0.0,0,0,4.0,0.0,501.0,4615.384615384616,3895.8974358974365,4384.615384615385,4372.820512820514,4185.128205128206,4451.282051282052,4417.435897435898,4364.615384615385,4331.794871794872,4667.6923076923085,4300.512820512821,4189.2307692307695,4123.589743589744,4551.794871794872
956.3922,0.35119045,0.6060015,0.31148115,0.6186287,0,0.0,0.0,0.0,0.0,0.0,0,0,0.0,0.0,0,0,52.0,0.0,0.0,4614.871794871796,3868.717948717949,4402.051282051282,4383.589743589744,4185.128205128206,4446.666666666667,4403.076923076924,4365.641025641026,4325.128205128206,4667.6923076923085,4316.410256410257,4167.179487179487,4133.846153846154,4571.282051282052
956.3922,0.35119045,0.6060015,0.31148115,0.6186287,0,0.0,0.0,0.0,0.0,0.0,0,0,0.0,0.0,0,0,52.0,0.0,0.0,4614.871794871796,3868.717948717949,4402.051282051282,4383.589743589744,4185.128205128206,4446.666666666667,4403.076923076924,4365.641025641026,4325.128205128206,4667.6923076923085,4316.410256410257,4167.179487179487,4133.846153846154,4571.282051282052
956.89264,0.34641147,0.5890594,0.31066284,0.6176059,0,0.0,0.0,0.0,0.0,0.0,0,0,0.0,0.0,0,0,116.0,0.0,470.0,4551.794871794872,3872.820512820513,4415.8974358974365,4388.717948717949,4182.564102564103,4454.871794871796,4377.435897435898,4330.769230769231,4311.794871794872,4620.512820512821,4300.000000000001,4153.846153846154,4102.564102564103,4489.2307692307695
957.39307,0.33101457,0.56087995,0.30962318,0.6165245,0,0.0,0.0,0.0,0.0,0.0,0,0,0.0,0.0,0,0,123.0,0.0,417.0,4548.717948717949,3878.9743589743593,4425.641025641026,4396.410256410257,4185.128205128206,4451.282051282052,4377.948717948719,4326.153846153847,4312.307692307693,4626.153846153847,4297.435897435898,4155.8974358974365,4104.615384615385,4493.846153846154
957.39307,0.33101457,0.56087995,0.30962318,0.6165245,0,0.0,0.0,0.0,0.0,0.0,0,0,0.0,0.0,0,0,51.0,0.0,0.0,4538.974358974359,3883.589743589744,4435.384615384616,4404.102564102564,4169.74358974359,4446.666666666667,4367.6923076923085,4327.6923076923085,4317.435897435898,4645.641025641026,4287.6923076923085,4202.564102564103,4096.410256410257,4508.717948717949
957.8935,0.26133135,0.5352809,0.30384246,0.6155495,0,0.0,0.0,0.0,0.0,0.0,0,0,0.0,0.0,0,0,58.0,0.0,0.0,4541.025641025642,3890.7692307692314,4440.512820512821,4409.2307692307695,4168.717948717949,4442.051282051282,4375.8974358974365,4329.2307692307695,4319.48717948718,4644.615384615385,4291.794871794872,4200.512820512821,4084.615384615385,4500.000000000001
957.8935,0.26133135,0.5352809,0.30384246,0.6155495,0,0.0,0.0,0.0,0.0,0.0,0,0,0.0,0.0,0,0,115.0,0.0,417.0,4520.512820512821,3894.8717948717954,4397.435897435898,4369.743589743591,4215.384615384616,4444.615384615385,4387.179487179487,4349.743589743591,4307.6923076923085,4652.820512820514,4301.538461538462,4175.384615384616,4086.666666666667,4481.025641025642
957.8935,0.26133135,0.5352809,0.30384246,0.6155495,0,0.0,0.0,0.0,0.0,0.0,0,0,0.0,0.0,0,0,115.0,0.0,417.0,4520.512820512821,3894.8717948717954,4397.435897435898,4369.743589743591,4215.384615384616,4444.615384615385,4387.179487179487,4349.743589743591,4307.6923076923085,4652.820512820514,4301.538461538462,4175.384615384616,4086.666666666667,4481.025641025642
958.64417,0.2319793,0.5106964,0.29513273,0.61777586,0,0.0,0.0,0.0,0.0,0.0109177055,0,0,0.0,0.0,0,0,82.0,0.0,532.0,4537.435897435898,3910.7692307692314,4312.307692307693,4354.871794871796,4168.717948717949,4402.051282051282,4426.666666666667,4465.128205128206,4295.8974358974365,4658.461538461539,4288.205128205129,4060.0000000000005,4054.358974358975,4418.461538461539
958.7693,0.2319793,0.5106964,0.29513273,0.61777586,0,0.0,0.0,0.0,0.0,0.010697224,0,0,0.0,0.0,0,0,98.0,0.0,532.0,4551.794871794872,3928.205128205129,4371.794871794872,4381.538461538462,4167.179487179487,4410.256410256411,4412.820512820514,4458.461538461539,4297.435897435898,4668.205128205129,4295.8974358974365,4035.3846153846157,4076.9230769230776,4407.6923076923085
959.1446,0.25007784,0.4885987,0.28729522,0.6197772,0,0.0,0.0,0.0,0.0,0.4014726,0,0,0.0,0.0,0,1,17.0,0.0,0.0,4668.717948717949,4072.820512820513,4651.282051282052,4569.743589743591,4371.794871794872,4640.512820512821,4551.282051282052,4619.48717948718,4406.153846153847,4921.538461538462,4521.538461538462,4261.025641025642,4386.153846153847,4503.076923076924
959.3948,0.43006846,0.46869922,0.28022704,0.61938447,0,0.0,0.0,0.0,0.0,0.1952467,0,0,0.0,0.0,0,1,49.0,0.0,0.0,4691.282051282052,4090.7692307692314,4691.794871794872,4600.000000000001,4366.666666666667,4637.948717948719,4511.794871794872,4546.153846153847,4397.948717948719,4879.48717948718,4495.384615384616,4230.256410256411,4360.512820512821,4490.769230769231
959.645,0.43006846,0.46869922,0.28022704,0.61938447,0,0.0,0.0,0.0,0.0,0.040801976,0,0,0.0,0.0,0,0,81.0,0.0,500.0,4717.435897435898,4089.7435897435903,4690.769230769231,4601.025641025642,4351.282051282052,4625.128205128206,4483.589743589744,4492.307692307693,4406.666666666667,4845.128205128206,4467.6923076923085,4222.564102564103,4334.871794871796,4506.153846153847
959.8952,0.5327194,0.45078972,0.27976215,0.6190109,0,0.0,0.0,0.0,0.0,0.07303875,0,0,0.0,0.0,0,0,113.0,0.0,500.0,4750.769230769231,4089.23076923077,4682.564102564103,4600.512820512821,4349.743589743591,4620.512820512821,4455.384615384616,4441.025641025642,4403.076923076924,4814.871794871796,4448.205128205129,4250.256410256411,4312.820512820514,4514.871794871796
960.14545,0.5327194,0.45078972,0.27976215,0.6190109,0,0.0,0.0,0.0,0.0,0.21796694,0,0,0.0,0.0,0,0,16.0,0.0,0.0,4783.076923076924,4091.7948717948725,4680.512820512821,4600.512820512821,4348.205128205129,4619.48717948718,4459.48717948718,4433.846153846154,4405.128205128206,4806.666666666667,4441.025641025642,4249.2307692307695,4303.589743589744,4524.102564102564
960.3956,0.548038,0.43467113,0.2851353,0.614468,0,0.0,0.0,0.0,0.0,0.2203009,0,0,0.0,0.0,0,0,48.0,0.0,0.0,4792.820512820514,4074.358974358975,4649.743589743591,4590.256410256411,4323.589743589744,4605.128205128206,4467.6923076923085,4421.538461538462,4397.435897435898,4795.384615384616,4440.512820512821,4266.153846153847,4290.256410256411,4526.666666666667
960.6459,0.548038,0.43467113,0.2851353,0.614468,0,0.0,0.0,0.0,0.0,0.0,0,0,0.0,0.0,0,0,80.0,0.0,473.0,4793.846153846154,4044.1025641025644,4593.846153846154,4569.743589743591,4313.846153846154,4586.153846153847,4477.948717948719,4429.743589743591,4392.820512820514,4772.820512820514,4388.717948717949,4264.615384615385,4254.871794871796,4536.923076923077
960.89606,0.620141,0.42016444,0.28997245,0.60822743,0,0.0,0.0,0.0,0.0,0.0,0,0,0.0,0.0,0,0,101.0,0.0,500.0,4762.051282051282,4007.692307692308,4515.384615384616,4529.743589743591,4277.435897435898,4553.333333333334,4475.8974358974365,4419.48717948718,4381.025641025642,4743.589743589744,4358.974358974359,4222.051282051282,4211.282051282052,4525.641025641026
960.89606,0.620141,0.42016444,0.28997245,0.60822743,0,0.0,0.0,0.0,0.0,0.0,0,0,0.0,0.0,0,0,112.0,0.0,473.0,4747.179487179488,3990.7692307692314,4497.948717948719,4521.538461538462,4264.102564102564,4537.435897435898,4481.538461538462,4428.205128205129,4374.871794871796,4741.538461538462,4365.641025641026,4215.384615384616,4209.2307692307695,4535.384615384616
961.39655,0.5418445,0.4071084,0.2943271,0.60261005,0,0.0,0.0,0.0,0.0,0.21934271,0,0,0.0,0.0,0,0,43.0,0.0,0.0,4663.076923076924,3958.461538461539,4427.179487179487,4488.717948717949,4231.282051282052,4504.102564102564,4489.2307692307695,4441.538461538462,4363.589743589744,4718.461538461539,4351.794871794872,4181.025641025642,4186.666666666667,4553.846153846154
961.6467,0.5418445,0.4071084,0.2943271,0.60261005,0,0.0,0.0,0.0,0.0,0.32909572,0,0,0.0,0.0,0,0,79.0,0.0,417.0,4644.615384615385,3980.5128205128212,4460.512820512821,4507.179487179488,4250.256410256411,4526.153846153847,4485.128205128206,4438.974358974359,4372.307692307693,4737.435897435898,4369.2307692307695,4169.2307692307695,4227.179487179487,4534.871794871796
961.77185,0.5418445,0.4071084,0.2943271,0.60261005,0,0.0,0.0,0.0,0.0,0.15608142,0,0,0.0,0.0,0,0,95.0,0.0,417.0,4632.307692307693,3974.358974358975,4475.384615384616,4506.666666666667,4247.6923076923085,4525.641025641026,4475.8974358974365,4424.615384615385,4371.794871794872,4727.179487179488,4359.48717948718,4155.8974358974365,4217.435897435898,4524.102564102564
962.02203,0.4301529,0.3916533,0.29824442,0.5975536,0,0.0,0.0,0.0,0.0,0.0,0,0,0.0,0.0,0,0,127.0,0.0,417.0,4648.205128205129,3984.1025641025644,4520.512820512821,4524.102564102564,4244.615384615385,4526.153846153847,4459.48717948718,4409.743589743591,4373.333333333334,4732.820512820514,4367.6923076923085,4170.256410256411,4231.794871794872,4504.615384615385
962.02203,0.4301529,0.3916533,0.29824442,0.5975536,0,0.0,0.0,0.0,0.0,0.0,0,0,0.0,0.0,0,0,127.0,0.0,417.0,4648.205128205129,3984.1025641025644,4520.512820512821,4524.102564102564,4244.615384615385,4526.153846153847,4459.48717948718,4409.743589743591,4373.333333333334,4732.820512820514,4367.6923076923085,4170.256410256411,4231.794871794872,4504.615384615385
962.3974,0.37609646,0.36782023,0.29892543,0.60345125,0,0.0,0.0,0.0,0.0,0.0,0,0,0.0,0.0,0,0,46.0,0.0,0.0,4648.717948717949,3970.7692307692314,4504.615384615385,4502.564102564103,4230.256410256411,4517.435897435898,4444.615384615385,4392.820512820514,4371.282051282052,4711.282051282052,4323.076923076924,4154.871794871796,4178.974358974359,4469.2307692307695
962.3974,0.37609646,0.36782023,0.29892543,0.60345125,0,0.0,0.0,0.0,0.0,0.0,0,0,0.0,0.0,0,0,46.0,0.0,0.0,4648.717948717949,3970.7692307692314,4504.615384615385,4502.564102564103,4230.256410256411,4517.435897435898,4444.615384615385,4392.820512820514,4371.282051282052,4711.282051282052,4323.076923076924,4154.871794871796,4178.974358974359,4469.2307692307695
962.9291,0.3682282,0.3451875,0.2995249,0.6087783,0,0.0,0.0,0.0,0.0,0.0,0,0,0.0,0.0,0,0,114.0,0.0,532.0,4612.820512820514,3945.1282051282055,4369.743589743591,4401.025641025642,4052.820512820513,4407.6923076923085,4494.358974358975,4468.717948717949,4343.589743589744,4659.48717948718,4246.153846153847,4061.538461538462,4053.333333333334,4430.769230769231
962.9291,0.3682282,0.3451875,0.2995249,0.6087783,0,0.0,0.0,0.0,0.0,0.0,0,0,0.0,0.0,0,0,114.0,0.0,532.0,4612.820512820514,3945.1282051282055,4369.743589743591,4401.025641025642,4052.820512820513,4407.6923076923085,4494.358974358975,4468.717948717949,4343.589743589744,4659.48717948718,4246.153846153847,4061.538461538462,4053.333333333334,4430.769230769231
963.64844,0.32932273,0.33382595,0.30007425,0.6135547,0,0.0,0.08654834,0.0,0.0,0.0,0,0,0.0,0.0,0,0,66.0,0.0,357.0,4600.512820512821,3973.333333333334,4513.846153846154,4254.871794871796,4154.358974358975,4467.179487179487,4429.2307692307695,4410.769230769231,4364.102564102564,4670.256410256411,4259.48717948718,3942.0512820512827,4151.282051282052,4399.48717948718
963.77356,0.32932273,0.33382595,0.30007425,0.6135547,0,0.0,0.037991986,0.0,0.0,0.0,0,0,0.0,0.0,0,0,93.0,0.0,502.0,4587.6923076923085,3975.8974358974365,4549.2307692307695,4324.102564102564,4189.2307692307695,4505.128205128206,4403.589743589744,4394.871794871796,4366.153846153847,4693.333333333334,4293.333333333334,3983.076923076924,4174.871794871796,4385.641025641026
963.92993,0.27872244,0.33086824,0.30055898,0.61787206,0,0.0,0.0,0.0,0.0,0.0,0,0,0.0,0.0,0,0,113.0,0.0,502.0,4593.846153846154,3989.23076923077,4572.307692307693,4335.384615384616,4198.974358974359,4513.333333333334,4398.461538461539,4381.025641025642,4378.461538461539,4703.076923076924,4318.461538461539,4056.9230769230776,4202.564102564103,4378.974358974359
963.92993,0.27872244,0.33086824,0.30055898,0.61787206,0,0.0,0.0,0.0,0.0,0.0,0,0,0.0,0.0,0,0,113.0,0.0,502.0,4593.846153846154,3989.23076923077,4572.307692307693,4335.384615384616,4198.974358974359,4513.333333333334,4398.461538461539,4381.025641025642,4378.461538461539,4703.076923076924,4318.461538461539,4056.9230769230776,4202.564102564103,4378.974358974359
964.6493,0.32718894,0.3269113,0.3038451,0.61129165,0,0.0,0.0,0.0,0.0,0.00757131,0,0,0.0,0.0,0,0,76.0,0.0,474.0,4615.384615384616,4031.2820512820517,4626.153846153847,4462.051282051282,4265.641025641026,4560.000000000001,4434.358974358975,4296.410256410257,4413.333333333334,4762.564102564103,4421.025641025642,4302.564102564103,4263.076923076924,4477.435897435898
964.7744,0.32718894,0.3269113,0.3038451,0.61129165,0,0.0,0.0,0.0,0.0,0.55369467,0,0,0.0,0.0,0,0,92.0,0.0,474.0,4618.461538461539,4035.8974358974365,4622.564102564103,4468.205128205129,4251.794871794872,4548.717948717949,4444.615384615385,4300.512820512821,4408.717948717949,4755.8974358974365,4419.48717948718,4321.025641025642,4266.153846153847,4486.666666666667
965.02466,0.3958864,0.32501358,0.30680346,0.6053684,0,0.0,0.0,0.0,0.0,0.0,0,0,0.0,0.0,0,0,124.0,0.0,474.0,4640.000000000001,4026.1538461538466,4600.512820512821,4475.384615384616,4256.410256410257,4548.717948717949,4449.2307692307695,4311.794871794872,4410.769230769231,4744.615384615386,4413.846153846154,4315.384615384616,4242.564102564103,4465.128205128206
965.02466,0.3958864,0.32501358,0.30680346,0.6053684,0,0.0,0.0,0.0,0.0,0.0,0,0,0.0,0.0,0,0,124.0,0.0,474.0,4640.000000000001,4026.1538461538466,4600.512820512821,4475.384615384616,4256.410256410257,4548.717948717949,4449.2307692307695,4311.794871794872,4410.769230769231,4744.615384615386,4413.846153846154,4315.384615384616,4242.564102564103,4465.128205128206
965.65015,0.34839955,0.3306018,0.30946675,0.60003656,0,0.0,0.0,0.0,0.0,0.0940856,0,0,0.0,0.0,0,0,72.0,0.0,353.0,4692.307692307693,4045.6410256410263,4613.846153846154,4569.2307692307695,4300.512820512821,4589.743589743591,4521.025641025642,4411.794871794872,4442.564102564103,4809.2307692307695,4475.8974358974365,4356.410256410257,4296.410256410257,4481.538461538462
965.77527,0.34839955,0.3306018,0.30946675,0.60003656,0,0.0,0.0,0.0,0.0,0.0,0,0,0.0,0.0,0,0,91.0,0.0,419.0,4702.051282051282,4045.1282051282055,4613.333333333334,4572.820512820514,4317.948717948719,4601.025641025642,4528.205128205129,4430.256410256411,4442.564102564103,4812.307692307693,4455.8974358974365,4356.923076923077,4304.102564102564,4491.282051282052
965.9004,0.4253241,0.33537441,0.31186354,0.59523857,0,0.0,0.0,0.0,0.0,0.0,0,0,0.0,0.0,0,0,107.0,0.0,419.0,4703.076923076924,4057.435897435898,4630.769230769231,4597.435897435898,4328.205128205129,4610.256410256411,4548.205128205129,4453.333333333334,4453.846153846154,4840.000000000001,4488.205128205129,4378.461538461539,4335.8974358974365,4506.666666666667
965.9004,0.4253241,0.33537441,0.31186354,0.59523857,0,0.0,0.0,0.0,0.0,0.0,0,0,0.0,0.0,0,0,107.0,0.0,419.0,4703.076923076924,4057.435897435898,4630.769230769231,4597.435897435898,4328.205128205129,4610.256410256411,4548.205128205129,4453.333333333334,4453.846153846154,4840.000000000001,4488.205128205129,4378.461538461539,4335.8974358974365,4506.666666666667
966.4008,0.5160055,0.33959013,0.31401962,0.59092236,0,0.0,0.0,0.0,0.0,0.0,0,0,0.0,0.0,0,0,42.0,0.0,0.0,4694.358974358975,4055.3846153846157,4636.410256410257,4623.076923076924,4378.461538461539,4657.435897435898,4577.948717948719,4514.871794871796,4469.743589743591,4854.871794871796,4518.974358974359,4387.179487179487,4344.615384615385,4505.128205128206
966.4008,0.5160055,0.33959013,0.31401962,0.59092236,0,0.0,0.0,0.0,0.0,0.0,0,0,0.0,0.0,0,0,42.0,0.0,0.0,4694.358974358975,4055.3846153846157,4636.410256410257,4623.076923076924,4378.461538461539,4657.435897435898,4577.948717948719,4514.871794871796,4469.743589743591,4854.871794871796,4518.974358974359,4387.179487179487,4344.615384615385,4505.128205128206
967.1515,0.5947946,0.3433843,0.3117601,0.5888911,0,0.0,0.0,0.0,0.0,0.5606771,0,0,0.0,0.0,0,0,2.0,0.0,357.0,4765.128205128206,4035.3846153846157,4648.205128205129,4621.025641025642,4408.717948717949,4667.6923076923085,4587.179487179488,4540.000000000001,4475.384615384616,4860.000000000001,4527.6923076923085,4400.512820512821,4331.282051282052,4517.948717948719
967.27655,0.5947946,0.3433843,0.3117601,0.5888911,0,0.0,0.0,0.0,0.0,0.0,0,0,0.0,0.0,0,0,25.0,0.0,0.0,4764.102564102564,4029.7435897435903,4622.051282051282,4600.512820512821,4393.846153846154,4656.410256410257,4569.2307692307695,4525.128205128206,4465.641025641026,4843.589743589744,4511.282051282052,4377.435897435898,4314.871794871796,4507.179487179488
967.5268,0.63527805,0.34679905,0.30261704,0.59107727,0,0.0,0.0,0.0,0.0,0.0,0,0,0.0,0.0,0,0,57.0,0.0,0.0,4715.8974358974365,4003.589743589744,4589.2307692307695,4574.871794871796,4357.435897435898,4620.512820512821,4530.769230769231,4484.615384615385,4470.769230769231,4809.743589743591,4484.102564102564,4346.666666666667,4276.410256410257,4483.589743589744
967.5268,0.63527805,0.34679905,0.30261704,0.59107727,0,0.0,0.0,0.0,0.0,0.0,0,0,0.0,0.0,0,0,57.0,0.0,0.0,4715.8974358974365,4003.589743589744,4589.2307692307695,4574.871794871796,4357.435897435898,4620.512820512821,4530.769230769231,4484.615384615385,4470.769230769231,4809.743589743591,4484.102564102564,4346.666666666667,4276.410256410257,4483.589743589744
967.9334,0.62778544,0.34987232,0.29437777,0.5930546,0,0.0,0.0,0.0,0.0,0.0,0,0,0.0,0.0,0,0,109.0,0.0,501.0,4697.948717948719,4034.358974358975,4588.205128205129,4576.410256410257,4343.076923076924,4605.128205128206,4526.666666666667,4490.256410256411,4262.564102564103,4813.333333333334,4488.205128205129,4347.6923076923085,4266.666666666667,4477.948717948719
967.9334,0.62778544,0.34987232,0.29437777,0.5930546,0,0.0,0.0,0.0,0.0,0.0,0,0,0.0,0.0,0,0,109.0,0.0,501.0,4697.948717948719,4034.358974358975,4588.205128205129,4576.410256410257,4343.076923076924,4605.128205128206,4526.666666666667,4490.256410256411,4262.564102564103,4813.333333333334,4488.205128205129,4347.6923076923085,4266.666666666667,4477.948717948719
968.4025,0.5776373,0.33884317,0.28697622,0.5948227,0,0.0,0.0,0.0,0.0,0.0,0,0,0.0,0.0,0,0,40.0,0.0,0.0,4728.205128205129,4025.1282051282055,4552.307692307693,4548.717948717949,4314.871794871796,4575.8974358974365,4498.974358974359,4458.974358974359,4276.923076923077,4781.538461538462,4468.205128205129,4311.282051282052,4247.6923076923085,4472.820512820514
968.4025,0.5776373,0.33884317,0.28697622,0.5948227,0,0.0,0.0,0.0,0.0,0.0,0,0,0.0,0.0,0,0,40.0,0.0,0.0,4728.205128205129,4025.1282051282055,4552.307692307693,4548.717948717949,4314.871794871796,4575.8974358974365,4498.974358974359,4458.974358974359,4276.923076923077,4781.538461538462,4468.205128205129,4311.282051282052,4247.6923076923085,4472.820512820514
968.90295,0.59702814,0.34962308,0.2845149,0.5924019,0,0.0,0.0,0.0,0.0,0.0,0,0,0.0,0.0,0,0,104.0,0.0,467.0,4704.102564102564,3997.435897435898,4517.948717948719,4503.589743589744,4278.461538461539,4539.48717948718,4459.48717948718,4427.6923076923085,4282.051282051282,4734.871794871796,4417.948717948719,4256.923076923077,4183.589743589744,4445.641025641026
968.90295,0.59702814,0.34962308,0.2845149,0.5924019,0,0.0,0.0,0.0,0.0,0.0,0,0,0.0,0.0,0,0,104.0,0.0,467.0,4704.102564102564,3997.435897435898,4517.948717948719,4503.589743589744,4278.461538461539,4539.48717948718,4459.48717948718,4427.6923076923085,4282.051282051282,4734.871794871796,4417.948717948719,4256.923076923077,4183.589743589744,4445.641025641026
969.4034,0.56903124,0.34345138,0.28941122,0.58837503,0,0.0,0.0,0.0,0.0,0.0,0,0,0.0,0.0,0,0,39.0,0.0,0.0,4688.205128205129,3987.692307692308,4520.512820512821,4506.153846153847,4281.538461538462,4551.282051282052,4472.820512820514,4453.333333333334,4309.743589743591,4764.102564102564,4451.282051282052,4294.358974358975,4216.410256410257,4488.717948717949
969.4034,0.56903124,0.34345138,0.28941122,0.58837503,0,0.0,0.0,0.0,0.0,0.0,0,0,0.0,0.0,0,0,39.0,0.0,0.0,4688.205128205129,3987.692307692308,4520.512820512821,4506.153846153847,4281.538461538462,4551.282051282052,4472.820512820514,4453.333333333334,4309.743589743591,4764.102564102564,4451.282051282052,4294.358974358975,4216.410256410257,4488.717948717949
969.9038,0.55928934,0.3590271,0.29381907,0.5847501,0,0.0,0.0,0.0,0.0,0.0,0,0,0.0,0.0,0,0,103.0,0.0,419.0,4653.333333333334,3971.2820512820517,4509.2307692307695,4478.461538461539,4295.384615384616,4554.871794871796,4458.974358974359,4447.179487179487,4307.6923076923085,4750.256410256411,4427.6923076923085,4265.128205128206,4216.923076923077,4493.846153846154
969.9038,0.55928934,0.3590271,0.29381907,0.5847501,0,0.0,0.0,0.0,0.0,0.0,0,0,0.0,0.0,0,0,103.0,0.0,419.0,4653.333333333334,3971.2820512820517,4509.2307692307695,4478.461538461539,4295.384615384616,4554.871794871796,4458.974358974359,4447.179487179487,4307.6923076923085,4750.256410256411,4427.6923076923085,4265.128205128206,4216.923076923077,4493.846153846154
970.40424,0.5369107,0.37980264,0.29778725,0.58148694,0,0.0,0.0,0.0,0.0,0.0,0,0,0.0,0.0,0,0,38.0,0.0,0.0,4667.179487179488,3975.3846153846157,4517.435897435898,4473.846153846154,4286.153846153847,4538.974358974359,4437.435897435898,4420.000000000001,4301.025641025642,4700.000000000001,4353.333333333334,4238.461538461539,4155.384615384616,4453.333333333334
970.40424,0.5369107,0.37980264,0.29778725,0.58148694,0,0.0,0.0,0.0,0.0,0.0,0,0,0.0,0.0,0,0,38.0,0.0,0.0,4667.179487179488,3975.3846153846157,4517.435897435898,4473.846153846154,4286.153846153847,4538.974358974359,4437.435897435898,4420.000000000001,4301.025641025642,4700.000000000001,4353.333333333334,4238.461538461539,4155.384615384616,4453.333333333334
970.90466,0.4410629,0.39261195,0.30095354,0.58400095,0,0.0,0.0,0.0,0.0,0.0,0,0,0.0,0.0,0,0,102.0,0.0,532.0,4640.512820512821,3963.589743589744,4490.769230769231,4461.025641025642,4267.179487179487,4538.461538461539,4432.307692307693,4409.743589743591,4314.871794871796,4708.717948717949,4380.000000000001,4254.871794871796,4166.153846153847,4458.461538461539
971.28,0.4410629,0.39261195,0.30095354,0.58400095,0,0.0,0.0,0.0,0.0,1.0,0,0,0.0,0.0,0,0,21.0,0.0,0.0,4633.846153846154,3985.6410256410263,4506.153846153847,4488.717948717949,4285.641025641026,4548.717948717949,4458.974358974359,4425.128205128206,4331.794871794872,4733.846153846154,4421.025641025642,4278.974358974359,4200.000000000001,4441.538461538462
971.5302,0.44751626,0.39128166,0.30106583,0.5880115,0,0.0,0.0,0.0,0.0,0.0,0,0,0.0,0.0,0,0,53.0,0.0,0.0,4630.769230769231,3989.7435897435903,4492.307692307693,4490.769230769231,4298.461538461539,4573.333333333334,4465.128205128206,4445.128205128206,4351.794871794872,4754.871794871796,4425.641025641026,4267.179487179487,4210.769230769231,4466.666666666667
971.5302,0.44751626,0.39128166,0.30106583,0.5880115,0,0.0,0.0,0.0,0.0,0.0,0,0,0.0,0.0,0,0,53.0,0.0,0.0,4630.769230769231,3989.7435897435903,4492.307692307693,4490.769230769231,4298.461538461539,4573.333333333334,4465.128205128206,4445.128205128206,4351.794871794872,4754.871794871796,4425.641025641026,4267.179487179487,4210.769230769231,4466.666666666667
971.9056,0.43596634,0.40572956,0.2960434,0.59161985,0,0.0,0.0,0.0,0.0,0.0,0,0,0.0,0.0,0,0,101.0,0.0,502.0,4688.717948717949,4002.0512820512827,4535.384615384616,4525.128205128206,4353.333333333334,4593.333333333334,4482.051282051282,4451.794871794872,4356.923076923077,4770.769230769231,4423.076923076924,4290.769230769231,4216.410256410257,4562.564102564103
972.406,0.3901699,0.4211201,0.2885256,0.5998287,0,0.0,0.0,0.0,0.0,0.0,0,0,0.0,0.0,0,0,112.0,0.0,419.0,4702.564102564103,4004.615384615385,4536.923076923077,4536.410256410257,4347.179487179487,4590.769230769231,4475.8974358974365,4457.435897435898,4363.589743589744,4781.025641025642,4448.717948717949,4308.717948717949,4229.2307692307695,4554.871794871796
972.406,0.3901699,0.4211201,0.2885256,0.5998287,0,0.0,0.0,0.0,0.0,0.0,0,0,0.0,0.0,0,0,36.0,0.0,0.0,4710.769230769231,4014.8717948717954,4555.384615384616,4544.102564102564,4342.051282051282,4617.435897435898,4502.564102564103,4480.000000000001,4387.179487179487,4798.461538461539,4447.6923076923085,4313.846153846154,4236.410256410257,4556.410256410257
972.406,0.3901699,0.4211201,0.2885256,0.5998287,0,0.0,0.0,0.0,0.0,0.0,0,0,0.0,0.0,0,0,36.0,0.0,0.0,4710.769230769231,4014.8717948717954,4555.384615384616,4544.102564102564,4342.051282051282,4617.435897435898,4502.564102564103,4480.000000000001,4387.179487179487,4798.461538461539,4447.6923076923085,4313.846153846154,4236.410256410257,4556.410256410257
973.1566,0.34366718,0.43137172,0.28150484,0.61046857,0,0.0,0.0,0.0,0.0,0.36457652,0,0,0.0,0.0,0,0,3.0,0.0,424.0,4664.102564102564,3971.7948717948725,4545.641025641026,4546.666666666667,4326.666666666667,4604.102564102564,4480.512820512821,4447.6923076923085,4396.410256410257,4755.8974358974365,4407.179487179487,4268.205128205129,4185.641025641026,4537.435897435898
973.28174,0.34366718,0.43137172,0.28150484,0.61046857,0,0.0,0.0,0.0,0.0,0.52864283,0,0,0.0,0.0,0,0,19.0,0.0,0.0,4675.8974358974365,3983.076923076924,4559.48717948718,4554.358974358975,4310.769230769231,4591.794871794872,4475.384615384616,4442.564102564103,4398.974358974359,4753.333333333334,4408.205128205129,4269.74358974359,4184.102564102564,4530.256410256411
973.5319,0.33922908,0.46089825,0.27518782,0.62004113,0,0.0,0.0,0.0,0.0,0.0,0,0,0.0,0.0,0,0,51.0,0.0,0.0,4663.589743589744,3968.205128205129,4539.48717948718,4537.435897435898,4277.948717948719,4567.6923076923085,4460.512820512821,4436.410256410257,4400.512820512821,4744.615384615386,4393.333333333334,4280.000000000001,4171.282051282052,4510.256410256411
973.5319,0.33922908,0.46089825,0.27518782,0.62004113,0,0.0,0.0,0.0,0.0,0.0,0,0,0.0,0.0,0,0,51.0,0.0,0.0,4663.589743589744,3968.205128205129,4539.48717948718,4537.435897435898,4277.948717948719,4567.6923076923085,4460.512820512821,4436.410256410257,4400.512820512821,4744.615384615386,4393.333333333334,4280.000000000001,4171.282051282052,4510.256410256411
973.9073,0.36752453,0.45617345,0.26976088,0.6310083,0,0.0,0.0,0.0,0.0,0.0,0,0,0.0,0.0,0,0,99.0,0.0,417.0,4628.205128205129,3943.076923076924,4496.410256410257,4492.820512820514,4240.512820512821,4522.564102564103,4429.743589743591,4405.641025641026,4391.794871794872,4722.051282051282,4365.641025641026,4234.358974358975,4157.435897435898,4485.641025641026
973.9073,0.36752453,0.45617345,0.26976088,0.6310083,0,0.0,0.0,0.0,0.0,0.0,0,0,0.0,0.0,0,0,99.0,0.0,417.0,4628.205128205129,3943.076923076924,4496.410256410257,4492.820512820514,4240.512820512821,4522.564102564103,4429.743589743591,4405.641025641026,4391.794871794872,4722.051282051282,4365.641025641026,4234.358974358975,4157.435897435898,4485.641025641026
974.4077,0.44380912,0.42966637,0.26621458,0.6418809,0,0.0,0.0,0.0,0.0,0.0,0,0,0.0,0.0,0,0,34.0,0.0,0.0,4602.051282051282,3936.9230769230776,4484.102564102564,4467.6923076923085,4226.666666666667,4503.589743589744,4422.564102564103,4390.256410256411,4352.307692307693,4716.410256410257,4372.307692307693,4219.48717948718,4153.333333333334,4467.179487179487
974.4077,0.44380912,0.42966637,0.26621458,0.6418809,0,0.0,0.0,0.0,0.0,0.0,0,0,0.0,0.0,0,0,34.0,0.0,0.0,4602.051282051282,3936.9230769230776,4484.102564102564,4467.6923076923085,4226.666666666667,4503.589743589744,4422.564102564103,4390.256410256411,4352.307692307693,4716.410256410257,4372.307692307693,4219.48717948718,4153.333333333334,4467.179487179487
974.90814,0.5009089,0.41738135,0.26225746,0.6516595,0,0.0,0.0,0.0,0.0,0.0,0,0,0.0,0.0,0,0,98.0,0.0,532.0,4615.8974358974365,3958.461538461539,4510.769230769231,4477.948717948719,4247.179487179487,4521.538461538462,4450.769230769231,4411.794871794872,4367.6923076923085,4746.153846153847,4391.794871794872,4236.923076923077,4185.641025641026,4493.846153846154
974.90814,0.5009089,0.41738135,0.26225746,0.6516595,0,0.0,0.0,0.0,0.0,0.0,0,0,0.0,0.0,0,0,98.0,0.0,532.0,4615.8974358974365,3958.461538461539,4510.769230769231,4477.948717948719,4247.179487179487,4521.538461538462,4450.769230769231,4411.794871794872,4367.6923076923085,4746.153846153847,4391.794871794872,4236.923076923077,4185.641025641026,4493.846153846154
975.40857,0.4991281,0.38890025,0.2586984,0.6600927,0,0.0,0.0,0.0,0.0,0.0,0,0,0.0,0.0,0,0,33.0,0.0,0.0,4621.538461538462,3971.7948717948725,4521.025641025642,4495.384615384616,4263.589743589744,4538.974358974359,4465.128205128206,4416.923076923077,4375.384615384616,4762.051282051282,4364.102564102564,4232.820512820514,4201.538461538462,4532.307692307693
975.909,0.467555,0.37559363,0.25467628,0.6670091,0,0.0,0.0,0.0,0.0,0.0,0,0,0.0,0.0,0,0,46.0,0.0,0.0,4620.512820512821,3967.692307692308,4512.820512820514,4490.769230769231,4259.48717948718,4534.871794871796,4454.358974358975,4403.589743589744,4370.769230769231,4749.2307692307695,4348.205128205129,4219.48717948718,4194.871794871796,4529.2307692307695
975.909,0.467555,0.37559363,0.25467628,0.6670091,0,0.0,0.0,0.0,0.0,0.0,0,0,0.0,0.0,0,0,97.0,0.0,502.0,4613.333333333334,3944.1025641025644,4493.333333333334,4474.871794871796,4251.282051282052,4526.153846153847,4442.051282051282,4401.025641025642,4383.076923076924,4765.641025641026,4375.8974358974365,4265.641025641026,4211.794871794872,4544.102564102564
975.909,0.467555,0.37559363,0.25467628,0.6670091,0,0.0,0.0,0.0,0.0,0.0,0,0,0.0,0.0,0,0,97.0,0.0,502.0,4613.333333333334,3944.1025641025644,4493.333333333334,4474.871794871796,4251.282051282052,4526.153846153847,4442.051282051282,4401.025641025642,4383.076923076924,4765.641025641026,4375.8974358974365,4265.641025641026,4211.794871794872,4544.102564102564
976.4094,0.4139555,0.36388633,0.24839194,0.6685848,0,0.0,0.0,0.0,0.0,0.0,0,0,0.0,0.0,0,0,32.0,0.0,0.0,4618.974358974359,3933.333333333334,4479.48717948718,4462.051282051282,4253.333333333334,4527.6923076923085,4433.846153846154,4395.8974358974365,4383.589743589744,4750.769230769231,4369.743589743591,4223.076923076924,4203.589743589744,4559.48717948718
976.7847,0.4139555,0.36388633,0.24839194,0.6685848,0,0.0,0.0,0.0,0.0,0.91044813,0,0,0.0,0.0,0,0,80.0,0.0,470.0,4602.564102564103,3921.538461538462,4462.051282051282,4434.358974358975,4239.48717948718,4509.743589743591,4412.307692307693,4376.410256410257,4373.846153846154,4722.564102564103,4365.641025641026,4205.128205128206,4163.076923076924,4511.794871794872
977.16003,0.4242823,0.3533141,0.24273908,0.6659144,0,0.0,0.0,0.0,0.0,0.0,0,0,0.0,0.0,0,0,128.0,0.0,470.0,4616.410256410257,3927.692307692308,4460.512820512821,4429.743589743591,4233.846153846154,4505.641025641026,4403.589743589744,4366.153846153847,4378.974358974359,4717.948717948719,4340.512820512821,4192.307692307693,4166.153846153847,4553.846153846154
977.16003,0.4242823,0.3533141,0.24273908,0.6659144,0,0.0,0.0,0.0,0.0,0.0,0,0,0.0,0.0,0,0,128.0,0.0,470.0,4616.410256410257,3927.692307692308,4460.512820512821,4429.743589743591,4233.846153846154,4505.641025641026,4403.589743589744,4366.153846153847,4378.974358974359,4717.948717948719,4340.512820512821,4192.307692307693,4166.153846153847,4553.846153846154
977.4103,0.37495157,0.3504595,0.23663817,0.6622455,0,0.0,0.0,0.0,0.0,0.0,0,0,0.0,0.0,0,0,31.0,0.0,0.0,4633.846153846154,3926.666666666667,4459.48717948718,4427.6923076923085,4221.025641025642,4501.538461538462,4411.794871794872,4361.025641025642,4378.461538461539,4737.435897435898,4360.000000000001,4215.8974358974365,4194.358974358975,4594.871794871796
977.4103,0.37495157,0.3504595,0.23663817,0.6622455,0,0.0,0.0,0.0,0.0,0.0,0,0,0.0,0.0,0,0,31.0,0.0,0.0,4633.846153846154,3926.666666666667,4459.48717948718,4427.6923076923085,4221.025641025642,4501.538461538462,4411.794871794872,4361.025641025642,4378.461538461539,4737.435897435898,4360.000000000001,4215.8974358974365,4194.358974358975,4594.871794871796
977.9107,0.33085445,0.35465887,0.23115169,0.6589411,0,0.0,0.0,0.0,0.0,0.0,0,0,0.0,0.0,0,0,95.0,0.0,417.0,4648.205128205129,3932.820512820513,4474.871794871796,4446.153846153847,4233.846153846154,4507.179487179488,4413.333333333334,4363.589743589744,4377.435897435898,4730.256410256411,4333.333333333334,4226.153846153847,4172.820512820514,4583.589743589744
978.286,0.33085445,0.35465887,0.23115169,0.6589411,0,0.0,0.0,0.0,0.0,0.14463611,0,0,0.0,0.0,0,0,14.0,0.0,532.0,4651.794871794872,3942.564102564103,4474.871794871796,4455.384615384616,4232.820512820514,4508.205128205129,4415.8974358974365,4369.2307692307695,4372.820512820514,4731.282051282052,4332.307692307693,4212.820512820514,4166.666666666667,4574.871794871796
978.53625,0.30219957,0.3612215,0.2272339,0.65596455,0,0.0,0.0,0.0,0.0,0.0,0,0,0.0,0.0,0,0,46.0,0.0,0.0,4661.025641025642,3941.538461538462,4494.358974358975,4471.282051282052,4257.435897435898,4531.282051282052,4434.358974358975,4382.564102564103,4385.128205128206,4741.538461538462,4347.179487179487,4237.948717948719,4177.435897435898,4568.205128205129
978.53625,0.30219957,0.3612215,0.2272339,0.65596455,0,0.0,0.0,0.0,0.0,0.0,0,0,0.0,0.0,0,0,46.0,0.0,0.0,4661.025641025642,3941.538461538462,4494.358974358975,4471.282051282052,4257.435897435898,4531.282051282052,4434.358974358975,4382.564102564103,4385.128205128206,4741.538461538462,4347.179487179487,4237.948717948719,4177.435897435898,4568.205128205129
978.91156,0.249847,0.36407605,0.22608906,0.6526043,0,0.0,0.0,0.0,0.0,0.0,0,0,0.0,0.0,0,0,94.0,0.0,532.0,4648.717948717949,3926.666666666667,4483.589743589744,4474.358974358975,4265.128205128206,4537.948717948719,4442.051282051282,4392.307692307693,4385.641025641026,4763.076923076924,4355.384615384616,4254.358974358975,4202.564102564103,4552.820512820514
978.91156,0.249847,0.36407605,0.22608906,0.6526043,0,0.0,0.0,0.0,0.0,0.0,0,0,0.0,0.0,0,0,94.0,0.0,532.0,4648.717948717949,3926.666666666667,4483.589743589744,4474.358974358975,4265.128205128206,4537.948717948719,4442.051282051282,4392.307692307693,4385.641025641026,4763.076923076924,4355.384615384616,4254.358974358975,4202.564102564103,4552.820512820514
979.412,0.19522966,0.3741132,0.22725594,0.64957774,0,0.0,0.0,0.0,0.0,0.0,0,0,0.0,0.0,0,0,29.0,0.0,0.0,4680.000000000001,3959.48717948718,4506.666666666667,4493.333333333334,4282.564102564103,4549.2307692307695,4446.666666666667,4396.923076923077,4392.820512820514,4753.846153846154,4342.564102564103,4236.410256410257,4170.769230769231,4544.615384615385
979.412,0.19522966,0.3741132,0.22725594,0.64957774,0,0.0,0.0,0.0,0.0,0.0,0,0,0.0,0.0,0,0,29.0,0.0,0.0,4680.000000000001,3959.48717948718,4506.666666666667,4493.333333333334,4282.564102564103,4549.2307692307695,4446.666666666667,4396.923076923077,4392.820512820514,4753.846153846154,4342.564102564103,4236.410256410257,4170.769230769231,4544.615384615385
980.16266,0.14492324,0.37646842,0.22930008,0.6507623,0,0.0,0.0,0.0,0.0,0.93386346,0,0,0.0,0.0,0,0,122.0,0.0,532.0,4648.717948717949,3966.1538461538466,4482.564102564103,4512.820512820514,4256.923076923077,4529.743589743591,4422.564102564103,4382.564102564103,4392.820512820514,4768.205128205129,4372.307692307693,4278.461538461539,4220.000000000001,4559.48717948718
980.2878,0.14492324,0.37646842,0.22930008,0.6507623,0,0.0,0.0,0.0,0.0,1.0,0,0,0.0,0.0,0,0,12.0,0.0,471.0,4665.128205128206,3963.589743589744,4483.589743589744,4500.512820512821,4249.74358974359,4524.102564102564,4416.923076923077,4368.717948717949,4386.666666666667,4738.974358974359,4340.512820512821,4234.871794871796,4160.512820512821,4503.589743589744
980.6631,0.131273,0.40123847,0.23487611,0.6532318,0,0.0,0.0,0.0,0.0,0.9072625,0,0,0.0,0.0,0,0,60.0,0.0,0.0,4694.358974358975,3974.8717948717954,4487.179487179488,4463.076923076924,4257.948717948719,4522.564102564103,4418.461538461539,4366.153846153847,4381.025641025642,4729.2307692307695,4331.794871794872,4208.717948717949,4154.358974358975,4457.435897435898
980.7882,0.131273,0.40123847,0.23487611,0.6532318,0,0.0,0.0,0.0,0.0,0.57565224,0,0,0.0,0.0,0,0,76.0,0.0,471.0,4680.000000000001,3968.205128205129,4487.179487179488,4458.974358974359,4260.512820512821,4523.589743589744,4421.538461538462,4377.435897435898,4383.589743589744,4730.256410256411,4326.666666666667,4219.48717948718,4145.641025641026,4449.2307692307695
981.1635,0.13351405,0.44225556,0.24245507,0.6581957,0,0.0,0.0,0.0,0.0,0.0,0,0,0.0,0.0,0,0,124.0,0.0,471.0,4686.153846153847,3963.589743589744,4491.794871794872,4463.076923076924,4260.000000000001,4520.512820512821,4426.666666666667,4381.025641025642,4386.666666666667,4751.282051282052,4364.615384615385,4256.410256410257,4186.666666666667,4491.794871794872
981.1635,0.13351405,0.44225556,0.24245507,0.6581957,0,0.0,0.0,0.0,0.0,0.0,0,0,0.0,0.0,0,0,124.0,0.0,471.0,4686.153846153847,3963.589743589744,4491.794871794872,4463.076923076924,4260.000000000001,4520.512820512821,4426.666666666667,4381.025641025642,4386.666666666667,4751.282051282052,4364.615384615385,4256.410256410257,4186.666666666667,4491.794871794872
981.4137,0.11666683,0.44008195,0.24927837,0.6674075,0,0.0,0.0,0.0,0.0,0.0,0,0,0.0,0.0,0,0,27.0,0.0,0.0,4671.282051282052,3961.0256410256416,4498.974358974359,4482.051282051282,4247.6923076923085,4532.820512820514,4440.000000000001,4396.923076923077,4397.435897435898,4776.410256410257,4378.974358974359,4259.48717948718,4224.615384615385,4529.2307692307695
981.4137,0.11666683,0.44008195,0.24927837,0.6674075,0,0.0,0.0,0.0,0.0,0.0,0,0,0.0,0.0,0,0,27.0,0.0,0.0,4671.282051282052,3961.0256410256416,4498.974358974359,4482.051282051282,4247.6923076923085,4532.820512820514,4440.000000000001,4396.923076923077,4397.435897435898,4776.410256410257,4378.974358974359,4259.48717948718,4224.615384615385,4529.2307692307695
982.16437,0.07962186,0.439557,0.25542146,0.6756885,0,0.0,0.0,0.0,0.0,0.4734253,0,0,0.0,0.0,0,0,123.0,0.0,417.0,4665.641025641026,3982.564102564103,4521.538461538462,4491.794871794872,4280.000000000001,4555.384615384616,4459.48717948718,4423.589743589744,4400.512820512821,4798.974358974359,4409.2307692307695,4276.923076923077,4232.307692307693,4553.333333333334
982.2895,0.07962186,0.439557,0.25542146,0.6756885,0,0.0,0.0,0.0,0.0,0.5603807,0,0,0.0,0.0,0,0,10.0,0.0,532.0,4653.333333333334,3971.2820512820517,4507.179487179488,4489.743589743591,4284.102564102564,4557.435897435898,4458.974358974359,4422.051282051282,4406.153846153847,4801.538461538462,4414.871794871796,4295.8974358974365,4250.769230769231,4585.641025641026
982.6648,0.099649064,0.42699134,0.25989276,0.67838025,0,0.0,0.0,0.0,0.0,0.7687025,0,0,0.0,0.0,0,0,58.0,0.0,0.0,4663.589743589744,3975.8974358974365,4509.2307692307695,4490.256410256411,4296.410256410257,4566.153846153847,4473.333333333334,4431.794871794872,4406.153846153847,4817.948717948719,4432.307692307693,4314.871794871796,4274.358974358975,4593.333333333334
982.91504,0.10509741,0.4107618,0.26252705,0.6782644,0,0.0,0.0,0.0,0.0,0.24767582,0,0,0.0,0.0,0,0,85.0,0.0,502.0,4666.153846153847,3970.7692307692314,4520.000000000001,4490.256410256411,4294.871794871796,4565.128205128206,4471.794871794872,4426.153846153847,4404.615384615385,4801.538461538462,4415.8974358974365,4287.6923076923085,4239.48717948718,4585.128205128206
983.0401,0.10509741,0.4107618,0.26252705,0.6782644,0,0.0,0.0,0.0,0.0,0.0,0,0,0.0,0.0,0,0,106.0,0.0,532.0,4670.256410256411,3978.9743589743593,4524.102564102564,4491.794871794872,4309.2307692307695,4572.820512820514,4474.871794871796,4431.282051282052,4410.256410256411,4796.923076923077,4415.384615384616,4286.153846153847,4235.8974358974365,4592.307692307693
983.0401,0.10509741,0.4107618,0.26252705,0.6782644,0,0.0,0.0,0.0,0.0,0.0,0,0,0.0,0.0,0,0,106.0,0.0,532.0,4670.256410256411,3978.9743589743593,4524.102564102564,4491.794871794872,4309.2307692307695,4572.820512820514,4474.871794871796,4431.282051282052,4410.256410256411,4796.923076923077,4415.384615384616,4286.153846153847,4235.8974358974365,4592.307692307693
983.41547,0.22766261,0.44734722,0.2648999,0.6829063,0,0.0,0.0,0.0,0.0,0.0,0,0,0.0,0.0,0,0,25.0,0.0,0.0,4708.205128205129,4032.307692307693,4595.384615384616,4554.871794871796,4396.410256410257,4647.179487179488,4541.538461538462,4496.410256410257,4438.461538461539,4858.974358974359,4461.025641025642,4345.641025641026,4282.051282051282,4610.256410256411
983.41547,0.22766261,0.44734722,0.2648999,0.6829063,0,0.0,0.0,0.0,0.0,0.0,0,0,0.0,0.0,0,0,25.0,0.0,0.0,4708.205128205129,4032.307692307693,4595.384615384616,4554.871794871796,4396.410256410257,4647.179487179488,4541.538461538462,4496.410256410257,4438.461538461539,4858.974358974359,4461.025641025642,4345.641025641026,4282.051282051282,4610.256410256411
983.9159,0.30957004,0.47302604,0.26703742,0.68481284,0,0.0,0.0,0.0,0.0,0.0,0,0,0.0,0.0,0,0,89.0,0.0,502.0,4654.358974358975,3983.076923076924,4538.974358974359,4505.128205128206,4401.025641025642,4645.641025641026,4491.282051282052,4454.358974358975,4428.205128205129,4813.333333333334,4441.538461538462,4313.846153846154,4249.74358974359,4585.641025641026
983.9159,0.30957004,0.47302604,0.26703742,0.68481284,0,0.0,0.0,0.0,0.0,0.0,0,0,0.0,0.0,0,0,89.0,0.0,502.0,4654.358974358975,3983.076923076924,4538.974358974359,4505.128205128206,4401.025641025642,4645.641025641026,4491.282051282052,4454.358974358975,4428.205128205129,4813.333333333334,4441.538461538462,4313.846153846154,4249.74358974359,4585.641025641026
984.6665,0.33769903,0.4844039,0.26853913,0.68402296,0,0.0,0.0,0.0,0.0,0.43680197,0,0,0.0,0.0,0,0,56.0,0.0,0.0,4618.974358974359,3944.1025641025644,4513.846153846154,4467.6923076923085,4345.128205128206,4603.589743589744,4479.48717948718,4443.589743589744,4396.410256410257,4799.48717948718,4421.025641025642,4309.2307692307695,4246.666666666667,4634.358974358975
984.7916,0.33769903,0.4844039,0.26853913,0.68402296,0,0.0,0.0,0.0,0.0,0.60104436,0,0,0.0,0.0,0,0,72.0,0.0,353.0,4636.410256410257,3961.538461538462,4525.128205128206,4475.384615384616,4344.615384615385,4602.051282051282,4460.000000000001,4420.000000000001,4378.974358974359,4771.282051282052,4395.384615384616,4288.717948717949,4208.205128205129,4616.923076923077
985.16693,0.32096994,0.4901836,0.2698925,0.68081677,0,0.0,0.0,0.0,0.0,0.50386,0,0,0.0,0.0,0,0,120.0,0.0,471.0,4632.307692307693,3955.3846153846157,4515.384615384616,4476.923076923077,4311.282051282052,4574.358974358975,4446.666666666667,4411.794871794872,4381.025641025642,4764.615384615386,4388.205128205129,4287.179487179487,4205.641025641026,4628.717948717949
985.4172,0.28827676,0.46535873,0.27253774,0.6770589,0,0.0,0.0,0.0,0.0,0.0,0,0,0.0,0.0,0,0,15.0,0.0,415.0,4600.000000000001,3942.0512820512827,4494.871794871796,4471.282051282052,4312.307692307693,4572.820512820514,4450.256410256411,4414.358974358975,4383.076923076924,4769.2307692307695,4402.051282051282,4301.025641025642,4235.384615384616,4620.512820512821
985.4172,0.28827676,0.46535873,0.27253774,0.6770589,0,0.0,0.0,0.0,0.0,0.0,0,0,0.0,0.0,0,0,23.0,0.0,0.0,4600.000000000001,3943.076923076924,4489.743589743591,4471.282051282052,4295.8974358974365,4564.102564102564,4453.333333333334,4418.974358974359,4382.564102564103,4768.717948717949,4393.333333333334,4289.2307692307695,4229.2307692307695,4605.128205128206
985.4172,0.28827676,0.46535873,0.27253774,0.6770589,0,0.0,0.0,0.0,0.0,0.0,0,0,0.0,0.0,0,0,23.0,0.0,0.0,4600.000000000001,3943.076923076924,4489.743589743591,4471.282051282052,4295.8974358974365,4564.102564102564,4453.333333333334,4418.974358974359,4382.564102564103,4768.717948717949,4393.333333333334,4289.2307692307695,4229.2307692307695,4605.128205128206
986.1678,0.23852532,0.44793168,0.27830574,0.66548723,0,0.0,0.0,0.0,0.0,1.0,0,0,0.0,0.0,0,0,119.0,0.0,415.0,4631.794871794872,3989.7435897435903,4497.948717948719,4483.076923076924,4293.333333333334,4545.641025641026,4445.641025641026,4392.820512820514,4387.6923076923085,4736.923076923077,4360.000000000001,4252.307692307693,4189.74358974359,4519.48717948718
986.1678,0.23852532,0.44793168,0.27830574,0.66548723,0,0.0,0.0,0.0,0.0,1.0,0,0,0.0,0.0,0,0,119.0,0.0,415.0,4631.794871794872,3989.7435897435903,4497.948717948719,4483.076923076924,4293.333333333334,4545.641025641026,4445.641025641026,4392.820512820514,4387.6923076923085,4736.923076923077,4360.000000000001,4252.307692307693,4189.74358974359,4519.48717948718
986.54315,0.22142477,0.4417251,0.28011185,0.65507394,0,0.0,0.0,0.0,0.0,0.0,0,0,0.0,0.0,0,0,38.0,0.0,0.0,4648.717948717949,3993.333333333334,4508.717948717949,4489.743589743591,4302.564102564103,4558.461538461539,4455.384615384616,4422.051282051282,4408.717948717949,4766.666666666667,4395.384615384616,4296.923076923077,4233.333333333334,4516.923076923077
986.54315,0.22142477,0.4417251,0.28011185,0.65507394,0,0.0,0.0,0.0,0.0,0.0,0,0,0.0,0.0,0,0,38.0,0.0,0.0,4648.717948717949,3993.333333333334,4508.717948717949,4489.743589743591,4302.564102564103,4558.461538461539,4455.384615384616,4422.051282051282,4408.717948717949,4766.666666666667,4395.384615384616,4296.923076923077,4233.333333333334,4516.923076923077
986.91846,0.22688706,0.42288208,0.28022504,0.64570236,0,0.0,0.0,0.0,0.0,0.0,0,0,0.0,0.0,0,0,86.0,0.0,532.0,4645.641025641026,3971.2820512820517,4492.307692307693,4473.333333333334,4276.923076923077,4537.948717948719,4442.051282051282,4402.564102564103,4396.923076923077,4735.8974358974365,4368.717948717949,4250.256410256411,4193.333333333334,4501.538461538462
987.4189,0.20399673,0.41108942,0.27791697,0.64253956,0,0.0,0.0,0.0,0.0,0.0,0,0,0.0,0.0,0,0,96.0,0.0,472.0,4646.666666666667,3990.7692307692314,4511.794871794872,4492.820512820514,4294.358974358975,4545.641025641026,4446.666666666667,4410.256410256411,4397.948717948719,4750.769230769231,4378.461538461539,4264.615384615385,4205.641025641026,4508.717948717949
987.4189,0.20399673,0.41108942,0.27791697,0.64253956,0,0.0,0.0,0.0,0.0,0.0,0,0,0.0,0.0,0,0,21.0,0.0,0.0,4632.307692307693,3974.358974358975,4477.435897435898,4473.333333333334,4280.512820512821,4540.512820512821,4447.6923076923085,4406.666666666667,4407.6923076923085,4749.743589743591,4376.410256410257,4258.461538461539,4202.564102564103,4489.743589743591
987.4189,0.20399673,0.41108942,0.27791697,0.64253956,0,0.0,0.0,0.0,0.0,0.0,0,0,0.0,0.0,0,0,21.0,0.0,0.0,4632.307692307693,3974.358974358975,4477.435897435898,4473.333333333334,4280.512820512821,4540.512820512821,4447.6923076923085,4406.666666666667,4407.6923076923085,4749.743589743591,4376.410256410257,4258.461538461539,4202.564102564103,4489.743589743591
988.16956,0.19174962,0.41834885,0.27572381,0.64461136,0,0.0,0.0,0.0,0.0,0.06980819,0,0,0.0,0.0,0,0,117.0,0.0,502.0,4655.8974358974365,3985.6410256410263,4499.48717948718,4474.871794871796,4277.948717948719,4553.333333333334,4445.128205128206,4386.666666666667,4410.769230769231,4737.435897435898,4349.743589743591,4231.794871794872,4158.461538461539,4400.000000000001
988.2946,0.19174962,0.41834885,0.27572381,0.64461136,0,0.0,0.0,0.0,0.0,0.0,0,0,0.0,0.0,0,0,4.0,0.0,501.0,4663.076923076924,3988.717948717949,4501.025641025642,4478.974358974359,4277.435897435898,4551.794871794872,4455.8974358974365,4407.179487179487,4414.358974358975,4748.205128205129,4356.410256410257,4246.666666666667,4172.820512820514,4423.589743589744
988.41974,0.23076811,0.4377229,0.27375177,0.6464722,0,0.0,0.0,0.0,0.0,0.0,0,0,0.0,0.0,0,0,20.0,0.0,0.0,4664.102564102564,3986.666666666667,4505.641025641026,4477.435897435898,4277.435897435898,4546.153846153847,4444.102564102564,4398.974358974359,4415.384615384616,4750.769230769231,4356.923076923077,4253.846153846154,4185.128205128206,4439.48717948718
988.79504,0.23076811,0.4377229,0.27375177,0.6464722,0,0.0,0.0,0.0,0.0,0.0,0,0,0.0,0.8726891,0,0,68.0,0.0,501.0,4688.717948717949,4003.589743589744,4524.615384615385,4490.256410256411,4296.923076923077,4560.512820512821,4468.205128205129,4416.923076923077,4427.179487179487,4796.923076923077,3879.48717948718,4272.307692307693,4215.8974358974365,4499.48717948718
989.1704,0.25672182,0.45228425,0.27196062,0.6481763,0,0.0,0.0,0.0,0.0,0.0,0,0,0.0,0.0,0,0,116.0,0.0,478.0,4674.871794871796,3987.1794871794878,4495.8974358974365,4474.358974358975,4282.051282051282,4553.333333333334,4458.461538461539,4412.820512820514,4476.410256410257,4771.282051282052,3992.820512820513,4270.769230769231,4197.435897435898,4509.2307692307695
989.1704,0.25672182,0.45228425,0.27196062,0.6481763,0,0.0,0.0,0.0,0.0,0.0,0,0,0.0,0.0,0,0,116.0,0.0,478.0,4674.871794871796,3987.1794871794878,4495.8974358974365,4474.358974358975,4282.051282051282,4553.333333333334,4458.461538461539,4412.820512820514,4476.410256410257,4771.282051282052,3992.820512820513,4270.769230769231,4197.435897435898,4509.2307692307695
989.4206,0.2071312,0.45941883,0.27270883,0.64274216,0,0.0,0.0,0.0,0.0,0.0,0,0,0.0,0.0,0,0,19.0,0.0,0.0,4689.2307692307695,3992.307692307693,4507.179487179488,4470.769230769231,4291.282051282052,4552.820512820514,4456.410256410257,4410.256410256411,4489.2307692307695,4763.589743589744,4060.0000000000005,4258.974358974359,4209.74358974359,4506.153846153847
989.4206,0.2071312,0.45941883,0.27270883,0.64274216,0,0.0,0.0,0.0,0.0,0.0,0,0,0.0,0.0,0,0,19.0,0.0,0.0,4689.2307692307695,3992.307692307693,4507.179487179488,4470.769230769231,4291.282051282052,4552.820512820514,4456.410256410257,4410.256410256411,4489.2307692307695,4763.589743589744,4060.0000000000005,4258.974358974359,4209.74358974359,4506.153846153847
989.921,0.16337879,0.44226322,0.27828884,0.6337826,0,0.0,0.0,0.0,0.0,0.0,0,0,0.0,0.0,0,0,83.0,0.0,416.0,4671.794871794872,3969.7435897435903,4470.256410256411,4446.153846153847,4275.384615384616,4542.051282051282,4450.769230769231,4411.794871794872,4477.948717948719,4781.025641025642,4186.666666666667,4270.256410256411,4235.8974358974365,4560.512820512821
989.921,0.16337879,0.44226322,0.27828884,0.6337826,0,0.0,0.0,0.0,0.0,0.0,0,0,0.0,0.0,0,0,83.0,0.0,416.0,4671.794871794872,3969.7435897435903,4470.256410256411,4446.153846153847,4275.384615384616,4542.051282051282,4450.769230769231,4411.794871794872,4477.948717948719,4781.025641025642,4186.666666666667,4270.256410256411,4235.8974358974365,4560.512820512821
990.42145,0.12431802,0.42984638,0.28380924,0.6256039,0,0.0,0.0,0.0,0.0,0.0,0,0,0.0,0.0,0,0,18.0,0.0,0.0,4702.051282051282,3971.7948717948725,4489.743589743591,4457.435897435898,4277.948717948719,4547.179487179488,4461.538461538462,4422.051282051282,4298.461538461539,4780.000000000001,4249.2307692307695,4257.435897435898,4212.820512820514,4553.333333333334
990.42145,0.12431802,0.42984638,0.28380924,0.6256039,0,0.0,0.0,0.0,0.0,0.0,0,0,0.0,0.0,0,0,18.0,0.0,0.0,4702.051282051282,3971.7948717948725,4489.743589743591,4457.435897435898,4277.948717948719,4547.179487179488,4461.538461538462,4422.051282051282,4298.461538461539,4780.000000000001,4249.2307692307695,4257.435897435898,4212.820512820514,4553.333333333334
990.9532,0.146851,0.42996597,0.28876606,0.6182618,0,0.0,0.0,0.0,0.0,0.0,0,0,0.0,0.0,0,0,86.0,0.0,532.0,4721.538461538462,3996.410256410257,4510.769230769231,4491.282051282052,4296.410256410257,4569.2307692307695,4482.051282051282,4431.794871794872,4323.076923076924,4781.025641025642,4311.794871794872,4263.076923076924,4202.051282051282,4586.666666666667
991.4223,0.17678696,0.43175974,0.29323873,0.6116371,0,0.0,0.0,0.0,0.0,0.0,0,0,0.0,0.0,0,0,93.0,0.0,502.0,4735.384615384616,4003.589743589744,4524.102564102564,4501.538461538462,4306.666666666667,4575.384615384616,4490.256410256411,4439.48717948718,4325.128205128206,4790.256410256411,4323.589743589744,4279.48717948718,4213.333333333334,4592.820512820514
991.4223,0.17678696,0.43175974,0.29323873,0.6116371,0,0.0,0.0,0.0,0.0,0.0,0,0,0.0,0.0,0,0,17.0,0.0,0.0,4709.2307692307695,3999.48717948718,4537.948717948719,4509.2307692307695,4321.025641025642,4587.179487179488,4499.48717948718,4456.923076923077,4343.076923076924,4812.307692307693,4373.333333333334,4307.179487179487,4246.666666666667,4630.769230769231
991.4223,0.17678696,0.43175974,0.29323873,0.6116371,0,0.0,0.0,0.0,0.0,0.0,0,0,0.0,0.0,0,0,17.0,0.0,0.0,4709.2307692307695,3999.48717948718,4537.948717948719,4509.2307692307695,4321.025641025642,4587.179487179488,4499.48717948718,4456.923076923077,4343.076923076924,4812.307692307693,4373.333333333334,4307.179487179487,4246.666666666667,4630.769230769231
992.173,0.18348376,0.4289313,0.29726225,0.60567784,0,0.0,0.0,0.0,0.0,0.0,0,0,0.0,0.0,0,0,113.0,0.0,502.0,4703.076923076924,4009.7435897435903,4550.769230769231,4523.076923076924,4314.358974358975,4590.769230769231,4504.102564102564,4458.974358974359,4365.641025641026,4828.205128205129,4411.794871794872,4323.589743589744,4263.076923076924,4678.461538461539
992.173,0.18348376,0.4289313,0.29726225,0.60567784,0,0.0,0.0,0.0,0.0,0.0,0,0,0.0,0.0,0,0,113.0,0.0,502.0,4703.076923076924,4009.7435897435903,4550.769230769231,4523.076923076924,4314.358974358975,4590.769230769231,4504.102564102564,4458.974358974359,4365.641025641026,4828.205128205129,4411.794871794872,4323.589743589744,4263.076923076924,4678.461538461539
992.42316,0.25355142,0.42323786,0.300883,0.60031545,0,0.0,0.0,0.0,0.0,0.0,0,0,0.0,0.0,0,0,16.0,0.0,0.0,4704.102564102564,3997.9487179487182,4545.128205128206,4520.512820512821,4311.282051282052,4576.923076923077,4501.538461538462,4461.025641025642,4362.564102564103,4797.948717948719,4397.435897435898,4304.102564102564,4230.769230769231,4656.410256410257
992.42316,0.25355142,0.42323786,0.300883,0.60031545,0,0.0,0.0,0.0,0.0,0.0,0,0,0.0,0.0,0,0,16.0,0.0,0.0,4704.102564102564,3997.9487179487182,4545.128205128206,4520.512820512821,4311.282051282052,4576.923076923077,4501.538461538462,4461.025641025642,4362.564102564103,4797.948717948719,4397.435897435898,4304.102564102564,4230.769230769231,4656.410256410257
992.9236,0.2667115,0.40868968,0.30414143,0.5954899,0,0.0,0.0,0.0,0.0,0.0,0,0,0.0,0.0,0,0,80.0,0.0,475.0,4755.8974358974365,4004.615384615385,4556.410256410257,4500.512820512821,4269.74358974359,4540.000000000001,4463.076923076924,4411.794871794872,4360.512820512821,4772.307692307693,4386.153846153847,4317.435897435898,4218.461538461539,4667.179487179488
992.9236,0.2667115,0.40868968,0.30414143,0.5954899,0,0.0,0.0,0.0,0.0,0.0,0,0,0.0,0.0,0,0,80.0,0.0,475.0,4755.8974358974365,4004.615384615385,4556.410256410257,4500.512820512821,4269.74358974359,4540.000000000001,4463.076923076924,4411.794871794872,4360.512820512821,4772.307692307693,4386.153846153847,4317.435897435898,4218.461538461539,4667.179487179488
993.424,0.32239327,0.42245007,0.30707264,0.5911461,0,0.0,0.0,0.0,0.0,0.0,0,0,0.0,0.0,0,0,15.0,0.0,414.0,4672.307692307693,3972.307692307693,4492.307692307693,4460.512820512821,4257.435897435898,4524.102564102564,4440.512820512821,4396.923076923077,4354.871794871796,4743.076923076924,4347.179487179487,4250.769230769231,4180.000000000001,4606.666666666667
993.424,0.32239327,0.42245007,0.30707264,0.5911461,0,0.0,0.0,0.0,0.0,0.0,0,0,0.0,0.0,0,0,15.0,0.0,414.0,4672.307692307693,3972.307692307693,4492.307692307693,4460.512820512821,4257.435897435898,4524.102564102564,4440.512820512821,4396.923076923077,4354.871794871796,4743.076923076924,4347.179487179487,4250.769230769231,4180.000000000001,4606.666666666667
993.9245,0.35262048,0.45464125,0.3097115,0.58723867,0,0.0,0.0,0.0,0.0,0.0,0,0,0.0,0.0,0,0,79.0,0.0,414.0,4698.461538461539,3982.0512820512827,4528.717948717949,4480.000000000001,4281.538461538462,4545.128205128206,4472.307692307693,4419.48717948718,4368.205128205129,4776.410256410257,4372.307692307693,4284.102564102564,4210.256410256411,4609.743589743591
993.9245,0.35262048,0.45464125,0.3097115,0.58723867,0,0.0,0.0,0.0,0.0,0.0,0,0,0.0,0.0,0,0,79.0,0.0,414.0,4698.461538461539,3982.0512820512827,4528.717948717949,4480.000000000001,4281.538461538462,4545.128205128206,4472.307692307693,4419.48717948718,4368.205128205129,4776.410256410257,4372.307692307693,4284.102564102564,4210.256410256411,4609.743589743591
994.4249,0.3346104,0.4561963,0.30923602,0.5846403,0,0.0,0.0,0.0,0.0,0.0,0,0,0.0,0.0,0,0,14.0,0.0,532.0,4674.358974358975,3957.9487179487182,4480.000000000001,4477.435897435898,4277.948717948719,4537.948717948719,4438.974358974359,4391.282051282052,4362.051282051282,4752.820512820514,4358.461538461539,4262.051282051282,4201.538461538462,4617.948717948719
994.4249,0.3346104,0.4561963,0.30923602,0.5846403,0,0.0,0.0,0.0,0.0,0.0,0,0,0.0,0.0,0,0,14.0,0.0,532.0,4674.358974358975,3957.9487179487182,4480.000000000001,4477.435897435898,4277.948717948719,4537.948717948719,4438.974358974359,4391.282051282052,4362.051282051282,4752.820512820514,4358.461538461539,4262.051282051282,4201.538461538462,4617.948717948719
995.17554,0.27491504,0.45512104,0.30407208,0.58696103,0,0.0,0.0,0.0,0.0,0.0,0,0,0.0,0.0,0,0,110.0,0.0,532.0,4656.923076923077,3962.0512820512827,4473.333333333334,4388.717948717949,4255.384615384616,4523.589743589744,4413.846153846154,4360.512820512821,4350.256410256411,4704.102564102564,4320.512820512821,4218.974358974359,4139.48717948718,4575.8974358974365
995.30066,0.27491504,0.45512104,0.30407208,0.58696103,0,0.0,0.0,0.0,0.0,1.0,0,0,0.0,0.0,0,0,126.0,0.0,532.0,4648.717948717949,3945.6410256410263,4458.461538461539,4367.6923076923085,4234.358974358975,4508.717948717949,4398.461538461539,4351.794871794872,4342.564102564103,4696.923076923077,4294.871794871796,4215.384615384616,4139.48717948718,4587.179487179488
995.4258,0.31936353,0.43134534,0.29715607,0.59296954,0,0.0,0.0,0.0,0.0,1.0,0,0,0.0,0.0,0,0,13.0,0.0,502.0,4636.410256410257,3942.0512820512827,4449.743589743591,4356.410256410257,4233.846153846154,4501.025641025642,4398.974358974359,4347.179487179487,4346.666666666667,4692.820512820514,4290.769230769231,4206.153846153847,4132.820512820514,4598.461538461539
995.8011,0.31936353,0.43134534,0.29715607,0.59296954,0,0.0,0.0,0.0,0.0,0.0,0,0,0.0,0.0,0,0,61.0,0.0,0.0,4635.384615384616,3927.692307692308,4443.589743589744,4357.948717948719,4215.384615384616,4484.615384615385,4395.384615384616,4348.717948717949,4344.615384615385,4698.974358974359,4314.871794871796,4223.076923076924,4163.076923076924,4606.153846153847
995.9262,0.26151475,0.4003468,0.2909328,0.59837574,0,0.0,0.0,0.0,0.0,0.0,0,0,0.0,0.0,0,0,77.0,0.0,502.0,4614.358974358975,3921.538461538462,4436.923076923077,4360.512820512821,4206.666666666667,4476.923076923077,4387.6923076923085,4343.589743589744,4340.512820512821,4688.205128205129,4304.615384615385,4215.8974358974365,4156.410256410257,4606.153846153847
995.9262,0.26151475,0.4003468,0.2909328,0.59837574,0,0.0,0.0,0.0,0.0,0.0,0,0,0.0,0.0,0,0,77.0,0.0,502.0,4614.358974358975,3921.538461538462,4436.923076923077,4360.512820512821,4206.666666666667,4476.923076923077,4387.6923076923085,4343.589743589744,4340.512820512821,4688.205128205129,4304.615384615385,4215.8974358974365,4156.410256410257,4606.153846153847
996.55176,0.31102806,0.37476856,0.28533316,0.60487664,0,0.0,0.0,0.0,0.0,0.0,0,0,0.0,0.0,0,0,28.0,0.0,0.0,4620.512820512821,3953.333333333334,4463.589743589744,4406.153846153847,4226.666666666667,4497.435897435898,4409.2307692307695,4367.6923076923085,4351.282051282052,4713.333333333334,4325.641025641026,4227.179487179487,4168.717948717949,4630.769230769231
996.55176,0.31102806,0.37476856,0.28533316,0.60487664,0,0.0,0.0,0.0,0.0,0.0,0,0,0.0,0.0,0,0,28.0,0.0,0.0,4620.512820512821,3953.333333333334,4463.589743589744,4406.153846153847,4226.666666666667,4497.435897435898,4409.2307692307695,4367.6923076923085,4351.282051282052,4713.333333333334,4325.641025641026,4227.179487179487,4168.717948717949,4630.769230769231
996.92706,0.33672872,0.35475364,0.2797716,0.6107253,0,0.0,0.0,0.0,0.0,0.0,0,0,0.0,0.0,0,0,76.0,0.0,475.0,4655.8974358974365,3954.8717948717954,4490.769230769231,4428.205128205129,4247.179487179487,4524.102564102564,4445.128205128206,4401.025641025642,4356.410256410257,4728.205128205129,4328.717948717949,4251.794871794872,4172.307692307693,4625.641025641026
997.4275,0.25655895,0.35569,0.2747679,0.6158084,0,0.0,0.0,0.0,0.0,0.0,0,0,0.0,0.0,0,0,90.0,0.0,532.0,4670.769230769231,3942.564102564103,4490.769230769231,4428.205128205129,4238.461538461539,4509.2307692307695,4420.000000000001,4389.743589743591,4352.820512820514,4721.025641025642,4327.6923076923085,4247.6923076923085,4169.74358974359,4615.8974358974365
997.4275,0.25655895,0.35569,0.2747679,0.6158084,0,0.0,0.0,0.0,0.0,0.0,0,0,0.0,0.0,0,0,11.0,0.0,413.0,4669.743589743591,3943.589743589744,4488.717948717949,4429.2307692307695,4238.461538461539,4507.6923076923085,4417.948717948719,4383.076923076924,4353.846153846154,4705.128205128206,4321.538461538462,4222.564102564103,4144.615384615385,4600.000000000001
997.4275,0.25655895,0.35569,0.2747679,0.6158084,0,0.0,0.0,0.0,0.0,0.0,0,0,0.0,0.0,0,0,11.0,0.0,413.0,4669.743589743591,3943.589743589744,4488.717948717949,4429.2307692307695,4238.461538461539,4507.6923076923085,4417.948717948719,4383.076923076924,4353.846153846154,4705.128205128206,4321.538461538462,4222.564102564103,4144.615384615385,4600.000000000001
997.9279,0.2142091,0.37355086,0.2702664,0.6230058,0,0.0,0.0,0.0,0.0,0.0,0,0,0.0,0.0,0,0,75.0,0.0,413.0,4697.435897435898,3974.358974358975,4500.512820512821,4445.128205128206,4249.74358974359,4510.256410256411,4430.769230769231,4396.410256410257,4366.666666666667,4730.769230769231,4355.8974358974365,4255.384615384616,4176.923076923077,4608.205128205129
997.9279,0.2142091,0.37355086,0.2702664,0.6230058,0,0.0,0.0,0.0,0.0,0.0,0,0,0.0,0.0,0,0,75.0,0.0,413.0,4697.435897435898,3974.358974358975,4500.512820512821,4445.128205128206,4249.74358974359,4510.256410256411,4430.769230769231,4396.410256410257,4366.666666666667,4730.769230769231,4355.8974358974365,4255.384615384616,4176.923076923077,4608.205128205129
998.42834,0.21227756,0.39230505,0.26430264,0.62918675,0,0.0,0.0,0.0,0.0,0.0,0,0,0.0,0.0,0,0,10.0,0.0,532.0,4689.2307692307695,3987.692307692308,4496.410256410257,4436.410256410257,4273.333333333334,4538.461538461539,4436.923076923077,4406.666666666667,4369.2307692307695,4747.179487179488,4371.282051282052,4283.076923076924,4201.538461538462,4630.769230769231
998.42834,0.21227756,0.39230505,0.26430264,0.62918675,0,0.0,0.0,0.0,0.0,0.0,0,0,0.0,0.0,0,0,10.0,0.0,532.0,4689.2307692307695,3987.692307692308,4496.410256410257,4436.410256410257,4273.333333333334,4538.461538461539,4436.923076923077,4406.666666666667,4369.2307692307695,4747.179487179488,4371.282051282052,4283.076923076924,4201.538461538462,4630.769230769231
998.9288,0.22314358,0.38077396,0.25565907,0.6347457,0,0.0,0.0,0.0,0.0,0.0,0,0,0.0,0.0,0,0,74.0,0.0,532.0,4687.179487179488,3974.8717948717954,4490.256410256411,4418.974358974359,4255.8974358974365,4523.076923076924,4426.666666666667,4392.820512820514,4370.769230769231,4732.820512820514,4346.666666666667,4267.6923076923085,4189.2307692307695,4618.974358974359
998.9288,0.22314358,0.38077396,0.25565907,0.6347457,0,0.0,0.0,0.0,0.0,0.0,0,0,0.0,0.0,0,0,74.0,0.0,532.0,4687.179487179488,3974.8717948717954,4490.256410256411,4418.974358974359,4255.8974358974365,4523.076923076924,4426.666666666667,4392.820512820514,4370.769230769231,4732.820512820514,4346.666666666667,4267.6923076923085,4189.2307692307695,4618.974358974359
999.4292,0.20974393,0.34970683,0.2477292,0.63974464,0,0.0,0.0,0.0,0.0,0.0,0,0,0.0,0.0,0,0,9.0,0.0,488.0,4626.666666666667,3945.6410256410263,4446.666666666667,4374.358974358975,4249.2307692307695,4506.666666666667,4406.153846153847,4372.307692307693,4356.923076923077,4704.102564102564,4313.846153846154,4234.358974358975,4165.128205128206,4609.2307692307695
999.8045,0.20974393,0.34970683,0.2477292,0.63974464,0,0.0,0.0,0.0,0.0,0.1595169,0,0,0.0,0.0,0,0,57.0,0.0,0.0,4618.974358974359,3930.7692307692314,4447.179487179487,4359.48717948718,4231.794871794872,4496.410256410257,4391.794871794872,4360.512820512821,4349.743589743591,4687.6923076923085,4301.025641025642,4225.128205128206,4142.564102564103,4612.307692307693
1000.1799,0.19019607,0.33366573,0.23737033,0.64423925,0,0.0,0.0,0.0,0.0,0.0,0,0,0.0,0.0,0,0,105.0,0.0,502.0,4616.923076923077,3942.564102564103,4456.923076923077,4376.923076923077,4240.000000000001,4507.179487179488,4399.48717948718,4368.717948717949,4355.8974358974365,4701.025641025642,4314.358974358975,4231.794871794872,4145.641025641026,4622.051282051282
1000.43005,0.19166625,0.3182763,0.22656102,0.65236616,0,0.0,0.0,0.0,0.0,0.0,0,0,0.0,0.0,0,0,116.0,0.0,475.0,4626.153846153847,3953.8461538461543,4465.128205128206,4390.256410256411,4245.641025641026,4508.717948717949,4407.6923076923085,4369.2307692307695,4357.948717948719,4703.076923076924,4322.564102564103,4238.461538461539,4149.2307692307695,4627.6923076923085
1000.43005,0.19166625,0.3182763,0.22656102,0.65236616,0,0.0,0.0,0.0,0.0,0.0,0,0,0.0,0.0,0,0,8.0,0.0,353.0,4632.820512820514,3955.3846153846157,4467.6923076923085,4388.205128205129,4236.923076923077,4507.6923076923085,4398.461538461539,4364.615384615385,4355.384615384616,4705.641025641026,4322.051282051282,4233.846153846154,4154.871794871796,4616.923076923077
1000.80536,0.19166625,0.3182763,0.22656102,0.65236616,0,0.0,0.0,0.0,0.0,0.2811412,0,0,0.0,0.0,0,0,56.0,0.0,0.0,4642.051282051282,3973.8461538461543,4470.769230769231,4387.6923076923085,4238.974358974359,4509.743589743591,4406.666666666667,4367.6923076923085,4359.48717948718,4705.128205128206,4320.000000000001,4220.000000000001,4141.538461538462,4583.589743589744
1001.1807,0.16240042,0.32702026,0.21683714,0.6626608,0,0.0,0.0,0.0,0.0,0.0,0,0,0.0,0.0,0,0,103.0,0.0,413.0,4615.8974358974365,3971.2820512820517,4462.051282051282,4379.48717948718,4233.846153846154,4500.512820512821,4408.205128205129,4364.615384615385,4354.871794871796,4700.512820512821,4316.923076923077,4220.000000000001,4142.564102564103,4583.076923076924
1001.1807,0.16240042,0.32702026,0.21683714,0.6626608,0,0.0,0.0,0.0,0.0,0.0,0,0,0.0,0.0,0,0,104.0,0.0,475.0,4616.923076923077,3965.6410256410263,4458.974358974359,4376.410256410257,4222.564102564103,4493.333333333334,4402.564102564103,4362.051282051282,4351.282051282052,4697.948717948719,4315.384615384616,4214.358974358975,4128.205128205129,4582.564102564103
1001.4309,0.11912196,0.33688706,0.20809057,0.6719166,0,0.0,0.0,0.0,0.0,0.0,0,0,0.0,0.0,0,0,7.0,0.0,472.0,4628.717948717949,3980.0000000000005,4481.025641025642,4382.051282051282,4233.846153846154,4507.179487179488,4416.923076923077,4372.307692307693,4356.923076923077,4702.564102564103,4308.717948717949,4232.307692307693,4152.820512820514,4587.6923076923085
1001.4309,0.11912196,0.33688706,0.20809057,0.6719166,0,0.0,0.0,0.0,0.0,0.0,0,0,0.0,0.0,0,0,7.0,0.0,472.0,4628.717948717949,3980.0000000000005,4481.025641025642,4382.051282051282,4233.846153846154,4507.179487179488,4416.923076923077,4372.307692307693,4356.923076923077,4702.564102564103,4308.717948717949,4232.307692307693,4152.820512820514,4587.6923076923085
1002.1816,0.11224096,0.3438904,0.20438556,0.67289,0,0.0,0.0,0.0,0.0,0.20624097,0,0,0.0,0.0,0,0,100.0,0.0,475.0,4632.307692307693,3963.589743589744,4490.769230769231,4400.512820512821,4255.8974358974365,4530.256410256411,4440.000000000001,4403.589743589744,4367.179487179487,4752.820512820514,4364.615384615385,4292.307692307693,4214.871794871796,4611.794871794872
1002.3067,0.11224096,0.3438904,0.20438556,0.67289,0,0.0,0.0,0.0,0.0,0.0,0,0,0.0,0.0,0,0,119.0,0.0,413.0,4641.025641025642,3963.076923076924,4505.641025641026,4412.820512820514,4263.076923076924,4537.948717948719,4448.717948717949,4408.717948717949,4370.769230769231,4752.307692307693,4360.512820512821,4287.179487179487,4206.153846153847,4607.6923076923085
1002.43176,0.14088902,0.34663734,0.20382044,0.665699,0,0.0,0.0,0.0,0.0,0.0,0,0,0.0,0.0,0,0,6.0,0.0,545.0,4648.717948717949,3958.461538461539,4492.307692307693,4413.846153846154,4262.564102564103,4537.948717948719,4449.2307692307695,4421.025641025642,4380.512820512821,4765.641025641026,4378.974358974359,4309.743589743591,4226.666666666667,4614.358974358975
1002.9322,0.17743541,0.34469947,0.20331605,0.6609113,0,0.0,0.0,0.0,0.0,0.0,0,0,0.0,0.0,0,0,21.0,0.0,0.0,4656.923076923077,3956.410256410257,4493.846153846154,4415.8974358974365,4262.564102564103,4535.8974358974365,4446.666666666667,4410.769230769231,4372.820512820514,4752.820512820514,4373.846153846154,4296.410256410257,4217.435897435898,4616.410256410257
1002.9322,0.17743541,0.34469947,0.20331605,0.6609113,0,0.0,0.0,0.0,0.0,0.0,0,0,0.0,0.0,0,0,70.0,0.0,545.0,4665.128205128206,3941.538461538462,4505.641025641026,4427.179487179487,4258.461538461539,4530.769230769231,4449.2307692307695,4412.307692307693,4371.282051282052,4745.128205128206,4363.589743589744,4274.871794871796,4195.8974358974365,4583.076923076924
1002.9322,0.17743541,0.34469947,0.20331605,0.6609113,0,0.0,0.0,0.0,0.0,0.0,0,0,0.0,0.0,0,0,70.0,0.0,545.0,4665.128205128206,3941.538461538462,4505.641025641026,4427.179487179487,4258.461538461539,4530.769230769231,4449.2307692307695,4412.307692307693,4371.282051282052,4745.128205128206,4363.589743589744,4274.871794871796,4195.8974358974365,4583.076923076924
1003.4326,0.19402261,0.3568715,0.20286636,0.65660053,0,0.0,0.0,0.0,0.0,0.0,0,0,0.0,0.0,0,0,5.0,0.0,518.0,4655.8974358974365,3956.410256410257,4503.589743589744,4424.615384615385,4249.2307692307695,4521.538461538462,4428.717948717949,4392.820512820514,4369.743589743591,4729.743589743591,4344.615384615385,4257.948717948719,4179.48717948718,4569.2307692307695
1003.4326,0.19402261,0.3568715,0.20286636,0.65660053,0,0.0,0.0,0.0,0.0,0.0,0,0,0.0,0.0,0,0,5.0,0.0,518.0,4655.8974358974365,3956.410256410257,4503.589743589744,4424.615384615385,4249.2307692307695,4521.538461538462,4428.717948717949,4392.820512820514,4369.743589743591,4729.743589743591,4344.615384615385,4257.948717948719,4179.48717948718,4569.2307692307695
1003.93304,0.20439696,0.36188054,0.20304477,0.6527189,0,0.0,0.0,0.0,0.0,0.0,0,0,0.0,0.0,0,0,69.0,0.0,518.0,4585.641025641026,3929.7435897435903,4460.000000000001,4365.641025641026,4235.8974358974365,4505.128205128206,4406.153846153847,4377.435897435898,4368.205128205129,4721.538461538462,4336.923076923077,4246.666666666667,4170.769230769231,4536.923076923077
1003.93304,0.20439696,0.36188054,0.20304477,0.6527189,0,0.0,0.0,0.0,0.0,0.0,0,0,0.0,0.0,0,0,69.0,0.0,518.0,4585.641025641026,3929.7435897435903,4460.000000000001,4365.641025641026,4235.8974358974365,4505.128205128206,4406.153846153847,4377.435897435898,4368.205128205129,4721.538461538462,4336.923076923077,4246.666666666667,4170.769230769231,4536.923076923077
1004.43353,0.2128897,0.36664692,0.2032095,0.6492234,0,0.0,0.0,0.0,0.0,0.0,0,0,0.0,0.0,0,0,4.0,0.0,501.0,4602.051282051282,3919.48717948718,4459.48717948718,4347.179487179487,4236.410256410257,4501.025641025642,4394.871794871796,4366.666666666667,4396.410256410257,4713.333333333334,4324.615384615385,4232.820512820514,4171.282051282052,4508.717948717949
1004.93396,0.20950387,0.37499943,0.20377427,0.6453794,0,0.0,0.0,0.0,0.0,0.0,0,0,0.0,0.0,0,0,15.0,0.0,532.0,4601.025641025642,3914.8717948717954,4461.538461538462,4349.743589743591,4233.333333333334,4500.512820512821,4392.820512820514,4364.615384615385,4401.025641025642,4718.461538461539,4334.358974358975,4233.333333333334,4186.153846153847,4511.794871794872
1004.93396,0.20950387,0.37499943,0.20377427,0.6453794,0,0.0,0.0,0.0,0.0,0.0,0,0,0.0,0.0,0,0,68.0,0.0,501.0,4601.538461538462,3907.692307692308,4457.435897435898,4340.512820512821,4243.589743589744,4505.128205128206,4391.282051282052,4360.000000000001,4387.179487179487,4697.948717948719,4314.358974358975,4217.435897435898,4133.333333333334,4473.846153846154
1004.93396,0.20950387,0.37499943,0.20377427,0.6453794,0,0.0,0.0,0.0,0.0,0.0,0,0,0.0,0.0,0,0,68.0,0.0,501.0,4601.538461538462,3907.692307692308,4457.435897435898,4340.512820512821,4243.589743589744,4505.128205128206,4391.282051282052,4360.000000000001,4387.179487179487,4697.948717948719,4314.358974358975,4217.435897435898,4133.333333333334,4473.846153846154
1005.4344,0.23668325,0.37043127,0.20799701,0.64490086,0,0.0,0.0,0.0,0.0,0.0,0,0,0.0,0.0,0,0,3.0,0.0,424.0,4614.871794871796,3917.435897435898,4473.333333333334,4382.564102564103,4229.2307692307695,4505.641025641026,4402.564102564103,4365.128205128206,4382.564102564103,4706.666666666667,4320.000000000001,4229.2307692307695,4149.74358974359,4517.948717948719
1005.4344,0.23668325,0.37043127,0.20799701,0.64490086,0,0.0,0.0,0.0,0.0,0.0,0,0,0.0,0.0,0,0,3.0,0.0,424.0,4614.871794871796,3917.435897435898,4473.333333333334,4382.564102564103,4229.2307692307695,4505.641025641026,4402.564102564103,4365.128205128206,4382.564102564103,4706.666666666667,4320.000000000001,4229.2307692307695,4149.74358974359,4517.948717948719
1005.9348,0.2294455,0.3831187,0.21409145,0.6460486,0,0.0,0.0,0.0,0.0,0.0,0,0,0.0,0.0,0,0,67.0,0.0,424.0,4670.769230769231,3943.076923076924,4489.2307692307695,4410.769230769231,4242.564102564103,4507.6923076923085,4399.48717948718,4354.871794871796,4380.000000000001,4700.512820512821,4314.358974358975,4213.333333333334,4142.051282051282,4511.794871794872
1006.3101,0.2294455,0.3831187,0.21409145,0.6460486,0,0.0,0.0,0.0,0.0,0.9130236,0,0,0.0,0.0,0,0,115.0,0.0,413.0,4637.948717948719,3908.717948717949,4452.820512820514,4382.051282051282,4232.307692307693,4505.128205128206,4405.641025641026,4363.589743589744,4377.948717948719,4709.2307692307695,4329.2307692307695,4229.2307692307695,4157.435897435898,4549.743589743591
1006.6854,0.15901545,0.3866328,0.21984306,0.64401054,0,0.0,0.0,0.0,0.0,0.15282033,0,0,0.0,0.0,0,0,34.0,0.0,0.0,4630.256410256411,3895.8974358974365,4461.538461538462,4382.564102564103,4230.769230769231,4492.307692307693,4399.48717948718,4363.589743589744,4369.2307692307695,4707.179487179488,4338.974358974359,4249.2307692307695,4158.974358974359,4549.743589743591
1006.81055,0.15901545,0.3866328,0.21984306,0.64401054,0,0.0,0.0,0.0,0.0,0.3088813,0,0,0.0,0.0,0,0,50.0,0.0,0.0,4616.410256410257,3907.692307692308,4460.512820512821,4397.948717948719,4224.615384615385,4490.769230769231,4395.384615384616,4352.307692307693,4364.615384615385,4696.410256410257,4329.2307692307695,4220.000000000001,4155.384615384616,4546.153846153847
1007.18585,0.14062211,0.3977506,0.22607052,0.6378473,0,0.0,0.0,0.0,0.0,0.29826486,0,0,0.0,0.0,0,0,98.0,0.0,532.0,4634.358974358975,3878.9743589743593,4476.410256410257,4415.8974358974365,4220.000000000001,4489.2307692307695,4403.589743589744,4362.564102564103,4368.717948717949,4702.564102564103,4332.307692307693,4232.820512820514,4153.846153846154,4523.589743589744
1007.311,0.14062211,0.3977506,0.22607052,0.6378473,0,0.0,0.0,0.0,0.0,0.71795905,0,0,0.0,0.0,0,0,114.0,0.0,532.0,4645.641025641026,3880.512820512821,4472.307692307693,4418.461538461539,4221.025641025642,4491.794871794872,4412.307692307693,4370.769230769231,4369.743589743591,4710.769230769231,4342.564102564103,4233.846153846154,4173.333333333334,4514.358974358975
1007.6863,0.1315731,0.41001448,0.23327729,0.6366268,0,0.0,0.0,0.0,0.0,0.19142008,0,0,0.0,0.0,0,0,33.0,0.0,0.0,4655.384615384616,3925.6410256410263,4489.743589743591,4442.564102564103,4234.358974358975,4501.025641025642,4422.564102564103,4374.358974358975,4368.205128205129,4720.512820512821,4349.743589743591,4221.538461538462,4171.794871794872,4523.076923076924
1007.8114,0.1315731,0.41001448,0.23327729,0.6366268,0,0.0,0.0,0.0,0.0,0.2520821,0,0,0.0,0.0,0,0,49.0,0.0,0.0,4648.205128205129,3940.0000000000005,4484.102564102564,4440.512820512821,4233.333333333334,4506.153846153847,4426.153846153847,4378.461538461539,4370.769230769231,4720.512820512821,4347.179487179487,4242.564102564103,4178.461538461539,4534.358974358975
1008.1867,0.1493182,0.4022298,0.23816596,0.6385951,0,0.0,0.0,0.0,0.0,0.15818289,0,0,0.0,0.0,0,0,97.0,0.0,502.0,4646.153846153847,3960.0000000000005,4491.794871794872,4442.564102564103,4247.179487179487,4511.282051282052,4435.8974358974365,4377.948717948719,4370.256410256411,4720.000000000001,4348.717948717949,4235.384615384616,4173.846153846154,4540.512820512821
1008.3118,0.1493182,0.4022298,0.23816596,0.6385951,0,0.0,0.0,0.0,0.0,0.090339035,0,0,0.0,0.0,0,0,113.0,0.0,502.0,4633.333333333334,3956.410256410257,4480.512820512821,4429.2307692307695,4243.589743589744,4508.205128205129,4432.307692307693,4374.871794871796,4370.769230769231,4712.307692307693,4346.666666666667,4219.48717948718,4152.307692307693,4532.307692307693
1008.43695,0.14854929,0.38677162,0.24256824,0.64087874,0,0.0,0.0,0.0,0.0,0.0,0,0,0.0,0.0,0,0,0.0,0.0,508.0,4615.384615384616,3956.9230769230776,4469.2307692307695,4426.153846153847,4249.74358974359,4517.948717948719,4440.000000000001,4377.435897435898,4369.743589743591,4716.923076923077,4353.333333333334,4221.025641025642,4169.2307692307695,4535.384615384616
1008.9374,0.1374067,0.37516764,0.24590102,0.6451014,0,0.0,0.0,0.0,0.0,0.0,0,0,0.0,0.0,0,0,14.0,0.0,502.0,4620.000000000001,3961.0256410256416,4489.2307692307695,4429.2307692307695,4248.205128205129,4516.410256410257,4434.871794871796,4378.461538461539,4367.6923076923085,4723.589743589744,4368.205128205129,4241.538461538462,4184.615384615385,4545.641025641026
1008.9374,0.1374067,0.37516764,0.24590102,0.6451014,0,0.0,0.0,0.0,0.0,0.0,0,0,0.0,0.0,0,0,64.0,0.0,508.0,4631.282051282052,3965.1282051282055,4491.794871794872,4445.641025641026,4263.076923076924,4525.128205128206,4436.410256410257,4378.461538461539,4372.820512820514,4720.000000000001,4363.589743589744,4244.102564102564,4173.846153846154,4536.923076923077
1009.4378,0.13682488,0.36093664,0.24768434,0.65055674,0,0.0,0.0,0.0,0.0,0.0,0,0,0.0,0.0,0,0,73.0,0.0,488.0,4625.128205128206,3959.48717948718,4483.076923076924,4441.538461538462,4252.820512820514,4527.179487179488,4441.025641025642,4388.717948717949,4377.435897435898,4727.6923076923085,4364.102564102564,4240.000000000001,4178.974358974359,4551.794871794872
1009.4378,0.13682488,0.36093664,0.24768434,0.65055674,0,0.0,0.0,0.0,0.0,0.0,0,0,0.0,0.0,0,0,128.0,0.0,475.0,4612.307692307693,3977.435897435898,4492.820512820514,4454.871794871796,4258.461538461539,4530.256410256411,4434.871794871796,4385.128205128206,4378.461538461539,4733.333333333334,4356.410256410257,4263.076923076924,4182.051282051282,4613.846153846154
1009.4378,0.13682488,0.36093664,0.24768434,0.65055674,0,0.0,0.0,0.0,0.0,0.0,0,0,0.0,0.0,0,0,128.0,0.0,475.0,4612.307692307693,3977.435897435898,4492.820512820514,4454.871794871796,4258.461538461539,4530.256410256411,4434.871794871796,4385.128205128206,4378.461538461539,4733.333333333334,4356.410256410257,4263.076923076924,4182.051282051282,4613.846153846154
1009.93823,0.1396089,0.35935545,0.24928823,0.655461,0,0.0,0.0,0.0,0.0,0.0,0,0,0.0,0.0,0,0,63.0,0.0,0.0,4643.589743589744,3977.9487179487182,4505.641025641026,4463.076923076924,4253.846153846154,4526.153846153847,4442.564102564103,4394.871794871796,4383.076923076924,4752.820512820514,4361.025641025642,4278.974358974359,4207.6923076923085,4636.923076923077
1009.93823,0.1396089,0.35935545,0.24928823,0.655461,0,0.0,0.0,0.0,0.0,0.0,0,0,0.0,0.0,0,0,63.0,0.0,0.0,4643.589743589744,3977.9487179487182,4505.641025641026,4463.076923076924,4253.846153846154,4526.153846153847,4442.564102564103,4394.871794871796,4383.076923076924,4752.820512820514,4361.025641025642,4278.974358974359,4207.6923076923085,4636.923076923077
1010.43866,0.14052062,0.35740724,0.24883384,0.6581293,0,0.0,0.0,0.0,0.0,0.0,0,0,0.0,0.0,0,0,127.0,0.0,413.0,4648.717948717949,3972.307692307693,4506.666666666667,4445.641025641026,4265.128205128206,4530.256410256411,4447.179487179487,4399.48717948718,4383.076923076924,4739.48717948718,4360.512820512821,4277.948717948719,4199.48717948718,4638.461538461539
1010.43866,0.14052062,0.35740724,0.24883384,0.6581293,0,0.0,0.0,0.0,0.0,0.0,0,0,0.0,0.0,0,0,127.0,0.0,413.0,4648.717948717949,3972.307692307693,4506.666666666667,4445.641025641026,4265.128205128206,4530.256410256411,4447.179487179487,4399.48717948718,4383.076923076924,4739.48717948718,4360.512820512821,4277.948717948719,4199.48717948718,4638.461538461539
1010.9391,0.14493261,0.35164356,0.24842738,0.6564623,0,0.0,0.0,0.0,0.0,0.0,0,0,0.0,0.0,0,0,62.0,0.0,0.0,4629.743589743591,3979.48717948718,4511.794871794872,4421.538461538462,4263.076923076924,4529.2307692307695,4443.589743589744,4393.846153846154,4371.794871794872,4704.615384615386,4341.025641025642,4230.256410256411,4166.153846153847,4581.025641025642
1010.9391,0.14493261,0.35164356,0.24842738,0.6564623,0,0.0,0.0,0.0,0.0,0.0,0,0,0.0,0.0,0,0,62.0,0.0,0.0,4629.743589743591,3979.48717948718,4511.794871794872,4421.538461538462,4263.076923076924,4529.2307692307695,4443.589743589744,4393.846153846154,4371.794871794872,4704.615384615386,4341.025641025642,4230.256410256411,4166.153846153847,4581.025641025642
1011.4395,0.15825497,0.34008163,0.24747804,0.64926785,0,0.0,0.0,0.0,0.0,0.0,0,0,0.0,0.0,0,0,126.0,0.0,532.0,4634.358974358975,3988.717948717949,4516.923076923077,4494.871794871796,4272.820512820514,4541.025641025642,4446.153846153847,4395.8974358974365,4386.666666666667,4721.025641025642,4350.769230769231,4263.076923076924,4167.6923076923085,4602.564102564103
1011.4395,0.15825497,0.34008163,0.24747804,0.64926785,0,0.0,0.0,0.0,0.0,0.0,0,0,0.0,0.0,0,0,126.0,0.0,532.0,4634.358974358975,3988.717948717949,4516.923076923077,4494.871794871796,4272.820512820514,4541.025641025642,4446.153846153847,4395.8974358974365,4386.666666666667,4721.025641025642,4350.769230769231,4263.076923076924,4167.6923076923085,4602.564102564103
1011.93994,0.18858719,0.34266907,0.24721242,0.64279205,0,0.0,0.0,0.0,0.0,0.0,0,0,0.0,0.0,0,0,61.0,0.0,0.0,4660.512820512821,4003.589743589744,4522.564102564103,4479.48717948718,4276.410256410257,4554.358974358975,4456.410256410257,4408.205128205129,4394.358974358975,4727.6923076923085,4362.051282051282,4266.153846153847,4185.641025641026,4622.051282051282
1011.93994,0.18858719,0.34266907,0.24721242,0.64279205,0,0.0,0.0,0.0,0.0,0.0,0,0,0.0,0.0,0,0,61.0,0.0,0.0,4660.512820512821,4003.589743589744,4522.564102564103,4479.48717948718,4276.410256410257,4554.358974358975,4456.410256410257,4408.205128205129,4394.358974358975,4727.6923076923085,4362.051282051282,4266.153846153847,4185.641025641026,4622.051282051282
1012.44037,0.17496301,0.3386951,0.2457458,0.63696283,0,0.0,0.0,0.0,0.0,0.0,0,0,0.0,0.0,0,0,125.0,0.0,502.0,4669.2307692307695,4000.0000000000005,4542.051282051282,4476.923076923077,4295.384615384616,4565.641025641026,4469.2307692307695,4430.769230769231,4399.48717948718,4767.179487179488,4400.000000000001,4282.051282051282,4233.333333333334,4625.641025641026
1012.9408,0.17466141,0.3404038,0.24440208,0.6317399,0,0.0,0.0,0.0,0.0,0.0,0,0,0.0,0.0,0,0,13.0,0.0,502.0,4668.205128205129,3997.435897435898,4537.948717948719,4474.358974358975,4301.538461538462,4575.384615384616,4477.435897435898,4441.025641025642,4400.000000000001,4766.153846153847,4396.923076923077,4276.410256410257,4226.666666666667,4623.589743589744
1013.19104,0.17466141,0.3404038,0.24440208,0.6317399,0,0.0,0.0,0.0,0.0,0.0,0,0,0.0,0.1450669,0,0,92.0,0.0,466.0,4655.8974358974365,4020.5128205128212,4543.589743589744,4476.923076923077,4314.871794871796,4584.102564102564,4483.076923076924,4437.435897435898,4413.333333333334,4790.256410256411,4677.435897435898,4263.076923076924,4215.8974358974365,4593.333333333334
1013.4412,0.19106252,0.3533128,0.24444307,0.6270168,0,0.0,0.0,0.0,0.0,0.0,0,0,0.0,0.0,0,0,115.0,0.0,413.0,4668.717948717949,4034.358974358975,4548.205128205129,4478.461538461539,4308.717948717949,4582.564102564103,4477.948717948719,4432.820512820514,4411.794871794872,4788.205128205129,4646.153846153847,4266.153846153847,4224.102564102564,4587.6923076923085
1013.4412,0.19106252,0.3533128,0.24444307,0.6270168,0,0.0,0.0,0.0,0.0,0.0,0,0,0.0,0.0,0,0,124.0,0.0,466.0,4656.923076923077,4025.6410256410263,4528.205128205129,4473.333333333334,4306.666666666667,4575.8974358974365,4469.743589743591,4419.48717948718,4408.205128205129,4766.666666666667,4615.384615384616,4247.179487179487,4200.512820512821,4580.000000000001
1013.94165,0.20515224,0.3554642,0.2503294,0.6211587,0,0.0,0.0,0.0,0.0,0.0,0,0,0.0,0.0,0,0,7.0,0.0,473.0,4667.6923076923085,4030.7692307692314,4533.333333333334,4475.384615384616,4307.6923076923085,4581.025641025642,4474.871794871796,4426.153846153847,4412.307692307693,4774.871794871796,4596.923076923077,4266.666666666667,4207.6923076923085,4576.410256410257
