timestamp,excitement,frustration,meditation,engagementBoredom,blink,clench,laugh,smile,eyebrow,furrowBrow,lookLeft,lookRight,smirkLeft,smirkRight,winkLeft,winkRight,eeg0,eeg1,eeg2,eeg3,eeg4,eeg5,eeg6,eeg7,eeg8,eeg9,eeg10,eeg11,eeg12,eeg13,eeg14,eeg15,eeg16
1388.756,0.6476602,0.69801843,0.35935366,0.6244183,0,0.0,0.0,0.0,0.0,0.0,0,0,0.0,0.0,0,0,7.0,0.0,475.0,4554.871794871796,3958.461538461539,4541.025641025642,4505.128205128206,4247.179487179487,4529.2307692307695,4464.615384615385,4427.179487179487,4419.48717948718,4748.205128205129,4358.461538461539,4280.000000000001,4196.410256410257,4521.538461538462
1389.2563,0.59156823,0.67215455,0.3633701,0.6228334,0,0.0,0.0,0.0,0.0,0.72319967,0,0,0.0,0.0,0,0,71.0,0.0,475.0,4607.179487179488,3971.7948717948725,4553.846153846154,4504.102564102564,4237.435897435898,4518.974358974359,4462.564102564103,4422.564102564103,4415.384615384616,4743.589743589744,4356.923076923077,4283.076923076924,4185.128205128206,4538.974358974359
1389.5066,0.59156823,0.67215455,0.3633701,0.6228334,0,0.0,0.0,0.0,0.0,0.46034884,0,0,0.0,0.0,0,0,103.0,0.0,408.0,4616.923076923077,3965.6410256410263,4551.282051282052,4492.820512820514,4248.205128205129,4524.615384615385,4461.025641025642,4418.461538461539,4417.948717948719,4732.820512820514,4331.282051282052,4260.000000000001,4165.128205128206,4510.256410256411
1389.7568,0.6234088,0.65681005,0.36698425,0.6229234,0,0.0,0.0,0.0,0.0,0.1860294,0,0,0.0,0.0,0,0,6.0,0.0,547.0,4665.128205128206,3957.9487179487182,4527.6923076923085,4460.512820512821,4223.589743589744,4494.358974358975,4417.948717948719,4392.820512820514,4405.641025641026,4736.923076923077,4590.256410256411,4240.000000000001,4152.307692307693,4506.666666666667
1390.0071,0.6234088,0.65681005,0.36698425,0.6229234,0,0.0,0.0,0.0,0.0,0.0,0,0,0.0,0.046713915,0,0,38.0,0.0,0.0,4633.846153846154,3941.538461538462,4515.8974358974365,4426.666666666667,4213.333333333334,4483.589743589744,4410.769230769231,4390.256410256411,4396.410256410257,4730.256410256411,4564.102564102564,4280.000000000001,4178.974358974359,4535.8974358974365
1390.2572,0.5643627,0.64584076,0.3658062,0.6230029,0,0.0,0.0,0.0,0.0,0.64293504,0,0,0.0,0.0,0,0,70.0,0.0,547.0,4585.128205128206,3912.820512820513,4476.923076923077,4380.000000000001,4205.128205128206,4481.025641025642,4415.384615384616,4399.48717948718,4402.564102564103,4740.512820512821,4515.8974358974365,4275.8974358974365,4189.74358974359,4539.48717948718
1390.5074,0.5643627,0.64584076,0.3658062,0.6230029,0,0.0,0.0,0.0,0.0,0.067887284,0,0,0.0,0.0,0,0,102.0,0.0,536.0,4584.102564102564,3938.9743589743593,4472.820512820514,4371.794871794872,4216.923076923077,4488.717948717949,4410.769230769231,4378.974358974359,4393.846153846154,4716.923076923077,4461.538461538462,4236.410256410257,4160.512820512821,4517.435897435898
1390.7577,0.5358817,0.6453947,0.36076656,0.6310497,0,0.0,0.0,0.0,0.0,0.36585563,0,0,0.0,0.0,0,0,5.0,0.0,521.0,4600.512820512821,3953.8461538461543,4469.743589743591,4363.076923076924,4208.205128205129,4490.256410256411,4401.538461538462,4369.2307692307695,4386.666666666667,4715.384615384616,4425.128205128206,4241.538461538462,4158.974358974359,4532.820512820514
1391.0079,0.5358817,0.6453947,0.36076656,0.6310497,0,0.0,0.0,0.0,0.0,0.26081726,0,0,0.0,0.0,0,0,37.0,0.0,0.0,4603.076923076924,3956.9230769230776,4484.102564102564,4373.333333333334,4202.564102564103,4489.743589743591,4409.743589743591,4379.48717948718,4392.307692307693,4732.307692307693,4423.589743589744,4262.051282051282,4188.205128205129,4541.538461538462
1391.2582,0.59526944,0.6413668,0.35623035,0.6380552,0,0.0,0.0,0.0,0.0,0.74132925,0,0,0.0,0.0,0,0,69.0,0.0,521.0,4617.948717948719,3913.8461538461543,4441.025641025642,4346.666666666667,4182.051282051282,4461.538461538462,4374.871794871796,4334.871794871796,4363.076923076924,4672.307692307693,4340.512820512821,4197.948717948719,4125.641025641026,4519.48717948718
1391.3832,0.59526944,0.6413668,0.35623035,0.6380552,0,0.0,0.0,0.0,0.0,1.0,0,0,0.0,0.0,0,0,85.0,0.0,501.0,4632.820512820514,3921.538461538462,4443.076923076924,4358.974358974359,4186.666666666667,4465.641025641026,4385.128205128206,4343.076923076924,4362.564102564103,4687.179487179488,4343.589743589744,4212.820512820514,4146.666666666667,4531.794871794872
1391.7585,0.66892725,0.6166567,0.35088074,0.6356619,0,0.0,0.0,0.0,0.0,0.0,0,0,0.0,0.0,0,0,4.0,0.0,507.0,4638.974358974359,3923.076923076924,4466.153846153847,4386.153846153847,4190.256410256411,4471.282051282052,4407.6923076923085,4369.743589743591,4291.794871794872,4709.743589743591,4348.717948717949,4236.410256410257,4169.74358974359,4536.923076923077
1391.7585,0.66892725,0.6166567,0.35088074,0.6356619,0,0.0,0.0,0.0,0.0,0.0,0,0,0.0,0.0,0,0,4.0,0.0,507.0,4638.974358974359,3923.076923076924,4466.153846153847,4386.153846153847,4190.256410256411,4471.282051282052,4407.6923076923085,4369.743589743591,4291.794871794872,4709.743589743591,4348.717948717949,4236.410256410257,4169.74358974359,4536.923076923077
1392.2668,0.6452421,0.593524,0.34672633,0.6335065,0,0.0,0.0,0.0,0.0,0.0,0,0,0.0,0.0,0,0,68.0,0.0,507.0,4601.538461538462,3904.615384615385,4454.358974358975,4384.102564102564,4191.794871794872,4465.641025641026,4411.282051282052,4370.256410256411,3998.9743589743593,4702.564102564103,4326.666666666667,4239.48717948718,4170.256410256411,4536.923076923077
1392.2668,0.6452421,0.593524,0.34672633,0.6335065,0,0.0,0.0,0.0,0.0,0.0,0,0,0.0,0.0,0,0,68.0,0.0,507.0,4601.538461538462,3904.615384615385,4454.358974358975,4384.102564102564,4191.794871794872,4465.641025641026,4411.282051282052,4370.256410256411,3998.9743589743593,4702.564102564103,4326.666666666667,4239.48717948718,4170.256410256411,4536.923076923077
1392.7672,0.6169633,0.5868842,0.34521958,0.63009316,0,0.0,0.0,0.0,0.0,0.16479102,0,0,0.0,0.0,0,0,3.0,0.0,435.0,4640.512820512821,3915.3846153846157,4495.8974358974365,4416.923076923077,4218.461538461539,4492.307692307693,4431.282051282052,4394.358974358975,4283.589743589744,4724.102564102564,4342.051282051282,4287.179487179487,4202.564102564103,4538.974358974359
1393.0175,0.6169633,0.5868842,0.34521958,0.63009316,0,0.0,0.0,0.0,0.0,0.5970582,0,0,0.0,0.0,0,0,35.0,0.0,0.0,4630.769230769231,3923.589743589744,4503.589743589744,4422.051282051282,4230.769230769231,4506.666666666667,4454.871794871796,4413.333333333334,4333.333333333334,4731.794871794872,4344.102564102564,4297.435897435898,4209.74358974359,4537.435897435898
1393.2677,0.56625944,0.5688052,0.34864593,0.62466526,0,0.0,0.0,0.0,0.0,0.0,0,0,0.0,0.0,0,0,67.0,0.0,435.0,4628.717948717949,3955.3846153846157,4541.025641025642,4458.974358974359,4236.410256410257,4522.051282051282,4464.615384615385,4428.205128205129,4330.256410256411,4762.564102564103,4360.000000000001,4338.461538461539,4253.333333333334,4565.128205128206
1393.2677,0.56625944,0.5688052,0.34864593,0.62466526,0,0.0,0.0,0.0,0.0,0.0,0,0,0.0,0.0,0,0,67.0,0.0,435.0,4628.717948717949,3955.3846153846157,4541.025641025642,4458.974358974359,4236.410256410257,4522.051282051282,4464.615384615385,4428.205128205129,4330.256410256411,4762.564102564103,4360.000000000001,4338.461538461539,4253.333333333334,4565.128205128206
1393.7681,0.4906152,0.5472413,0.35054585,0.61864233,0,0.0,0.0,0.0,0.0,0.0,0,0,0.0,0.0,0,0,2.0,0.0,361.0,4600.000000000001,3945.6410256410263,4507.6923076923085,4456.410256410257,4238.461538461539,4524.102564102564,4463.589743589744,4425.641025641026,4282.051282051282,4751.794871794872,4342.564102564103,4286.666666666667,4208.205128205129,4536.923076923077
1393.7681,0.4906152,0.5472413,0.35054585,0.61864233,0,0.0,0.0,0.0,0.0,0.0,0,0,0.0,0.0,0,0,2.0,0.0,361.0,4600.000000000001,3945.6410256410263,4507.6923076923085,4456.410256410257,4238.461538461539,4524.102564102564,4463.589743589744,4425.641025641026,4282.051282051282,4751.794871794872,4342.564102564103,4286.666666666667,4208.205128205129,4536.923076923077
1394.2686,0.42382807,0.55751634,0.34747094,0.61322105,0,0.0,0.0,0.0,0.0,0.0,0,0,0.0,0.0,0,0,66.0,0.0,361.0,4670.256410256411,3961.538461538462,4548.205128205129,4491.282051282052,4190.769230769231,4500.000000000001,4469.743589743591,4425.641025641026,4333.333333333334,4742.564102564103,4339.48717948718,4291.794871794872,4218.461538461539,4552.307692307693
1394.5187,0.42382807,0.55751634,0.34747094,0.61322105,0,0.0,0.0,0.0,0.0,0.032056507,0,0,0.0,0.0,0,0,98.0,0.0,536.0,4661.025641025642,3950.7692307692314,4537.948717948719,4490.769230769231,4185.641025641026,4479.48717948718,4469.2307692307695,4425.641025641026,4407.179487179487,4735.384615384616,4341.538461538462,4290.769230769231,4215.384615384616,4565.641025641026
1394.7689,0.37111714,0.55604523,0.3494887,0.60834116,0,0.0,0.0,0.0,0.0,0.6547527,0,0,0.0,0.0,0,0,1.0,0.0,418.0,4640.000000000001,3919.48717948718,4494.358974358975,4462.051282051282,4177.435897435898,4461.538461538462,4451.282051282052,4411.282051282052,4409.2307692307695,4726.153846153847,4338.974358974359,4294.358974358975,4221.025641025642,4585.641025641026
1394.894,0.37111714,0.55604523,0.3494887,0.60834116,0,0.0,0.0,0.0,0.0,0.0,0,0,0.0,0.0,0,0,17.0,0.0,0.0,4656.923076923077,3921.0256410256416,4484.615384615385,4456.410256410257,4176.410256410257,4458.461538461539,4433.846153846154,4393.333333333334,4403.076923076924,4704.615384615386,4315.384615384616,4267.6923076923085,4180.512820512821,4563.589743589744
1395.2694,0.3208754,0.578756,0.3575882,0.5989157,0,0.0,0.0,0.0,0.0,0.0,0,0,0.0,0.0,0,0,65.0,0.0,418.0,4643.076923076924,3912.307692307693,4461.538461538462,4444.615384615385,4185.128205128206,4441.538461538462,4417.435897435898,4386.666666666667,4403.589743589744,4700.512820512821,4305.641025641026,4263.076923076924,4182.564102564103,4569.2307692307695
1395.2694,0.3208754,0.578756,0.3575882,0.5989157,0,0.0,0.0,0.0,0.0,0.0,0,0,0.0,0.0,0,0,65.0,0.0,418.0,4643.076923076924,3912.307692307693,4461.538461538462,4444.615384615385,4185.128205128206,4441.538461538462,4417.435897435898,4386.666666666667,4403.589743589744,4700.512820512821,4305.641025641026,4263.076923076924,4182.564102564103,4569.2307692307695
1395.7698,0.29975712,0.59898365,0.36246392,0.59546614,0,0.0,0.0,0.0,0.0,0.0,0,0,0.0,0.0,0,0,0.0,0.0,511.0,4634.871794871796,3910.2564102564106,4454.871794871796,4444.102564102564,4206.153846153847,4474.358974358975,4384.102564102564,4352.820512820514,4388.205128205129,4650.256410256411,4253.846153846154,4198.974358974359,4106.153846153847,4546.666666666667
1395.7698,0.29975712,0.59898365,0.36246392,0.59546614,0,0.0,0.0,0.0,0.0,0.0,0,0,0.0,0.0,0,0,0.0,0.0,511.0,4634.871794871796,3910.2564102564106,4454.871794871796,4444.102564102564,4206.153846153847,4474.358974358975,4384.102564102564,4352.820512820514,4388.205128205129,4650.256410256411,4253.846153846154,4198.974358974359,4106.153846153847,4546.666666666667
1396.2703,0.26511535,0.621427,0.3621474,0.5952916,0,0.0,0.0,0.0,0.0,0.13202399,0,0,0.0,0.0,0,0,64.0,0.0,511.0,4615.8974358974365,3881.538461538462,4451.794871794872,4438.461538461539,4200.000000000001,4472.820512820514,4384.615384615385,4377.435897435898,4391.282051282052,4687.6923076923085,4302.051282051282,4247.6923076923085,4172.820512820514,4551.794871794872
1396.5205,0.26511535,0.621427,0.3621474,0.5952916,0,0.0,0.0,0.0,0.0,0.14606595,0,0,0.0,0.0,0,0,96.0,0.0,488.0,4583.589743589744,3876.410256410257,4444.615384615385,4426.666666666667,4197.435897435898,4471.794871794872,4388.205128205129,4381.025641025642,4386.153846153847,4688.205128205129,4306.153846153847,4246.153846153847,4166.153846153847,4541.538461538462
1396.7706,0.24701104,0.6365982,0.36324123,0.59857726,0,0.0,0.0,0.0,0.0,0.0,0,0,0.0,0.0,0,0,128.0,0.0,488.0,4585.128205128206,3887.692307692308,4463.076923076924,4442.564102564103,4204.102564102564,4480.000000000001,4396.923076923077,4384.102564102564,4392.307692307693,4692.307692307693,4313.333333333334,4251.282051282052,4168.205128205129,4522.564102564103
1396.7706,0.24701104,0.6365982,0.36324123,0.59857726,0,0.0,0.0,0.0,0.0,0.0,0,0,0.0,0.0,0,0,128.0,0.0,488.0,4585.128205128206,3887.692307692308,4463.076923076924,4442.564102564103,4204.102564102564,4480.000000000001,4396.923076923077,4384.102564102564,4392.307692307693,4692.307692307693,4313.333333333334,4251.282051282052,4168.205128205129,4522.564102564103
1397.2711,0.23574798,0.650225,0.37118086,0.603626,0,0.0,0.0,0.0,0.0,0.0,0,0,0.0,0.0,0,0,63.0,0.0,0.0,4600.512820512821,3898.461538461539,4474.358974358975,4435.8974358974365,4202.564102564103,4477.435897435898,4392.307692307693,4365.128205128206,4371.794871794872,4669.2307692307695,4288.717948717949,4222.564102564103,4122.564102564103,4524.102564102564
1397.2711,0.23574798,0.650225,0.37118086,0.603626,0,0.0,0.0,0.0,0.0,0.0,0,0,0.0,0.0,0,0,63.0,0.0,0.0,4600.512820512821,3898.461538461539,4474.358974358975,4435.8974358974365,4202.564102564103,4477.435897435898,4392.307692307693,4365.128205128206,4371.794871794872,4669.2307692307695,4288.717948717949,4222.564102564103,4122.564102564103,4524.102564102564
1397.7793,0.24457435,0.6572699,0.37181973,0.6081684,0,0.0,0.0,0.0,0.0,0.6281569,0,0,0.0,0.0,0,0,127.0,0.0,408.0,4598.974358974359,3895.3846153846157,4462.051282051282,4411.282051282052,4197.435897435898,4472.820512820514,4396.923076923077,4376.923076923077,4369.743589743591,4685.641025641026,4302.051282051282,4265.128205128206,4164.615384615385,4566.153846153847
1398.0295,0.24457435,0.6572699,0.37181973,0.6081684,0,0.0,0.0,0.0,0.0,0.48583815,0,0,0.0,0.0,0,0,30.0,0.0,0.0,4617.948717948719,3901.0256410256416,4456.923076923077,4402.564102564103,4191.794871794872,4466.666666666667,4387.6923076923085,4361.025641025642,4370.256410256411,4682.564102564103,4297.435897435898,4247.179487179487,4161.025641025642,4569.743589743591
1398.2798,0.20695595,0.6482659,0.3698985,0.6122551,0,0.0,0.0,0.0,0.0,0.0,0,0,0.0,0.0,0,0,62.0,0.0,0.0,4633.333333333334,3912.307692307693,4464.615384615385,4390.256410256411,4191.282051282052,4465.128205128206,4388.205128205129,4365.641025641026,4368.205128205129,4686.153846153847,4303.589743589744,4254.358974358975,4161.025641025642,4574.871794871796
1398.2798,0.20695595,0.6482659,0.3698985,0.6122551,0,0.0,0.0,0.0,0.0,0.0,0,0,0.0,0.0,0,0,62.0,0.0,0.0,4633.333333333334,3912.307692307693,4464.615384615385,4390.256410256411,4191.282051282052,4465.128205128206,4388.205128205129,4365.641025641026,4368.205128205129,4686.153846153847,4303.589743589744,4254.358974358975,4161.025641025642,4574.871794871796
1398.7802,0.20207632,0.625349,0.3661732,0.61536825,0,0.0,0.0,0.0,0.0,0.0,0,0,0.0,0.0,0,0,126.0,0.0,536.0,4629.2307692307695,3927.692307692308,4449.743589743591,4373.333333333334,4201.025641025642,4475.8974358974365,4396.410256410257,4365.128205128206,4364.102564102564,4700.512820512821,4292.307692307693,4253.846153846154,4173.846153846154,4583.076923076924
1398.7802,0.20207632,0.625349,0.3661732,0.61536825,0,0.0,0.0,0.0,0.0,0.0,0,0,0.0,0.0,0,0,126.0,0.0,536.0,4629.2307692307695,3927.692307692308,4449.743589743591,4373.333333333334,4201.025641025642,4475.8974358974365,4396.410256410257,4365.128205128206,4364.102564102564,4700.512820512821,4292.307692307693,4253.846153846154,4173.846153846154,4583.076923076924
1399.2806,0.17075656,0.5973244,0.36250922,0.6184194,0,0.0,0.0,0.0,0.0,0.0,0,0,0.0,0.0,0,0,61.0,0.0,0.0,4632.307692307693,3945.1282051282055,4467.179487179487,4373.846153846154,4214.358974358975,4491.282051282052,4407.179487179487,4373.846153846154,4363.076923076924,4710.769230769231,4297.435897435898,4256.923076923077,4185.128205128206,4562.051282051282
1399.5309,0.17075656,0.5973244,0.36250922,0.6184194,0,0.0,0.0,0.0,0.0,0.1269384,0,0,0.0,0.0,0,0,93.0,0.0,501.0,4645.641025641026,3940.5128205128212,4473.846153846154,4366.153846153847,4216.923076923077,4496.410256410257,4413.846153846154,4375.8974358974365,4361.538461538462,4714.358974358975,4304.102564102564,4252.307692307693,4179.48717948718,4572.307692307693
1399.8436,0.19383517,0.57212204,0.35770288,0.62116367,1,0.0,0.0,0.0,0.0,0.33927706,0,0,0.0,0.0,0,0,4.0,0.0,507.0,4717.948717948719,4019.48717948718,4596.410256410257,4473.333333333334,4314.358974358975,4591.794871794872,4531.282051282052,4498.974358974359,4407.6923076923085,4837.948717948719,4423.076923076924,4375.384615384616,4296.410256410257,4611.794871794872
1400.0312,0.19383517,0.57212204,0.35770288,0.62116367,0,0.0,0.0,0.0,0.0,0.0,0,0,0.0,0.0,0,0,28.0,0.0,0.0,4704.615384615386,4006.1538461538466,4576.923076923077,4461.025641025642,4294.871794871796,4574.358974358975,4513.333333333334,4474.871794871796,4398.974358974359,4817.435897435898,4397.948717948719,4358.974358974359,4276.923076923077,4624.615384615385
1400.2815,0.35635322,0.54943997,0.35186717,0.6226293,0,0.0,0.0,0.0,0.0,0.0,0,0,0.0,0.0,0,0,60.0,0.0,0.0,4708.717948717949,4011.7948717948725,4558.974358974359,4444.102564102564,4276.410256410257,4554.358974358975,4491.282051282052,4442.051282051282,4381.025641025642,4767.179487179488,4351.794871794872,4297.435897435898,4212.307692307693,4594.871794871796
1400.2815,0.35635322,0.54943997,0.35186717,0.6226293,0,0.0,0.0,0.0,0.0,0.0,0,0,0.0,0.0,0,0,60.0,0.0,0.0,4708.717948717949,4011.7948717948725,4558.974358974359,4444.102564102564,4276.410256410257,4554.358974358975,4491.282051282052,4442.051282051282,4381.025641025642,4767.179487179488,4351.794871794872,4297.435897435898,4212.307692307693,4594.871794871796
1400.782,0.4375525,0.52902615,0.34373504,0.6239466,0,0.0,0.0,0.0,0.0,0.17713863,0,0,0.0,0.0,0,0,124.0,0.0,488.0,4675.384615384616,3987.692307692308,4516.410256410257,4424.615384615385,4259.48717948718,4539.48717948718,4482.564102564103,4438.974358974359,4392.307692307693,4781.025641025642,4388.717948717949,4335.384615384616,4248.205128205129,4629.2307692307695
1401.0321,0.4375525,0.52902615,0.34373504,0.6239466,0,0.0,0.0,0.0,0.0,0.0,0,0,0.0,0.0,0,0,27.0,0.0,0.0,4666.153846153847,3976.410256410257,4499.48717948718,4413.846153846154,4242.051282051282,4515.384615384616,4475.8974358974365,4428.205128205129,4380.512820512821,4752.820512820514,4360.000000000001,4288.205128205129,4208.717948717949,4618.461538461539
1401.2823,0.48871318,0.5106537,0.33641592,0.6251304,0,0.0,0.0,0.0,0.0,0.0,0,0,0.0,0.0,0,0,59.0,0.0,0.0,4626.153846153847,3905.1282051282055,4387.179487179487,4324.102564102564,4165.641025641026,4437.435897435898,4377.948717948719,4331.282051282052,4332.307692307693,4645.641025641026,4241.025641025642,4183.589743589744,4094.8717948717954,4569.2307692307695
1401.2823,0.48871318,0.5106537,0.33641592,0.6251304,0,0.0,0.0,0.0,0.0,0.0,0,0,0.0,0.0,0,0,59.0,0.0,0.0,4626.153846153847,3905.1282051282055,4387.179487179487,4324.102564102564,4165.641025641026,4437.435897435898,4377.948717948719,4331.282051282052,4332.307692307693,4645.641025641026,4241.025641025642,4183.589743589744,4094.8717948717954,4569.2307692307695
1401.7828,0.44123733,0.49411842,0.32982865,0.6218821,0,0.0,0.0,0.0,0.0,0.0,0,0,0.0,0.0,0,0,123.0,0.0,408.0,4598.461538461539,3884.615384615385,4337.435897435898,4281.025641025642,4164.102564102564,4435.8974358974365,4392.307692307693,4339.48717948718,4307.6923076923085,4603.589743589744,4161.025641025642,4101.025641025642,3991.7948717948725,4550.769230769231
1401.7828,0.44123733,0.49411842,0.32982865,0.6218821,0,0.0,0.0,0.0,0.0,0.0,0,0,0.0,0.0,0,0,123.0,0.0,408.0,4598.461538461539,3884.615384615385,4337.435897435898,4281.025641025642,4164.102564102564,4435.8974358974365,4392.307692307693,4339.48717948718,4307.6923076923085,4603.589743589744,4161.025641025642,4101.025641025642,3991.7948717948725,4550.769230769231
1402.2832,0.493539,0.47923672,0.3254109,0.6152672,0,0.0,0.0,0.0,0.0,0.0,0,0,0.0,0.0,0,0,58.0,0.0,0.0,4595.8974358974365,3894.8717948717954,4371.794871794872,4277.435897435898,4155.384615384616,4428.205128205129,4387.6923076923085,4321.025641025642,4290.769230769231,4583.076923076924,4165.641025641026,4046.666666666667,3960.0000000000005,4527.6923076923085
1402.5334,0.493539,0.47923672,0.3254109,0.6152672,0,0.0,0.0,0.0,0.0,0.6100595,0,0,0.0,0.0,0,0,90.0,0.0,536.0,4642.564102564103,3895.3846153846157,4383.076923076924,4294.871794871796,4169.2307692307695,4446.153846153847,4410.256410256411,4356.410256410257,4307.179487179487,4616.410256410257,4202.564102564103,4084.615384615385,4007.692307692308,4551.794871794872
1402.7837,0.55639035,0.46584317,0.321238,0.6077268,0,0.0,0.0,0.0,0.0,0.10834143,0,0,0.0,0.0,0,0,122.0,0.0,536.0,4654.871794871796,3892.820512820513,4388.205128205129,4291.282051282052,4182.051282051282,4461.538461538462,4429.743589743591,4378.974358974359,4307.6923076923085,4635.384615384616,4241.025641025642,4130.256410256411,4049.7435897435903,4573.333333333334
1402.9088,0.55639035,0.46584317,0.321238,0.6077268,0,0.0,0.0,0.0,0.0,0.0,0,0,0.0,0.0,0,0,9.0,0.0,494.0,4660.000000000001,3907.692307692308,4386.666666666667,4295.384615384616,4187.6923076923085,4474.871794871796,4434.871794871796,4380.000000000001,4304.615384615385,4646.153846153847,4246.666666666667,4138.461538461539,4070.2564102564106,4583.589743589744
1403.284,0.4698872,0.48702908,0.32218948,0.6009399,0,0.0,0.0,0.0,0.0,0.0,0,0,0.0,0.0,0,0,57.0,0.0,0.0,4614.871794871796,3922.0512820512827,4375.384615384616,4306.153846153847,4195.384615384616,4476.410256410257,4418.974358974359,4409.743589743591,4292.307692307693,4619.48717948718,4214.358974358975,4074.8717948717954,3994.358974358975,4552.307692307693
1403.284,0.4698872,0.48702908,0.32218948,0.6009399,0,0.0,0.0,0.0,0.0,0.0,0,0,0.0,0.0,0,0,57.0,0.0,0.0,4614.871794871796,3922.0512820512827,4375.384615384616,4306.153846153847,4195.384615384616,4476.410256410257,4418.974358974359,4409.743589743591,4292.307692307693,4619.48717948718,4214.358974358975,4074.8717948717954,3994.358974358975,4552.307692307693
1403.7845,0.41801152,0.4896389,0.32506683,0.5963856,0,0.0,0.0,0.0,0.0,0.0,0,0,0.0,0.0,0,0,121.0,0.0,503.0,4608.205128205129,3941.0256410256416,4442.051282051282,4377.948717948719,4229.74358974359,4519.48717948718,4482.564102564103,4438.461538461539,4293.333333333334,4640.512820512821,4314.871794871796,4034.358974358975,4038.461538461539,4553.333333333334
1403.7845,0.41801152,0.4896389,0.32506683,0.5963856,0,0.0,0.0,0.0,0.0,0.0,0,0,0.0,0.0,0,0,121.0,0.0,503.0,4608.205128205129,3941.0256410256416,4442.051282051282,4377.948717948719,4229.74358974359,4519.48717948718,4482.564102564103,4438.461538461539,4293.333333333334,4640.512820512821,4314.871794871796,4034.358974358975,4038.461538461539,4553.333333333334
1404.2849,0.4555088,0.49379256,0.3282016,0.6006701,0,0.0,0.0,0.0,0.0,0.0,0,0,0.0,0.0,0,0,56.0,0.0,0.0,4602.051282051282,3963.589743589744,4490.256410256411,4418.974358974359,4241.538461538462,4531.282051282052,4512.307692307693,4457.435897435898,4310.769230769231,4663.076923076924,4283.076923076924,4089.23076923077,4122.051282051282,4549.743589743591
1404.2849,0.4555088,0.49379256,0.3282016,0.6006701,0,0.0,0.0,0.0,0.0,0.0,0,0,0.0,0.0,0,0,56.0,0.0,0.0,4602.051282051282,3963.589743589744,4490.256410256411,4418.974358974359,4241.538461538462,4531.282051282052,4512.307692307693,4457.435897435898,4310.769230769231,4663.076923076924,4283.076923076924,4089.23076923077,4122.051282051282,4549.743589743591
1404.7854,0.4404173,0.46249878,0.33102298,0.6134373,0,0.0,0.0,0.0,0.0,0.0,0,0,0.0,0.0,0,0,120.0,0.0,490.0,4597.948717948719,3911.2820512820517,4420.000000000001,4355.8974358974365,4202.051282051282,4487.179487179488,4490.769230769231,4443.589743589744,4304.102564102564,4646.153846153847,4253.333333333334,4129.2307692307695,4106.153846153847,4520.512820512821
1404.7854,0.4404173,0.46249878,0.33102298,0.6134373,0,0.0,0.0,0.0,0.0,0.0,0,0,0.0,0.0,0,0,120.0,0.0,490.0,4597.948717948719,3911.2820512820517,4420.000000000001,4355.8974358974365,4202.051282051282,4487.179487179488,4490.769230769231,4443.589743589744,4304.102564102564,4646.153846153847,4253.333333333334,4129.2307692307695,4106.153846153847,4520.512820512821
1405.2858,0.43903187,0.42775336,0.33134192,0.624925,0,0.0,0.0,0.0,0.0,0.0,0,0,0.0,0.0,0,0,55.0,0.0,0.0,4620.512820512821,3959.48717948718,4402.051282051282,4429.2307692307695,4230.769230769231,4522.051282051282,4512.307692307693,4489.2307692307695,4321.538461538462,4666.153846153847,4295.384615384616,4149.2307692307695,4129.74358974359,4560.000000000001
1405.2858,0.43903187,0.42775336,0.33134192,0.624925,0,0.0,0.0,0.0,0.0,0.0,0,0,0.0,0.0,0,0,55.0,0.0,0.0,4620.512820512821,3959.48717948718,4402.051282051282,4429.2307692307695,4230.769230769231,4522.051282051282,4512.307692307693,4489.2307692307695,4321.538461538462,4666.153846153847,4295.384615384616,4149.2307692307695,4129.74358974359,4560.000000000001
1405.7863,0.52715313,0.4184096,0.32892036,0.6352604,0,0.0,0.0,0.0,0.0,0.0,0,0,0.0,0.0,0,0,119.0,0.0,408.0,4665.641025641026,4024.1025641025644,4554.358974358975,4505.128205128206,4278.974358974359,4571.282051282052,4552.307692307693,4516.923076923077,4341.025641025642,4713.846153846154,4326.153846153847,4218.974358974359,4214.871794871796,4579.48717948718
1405.7863,0.52715313,0.4184096,0.32892036,0.6352604,0,0.0,0.0,0.0,0.0,0.0,0,0,0.0,0.0,0,0,119.0,0.0,408.0,4665.641025641026,4024.1025641025644,4554.358974358975,4505.128205128206,4278.974358974359,4571.282051282052,4552.307692307693,4516.923076923077,4341.025641025642,4713.846153846154,4326.153846153847,4218.974358974359,4214.871794871796,4579.48717948718
1406.2866,0.44194406,0.39121908,0.31906065,0.6418433,0,0.0,0.0,0.0,0.0,0.0,0,0,0.0,0.0,0,0,54.0,0.0,0.0,4635.8974358974365,4003.076923076924,4613.846153846154,4520.000000000001,4263.076923076924,4553.846153846154,4484.102564102564,4449.2307692307695,4289.2307692307695,4703.589743589744,4338.974358974359,4217.435897435898,4252.307692307693,4572.307692307693
1406.2866,0.44194406,0.39121908,0.31906065,0.6418433,0,0.0,0.0,0.0,0.0,0.0,0,0,0.0,0.0,0,0,54.0,0.0,0.0,4635.8974358974365,4003.076923076924,4613.846153846154,4520.000000000001,4263.076923076924,4553.846153846154,4484.102564102564,4449.2307692307695,4289.2307692307695,4703.589743589744,4338.974358974359,4217.435897435898,4252.307692307693,4572.307692307693
1406.7871,0.44905558,0.3756971,0.31018722,0.6420191,0,0.0,0.0,0.0,0.0,0.0,0,0,0.0,0.0,0,0,118.0,0.0,536.0,4647.179487179488,4020.0000000000005,4663.076923076924,4537.948717948719,4278.461538461539,4568.205128205129,4487.6923076923085,4454.871794871796,4261.538461538462,4759.48717948718,4393.333333333334,4270.256410256411,4299.48717948718,4587.6923076923085
1406.7871,0.44905558,0.3756971,0.31018722,0.6420191,0,0.0,0.0,0.0,0.0,0.0,0,0,0.0,0.0,0,0,118.0,0.0,536.0,4647.179487179488,4020.0000000000005,4663.076923076924,4537.948717948719,4278.461538461539,4568.205128205129,4487.6923076923085,4454.871794871796,4261.538461538462,4759.48717948718,4393.333333333334,4270.256410256411,4299.48717948718,4587.6923076923085
1407.2875,0.46879512,0.3814025,0.30220163,0.6419337,0,0.0,0.0,0.0,0.0,0.0,0,0,0.0,0.0,0,0,53.0,0.0,0.0,4645.128205128206,4011.7948717948725,4652.820512820514,4538.974358974359,4274.871794871796,4562.051282051282,4473.846153846154,4440.512820512821,4256.923076923077,4772.820512820514,4411.282051282052,4277.948717948719,4285.128205128206,4566.153846153847
1407.2875,0.46879512,0.3814025,0.30220163,0.6419337,0,0.0,0.0,0.0,0.0,0.0,0,0,0.0,0.0,0,0,53.0,0.0,0.0,4645.128205128206,4011.7948717948725,4652.820512820514,4538.974358974359,4274.871794871796,4562.051282051282,4473.846153846154,4440.512820512821,4256.923076923077,4772.820512820514,4411.282051282052,4277.948717948719,4285.128205128206,4566.153846153847
1407.788,0.5011557,0.37260112,0.29059815,0.6418547,0,0.0,0.0,0.0,0.0,0.0,0,0,0.0,0.0,0,0,117.0,0.0,503.0,4630.769230769231,3977.435897435898,4593.846153846154,4502.564102564103,4254.358974358975,4538.461538461539,4470.769230769231,4432.820512820514,4244.615384615385,4757.435897435898,4396.923076923077,4237.435897435898,4244.615384615385,4555.384615384616
1407.788,0.5011557,0.37260112,0.29059815,0.6418547,0,0.0,0.0,0.0,0.0,0.0,0,0,0.0,0.0,0,0,117.0,0.0,503.0,4630.769230769231,3977.435897435898,4593.846153846154,4502.564102564103,4254.358974358975,4538.461538461539,4470.769230769231,4432.820512820514,4244.615384615385,4757.435897435898,4396.923076923077,4237.435897435898,4244.615384615385,4555.384615384616
1408.2883,0.4744246,0.36839694,0.27801743,0.6417815,0,0.0,0.0,0.0,0.0,0.0,0,0,0.0,0.0,0,0,52.0,0.0,0.0,4703.589743589744,4018.9743589743593,4615.384615384616,4520.000000000001,4284.102564102564,4566.666666666667,4488.205128205129,4453.846153846154,3941.538461538462,4787.6923076923085,4450.256410256411,4285.128205128206,4268.205128205129,4571.794871794872
1408.2883,0.4744246,0.36839694,0.27801743,0.6417815,0,0.0,0.0,0.0,0.0,0.0,0,0,0.0,0.0,0,0,52.0,0.0,0.0,4703.589743589744,4018.9743589743593,4615.384615384616,4520.000000000001,4284.102564102564,4566.666666666667,4488.205128205129,4453.846153846154,3941.538461538462,4787.6923076923085,4450.256410256411,4285.128205128206,4268.205128205129,4571.794871794872
1408.7888,0.5143132,0.37505782,0.27024627,0.6417135,0,0.0,0.0,0.0,0.0,0.0,0,0,0.0,0.0,0,0,116.0,0.0,489.0,4723.589743589744,4031.7948717948725,4638.974358974359,4536.410256410257,4310.256410256411,4595.8974358974365,4517.435897435898,4483.076923076924,4030.2564102564106,4821.025641025642,4460.512820512821,4338.461538461539,4295.8974358974365,4568.205128205129
1408.7888,0.5143132,0.37505782,0.27024627,0.6417135,0,0.0,0.0,0.0,0.0,0.0,0,0,0.0,0.0,0,0,116.0,0.0,489.0,4723.589743589744,4031.7948717948725,4638.974358974359,4536.410256410257,4310.256410256411,4595.8974358974365,4517.435897435898,4483.076923076924,4030.2564102564106,4821.025641025642,4460.512820512821,4338.461538461539,4295.8974358974365,4568.205128205129
1409.2892,0.5349511,0.38135183,0.26812115,0.6354551,0,0.0,0.0,0.0,0.0,0.0,0,0,0.0,0.0,0,0,51.0,0.0,0.0,4727.6923076923085,4034.358974358975,4619.48717948718,4547.179487179488,4304.102564102564,4590.256410256411,4524.102564102564,4485.128205128206,4091.7948717948725,4827.6923076923085,4472.307692307693,4342.051282051282,4301.538461538462,4576.410256410257
1409.2892,0.5349511,0.38135183,0.26812115,0.6354551,0,0.0,0.0,0.0,0.0,0.0,0,0,0.0,0.0,0,0,51.0,0.0,0.0,4727.6923076923085,4034.358974358975,4619.48717948718,4547.179487179488,4304.102564102564,4590.256410256411,4524.102564102564,4485.128205128206,4091.7948717948725,4827.6923076923085,4472.307692307693,4342.051282051282,4301.538461538462,4576.410256410257
1409.7897,0.5091777,0.38571775,0.26646116,0.61859924,0,0.0,0.0,0.0,0.0,0.0,0,0,0.0,0.0,0,0,115.0,0.0,408.0,4749.743589743591,4040.0000000000005,4590.256410256411,4545.128205128206,4306.153846153847,4591.794871794872,4464.615384615385,4481.538461538462,4315.384615384616,4818.461538461539,4444.615384615385,4362.564102564103,4274.358974358975,4595.384615384616
1409.7897,0.5091777,0.38571775,0.26646116,0.61859924,0,0.0,0.0,0.0,0.0,0.0,0,0,0.0,0.0,0,0,115.0,0.0,408.0,4749.743589743591,4040.0000000000005,4590.256410256411,4545.128205128206,4306.153846153847,4591.794871794872,4464.615384615385,4481.538461538462,4315.384615384616,4818.461538461539,4444.615384615385,4362.564102564103,4274.358974358975,4595.384615384616
1410.29,0.5070679,0.37230766,0.27519888,0.59269094,0,0.0,0.0,0.0,0.0,0.0,0,0,0.0,0.0,0,0,50.0,0.0,0.0,4748.205128205129,4001.538461538462,4538.461538461539,4494.358974358975,4264.102564102564,4543.589743589744,4437.948717948719,4444.615384615385,4342.051282051282,4764.615384615386,4398.461538461539,4332.307692307693,4207.6923076923085,4590.256410256411
1410.29,0.5070679,0.37230766,0.27519888,0.59269094,0,0.0,0.0,0.0,0.0,0.0,0,0,0.0,0.0,0,0,50.0,0.0,0.0,4748.205128205129,4001.538461538462,4538.461538461539,4494.358974358975,4264.102564102564,4543.589743589744,4437.948717948719,4444.615384615385,4342.051282051282,4764.615384615386,4398.461538461539,4332.307692307693,4207.6923076923085,4590.256410256411
1410.7905,0.55206347,0.34167007,0.28807372,0.5653921,0,0.0,0.0,0.0,0.0,0.0,0,0,0.0,0.0,0,0,114.0,0.0,536.0,4702.564102564103,3958.9743589743593,4496.923076923077,4438.974358974359,4218.461538461539,4498.974358974359,4385.641025641026,4388.205128205129,4334.358974358975,4712.820512820514,4343.076923076924,4273.846153846154,4158.974358974359,4585.641025641026
1410.7905,0.55206347,0.34167007,0.28807372,0.5653921,0,0.0,0.0,0.0,0.0,0.0,0,0,0.0,0.0,0,0,114.0,0.0,536.0,4702.564102564103,3958.9743589743593,4496.923076923077,4438.974358974359,4218.461538461539,4498.974358974359,4385.641025641026,4388.205128205129,4334.358974358975,4712.820512820514,4343.076923076924,4273.846153846154,4158.974358974359,4585.641025641026
1411.291,0.65343165,0.31044832,0.29966184,0.540823,0,0.0,0.0,0.0,0.0,0.0,0,0,0.0,0.0,0,0,49.0,0.0,0.0,4632.307692307693,3929.7435897435903,4467.6923076923085,4371.794871794872,4202.051282051282,4474.358974358975,4366.153846153847,4364.615384615385,4331.282051282052,4683.589743589744,4326.666666666667,4240.000000000001,4133.333333333334,4554.871794871796
1411.5411,0.65343165,0.31044832,0.29966184,0.540823,0,0.0,0.0,0.0,0.0,0.3926724,0,0,0.0,0.0,0,0,81.0,0.0,503.0,4621.538461538462,3947.1794871794878,4488.205128205129,4383.589743589744,4223.589743589744,4502.564102564103,4396.410256410257,4385.128205128206,4349.2307692307695,4709.743589743591,4333.846153846154,4257.435897435898,4165.128205128206,4572.307692307693
1411.7914,0.7152818,0.27377486,0.31009173,0.5237513,0,0.0,0.0,0.0,0.0,0.3648361,0,0,0.0,0.0,0,0,113.0,0.0,503.0,4570.256410256411,3922.564102564103,4445.128205128206,4341.025641025642,4168.205128205129,4490.769230769231,4375.8974358974365,4361.538461538462,4330.769230769231,4674.871794871796,4330.769230769231,4227.179487179487,4126.153846153847,4556.923076923077
1411.9165,0.7152818,0.27377486,0.31009173,0.5237513,0,0.0,0.0,0.0,0.0,0.0,0,0,0.0,0.0,0,0,0.0,0.0,511.0,4569.743589743591,3917.9487179487182,4419.48717948718,4327.6923076923085,4173.846153846154,4490.769230769231,4385.641025641026,4371.282051282052,4330.769230769231,4675.384615384616,4320.512820512821,4222.051282051282,4118.974358974359,4555.8974358974365
1412.2919,0.7270375,0.24055664,0.3026062,0.5182431,0,0.0,0.0,0.0,0.0,0.0,0,0,0.0,0.0,0,0,48.0,0.0,0.0,4515.8974358974365,3862.564102564103,4298.974358974359,4248.717948717949,4153.846153846154,4451.282051282052,4391.794871794872,4374.358974358975,4289.2307692307695,4588.717948717949,4216.923076923077,4107.179487179487,3965.6410256410263,4535.8974358974365
1412.2919,0.7270375,0.24055664,0.3026062,0.5182431,0,0.0,0.0,0.0,0.0,0.0,0,0,0.0,0.0,0,0,48.0,0.0,0.0,4515.8974358974365,3862.564102564103,4298.974358974359,4248.717948717949,4153.846153846154,4451.282051282052,4391.794871794872,4374.358974358975,4289.2307692307695,4588.717948717949,4216.923076923077,4107.179487179487,3965.6410256410263,4535.8974358974365
1412.7922,0.76898134,0.21318619,0.2862874,0.5187007,0,0.0,0.0,0.0,0.0,0.0,0,0,0.0,0.0,0,0,112.0,0.0,489.0,4518.461538461539,3902.564102564103,4319.48717948718,4286.153846153847,4215.8974358974365,4508.717948717949,4459.48717948718,4443.589743589744,4302.051282051282,4626.666666666667,4274.358974358975,4006.666666666667,3989.23076923077,4524.102564102564
1412.7922,0.76898134,0.21318619,0.2862874,0.5187007,0,0.0,0.0,0.0,0.0,0.0,0,0,0.0,0.0,0,0,112.0,0.0,489.0,4518.461538461539,3902.564102564103,4319.48717948718,4286.153846153847,4215.8974358974365,4508.717948717949,4459.48717948718,4443.589743589744,4302.051282051282,4626.666666666667,4274.358974358975,4006.666666666667,3989.23076923077,4524.102564102564
1413.2927,0.7759248,0.21489039,0.27160168,0.52112645,0,0.0,0.0,0.0,0.0,0.0,0,0,0.0,0.0,0,0,47.0,0.0,0.0,4584.102564102564,3943.589743589744,4460.512820512821,4357.435897435898,4246.153846153847,4540.512820512821,4464.102564102564,4435.8974358974365,4329.2307692307695,4678.461538461539,4309.2307692307695,4096.410256410257,4103.589743589744,4521.538461538462
1413.5428,0.7759248,0.21489039,0.27160168,0.52112645,0,0.0,0.0,0.0,0.0,0.08812282,0,0,0.0,0.0,0,0,79.0,0.0,408.0,4617.948717948719,3953.333333333334,4513.846153846154,4389.2307692307695,4264.102564102564,4555.8974358974365,4456.923076923077,4426.153846153847,4350.769230769231,4697.948717948719,4331.282051282052,4148.205128205129,4166.666666666667,4515.384615384616
1413.7931,0.67430466,0.24306534,0.25838616,0.5284568,0,0.0,0.0,0.0,0.0,0.0,0,0,0.0,0.0,0,0,111.0,0.0,408.0,4642.051282051282,3961.0256410256416,4567.6923076923085,4430.256410256411,4267.179487179487,4564.102564102564,4464.615384615385,4430.256410256411,4361.538461538462,4726.666666666667,4348.717948717949,4217.948717948719,4198.974358974359,4503.589743589744
1413.7931,0.67430466,0.24306534,0.25838616,0.5284568,0,0.0,0.0,0.0,0.0,0.0,0,0,0.0,0.0,0,0,111.0,0.0,408.0,4642.051282051282,3961.0256410256416,4567.6923076923085,4430.256410256411,4267.179487179487,4564.102564102564,4464.615384615385,4430.256410256411,4361.538461538462,4726.666666666667,4348.717948717949,4217.948717948719,4198.974358974359,4503.589743589744
1414.2936,0.6487085,0.26209313,0.24930312,0.5411721,0,0.0,0.0,0.0,0.0,0.0,0,0,0.0,0.0,0,0,46.0,0.0,0.0,4650.769230769231,3988.205128205129,4616.923076923077,4463.589743589744,4281.025641025642,4568.717948717949,4462.564102564103,4445.128205128206,4399.48717948718,4778.461538461539,4391.794871794872,4310.769230769231,4277.948717948719,4529.2307692307695
1414.2936,0.6487085,0.26209313,0.24930312,0.5411721,0,0.0,0.0,0.0,0.0,0.0,0,0,0.0,0.0,0,0,46.0,0.0,0.0,4650.769230769231,3988.205128205129,4616.923076923077,4463.589743589744,4281.025641025642,4568.717948717949,4462.564102564103,4445.128205128206,4399.48717948718,4778.461538461539,4391.794871794872,4310.769230769231,4277.948717948719,4529.2307692307695
1414.794,0.6136319,0.28160548,0.24488284,0.5494427,0,0.0,0.0,0.0,0.0,0.0,0,0,0.0,0.0,0,0,110.0,0.0,536.0,4656.410256410257,4000.5128205128212,4625.128205128206,4495.8974358974365,4277.435897435898,4557.435897435898,4478.461538461539,4451.794871794872,4401.538461538462,4776.410256410257,4383.076923076924,4334.871794871796,4251.794871794872,4523.076923076924
1414.794,0.6136319,0.28160548,0.24488284,0.5494427,0,0.0,0.0,0.0,0.0,0.0,0,0,0.0,0.0,0,0,110.0,0.0,536.0,4656.410256410257,4000.5128205128212,4625.128205128206,4495.8974358974365,4277.435897435898,4557.435897435898,4478.461538461539,4451.794871794872,4401.538461538462,4776.410256410257,4383.076923076924,4334.871794871796,4251.794871794872,4523.076923076924
1415.2944,0.604699,0.29959637,0.24421555,0.5620683,0,0.0,0.0,0.0,0.0,0.0,0,0,0.0,0.0,0,0,45.0,0.0,0.0,4681.025641025642,3990.7692307692314,4606.153846153847,4505.641025641026,4269.74358974359,4552.820512820514,4476.923076923077,4446.153846153847,4397.948717948719,4751.794871794872,4369.2307692307695,4329.2307692307695,4228.717948717949,4524.102564102564
1415.2944,0.604699,0.29959637,0.24421555,0.5620683,0,0.0,0.0,0.0,0.0,0.0,0,0,0.0,0.0,0,0,45.0,0.0,0.0,4681.025641025642,3990.7692307692314,4606.153846153847,4505.641025641026,4269.74358974359,4552.820512820514,4476.923076923077,4446.153846153847,4397.948717948719,4751.794871794872,4369.2307692307695,4329.2307692307695,4228.717948717949,4524.102564102564
1415.7948,0.53242826,0.31279263,0.2463446,0.5734311,0,0.0,0.0,0.0,0.0,0.0,0,0,0.0,0.0,0,0,109.0,0.0,503.0,4618.974358974359,3930.7692307692314,4533.333333333334,4479.48717948718,4222.564102564103,4509.743589743591,4454.871794871796,4432.820512820514,4397.435897435898,4748.717948717949,4372.820512820514,4314.358974358975,4217.435897435898,4532.820512820514
1415.7948,0.53242826,0.31279263,0.2463446,0.5734311,0,0.0,0.0,0.0,0.0,0.0,0,0,0.0,0.0,0,0,109.0,0.0,503.0,4618.974358974359,3930.7692307692314,4533.333333333334,4479.48717948718,4222.564102564103,4509.743589743591,4454.871794871796,4432.820512820514,4397.435897435898,4748.717948717949,4372.820512820514,4314.358974358975,4217.435897435898,4532.820512820514
1416.2953,0.5255251,0.33453873,0.2496187,0.58365697,0,0.0,0.0,0.0,0.0,0.0,0,0,0.0,0.0,0,0,44.0,0.0,0.0,4586.666666666667,3911.2820512820517,4430.769230769231,4430.256410256411,4175.8974358974365,4457.948717948719,4449.743589743591,4430.769230769231,4359.48717948718,4668.205128205129,4322.051282051282,4222.564102564103,4075.8974358974365,4490.256410256411
1416.2953,0.5255251,0.33453873,0.2496187,0.58365697,0,0.0,0.0,0.0,0.0,0.0,0,0,0.0,0.0,0,0,44.0,0.0,0.0,4586.666666666667,3911.2820512820517,4430.769230769231,4430.256410256411,4175.8974358974365,4457.948717948719,4449.743589743591,4430.769230769231,4359.48717948718,4668.205128205129,4322.051282051282,4222.564102564103,4075.8974358974365,4490.256410256411
1416.7957,0.67246205,0.35406005,0.26200747,0.5924575,0,0.0,0.0,0.0,0.0,0.0,0,0,0.0,0.0,0,0,108.0,0.0,490.0,4477.435897435898,3848.205128205129,4289.2307692307695,4331.794871794872,4100.000000000001,4376.923076923077,4375.384615384616,4347.6923076923085,4308.205128205129,4543.076923076924,4217.435897435898,4084.615384615385,3942.564102564103,4414.358974358975
1416.7957,0.67246205,0.35406005,0.26200747,0.5924575,0,0.0,0.0,0.0,0.0,0.0,0,0,0.0,0.0,0,0,108.0,0.0,490.0,4477.435897435898,3848.205128205129,4289.2307692307695,4331.794871794872,4100.000000000001,4376.923076923077,4375.384615384616,4347.6923076923085,4308.205128205129,4543.076923076924,4217.435897435898,4084.615384615385,3942.564102564103,4414.358974358975
1417.2961,0.8017666,0.37162927,0.2830423,0.6001286,0,0.0,0.0,0.0,0.0,0.0,0,0,0.0,0.0,0,0,43.0,0.0,0.0,4522.051282051282,3880.0000000000005,4386.153846153847,4370.769230769231,4140.000000000001,4416.923076923077,4383.589743589744,4357.948717948719,4316.410256410257,4594.871794871796,4255.384615384616,4128.717948717949,4033.8461538461543,4417.435897435898
1417.2961,0.8017666,0.37162927,0.2830423,0.6001286,0,0.0,0.0,0.0,0.0,0.0,0,0,0.0,0.0,0,0,43.0,0.0,0.0,4522.051282051282,3880.0000000000005,4386.153846153847,4370.769230769231,4140.000000000001,4416.923076923077,4383.589743589744,4357.948717948719,4316.410256410257,4594.871794871796,4255.384615384616,4128.717948717949,4033.8461538461543,4417.435897435898
1417.7965,0.8498724,0.38744155,0.30412346,0.6070311,0,0.0,0.0,0.0,0.0,0.0,0,0,0.0,0.0,0,0,107.0,0.0,413.0,4605.641025641026,3905.6410256410263,4467.179487179487,4413.333333333334,4175.384615384616,4462.051282051282,4404.102564102564,4370.769230769231,4322.051282051282,4620.512820512821,4246.666666666667,4150.769230769231,4040.0000000000005,4425.128205128206
1417.7965,0.8498724,0.38744155,0.30412346,0.6070311,0,0.0,0.0,0.0,0.0,0.0,0,0,0.0,0.0,0,0,107.0,0.0,413.0,4605.641025641026,3905.6410256410263,4467.179487179487,4413.333333333334,4175.384615384616,4462.051282051282,4404.102564102564,4370.769230769231,4322.051282051282,4620.512820512821,4246.666666666667,4150.769230769231,4040.0000000000005,4425.128205128206
1418.2892,0.82566774,0.4016726,0.323097,0.60628957,0,0.0,0.0,0.0,0.0,0.0,0,0,0.0,0.0,0,0,42.0,0.0,0.0,4583.589743589744,3847.1794871794878,4453.846153846154,4404.102564102564,4128.205128205129,4415.384615384616,4323.076923076924,4298.974358974359,4296.410256410257,4571.282051282052,4217.948717948719,4113.333333333334,4039.48717948718,4398.461538461539
1418.2892,0.82566774,0.4016726,0.323097,0.60628957,0,0.0,0.0,0.0,0.0,0.0,0,0,0.0,0.0,0,0,42.0,0.0,0.0,4583.589743589744,3847.1794871794878,4453.846153846154,4404.102564102564,4128.205128205129,4415.384615384616,4323.076923076924,4298.974358974359,4296.410256410257,4571.282051282052,4217.948717948719,4113.333333333334,4039.48717948718,4398.461538461539
1418.7896,0.8102159,0.420031,0.34017336,0.6058694,0,0.0,0.0,0.0,0.0,0.0,0,0,0.0,0.0,0,0,106.0,0.0,536.0,4583.076923076924,3889.2307692307695,4501.538461538462,4445.128205128206,4142.564102564103,4428.205128205129,4354.358974358975,4330.256410256411,4318.461538461539,4631.282051282052,4265.641025641026,4160.512820512821,4102.051282051282,4414.871794871796
1418.7896,0.8102159,0.420031,0.34017336,0.6058694,0,0.0,0.0,0.0,0.0,0.0,0,0,0.0,0.0,0,0,106.0,0.0,536.0,4583.076923076924,3889.2307692307695,4501.538461538462,4445.128205128206,4142.564102564103,4428.205128205129,4354.358974358975,4330.256410256411,4318.461538461539,4631.282051282052,4265.641025641026,4160.512820512821,4102.051282051282,4414.871794871796
1419.29,0.782594,0.44801173,0.35255444,0.6054902,0,0.0,0.0,0.0,0.0,0.0,0,0,0.0,0.0,0,0,41.0,0.0,0.0,4625.641025641026,3910.2564102564106,4528.717948717949,4478.974358974359,4171.794871794872,4461.538461538462,4384.102564102564,4362.051282051282,4353.846153846154,4697.948717948719,4335.384615384616,4232.820512820514,4170.256410256411,4466.153846153847
1419.29,0.782594,0.44801173,0.35255444,0.6054902,0,0.0,0.0,0.0,0.0,0.0,0,0,0.0,0.0,0,0,41.0,0.0,0.0,4625.641025641026,3910.2564102564106,4528.717948717949,4478.974358974359,4171.794871794872,4461.538461538462,4384.102564102564,4362.051282051282,4353.846153846154,4697.948717948719,4335.384615384616,4232.820512820514,4170.256410256411,4466.153846153847
1419.7904,0.7370663,0.46657827,0.36073098,0.6081244,0,0.0,0.0,0.0,0.0,0.0,0,0,0.0,0.0,0,0,105.0,0.0,503.0,4663.589743589744,3938.9743589743593,4524.102564102564,4463.076923076924,4188.205128205129,4474.358974358975,4393.846153846154,4374.358974358975,4358.461538461539,4715.8974358974365,4355.8974358974365,4235.384615384616,4172.820512820514,4481.025641025642
1419.7904,0.7370663,0.46657827,0.36073098,0.6081244,0,0.0,0.0,0.0,0.0,0.0,0,0,0.0,0.0,0,0,105.0,0.0,503.0,4663.589743589744,3938.9743589743593,4524.102564102564,4463.076923076924,4188.205128205129,4474.358974358975,4393.846153846154,4374.358974358975,4358.461538461539,4715.8974358974365,4355.8974358974365,4235.384615384616,4172.820512820514,4481.025641025642
1420.2909,0.7134012,0.47289467,0.36780125,0.6206807,0,0.0,0.0,0.0,0.0,0.0,0,0,0.0,0.0,0,0,40.0,0.0,0.0,4624.615384615385,3920.5128205128212,4458.461538461539,4429.743589743591,4170.769230769231,4456.923076923077,4401.538461538462,4367.179487179487,4351.794871794872,4679.48717948718,4319.48717948718,4202.564102564103,4116.410256410257,4486.666666666667
1420.2909,0.7134012,0.47289467,0.36780125,0.6206807,0,0.0,0.0,0.0,0.0,0.0,0,0,0.0,0.0,0,0,40.0,0.0,0.0,4624.615384615385,3920.5128205128212,4458.461538461539,4429.743589743591,4170.769230769231,4456.923076923077,4401.538461538462,4367.179487179487,4351.794871794872,4679.48717948718,4319.48717948718,4202.564102564103,4116.410256410257,4486.666666666667
1420.7913,0.6244451,0.4701456,0.37011883,0.631978,0,0.0,0.0,0.0,0.0,0.3846511,0,0,0.0,0.0,0,0,104.0,0.0,490.0,4537.948717948719,3929.7435897435903,4379.48717948718,4341.538461538462,4125.641025641026,4400.512820512821,4348.717948717949,4299.48717948718,4328.205128205129,4619.48717948718,4254.871794871796,4142.564102564103,4091.2820512820517,4508.205128205129
1421.0415,0.6244451,0.4701456,0.37011883,0.631978,0,0.0,0.0,0.0,0.0,0.06509873,0,0,0.0,0.0,0,0,7.0,0.0,478.0,4518.461538461539,3986.1538461538466,4334.358974358975,4295.384615384616,4082.564102564103,4349.2307692307695,4278.974358974359,4223.076923076924,4302.564102564103,4551.794871794872,4181.538461538462,4056.9230769230776,4068.717948717949,4464.102564102564
1421.2917,0.66722465,0.44120678,0.3762496,0.6421416,0,0.0,0.0,0.0,0.0,0.023286471,0,0,0.0,0.0,0,0,39.0,0.0,0.0,4512.307692307693,4080.0000000000005,4348.717948717949,4294.871794871796,4095.8974358974365,4355.8974358974365,4277.435897435898,4220.512820512821,4297.948717948719,4571.282051282052,4187.179487179487,4050.7692307692314,4173.846153846154,4461.025641025642
1421.542,0.66722465,0.44120678,0.3762496,0.6421416,0,0.0,0.0,0.0,0.0,0.22775787,0,0,0.0,0.0,0,0,71.0,0.0,478.0,4442.051282051282,4125.128205128206,4341.025641025642,4272.307692307693,4063.076923076924,4323.589743589744,4230.769230769231,4169.74358974359,4271.794871794872,4495.8974358974365,3859.48717948718,4123.076923076924,4207.6923076923085,4467.6923076923085
1421.8235,0.6460488,0.41514206,0.38177595,0.6450799,0,0.0,0.0,0.0,0.0,1.0,0,0,0.0,0.0,0,0,107.0,0.0,409.0,5143.076923076924,4124.615384615385,4412.307692307693,4337.948717948719,4066.1538461538466,4317.948717948719,4160.512820512821,4093.8461538461543,4238.461538461539,4441.538461538462,3790.2564102564106,3913.333333333334,4219.48717948718,5043.589743589744
1422.0424,0.6460488,0.41514206,0.38177595,0.6450799,0,0.0,0.0,0.0,0.40564466,0.0,0,0,0.0,0.0,0,0,6.0,0.0,552.0,5126.666666666667,4156.410256410257,4479.48717948718,4367.179487179487,4124.102564102564,4373.846153846154,4172.820512820514,4108.717948717949,4251.794871794872,4502.051282051282,3993.333333333334,4070.7692307692314,4293.333333333334,5137.435897435898
1422.3239,0.7785229,0.3916838,0.38297355,0.6387143,0,0.0,0.0,0.0,0.07677491,0.0,0,0,0.0,0.0,0,0,42.0,0.0,0.0,5152.307692307693,4140.512820512821,4509.2307692307695,4367.6923076923085,4150.769230769231,4411.282051282052,4179.48717948718,4109.2307692307695,4235.384615384616,4528.717948717949,4124.615384615385,4176.410256410257,4410.256410256411,5171.794871794872
1422.5428,0.7785229,0.3916838,0.38297355,0.6387143,0,0.0,0.0,0.0,1.0,0.0,0,0,0.0,0.0,0,0,70.0,0.0,553.0,5036.410256410257,4124.102564102564,4548.205128205129,4388.205128205129,4176.923076923077,4449.743589743591,4232.820512820514,4179.48717948718,4257.435897435898,4590.256410256411,4196.410256410257,4181.538461538462,4479.48717948718,5326.153846153847
1422.8243,0.8717146,0.37057135,0.37900683,0.63006675,0,0.0,0.0,0.0,1.0,0.0,0,0,0.0,0.0,0,0,106.0,0.0,530.0,4758.461538461539,4124.615384615385,4569.743589743591,4409.743589743591,4203.076923076924,4490.769230769231,4317.948717948719,4270.256410256411,4293.846153846154,4689.743589743591,4340.512820512821,4656.410256410257,4536.923076923077,5566.666666666667
1423.0432,0.8717146,0.37057135,0.37900683,0.63006675,0,0.0,0.0,0.0,0.46332285,0.0,0,0,0.0,0.0,0,0,5.0,0.0,525.0,4781.025641025642,4087.1794871794878,4580.512820512821,4443.589743589744,4234.358974358975,4519.48717948718,4381.025641025642,4332.820512820514,4315.384615384616,4716.410256410257,4360.512820512821,4437.948717948719,4428.205128205129,5378.461538461539
1423.3247,0.8232505,0.35157016,0.37443948,0.62228394,0,0.0,0.0,0.0,0.29905203,0.0,0,0,0.0,0.0,0,0,41.0,0.0,0.0,4894.358974358975,3996.410256410257,4544.102564102564,4450.256410256411,4216.410256410257,4491.282051282052,4429.2307692307695,4404.615384615385,4334.358974358975,4750.769230769231,4384.102564102564,4407.179487179487,4319.48717948718,5229.2307692307695
1423.5437,0.8232505,0.35157016,0.37443948,0.62228394,0,0.0,0.0,0.0,0.0,0.2329922,0,0,0.0,0.0,0,0,69.0,0.0,525.0,4750.256410256411,3970.7692307692314,4538.974358974359,4455.384615384616,4200.512820512821,4470.769230769231,4456.923076923077,4442.564102564103,4345.641025641026,4785.641025641026,4420.512820512821,4397.948717948719,4284.615384615385,5153.846153846154
1423.794,0.7784071,0.33446908,0.37032163,0.6152665,0,0.0,0.0,0.0,0.0,0.2651036,0,0,0.0,0.0,0,0,101.0,0.0,495.0,4770.256410256411,3929.7435897435903,4563.589743589744,4470.769230769231,4182.564102564103,4458.974358974359,4475.384615384616,4460.000000000001,4352.307692307693,4768.205128205129,4400.000000000001,4379.48717948718,4160.512820512821,5037.948717948719
1424.0441,0.7784071,0.33446908,0.37032163,0.6152665,0,0.0,0.0,0.0,0.0,0.38069937,0,0,0.0,0.0,0,0,4.0,0.0,507.0,4765.641025641026,3894.8717948717954,4547.6923076923085,4460.512820512821,4191.282051282052,4472.307692307693,4497.435897435898,4488.717948717949,4371.282051282052,4785.128205128206,4409.2307692307695,4382.051282051282,4131.282051282052,4959.48717948718
1424.2943,0.7580545,0.31907812,0.36661488,0.60895026,0,0.0,0.0,0.0,0.0,0.59764594,0,0,0.0,0.0,0,0,36.0,0.0,0.0,4714.358974358975,3867.1794871794878,4532.820512820514,4457.948717948719,4191.794871794872,4472.307692307693,4505.641025641026,4489.743589743591,4374.358974358975,4780.000000000001,4471.794871794872,4346.153846153847,4094.8717948717954,4869.2307692307695
1424.5446,0.7580545,0.31907812,0.36661488,0.60895026,0,0.0,0.0,0.0,0.0,0.60607874,0,0,0.0,0.0,0,0,68.0,0.0,507.0,4666.153846153847,3846.666666666667,4507.6923076923085,4447.179487179487,4177.948717948719,4458.974358974359,4504.102564102564,4487.179487179488,4377.435897435898,4772.820512820514,4434.871794871796,4310.256410256411,4086.1538461538466,4815.8974358974365
1424.7948,0.87708795,0.30522624,0.36327815,0.603265,0,0.0,0.0,0.0,0.0,1.0,0,0,0.0,0.0,0,0,100.0,0.0,486.0,4495.384615384616,3829.7435897435903,4481.025641025642,4437.948717948719,4168.205128205129,4442.564102564103,4482.051282051282,4453.333333333334,4369.2307692307695,4741.025641025642,4362.051282051282,4249.2307692307695,4075.8974358974365,4760.000000000001
1424.7948,0.87708795,0.30522624,0.36327815,0.603265,0,0.0,0.0,0.0,0.0,1.0,0,0,0.0,0.0,0,0,100.0,0.0,486.0,4495.384615384616,3829.7435897435903,4481.025641025642,4437.948717948719,4168.205128205129,4442.564102564103,4482.051282051282,4453.333333333334,4369.2307692307695,4741.025641025642,4362.051282051282,4249.2307692307695,4075.8974358974365,4760.000000000001
1425.2952,0.8299037,0.29275957,0.36027455,0.5981488,0,0.0,0.0,0.0,0.0,1.0,0,0,0.0,0.0,0,0,35.0,0.0,0.0,4488.205128205129,3855.8974358974365,4488.205128205129,4452.307692307693,4191.794871794872,4478.974358974359,4480.512820512821,4448.205128205129,4378.461538461539,4753.333333333334,4374.871794871796,4231.282051282052,4107.179487179487,4680.000000000001
1425.2952,0.8299037,0.29275957,0.36027455,0.5981488,0,0.0,0.0,0.0,0.0,1.0,0,0,0.0,0.0,0,0,35.0,0.0,0.0,4488.205128205129,3855.8974358974365,4488.205128205129,4452.307692307693,4191.794871794872,4478.974358974359,4480.512820512821,4448.205128205129,4378.461538461539,4753.333333333334,4374.871794871796,4231.282051282052,4107.179487179487,4680.000000000001
1425.7957,0.69682884,0.30480865,0.35757083,0.59354573,0,0.0,0.0,0.0,0.0,1.0,0,0,0.0,0.0,0,0,99.0,0.0,399.0,4520.512820512821,3850.7692307692314,4489.743589743591,4456.923076923077,4221.025641025642,4515.384615384616,4480.000000000001,4443.589743589744,4385.641025641026,4767.179487179488,4386.153846153847,4276.410256410257,4135.8974358974365,4648.205128205129
1426.0458,0.69682884,0.30480865,0.35757083,0.59354573,0,0.0,0.0,0.0,0.0,0.8662245,0,0,0.0,0.0,0,0,2.0,0.0,363.0,4555.8974358974365,3864.615384615385,4496.923076923077,4458.461538461539,4217.435897435898,4511.794871794872,4475.384615384616,4446.666666666667,4387.6923076923085,4774.358974358975,4396.410256410257,4324.615384615385,4137.435897435898,4626.666666666667
1426.296,0.6390135,0.32703012,0.35297248,0.5933883,0,0.0,0.0,0.0,0.0,0.0,0,0,0.0,0.0,0,0,34.0,0.0,0.0,4580.512820512821,3852.820512820513,4514.358974358975,4463.589743589744,4225.641025641026,4521.025641025642,4485.641025641026,4459.48717948718,4394.358974358975,4785.641025641026,4467.6923076923085,4352.307692307693,4142.564102564103,4627.179487179488
1426.296,0.6390135,0.32703012,0.35297248,0.5933883,0,0.0,0.0,0.0,0.0,0.0,0,0,0.0,0.0,0,0,34.0,0.0,0.0,4580.512820512821,3852.820512820513,4514.358974358975,4463.589743589744,4225.641025641026,4521.025641025642,4485.641025641026,4459.48717948718,4394.358974358975,4785.641025641026,4467.6923076923085,4352.307692307693,4142.564102564103,4627.179487179488
1426.7965,0.6589661,0.34917825,0.34330997,0.5979833,0,0.0,0.0,0.0,0.0,1.0,0,0,0.0,0.0,0,0,98.0,0.0,533.0,4450.256410256411,3835.3846153846157,4472.307692307693,4465.641025641026,4183.589743589744,4484.615384615385,4451.282051282052,4416.410256410257,4380.000000000001,4741.025641025642,4495.384615384616,4296.410256410257,4092.820512820513,4587.179487179488
1426.9216,0.6589661,0.34917825,0.34330997,0.5979833,0,0.0,0.0,0.0,0.0,0.0,0,0,0.0,0.0,0,0,114.0,0.0,533.0,4438.974358974359,3848.717948717949,4473.333333333334,4503.076923076924,4199.48717948718,4493.333333333334,4457.435897435898,4425.128205128206,4390.256410256411,4749.743589743591,4502.051282051282,4302.564102564103,4107.6923076923085,4593.846153846154
1427.2969,0.6098413,0.37682486,0.3346135,0.60211766,0,0.0,0.0,0.0,0.0,0.0,0,0,0.0,0.0,0,0,33.0,0.0,0.0,4478.974358974359,3860.512820512821,4466.153846153847,4493.333333333334,4187.6923076923085,4483.076923076924,4458.974358974359,4431.282051282052,4381.538461538462,4744.102564102564,4466.153846153847,4290.256410256411,4093.8461538461543,4566.666666666667
1427.5471,0.6098413,0.37682486,0.3346135,0.60211766,0,0.0,0.0,0.0,0.0,0.19086775,0,0,0.0,0.0,0,0,65.0,0.0,422.0,4473.333333333334,3862.564102564103,4444.615384615385,4476.923076923077,4193.333333333334,4482.051282051282,4461.025641025642,4437.948717948719,4382.564102564103,4737.948717948719,4421.025641025642,4309.743589743591,4088.717948717949,4570.256410256411
1427.7974,0.599343,0.4029243,0.32508594,0.6058373,0,0.0,0.0,0.0,0.0,0.17803587,0,0,0.0,0.0,0,0,97.0,0.0,499.0,4474.871794871796,3875.3846153846157,4448.717948717949,4475.8974358974365,4197.948717948719,4486.666666666667,4459.48717948718,4428.205128205129,4378.974358974359,4715.8974358974365,4378.461538461539,4264.102564102564,4068.717948717949,4534.871794871796
1428.0476,0.599343,0.4029243,0.32508594,0.6058373,0,0.0,0.0,0.0,0.0,0.5638654,0,0,0.0,0.0,0,0,0.0,0.0,513.0,4491.794871794872,3880.0000000000005,4463.589743589744,4490.256410256411,4194.871794871796,4482.051282051282,4465.641025641026,4441.025641025642,4384.615384615385,4727.179487179488,4378.461538461539,4273.846153846154,4089.23076923077,4514.871794871796
1428.2977,0.5210662,0.41441616,0.3141333,0.6095923,0,0.0,0.0,0.0,0.0,0.0,0,0,0.0,0.0,0,0,32.0,0.0,0.0,4524.102564102564,3891.7948717948725,4490.769230769231,4492.307692307693,4180.512820512821,4465.128205128206,4473.333333333334,4443.589743589744,4389.743589743591,4724.615384615386,4366.153846153847,4282.564102564103,4097.435897435898,4520.512820512821
1428.2977,0.5210662,0.41441616,0.3141333,0.6095923,0,0.0,0.0,0.0,0.0,0.0,0,0,0.0,0.0,0,0,32.0,0.0,0.0,4524.102564102564,3891.7948717948725,4490.769230769231,4492.307692307693,4180.512820512821,4465.128205128206,4473.333333333334,4443.589743589744,4389.743589743591,4724.615384615386,4366.153846153847,4282.564102564103,4097.435897435898,4520.512820512821
1428.7982,0.45828363,0.4293684,0.30647394,0.61297035,0,0.0,0.0,0.0,0.0,0.67033315,0,0,0.0,0.0,0,0,96.0,0.0,485.0,4563.076923076924,3893.333333333334,4507.179487179488,4489.2307692307695,4183.076923076924,4471.282051282052,4458.974358974359,4429.743589743591,4395.384615384616,4714.871794871796,4355.384615384616,4282.051282051282,4121.025641025642,4468.717948717949
1429.0485,0.45828363,0.4293684,0.30647394,0.61297035,0,0.0,0.0,0.0,0.0,0.13436328,0,0,0.0,0.0,0,0,128.0,0.0,485.0,4585.128205128206,3913.8461538461543,4514.358974358975,4483.589743589744,4188.205128205129,4478.461538461539,4463.076923076924,4427.6923076923085,4400.000000000001,4713.846153846154,4340.512820512821,4283.589743589744,4141.538461538462,4474.871794871796
1429.2986,0.40806833,0.47000617,0.30124137,0.61600894,0,0.0,0.0,0.0,0.0,0.0,0,0,0.0,0.0,0,0,31.0,0.0,0.0,4568.205128205129,3911.2820512820517,4505.641025641026,4480.000000000001,4195.384615384616,4482.564102564103,4445.128205128206,4416.410256410257,4393.333333333334,4706.666666666667,4329.743589743591,4282.051282051282,4138.974358974359,4457.435897435898
1429.2986,0.40806833,0.47000617,0.30124137,0.61600894,0,0.0,0.0,0.0,0.0,0.0,0,0,0.0,0.0,0,0,31.0,0.0,0.0,4568.205128205129,3911.2820512820517,4505.641025641026,4480.000000000001,4195.384615384616,4482.564102564103,4445.128205128206,4416.410256410257,4393.333333333334,4706.666666666667,4329.743589743591,4282.051282051282,4138.974358974359,4457.435897435898
1429.7991,0.35712528,0.5068924,0.30005372,0.61712027,0,0.0,0.0,0.0,0.0,0.0,0,0,0.0,0.0,0,0,95.0,0.0,408.0,4636.410256410257,3896.9230769230776,4497.435897435898,4458.974358974359,4192.307692307693,4480.512820512821,4436.923076923077,4391.794871794872,4388.717948717949,4670.256410256411,4116.923076923077,4280.000000000001,4129.74358974359,4454.871794871796
1429.9242,0.35712528,0.5068924,0.30005372,0.61712027,0,0.0,0.0,0.0,0.0,1.0,0,0,0.0,0.0,0,0,111.0,0.0,408.0,4796.923076923077,3897.435897435898,4502.051282051282,4460.512820512821,4184.615384615385,4475.8974358974365,4429.743589743591,4387.6923076923085,4391.282051282052,4665.128205128206,4121.025641025642,4238.461538461539,4121.025641025642,4439.48717948718
1430.2994,0.44465354,0.9758704,0.3012656,0.61811906,0,0.0,0.0,0.0,0.0,1.0,0,0,0.0,0.0,0,0,30.0,0.0,0.0,5159.487179487181,3890.7692307692314,4509.2307692307695,4460.000000000001,4160.000000000001,4447.179487179487,4407.6923076923085,4364.102564102564,4390.769230769231,4655.384615384616,4101.538461538462,4226.666666666667,4134.871794871796,4406.153846153847
1430.4246,0.44465354,0.9758704,0.3012656,0.61811906,0,0.0,0.0,0.0,1.0,0.0,0,0,0.0,0.0,0,0,46.0,0.0,0.0,5172.820512820514,3899.48717948718,4521.538461538462,4463.589743589744,4158.974358974359,4450.256410256411,4423.076923076924,4377.435897435898,4404.615384615385,4686.153846153847,4162.051282051282,4181.538461538462,4165.128205128206,4560.000000000001
1430.8312,0.49463472,1.0,0.30622318,0.6190303,0,0.0,0.0,0.0,1.0,0.0,0,0,0.0,0.0,0,0,98.0,0.0,538.0,4877.948717948719,3830.7692307692314,4443.076923076924,4441.025641025642,4186.666666666667,4474.358974358975,4334.871794871796,4343.589743589744,4347.179487179487,4523.076923076924,3700.0000000000005,5026.666666666667,4037.9487179487182,5170.769230769231
1430.8312,0.49463472,1.0,0.30622318,0.6190303,0,0.0,0.0,0.0,1.0,0.0,0,0,0.0,0.0,0,0,98.0,0.0,538.0,4877.948717948719,3830.7692307692314,4443.076923076924,4441.025641025642,4186.666666666667,4474.358974358975,4334.871794871796,4343.589743589744,4347.179487179487,4523.076923076924,3700.0000000000005,5026.666666666667,4037.9487179487182,5170.769230769231
1431.3317,0.5866074,1.0,0.31068498,0.6168489,0,0.0,0.0,0.0,0.6475224,0.0,0,0,0.0,0.0,0,0,33.0,0.0,0.0,5045.128205128206,3846.1538461538466,4463.589743589744,4489.2307692307695,4189.74358974359,4460.512820512821,4418.974358974359,4328.717948717949,4343.589743589744,4568.205128205129,4175.384615384616,4322.564102564103,4013.8461538461543,5162.051282051283
1431.5505,0.5866074,1.0,0.31068498,0.6168489,0,0.0,0.0,0.0,1.0,0.0,0,0,0.0,0.0,0,0,61.0,0.0,0.0,5003.589743589744,3871.2820512820517,4443.589743589744,4457.948717948719,4194.358974358975,4471.794871794872,4466.666666666667,4365.641025641026,4369.743589743591,4616.923076923077,4288.717948717949,4394.871794871796,4069.7435897435903,5231.794871794872
1431.832,0.6257447,1.0,0.3147006,0.6117754,0,0.0,0.0,0.0,0.51469094,0.0,0,0,0.0,0.0,0,0,97.0,0.0,498.0,4567.6923076923085,3876.410256410257,4296.410256410257,4360.512820512821,4167.6923076923085,4445.128205128206,4536.923076923077,4387.6923076923085,4372.820512820514,4648.717948717949,4233.846153846154,4557.948717948719,4116.410256410257,5029.743589743591
1432.051,0.6257447,1.0,0.3147006,0.6117754,0,0.0,0.0,0.0,0.9117048,0.0,0,0,0.0,0.0,0,0,125.0,0.0,498.0,4413.846153846154,3919.48717948718,4347.6923076923085,4380.512820512821,4155.384615384616,4421.538461538462,4586.666666666667,4430.256410256411,4390.769230769231,4701.025641025642,4292.307692307693,4511.794871794872,4183.589743589744,5069.743589743591
1432.3325,0.638936,1.0,0.31656387,0.6058217,0,0.0,0.0,0.0,0.0,1.0,0,0,0.0,0.0,0,0,32.0,0.0,0.0,4471.794871794872,3935.3846153846157,4415.8974358974365,4416.410256410257,4156.923076923077,4424.615384615385,4588.205128205129,4433.333333333334,4400.512820512821,4724.102564102564,4417.948717948719,4620.000000000001,4189.2307692307695,5426.666666666667
1432.5514,0.638936,1.0,0.31656387,0.6058217,0,0.0,0.0,0.0,0.0,0.7525133,0,0,0.0,0.0,0,0,60.0,0.0,0.0,4497.948717948719,3944.1025641025644,4447.6923076923085,4428.205128205129,4167.179487179487,4432.820512820514,4556.923076923077,4445.128205128206,4408.205128205129,4745.128205128206,4491.794871794872,4388.205128205129,4188.205128205129,5325.128205128206
1432.8329,0.6036976,1.0,0.31824082,0.60046345,0,0.0,0.0,0.0,0.0,1.0,0,0,0.0,0.0,0,0,96.0,0.0,489.0,4504.615384615385,3944.1025641025644,4476.923076923077,4431.794871794872,4164.102564102564,4429.743589743591,4512.820512820514,4420.000000000001,4406.666666666667,4730.769230769231,4461.538461538462,4171.282051282052,4189.74358974359,5235.384615384616
1432.8329,0.6036976,1.0,0.31824082,0.60046345,0,0.0,0.0,0.0,0.0,1.0,0,0,0.0,0.0,0,0,96.0,0.0,489.0,4504.615384615385,3944.1025641025644,4476.923076923077,4431.794871794872,4164.102564102564,4429.743589743591,4512.820512820514,4420.000000000001,4406.666666666667,4730.769230769231,4461.538461538462,4171.282051282052,4189.74358974359,5235.384615384616
1433.3021,0.60097855,1.0,0.3197527,0.59563285,0,0.0,0.0,0.0,0.0,1.0,0,0,0.0,0.0,0,0,27.0,0.0,0.0,4568.205128205129,3978.461538461539,4551.282051282052,4484.102564102564,4208.205128205129,4474.871794871796,4520.512820512821,4456.923076923077,4421.538461538462,4762.564102564103,4437.435897435898,4135.8974358974365,4229.2307692307695,4934.358974358975
1433.3021,0.60097855,1.0,0.3197527,0.59563285,0,0.0,0.0,0.0,0.0,1.0,0,0,0.0,0.0,0,0,27.0,0.0,0.0,4568.205128205129,3978.461538461539,4551.282051282052,4484.102564102564,4208.205128205129,4474.871794871796,4520.512820512821,4456.923076923077,4421.538461538462,4762.564102564103,4437.435897435898,4135.8974358974365,4229.2307692307695,4934.358974358975
1433.8025,0.6218218,1.0,0.32111365,0.5912847,0,0.0,0.0,0.0,0.0,1.0,0,0,0.0,0.0,0,0,91.0,0.0,397.0,4618.974358974359,3977.9487179487182,4553.846153846154,4492.820512820514,4207.6923076923085,4485.128205128206,4478.974358974359,4445.128205128206,4415.384615384616,4742.051282051282,4374.871794871796,4130.769230769231,4196.410256410257,4731.794871794872
1433.8025,0.6218218,1.0,0.32111365,0.5912847,0,0.0,0.0,0.0,0.0,1.0,0,0,0.0,0.0,0,0,91.0,0.0,397.0,4618.974358974359,3977.9487179487182,4553.846153846154,4492.820512820514,4207.6923076923085,4485.128205128206,4478.974358974359,4445.128205128206,4415.384615384616,4742.051282051282,4374.871794871796,4130.769230769231,4196.410256410257,4731.794871794872
1434.303,0.58272123,1.0,0.3223387,0.5873709,0,0.0,0.0,0.0,0.0,1.0,0,0,0.0,0.0,0,0,26.0,0.0,0.0,4587.6923076923085,3988.717948717949,4539.48717948718,4476.923076923077,4202.051282051282,4475.384615384616,4453.333333333334,4438.461538461539,4421.538461538462,4740.000000000001,4353.846153846154,4160.512820512821,4184.615384615385,4536.923076923077
1434.303,0.58272123,1.0,0.3223387,0.5873709,0,0.0,0.0,0.0,0.0,1.0,0,0,0.0,0.0,0,0,26.0,0.0,0.0,4587.6923076923085,3988.717948717949,4539.48717948718,4476.923076923077,4202.051282051282,4475.384615384616,4453.333333333334,4438.461538461539,4421.538461538462,4740.000000000001,4353.846153846154,4160.512820512821,4184.615384615385,4536.923076923077
1434.8033,0.5526805,1.0,0.32344124,0.5838486,0,0.0,0.0,0.0,0.0,0.0,0,0,0.0,0.0,0,0,90.0,0.0,537.0,4614.358974358975,4000.5128205128212,4573.333333333334,4506.666666666667,4209.74358974359,4484.615384615385,4473.846153846154,4455.8974358974365,4409.2307692307695,4759.48717948718,4370.256410256411,4216.410256410257,4206.153846153847,4460.000000000001
1434.8033,0.5526805,1.0,0.32344124,0.5838486,0,0.0,0.0,0.0,0.0,0.0,0,0,0.0,0.0,0,0,90.0,0.0,537.0,4614.358974358975,4000.5128205128212,4573.333333333334,4506.666666666667,4209.74358974359,4484.615384615385,4473.846153846154,4455.8974358974365,4409.2307692307695,4759.48717948718,4370.256410256411,4216.410256410257,4206.153846153847,4460.000000000001
1435.3038,0.5291598,1.0,0.32443318,0.5806781,0,0.0,0.0,0.0,0.0,0.0,0,0,0.0,0.0,0,0,25.0,0.0,0.0,4586.153846153847,3981.538461538462,4467.6923076923085,4461.025641025642,4204.102564102564,4488.717948717949,4489.2307692307695,4470.256410256411,4389.2307692307695,4703.589743589744,4329.2307692307695,4200.000000000001,4100.000000000001,4437.435897435898
1435.3038,0.5291598,1.0,0.32443318,0.5806781,0,0.0,0.0,0.0,0.0,0.0,0,0,0.0,0.0,0,0,25.0,0.0,0.0,4586.153846153847,3981.538461538462,4467.6923076923085,4461.025641025642,4204.102564102564,4488.717948717949,4489.2307692307695,4470.256410256411,4389.2307692307695,4703.589743589744,4329.2307692307695,4200.000000000001,4100.000000000001,4437.435897435898
1435.8042,0.61583036,1.0,0.32359684,0.57782423,0,0.0,0.0,0.0,0.0,0.0,0,0,0.0,0.0,0,0,89.0,0.0,502.0,4518.461538461539,3963.589743589744,4393.846153846154,4415.384615384616,4185.641025641026,4474.871794871796,4506.153846153847,4474.871794871796,4357.948717948719,4595.384615384616,4289.2307692307695,4062.564102564103,3959.48717948718,4383.589743589744
1435.8042,0.61583036,1.0,0.32359684,0.57782423,0,0.0,0.0,0.0,0.0,0.0,0,0,0.0,0.0,0,0,89.0,0.0,502.0,4518.461538461539,3963.589743589744,4393.846153846154,4415.384615384616,4185.641025641026,4474.871794871796,4506.153846153847,4474.871794871796,4357.948717948719,4595.384615384616,4289.2307692307695,4062.564102564103,3959.48717948718,4383.589743589744
1436.3047,0.680101,1.0,0.3184408,0.57525676,0,0.0,0.0,0.0,0.0,0.13904056,0,0,0.0,0.0,0,0,24.0,0.0,0.0,4472.307692307693,3977.9487179487182,4481.025641025642,4428.717948717949,4188.205128205129,4471.794871794872,4473.333333333334,4443.589743589744,4354.358974358975,4597.948717948719,4274.358974358975,3964.1025641025644,4037.9487179487182,4317.435897435898
1436.5548,0.680101,1.0,0.3184408,0.57525676,0,0.0,0.0,0.0,0.0,0.05137669,0,0,0.0,0.0,0,0,56.0,0.0,0.0,4461.538461538462,3976.410256410257,4532.307692307693,4439.48717948718,4185.128205128206,4462.051282051282,4444.102564102564,4421.538461538462,4358.461538461539,4609.743589743591,4287.6923076923085,3870.2564102564106,4102.564102564103,4343.589743589744
1436.805,0.57498586,1.0,0.31169754,0.57469535,0,0.0,0.0,0.0,0.0,0.013581303,0,0,0.0,0.0,0,0,88.0,0.0,489.0,4472.307692307693,3966.666666666667,4559.48717948718,4443.589743589744,4183.589743589744,4464.615384615385,4428.205128205129,4417.948717948719,4333.333333333334,4646.153846153847,4333.846153846154,3918.9743589743593,4162.564102564103,4330.256410256411
1436.9302,0.57498586,1.0,0.31169754,0.57469535,0,0.0,0.0,0.0,0.0,0.0,0,0,0.0,0.0,0,0,104.0,0.0,489.0,4486.666666666667,3963.076923076924,4574.871794871796,4454.358974358975,4185.128205128206,4464.615384615385,4430.769230769231,4414.871794871796,4345.128205128206,4648.205128205129,4315.384615384616,3946.666666666667,4162.564102564103,4336.923076923077
1437.3055,0.6829261,1.0,0.30478767,0.5769452,0,0.0,0.0,0.0,0.0,0.0,0,0,0.0,0.0,0,0,23.0,0.0,0.0,4534.871794871796,3972.820512820513,4591.794871794872,4470.769230769231,4188.717948717949,4473.846153846154,4434.358974358975,4422.564102564103,4347.179487179487,4686.153846153847,4351.282051282052,4053.333333333334,4218.461538461539,4374.871794871796
1437.3055,0.6829261,1.0,0.30478767,0.5769452,0,0.0,0.0,0.0,0.0,0.0,0,0,0.0,0.0,0,0,23.0,0.0,0.0,4534.871794871796,3972.820512820513,4591.794871794872,4470.769230769231,4188.717948717949,4473.846153846154,4434.358974358975,4422.564102564103,4347.179487179487,4686.153846153847,4351.282051282052,4053.333333333334,4218.461538461539,4374.871794871796
1437.8059,0.7200965,1.0,0.29941094,0.5819082,0,0.0,0.0,0.0,0.0,0.0,0,0,0.0,0.0,0,0,87.0,0.0,415.0,4586.153846153847,3953.333333333334,4582.051282051282,4471.794871794872,4196.923076923077,4473.846153846154,4440.512820512821,4435.384615384616,4430.769230769231,4744.102564102564,4396.923076923077,4160.000000000001,4280.000000000001,4495.8974358974365
1437.8059,0.7200965,1.0,0.29941094,0.5819082,0,0.0,0.0,0.0,0.0,0.0,0,0,0.0,0.0,0,0,87.0,0.0,415.0,4586.153846153847,3953.333333333334,4582.051282051282,4471.794871794872,4196.923076923077,4473.846153846154,4440.512820512821,4435.384615384616,4430.769230769231,4744.102564102564,4396.923076923077,4160.000000000001,4280.000000000001,4495.8974358974365
1438.3064,0.67969394,1.0,0.2967992,0.58637434,0,0.0,0.0,0.0,0.0,0.0,0,0,0.0,0.0,0,0,22.0,0.0,0.0,4694.871794871796,3965.6410256410263,4585.641025641026,4465.641025641026,4217.435897435898,4473.333333333334,4446.153846153847,4431.794871794872,4442.564102564103,4738.974358974359,4392.820512820514,4225.641025641026,4237.435897435898,4569.2307692307695
1438.5565,0.67969394,1.0,0.2967992,0.58637434,0,0.0,0.0,0.0,0.0,0.22053096,0,0,0.0,0.0,0,0,54.0,0.0,0.0,4672.307692307693,3928.205128205129,4547.6923076923085,4461.025641025642,4352.820512820514,4370.256410256411,4420.512820512821,4404.615384615385,4437.948717948719,4698.461538461539,4350.769230769231,4197.948717948719,4194.871794871796,4574.871794871796
1438.8068,0.6875714,1.0,0.2944494,0.59039307,0,0.0,0.0,1.0,0.0,0.0,0,0,0.0,0.0,0,0,86.0,0.0,537.0,4695.384615384616,3975.3846153846157,4582.564102564103,4473.846153846154,4200.000000000001,4527.179487179488,4467.179487179487,4450.769230769231,4455.8974358974365,4748.205128205129,4391.282051282052,4257.435897435898,4237.948717948719,4562.564102564103
1438.8068,0.6875714,1.0,0.2944494,0.59039307,0,0.0,0.0,1.0,0.0,0.0,0,0,0.0,0.0,0,0,86.0,0.0,537.0,4695.384615384616,3975.3846153846157,4582.564102564103,4473.846153846154,4200.000000000001,4527.179487179488,4467.179487179487,4450.769230769231,4455.8974358974365,4748.205128205129,4391.282051282052,4257.435897435898,4237.948717948719,4562.564102564103
1439.3073,0.66710085,1.0,0.29446527,0.59201545,0,0.0,0.0,0.0,0.0,0.0,0,0,0.0,0.0,0,0,21.0,0.0,0.0,4673.333333333334,3941.538461538462,4565.128205128206,4466.666666666667,4194.358974358975,4516.923076923077,4449.2307692307695,4429.2307692307695,4450.256410256411,4727.6923076923085,4372.307692307693,4262.051282051282,4218.974358974359,4551.794871794872
1439.5575,0.66710085,1.0,0.29446527,0.59201545,0,0.0,0.0,0.0,0.0,1.0,0,0,0.0,0.0,0,0,53.0,0.0,0.0,4681.025641025642,3942.0512820512827,4554.358974358975,4458.974358974359,4196.923076923077,4514.358974358975,4445.128205128206,4436.923076923077,4446.153846153847,4708.205128205129,4368.205128205129,4265.128205128206,4224.102564102564,4480.000000000001
1439.8076,0.6131128,1.0,0.29751852,0.58825,0,0.0,0.0,0.0,0.0,1.0,0,0,0.0,0.0,0,0,85.0,0.0,502.0,4685.641025641026,3954.358974358975,4557.948717948719,4464.615384615385,4214.358974358975,4521.538461538462,4456.923076923077,4456.923076923077,4445.641025641026,4711.282051282052,4372.820512820514,4289.2307692307695,4238.461538461539,4465.641025641026
1440.0579,0.6131128,1.0,0.29751852,0.58825,0,0.0,0.0,0.0,0.0,0.21881633,0,0,0.0,0.0,0,0,117.0,0.0,502.0,4680.000000000001,3967.692307692308,4536.923076923077,4461.538461538462,4215.8974358974365,4524.615384615385,4460.512820512821,4459.48717948718,4444.615384615385,4701.538461538462,4354.358974358975,4269.74358974359,4223.076923076924,4474.871794871796
1440.3081,0.525071,0.99487346,0.3002671,0.58486056,0,0.0,0.0,0.0,0.0,0.18247923,0,0,0.0,0.0,0,0,20.0,0.0,0.0,4706.666666666667,3965.6410256410263,4554.358974358975,4469.743589743591,4200.512820512821,4507.6923076923085,4446.153846153847,4445.641025641026,4444.615384615385,4691.282051282052,4352.820512820514,4286.666666666667,4223.076923076924,4484.615384615385
1440.5583,0.525071,0.99487346,0.3002671,0.58486056,0,0.0,0.0,0.0,0.0,0.09754922,0,0,0.0,0.0,0,0,52.0,0.0,0.0,4669.2307692307695,3945.6410256410263,4514.358974358975,4442.051282051282,4194.358974358975,4500.000000000001,4448.717948717949,4428.717948717949,4440.512820512821,4677.435897435898,4331.282051282052,4255.384615384616,4190.769230769231,4431.794871794872
1440.8085,0.5253644,0.9045037,0.30345067,0.5818096,0,0.0,0.0,0.0,0.0,0.0,0,0,0.0,0.0,0,0,84.0,0.0,489.0,4647.179487179488,3942.564102564103,4511.282051282052,4448.205128205129,4206.153846153847,4506.153846153847,4460.512820512821,4434.358974358975,4438.974358974359,4691.282051282052,4335.384615384616,4265.128205128206,4194.358974358975,4445.641025641026
1440.8085,0.5253644,0.9045037,0.30345067,0.5818096,0,0.0,0.0,0.0,0.0,0.0,0,0,0.0,0.0,0,0,84.0,0.0,489.0,4647.179487179488,3942.564102564103,4511.282051282052,4448.205128205129,4206.153846153847,4506.153846153847,4460.512820512821,4434.358974358975,4438.974358974359,4691.282051282052,4335.384615384616,4265.128205128206,4194.358974358975,4445.641025641026
1441.309,0.46376657,0.83161163,0.3082487,0.581597,0,0.0,0.0,0.0,0.0,0.0,0,0,0.0,0.0,0,0,19.0,0.0,0.0,4665.641025641026,3957.435897435898,4496.923076923077,4447.6923076923085,4200.512820512821,4491.794871794872,4443.589743589744,4406.666666666667,4437.435897435898,4696.923076923077,4366.153846153847,4243.076923076924,4186.666666666667,4411.794871794872
1441.309,0.46376657,0.83161163,0.3082487,0.581597,0,0.0,0.0,0.0,0.0,0.0,0,0,0.0,0.0,0,0,19.0,0.0,0.0,4665.641025641026,3957.435897435898,4496.923076923077,4447.6923076923085,4200.512820512821,4491.794871794872,4443.589743589744,4406.666666666667,4437.435897435898,4696.923076923077,4366.153846153847,4243.076923076924,4186.666666666667,4411.794871794872
1441.8093,0.42138708,0.8381499,0.3125674,0.5834844,0,0.0,0.0,0.0,0.0,1.0,0,0,0.0,0.0,0,0,83.0,0.0,414.0,4737.948717948719,3931.2820512820517,4526.666666666667,4468.717948717949,4217.435897435898,4504.102564102564,4473.333333333334,4434.358974358975,4448.717948717949,4740.512820512821,4409.2307692307695,4283.589743589744,4226.153846153847,4373.846153846154
1442.0596,0.42138708,0.8381499,0.3125674,0.5834844,0,0.0,0.0,0.0,0.0,0.8574131,0,0,0.0,0.0,0,0,115.0,0.0,414.0,4749.743589743591,3942.0512820512827,4544.102564102564,4476.410256410257,4217.948717948719,4506.153846153847,4481.538461538462,4438.974358974359,4445.641025641026,4753.333333333334,4422.051282051282,4312.307692307693,4231.794871794872,4383.589743589744
1442.3098,0.4270229,0.8407637,0.3145216,0.5879452,0,0.0,0.0,0.0,0.0,0.3343876,0,0,0.0,0.0,0,0,18.0,0.0,0.0,4718.974358974359,3942.0512820512827,4544.102564102564,4483.589743589744,4237.435897435898,4524.102564102564,4486.666666666667,4448.717948717949,4448.205128205129,4770.769230769231,4408.205128205129,4314.358974358975,4221.025641025642,4386.666666666667
1442.4349,0.4270229,0.8407637,0.3145216,0.5879452,0,0.0,0.0,0.0,0.0,0.0,0,0,0.0,0.0,0,0,34.0,0.0,0.0,4690.769230769231,3944.615384615385,4553.846153846154,4484.102564102564,4239.48717948718,4524.615384615385,4489.2307692307695,4449.743589743591,4448.205128205129,4768.205128205129,4408.205128205129,4327.6923076923085,4228.205128205129,4410.769230769231
1442.8102,0.41205454,0.8267408,0.31408888,0.59494287,0,0.0,0.0,0.0,0.0,0.37427562,0,0,0.0,0.0,0,0,82.0,0.0,537.0,4680.512820512821,3929.7435897435903,4525.641025641026,4460.512820512821,4227.6923076923085,4512.820512820514,4478.974358974359,4429.2307692307695,4443.589743589744,4745.641025641026,4398.974358974359,4296.923076923077,4208.717948717949,4400.000000000001
1442.9353,0.41205454,0.8267408,0.31408888,0.59494287,0,0.0,0.0,0.0,0.0,0.0,0,0,0.0,0.0,0,0,98.0,0.0,537.0,4672.307692307693,3911.7948717948725,4497.948717948719,4445.128205128206,4227.6923076923085,4513.333333333334,4475.384615384616,4422.051282051282,4437.948717948719,4728.205128205129,4363.589743589744,4287.179487179487,4194.358974358975,4374.871794871796
1443.3107,0.40009487,0.8244956,0.31369975,0.5982554,0,0.0,0.0,0.0,0.0,0.0,0,0,0.0,0.0,0,0,17.0,0.0,0.0,4703.589743589744,3927.1794871794878,4498.974358974359,4445.128205128206,4218.974358974359,4497.435897435898,4461.025641025642,4409.743589743591,4434.358974358975,4718.974358974359,4359.48717948718,4288.205128205129,4199.48717948718,4377.948717948719
1443.3107,0.40009487,0.8244956,0.31369975,0.5982554,0,0.0,0.0,0.0,0.0,0.0,0,0,0.0,0.0,0,0,17.0,0.0,0.0,4703.589743589744,3927.1794871794878,4498.974358974359,4445.128205128206,4218.974358974359,4497.435897435898,4461.025641025642,4409.743589743591,4434.358974358975,4718.974358974359,4359.48717948718,4288.205128205129,4199.48717948718,4377.948717948719
1443.811,0.37797484,0.78521556,0.31247398,0.59847164,0,0.0,0.0,0.0,0.0,0.0,0,0,0.0,0.0,0,0,81.0,0.0,502.0,4739.48717948718,3952.820512820513,4501.538461538462,4447.179487179487,4232.307692307693,4511.794871794872,4463.589743589744,4426.153846153847,4436.923076923077,4720.000000000001,4351.282051282052,4274.871794871796,4197.948717948719,4361.025641025642
1443.811,0.37797484,0.78521556,0.31247398,0.59847164,0,0.0,0.0,0.0,0.0,0.0,0,0,0.0,0.0,0,0,81.0,0.0,502.0,4739.48717948718,3952.820512820513,4501.538461538462,4447.179487179487,4232.307692307693,4511.794871794872,4463.589743589744,4426.153846153847,4436.923076923077,4720.000000000001,4351.282051282052,4274.871794871796,4197.948717948719,4361.025641025642
1444.3115,0.3896066,0.75497276,0.31137118,0.60406697,0,0.0,0.0,0.0,0.0,0.0,0,0,0.0,0.0,0,0,16.0,0.0,0.0,4728.205128205129,3978.461538461539,4503.076923076924,4463.076923076924,4272.307692307693,4555.384615384616,4495.384615384616,4461.538461538462,4440.000000000001,4741.538461538462,4360.512820512821,4306.666666666667,4208.717948717949,4355.384615384616
1444.3115,0.3896066,0.75497276,0.31137118,0.60406697,0,0.0,0.0,0.0,0.0,0.0,0,0,0.0,0.0,0,0,16.0,0.0,0.0,4728.205128205129,3978.461538461539,4503.076923076924,4463.076923076924,4272.307692307693,4555.384615384616,4495.384615384616,4461.538461538462,4440.000000000001,4741.538461538462,4360.512820512821,4306.666666666667,4208.717948717949,4355.384615384616
1444.812,0.37001693,0.7334863,0.3090693,0.6116675,0,0.0,0.0,0.0,0.0,0.0,0,0,0.0,0.0,0,0,80.0,0.0,489.0,4732.820512820514,3978.461538461539,4492.307692307693,4456.923076923077,4296.410256410257,4584.615384615385,4535.8974358974365,4509.743589743591,4444.102564102564,4752.820512820514,4349.2307692307695,4329.2307692307695,4182.564102564103,4371.794871794872
1444.812,0.37001693,0.7334863,0.3090693,0.6116675,0,0.0,0.0,0.0,0.0,0.0,0,0,0.0,0.0,0,0,80.0,0.0,489.0,4732.820512820514,3978.461538461539,4492.307692307693,4456.923076923077,4296.410256410257,4584.615384615385,4535.8974358974365,4509.743589743591,4444.102564102564,4752.820512820514,4349.2307692307695,4329.2307692307695,4182.564102564103,4371.794871794872
1445.3124,0.39200124,0.6983738,0.30511624,0.6159878,0,0.0,0.0,0.0,0.0,0.0,0,0,0.0,0.0,0,0,15.0,0.0,416.0,4701.025641025642,3993.8461538461543,4496.923076923077,4449.2307692307695,4295.384615384616,4585.128205128206,4512.307692307693,4472.307692307693,4428.205128205129,4695.384615384616,4309.2307692307695,4258.974358974359,4105.128205128206,4315.8974358974365
1445.3124,0.39200124,0.6983738,0.30511624,0.6159878,0,0.0,0.0,0.0,0.0,0.0,0,0,0.0,0.0,0,0,15.0,0.0,416.0,4701.025641025642,3993.8461538461543,4496.923076923077,4449.2307692307695,4295.384615384616,4585.128205128206,4512.307692307693,4472.307692307693,4428.205128205129,4695.384615384616,4309.2307692307695,4258.974358974359,4105.128205128206,4315.8974358974365
1445.8129,0.3210681,0.6588987,0.30040795,0.61987424,0,0.0,0.0,0.0,0.0,0.11805614,0,0,0.0,0.0,0,0,79.0,0.0,416.0,4734.871794871796,3987.692307692308,4515.384615384616,4452.307692307693,4276.923076923077,4555.384615384616,4492.307692307693,4457.948717948719,4433.846153846154,4706.666666666667,4333.846153846154,4277.435897435898,4156.923076923077,4364.102564102564
1446.063,0.3210681,0.6588987,0.30040795,0.61987424,0,0.0,0.0,0.0,0.0,0.08289297,0,0,0.0,0.0,0,0,111.0,0.0,416.0,4746.666666666667,4021.0256410256416,4544.102564102564,4472.820512820514,4274.871794871796,4546.666666666667,4485.128205128206,4452.307692307693,4440.000000000001,4717.948717948719,4342.564102564103,4276.410256410257,4184.102564102564,4376.923076923077
1446.3132,0.23829731,0.6356633,0.29732242,0.625353,0,0.0,0.0,0.0,0.0,0.0,0,0,0.0,0.0,0,0,14.0,0.0,537.0,4718.461538461539,4016.410256410257,4540.512820512821,4475.384615384616,4267.6923076923085,4532.307692307693,4466.666666666667,4436.410256410257,4434.358974358975,4718.974358974359,4402.051282051282,4272.820512820514,4188.717948717949,4372.820512820514
1446.3132,0.23829731,0.6356633,0.29732242,0.625353,0,0.0,0.0,0.0,0.0,0.0,0,0,0.0,0.0,0,0,14.0,0.0,537.0,4718.461538461539,4016.410256410257,4540.512820512821,4475.384615384616,4267.6923076923085,4532.307692307693,4466.666666666667,4436.410256410257,4434.358974358975,4718.974358974359,4402.051282051282,4272.820512820514,4188.717948717949,4372.820512820514
1446.8137,0.22403836,0.6059869,0.2945462,0.6328006,0,0.0,0.0,0.0,0.0,0.0,0,0,0.0,0.0,0,0,78.0,0.0,537.0,4752.307692307693,3989.23076923077,4528.717948717949,4461.538461538462,4218.974358974359,4526.153846153847,4450.256410256411,4414.358974358975,4430.769230769231,4711.282051282052,4340.000000000001,4248.205128205129,4180.000000000001,4358.974358974359
1446.8137,0.22403836,0.6059869,0.2945462,0.6328006,0,0.0,0.0,0.0,0.0,0.0,0,0,0.0,0.0,0,0,78.0,0.0,537.0,4752.307692307693,3989.23076923077,4528.717948717949,4461.538461538462,4218.974358974359,4526.153846153847,4450.256410256411,4414.358974358975,4430.769230769231,4711.282051282052,4340.000000000001,4248.205128205129,4180.000000000001,4358.974358974359
1447.3141,0.25073543,0.59145373,0.29204834,0.64107066,0,0.0,0.0,0.0,0.0,0.0,0,0,0.0,0.0,0,0,13.0,0.0,502.0,4664.615384615386,3963.589743589744,4509.2307692307695,4443.076923076924,4202.564102564103,4506.666666666667,4427.179487179487,4389.2307692307695,4421.538461538462,4686.153846153847,4317.948717948719,4216.923076923077,4161.538461538462,4362.051282051282
1447.3141,0.25073543,0.59145373,0.29204834,0.64107066,0,0.0,0.0,0.0,0.0,0.0,0,0,0.0,0.0,0,0,13.0,0.0,502.0,4664.615384615386,3963.589743589744,4509.2307692307695,4443.076923076924,4202.564102564103,4506.666666666667,4427.179487179487,4389.2307692307695,4421.538461538462,4686.153846153847,4317.948717948719,4216.923076923077,4161.538461538462,4362.051282051282
1447.8146,0.28733397,0.58267033,0.29113677,0.6511402,0,0.0,0.0,0.0,0.0,0.0,0,0,0.0,0.0,0,0,77.0,0.0,502.0,4634.358974358975,3958.461538461539,4525.128205128206,4447.6923076923085,4220.000000000001,4521.025641025642,4429.2307692307695,4389.743589743591,4423.076923076924,4694.871794871796,4333.333333333334,4231.794871794872,4188.205128205129,4389.743589743591
1447.8146,0.28733397,0.58267033,0.29113677,0.6511402,0,0.0,0.0,0.0,0.0,0.0,0,0,0.0,0.0,0,0,77.0,0.0,502.0,4634.358974358975,3958.461538461539,4525.128205128206,4447.6923076923085,4220.000000000001,4521.025641025642,4429.2307692307695,4389.743589743591,4423.076923076924,4694.871794871796,4333.333333333334,4231.794871794872,4188.205128205129,4389.743589743591
1448.315,0.31956014,0.5621071,0.29283607,0.66019744,0,0.0,0.0,0.0,0.0,0.0,0,0,0.0,0.0,0,0,12.0,0.0,489.0,4607.179487179488,3967.1794871794878,4525.128205128206,4458.461538461539,4231.282051282052,4528.717948717949,4446.153846153847,4412.307692307693,4421.538461538462,4711.794871794872,4358.974358974359,4264.615384615385,4208.717948717949,4399.48717948718
1448.315,0.31956014,0.5621071,0.29283607,0.66019744,0,0.0,0.0,0.0,0.0,0.0,0,0,0.0,0.0,0,0,12.0,0.0,489.0,4607.179487179488,3967.1794871794878,4525.128205128206,4458.461538461539,4231.282051282052,4528.717948717949,4446.153846153847,4412.307692307693,4421.538461538462,4711.794871794872,4358.974358974359,4264.615384615385,4208.717948717949,4399.48717948718
1448.8154,0.27759278,0.5319876,0.2945018,0.6661804,0,0.0,0.0,0.0,0.0,0.0,0,0,0.0,0.0,0,0,76.0,0.0,489.0,4588.717948717949,3974.358974358975,4477.948717948719,4423.589743589744,4219.48717948718,4508.205128205129,4436.410256410257,4398.461538461539,4418.974358974359,4700.512820512821,4341.025641025642,4249.74358974359,4202.564102564103,4409.743589743591
1448.8154,0.27759278,0.5319876,0.2945018,0.6661804,0,0.0,0.0,0.0,0.0,0.0,0,0,0.0,0.0,0,0,76.0,0.0,489.0,4588.717948717949,3974.358974358975,4477.948717948719,4423.589743589744,4219.48717948718,4508.205128205129,4436.410256410257,4398.461538461539,4418.974358974359,4700.512820512821,4341.025641025642,4249.74358974359,4202.564102564103,4409.743589743591
1449.3158,0.2784783,0.52627504,0.29790387,0.6705501,0,0.0,0.0,0.0,0.0,0.0,0,0,0.0,0.0,0,0,11.0,0.0,416.0,4602.051282051282,3961.538461538462,4497.948717948719,4439.48717948718,4214.871794871796,4501.025641025642,4428.717948717949,4376.923076923077,4406.153846153847,4668.205128205129,4303.076923076924,4222.564102564103,4162.564102564103,4395.384615384616
1449.3158,0.2784783,0.52627504,0.29790387,0.6705501,0,0.0,0.0,0.0,0.0,0.0,0,0,0.0,0.0,0,0,11.0,0.0,416.0,4602.051282051282,3961.538461538462,4497.948717948719,4439.48717948718,4214.871794871796,4501.025641025642,4428.717948717949,4376.923076923077,4406.153846153847,4668.205128205129,4303.076923076924,4222.564102564103,4162.564102564103,4395.384615384616
1449.8163,0.28410482,0.5004019,0.30267882,0.67079496,0,0.0,0.0,0.0,0.0,0.0,0,0,0.0,0.0,0,0,75.0,0.0,416.0,4591.794871794872,3972.307692307693,4528.717948717949,4462.051282051282,4249.2307692307695,4545.128205128206,4476.410256410257,4429.743589743591,4421.025641025642,4719.48717948718,4348.205128205129,4284.102564102564,4217.948717948719,4430.769230769231
1449.8163,0.28410482,0.5004019,0.30267882,0.67079496,0,0.0,0.0,0.0,0.0,0.0,0,0,0.0,0.0,0,0,75.0,0.0,416.0,4591.794871794872,3972.307692307693,4528.717948717949,4462.051282051282,4249.2307692307695,4545.128205128206,4476.410256410257,4429.743589743591,4421.025641025642,4719.48717948718,4348.205128205129,4284.102564102564,4217.948717948719,4430.769230769231
1450.3167,0.33367702,0.4766591,0.30697682,0.671012,0,0.0,0.0,0.0,0.0,0.0,0,0,0.0,0.0,0,0,10.0,0.0,537.0,4584.615384615385,3988.717948717949,4547.6923076923085,4489.743589743591,4277.948717948719,4571.282051282052,4497.948717948719,4454.871794871796,4437.948717948719,4743.589743589744,4371.794871794872,4303.076923076924,4233.846153846154,4442.564102564103
1450.3167,0.33367702,0.4766591,0.30697682,0.671012,0,0.0,0.0,0.0,0.0,0.0,0,0,0.0,0.0,0,0,10.0,0.0,537.0,4584.615384615385,3988.717948717949,4547.6923076923085,4489.743589743591,4277.948717948719,4571.282051282052,4497.948717948719,4454.871794871796,4437.948717948719,4743.589743589744,4371.794871794872,4303.076923076924,4233.846153846154,4442.564102564103
1450.8171,0.364592,0.45623723,0.3088756,0.67115444,0,0.0,0.0,0.0,0.0,0.0,0,0,0.0,0.0,0,0,74.0,0.0,537.0,4569.743589743591,3973.333333333334,4538.461538461539,4472.820512820514,4272.820512820514,4569.2307692307695,4507.179487179488,4464.102564102564,4445.128205128206,4749.743589743591,4371.794871794872,4307.179487179487,4226.153846153847,4452.307692307693
1450.8171,0.364592,0.45623723,0.3088756,0.67115444,0,0.0,0.0,0.0,0.0,0.0,0,0,0.0,0.0,0,0,74.0,0.0,537.0,4569.743589743591,3973.333333333334,4538.461538461539,4472.820512820514,4272.820512820514,4569.2307692307695,4507.179487179488,4464.102564102564,4445.128205128206,4749.743589743591,4371.794871794872,4307.179487179487,4226.153846153847,4452.307692307693
1451.3175,0.34881207,0.43989387,0.309355,0.6711441,0,0.0,0.0,0.0,0.0,0.0,0,0,0.0,0.0,0,0,9.0,0.0,497.0,4643.589743589744,3994.358974358975,4537.948717948719,4459.48717948718,4232.307692307693,4539.48717948718,4472.820512820514,4417.435897435898,4424.615384615385,4690.769230769231,4304.615384615385,4227.179487179487,4150.769230769231,4398.974358974359
1451.3175,0.34881207,0.43989387,0.309355,0.6711441,0,0.0,0.0,0.0,0.0,0.0,0,0,0.0,0.0,0,0,9.0,0.0,497.0,4643.589743589744,3994.358974358975,4537.948717948719,4459.48717948718,4232.307692307693,4539.48717948718,4472.820512820514,4417.435897435898,4424.615384615385,4690.769230769231,4304.615384615385,4227.179487179487,4150.769230769231,4398.974358974359
1451.818,0.29062888,0.4511824,0.30773044,0.6657898,0,0.0,0.0,0.0,0.0,0.0,0,0,0.0,0.0,0,0,73.0,0.0,497.0,4634.871794871796,3974.358974358975,4532.307692307693,4458.974358974359,4233.333333333334,4526.666666666667,4456.410256410257,4409.2307692307695,4424.615384615385,4695.8974358974365,4316.923076923077,4263.589743589744,4171.794871794872,4419.48717948718
1451.818,0.29062888,0.4511824,0.30773044,0.6657898,0,0.0,0.0,0.0,0.0,0.0,0,0,0.0,0.0,0,0,73.0,0.0,497.0,4634.871794871796,3974.358974358975,4532.307692307693,4458.974358974359,4233.333333333334,4526.666666666667,4456.410256410257,4409.2307692307695,4424.615384615385,4695.8974358974365,4316.923076923077,4263.589743589744,4171.794871794872,4419.48717948718
1452.3184,0.2277181,0.4631487,0.30626884,0.65453684,0,0.0,0.0,0.0,0.0,0.0,0,0,0.0,0.0,0,0,8.0,0.0,371.0,4617.948717948719,3973.8461538461543,4524.615384615385,4455.384615384616,4238.461538461539,4537.948717948719,4465.128205128206,4420.512820512821,4419.48717948718,4715.384615384616,4324.615384615385,4275.384615384616,4207.6923076923085,4415.384615384616
1452.3184,0.2277181,0.4631487,0.30626884,0.65453684,0,0.0,0.0,0.0,0.0,0.0,0,0,0.0,0.0,0,0,8.0,0.0,371.0,4617.948717948719,3973.8461538461543,4524.615384615385,4455.384615384616,4238.461538461539,4537.948717948719,4465.128205128206,4420.512820512821,4419.48717948718,4715.384615384616,4324.615384615385,4275.384615384616,4207.6923076923085,4415.384615384616
1452.8188,0.1728719,0.49798977,0.3030721,0.64440966,0,0.0,0.0,0.0,0.0,0.0,0,0,0.0,0.0,0,0,72.0,0.0,371.0,4610.769230769231,3975.8974358974365,4532.820512820514,4461.025641025642,4246.666666666667,4543.076923076924,4467.179487179487,4428.717948717949,4423.076923076924,4726.153846153847,4310.769230769231,4283.589743589744,4203.589743589744,4428.717948717949
1452.8188,0.1728719,0.49798977,0.3030721,0.64440966,0,0.0,0.0,0.0,0.0,0.0,0,0,0.0,0.0,0,0,72.0,0.0,371.0,4610.769230769231,3975.8974358974365,4532.820512820514,4461.025641025642,4246.666666666667,4543.076923076924,4467.179487179487,4428.717948717949,4423.076923076924,4726.153846153847,4310.769230769231,4283.589743589744,4203.589743589744,4428.717948717949
1453.3192,0.1700064,0.48781988,0.30019563,0.6352952,0,0.0,0.0,0.0,0.0,0.0,0,0,0.0,0.0,0,0,7.0,0.0,478.0,4567.6923076923085,3956.410256410257,4508.717948717949,4458.461538461539,4242.051282051282,4537.435897435898,4451.794871794872,4420.000000000001,4415.8974358974365,4729.743589743591,4325.641025641026,4308.717948717949,4230.769230769231,4443.589743589744
1453.3192,0.1700064,0.48781988,0.30019563,0.6352952,0,0.0,0.0,0.0,0.0,0.0,0,0,0.0,0.0,0,0,7.0,0.0,478.0,4567.6923076923085,3956.410256410257,4508.717948717949,4458.461538461539,4242.051282051282,4537.435897435898,4451.794871794872,4420.000000000001,4415.8974358974365,4729.743589743591,4325.641025641026,4308.717948717949,4230.769230769231,4443.589743589744
1453.8197,0.127798,0.46502414,0.29760745,0.63013226,0,0.0,0.0,0.0,0.0,0.0,0,0,0.0,0.0,0,0,71.0,0.0,478.0,4523.076923076924,3917.9487179487182,4414.871794871796,4392.820512820514,4216.410256410257,4507.179487179488,4451.794871794872,4425.128205128206,4399.48717948718,4703.589743589744,4294.871794871796,4266.666666666667,4155.384615384616,4435.8974358974365
1453.8197,0.127798,0.46502414,0.29760745,0.63013226,0,0.0,0.0,0.0,0.0,0.0,0,0,0.0,0.0,0,0,71.0,0.0,478.0,4523.076923076924,3917.9487179487182,4414.871794871796,4392.820512820514,4216.410256410257,4507.179487179488,4451.794871794872,4425.128205128206,4399.48717948718,4703.589743589744,4294.871794871796,4266.666666666667,4155.384615384616,4435.8974358974365
1454.3201,0.1941208,0.43685064,0.2927985,0.6276842,0,0.0,0.0,0.0,0.0,0.021809448,0,0,0.0,0.0,0,0,6.0,0.0,549.0,4496.410256410257,3865.1282051282055,4272.820512820514,4317.435897435898,4201.538461538462,4498.974358974359,4443.589743589744,4421.025641025642,4346.153846153847,4611.282051282052,4210.256410256411,4172.820512820514,3960.5128205128212,4392.820512820514
1454.5703,0.1941208,0.43685064,0.2927985,0.6276842,0,0.0,0.0,0.0,0.0,0.06666811,0,0,0.0,0.0,0,0,38.0,0.0,0.0,4496.923076923077,3865.1282051282055,4269.2307692307695,4299.48717948718,4194.358974358975,4492.307692307693,4433.846153846154,4404.102564102564,4337.435897435898,4586.666666666667,4213.333333333334,4143.589743589744,3949.2307692307695,4369.743589743591
1454.8206,0.20726712,0.39461607,0.2874336,0.6254797,0,0.0,0.0,0.0,0.0,0.22015245,0,0,0.0,0.0,0,0,70.0,0.0,549.0,4494.358974358975,3862.0512820512827,4284.615384615385,4298.974358974359,4187.179487179487,4488.717948717949,4435.384615384616,4407.179487179487,4345.641025641026,4585.128205128206,4216.923076923077,4134.358974358975,3965.1282051282055,4362.564102564103
1455.0708,0.20726712,0.39461607,0.2874336,0.6254797,0,0.0,0.0,0.0,0.0,0.0,0,0,0.0,0.0,0,0,102.0,0.0,538.0,4505.641025641026,3877.435897435898,4332.820512820514,4400.000000000001,4170.256410256411,4465.641025641026,4410.769230769231,4379.48717948718,4343.076923076924,4583.589743589744,4222.564102564103,4129.2307692307695,3995.8974358974365,4382.051282051282
1455.321,0.23067732,0.36999974,0.27984306,0.62349445,0,0.0,0.0,0.0,0.0,0.0,0,0,0.0,0.0,0,0,5.0,0.0,522.0,4523.076923076924,3895.3846153846157,4397.948717948719,4392.307692307693,4157.435897435898,4458.461538461539,4408.717948717949,4377.435897435898,4347.179487179487,4609.743589743591,4247.6923076923085,4135.384615384616,4050.7692307692314,4398.974358974359
1455.321,0.23067732,0.36999974,0.27984306,0.62349445,0,0.0,0.0,0.0,0.0,0.0,0,0,0.0,0.0,0,0,5.0,0.0,522.0,4523.076923076924,3895.3846153846157,4397.948717948719,4392.307692307693,4157.435897435898,4458.461538461539,4408.717948717949,4377.435897435898,4347.179487179487,4609.743589743591,4247.6923076923085,4135.384615384616,4050.7692307692314,4398.974358974359
1455.8214,0.2500683,0.37397662,0.2704716,0.6217065,0,0.0,0.0,0.0,0.0,0.0,0,0,0.0,0.0,0,0,69.0,0.0,522.0,4609.743589743591,3919.48717948718,4486.153846153847,4375.384615384616,4162.051282051282,4458.461538461539,4395.384615384616,4369.743589743591,4366.666666666667,4651.794871794872,4298.461538461539,4169.2307692307695,4147.6923076923085,4432.820512820514
1455.8214,0.2500683,0.37397662,0.2704716,0.6217065,0,0.0,0.0,0.0,0.0,0.0,0,0,0.0,0.0,0,0,69.0,0.0,522.0,4609.743589743591,3919.48717948718,4486.153846153847,4375.384615384616,4162.051282051282,4458.461538461539,4395.384615384616,4369.743589743591,4366.666666666667,4651.794871794872,4298.461538461539,4169.2307692307695,4147.6923076923085,4432.820512820514
1456.3219,0.29868513,0.4057851,0.26435432,0.62009615,0,0.0,0.0,0.0,0.0,0.0,0,0,0.0,0.0,0,0,4.0,0.0,507.0,4656.410256410257,3936.410256410257,4534.358974358975,4371.282051282052,4167.179487179487,4456.410256410257,4391.282051282052,4352.820512820514,4364.102564102564,4665.128205128206,4308.205128205129,4204.615384615385,4180.512820512821,4442.564102564103
1456.3219,0.29868513,0.4057851,0.26435432,0.62009615,0,0.0,0.0,0.0,0.0,0.0,0,0,0.0,0.0,0,0,4.0,0.0,507.0,4656.410256410257,3936.410256410257,4534.358974358975,4371.282051282052,4167.179487179487,4456.410256410257,4391.282051282052,4352.820512820514,4364.102564102564,4665.128205128206,4308.205128205129,4204.615384615385,4180.512820512821,4442.564102564103
1456.8223,0.27395594,0.43929812,0.26184097,0.61583036,0,0.0,0.0,0.0,0.0,0.0,0,0,0.0,0.0,0,0,68.0,0.0,507.0,4597.435897435898,3936.9230769230776,4516.923076923077,4368.205128205129,4186.153846153847,4477.435897435898,4399.48717948718,4351.794871794872,4372.307692307693,4668.205128205129,4293.846153846154,4175.384615384616,4175.384615384616,4444.615384615385
1456.8223,0.27395594,0.43929812,0.26184097,0.61583036,0,0.0,0.0,0.0,0.0,0.0,0,0,0.0,0.0,0,0,68.0,0.0,507.0,4597.435897435898,3936.9230769230776,4516.923076923077,4368.205128205129,4186.153846153847,4477.435897435898,4399.48717948718,4351.794871794872,4372.307692307693,4668.205128205129,4293.846153846154,4175.384615384616,4175.384615384616,4444.615384615385
1457.3228,0.26395047,0.45525792,0.26318458,0.6137897,0,0.0,0.0,0.0,0.0,0.0,0,0,0.0,0.0,0,0,3.0,0.0,435.0,4570.256410256411,3924.1025641025644,4496.410256410257,4350.769230769231,4190.256410256411,4482.051282051282,4382.564102564103,4349.743589743591,4365.128205128206,4662.564102564103,4285.128205128206,4164.615384615385,4181.538461538462,4467.6923076923085
1457.3228,0.26395047,0.45525792,0.26318458,0.6137897,0,0.0,0.0,0.0,0.0,0.0,0,0,0.0,0.0,0,0,3.0,0.0,435.0,4570.256410256411,3924.1025641025644,4496.410256410257,4350.769230769231,4190.256410256411,4482.051282051282,4382.564102564103,4349.743589743591,4365.128205128206,4662.564102564103,4285.128205128206,4164.615384615385,4181.538461538462,4467.6923076923085
1457.8231,0.26114586,0.43346626,0.26297963,0.6129766,0,0.0,0.0,0.0,0.0,0.31551814,0,0,0.0,0.0,0,0,67.0,0.0,435.0,4550.769230769231,3877.9487179487182,4458.461538461539,4333.846153846154,4179.48717948718,4459.48717948718,4367.179487179487,4343.589743589744,4354.871794871796,4634.358974358975,4269.2307692307695,4139.48717948718,4146.666666666667,4458.461538461539
1457.9482,0.26114586,0.43346626,0.26297963,0.6129766,0,0.0,0.0,0.0,0.0,0.0,0,0,0.0,0.0,0,0,83.0,0.0,416.0,4552.307692307693,3881.538461538462,4470.769230769231,4346.666666666667,4181.538461538462,4468.205128205129,4377.435897435898,4354.871794871796,4359.48717948718,4647.6923076923085,4276.410256410257,4159.48717948718,4163.076923076924,4474.358974358975
1458.3236,0.2560296,0.40454203,0.26279658,0.6131263,0,0.0,0.0,0.0,0.0,0.0,0,0,0.0,0.0,0,0,2.0,0.0,363.0,4520.000000000001,3858.9743589743593,4421.025641025642,4297.435897435898,4158.974358974359,4443.589743589744,4353.846153846154,4317.948717948719,4345.128205128206,4604.615384615385,4250.769230769231,4108.717948717949,4111.794871794872,4455.384615384616
1458.3236,0.2560296,0.40454203,0.26279658,0.6131263,0,0.0,0.0,0.0,0.0,0.0,0,0,0.0,0.0,0,0,2.0,0.0,363.0,4520.000000000001,3858.9743589743593,4421.025641025642,4297.435897435898,4158.974358974359,4443.589743589744,4353.846153846154,4317.948717948719,4345.128205128206,4604.615384615385,4250.769230769231,4108.717948717949,4111.794871794872,4455.384615384616
1458.824,0.24956414,0.37895492,0.2626332,0.61325973,0,0.0,0.0,0.0,0.0,0.0,0,0,0.0,0.0,0,0,66.0,0.0,363.0,4507.6923076923085,3888.717948717949,4458.461538461539,4319.48717948718,4182.051282051282,4471.794871794872,4389.743589743591,4352.307692307693,4311.282051282052,4641.538461538462,4292.307692307693,4151.282051282052,4145.641025641026,4474.358974358975
1458.824,0.24956414,0.37895492,0.2626332,0.61325973,0,0.0,0.0,0.0,0.0,0.0,0,0,0.0,0.0,0,0,66.0,0.0,363.0,4507.6923076923085,3888.717948717949,4458.461538461539,4319.48717948718,4182.051282051282,4471.794871794872,4389.743589743591,4352.307692307693,4311.282051282052,4641.538461538462,4292.307692307693,4151.282051282052,4145.641025641026,4474.358974358975
1459.3245,0.27860418,0.37350515,0.25796792,0.61337864,0,0.0,0.0,0.0,0.0,0.0,0,0,0.0,0.0,0,0,1.0,0.0,423.0,4584.615384615385,3909.2307692307695,4503.589743589744,4359.48717948718,4213.846153846154,4498.974358974359,4426.666666666667,4393.846153846154,4353.846153846154,4690.769230769231,4340.000000000001,4202.051282051282,4189.2307692307695,4501.025641025642
1459.3245,0.27860418,0.37350515,0.25796792,0.61337864,0,0.0,0.0,0.0,0.0,0.0,0,0,0.0,0.0,0,0,1.0,0.0,423.0,4584.615384615385,3909.2307692307695,4503.589743589744,4359.48717948718,4213.846153846154,4498.974358974359,4426.666666666667,4393.846153846154,4353.846153846154,4690.769230769231,4340.000000000001,4202.051282051282,4189.2307692307695,4501.025641025642
1459.8248,0.29490805,0.371111,0.25377086,0.61348444,0,0.0,0.0,0.0,0.0,0.0,0,0,0.0,0.0,0,0,65.0,0.0,423.0,4617.948717948719,3937.9487179487182,4518.461538461539,4392.820512820514,4233.333333333334,4517.435897435898,4441.538461538462,4406.153846153847,4365.128205128206,4716.923076923077,4349.2307692307695,4205.128205128206,4201.538461538462,4506.153846153847
1459.8248,0.29490805,0.371111,0.25377086,0.61348444,0,0.0,0.0,0.0,0.0,0.0,0,0,0.0,0.0,0,0,65.0,0.0,423.0,4617.948717948719,3937.9487179487182,4518.461538461539,4392.820512820514,4233.333333333334,4517.435897435898,4441.538461538462,4406.153846153847,4365.128205128206,4716.923076923077,4349.2307692307695,4205.128205128206,4201.538461538462,4506.153846153847
1460.3253,0.35113978,0.3896397,0.24999522,0.6122682,0,0.0,0.0,0.0,0.0,0.0,0,0,0.0,0.0,0,0,0.0,0.0,516.0,4631.794871794872,3978.461538461539,4543.076923076924,4454.871794871796,4252.307692307693,4548.205128205129,4473.333333333334,4448.717948717949,4386.666666666667,4754.358974358975,4375.384615384616,4256.410256410257,4238.461538461539,4457.948717948719
1460.3253,0.35113978,0.3896397,0.24999522,0.6122682,0,0.0,0.0,0.0,0.0,0.0,0,0,0.0,0.0,0,0,0.0,0.0,516.0,4631.794871794872,3978.461538461539,4543.076923076924,4454.871794871796,4252.307692307693,4548.205128205129,4473.333333333334,4448.717948717949,4386.666666666667,4754.358974358975,4375.384615384616,4256.410256410257,4238.461538461539,4457.948717948719
1460.8257,0.49694267,0.40541223,0.24914125,0.61117256,0,0.0,0.0,0.0,0.0,0.0,0,0,0.0,0.0,0,0,64.0,0.0,514.0,4685.641025641026,4003.589743589744,4599.48717948718,4536.410256410257,4309.2307692307695,4602.564102564103,4520.512820512821,4512.820512820514,4415.8974358974365,4795.384615384616,4394.358974358975,4309.743589743591,4276.410256410257,4454.358974358975
1460.8257,0.49694267,0.40541223,0.24914125,0.61117256,0,0.0,0.0,0.0,0.0,0.0,0,0,0.0,0.0,0,0,64.0,0.0,514.0,4685.641025641026,4003.589743589744,4599.48717948718,4536.410256410257,4309.2307692307695,4602.564102564103,4520.512820512821,4512.820512820514,4415.8974358974365,4795.384615384616,4394.358974358975,4309.743589743591,4276.410256410257,4454.358974358975
1461.3262,0.4645369,0.42566493,0.25045827,0.61023027,0,0.0,0.0,0.0,0.0,0.0,0,0,0.0,0.0,0,0,128.0,0.0,489.0,4764.102564102564,4012.820512820513,4595.384615384616,4538.974358974359,4340.512820512821,4634.871794871796,4532.307692307693,4535.8974358974365,4431.794871794872,4776.923076923077,4383.076923076924,4314.358974358975,4273.333333333334,4441.538461538462
1461.3262,0.4645369,0.42566493,0.25045827,0.61023027,0,0.0,0.0,0.0,0.0,0.0,0,0,0.0,0.0,0,0,128.0,0.0,489.0,4764.102564102564,4012.820512820513,4595.384615384616,4538.974358974359,4340.512820512821,4634.871794871796,4532.307692307693,4535.8974358974365,4431.794871794872,4776.923076923077,4383.076923076924,4314.358974358975,4273.333333333334,4441.538461538462
1461.8265,0.57042855,0.4356668,0.25164518,0.6093812,0,0.0,0.0,0.0,0.0,0.0,0,0,0.0,0.0,0,0,63.0,0.0,0.0,4734.358974358975,3990.2564102564106,4576.923076923077,4521.025641025642,4329.2307692307695,4628.717948717949,4514.358974358975,4528.205128205129,4426.666666666667,4755.8974358974365,4362.564102564103,4307.6923076923085,4242.564102564103,4471.794871794872
1461.8265,0.57042855,0.4356668,0.25164518,0.6093812,0,0.0,0.0,0.0,0.0,0.0,0,0,0.0,0.0,0,0,63.0,0.0,0.0,4734.358974358975,3990.2564102564106,4576.923076923077,4521.025641025642,4329.2307692307695,4628.717948717949,4514.358974358975,4528.205128205129,4426.666666666667,4755.8974358974365,4362.564102564103,4307.6923076923085,4242.564102564103,4471.794871794872
1462.327,0.6198441,0.43757647,0.25271496,0.6078201,0,0.0,0.0,0.0,0.0,0.0,0,0,0.0,0.0,0,0,127.0,0.0,416.0,4792.307692307693,4015.8974358974365,4608.717948717949,4549.2307692307695,4346.666666666667,4646.666666666667,4553.846153846154,4564.615384615385,4454.871794871796,4785.128205128206,4449.743589743591,4341.025641025642,4263.589743589744,4512.820512820514
1462.327,0.6198441,0.43757647,0.25271496,0.6078201,0,0.0,0.0,0.0,0.0,0.0,0,0,0.0,0.0,0,0,127.0,0.0,416.0,4792.307692307693,4015.8974358974365,4608.717948717949,4549.2307692307695,4346.666666666667,4646.666666666667,4553.846153846154,4564.615384615385,4454.871794871796,4785.128205128206,4449.743589743591,4341.025641025642,4263.589743589744,4512.820512820514
1462.8274,0.7554628,0.43928134,0.25219095,0.60569894,0,0.0,0.0,0.0,0.0,0.0,0,0,0.0,0.0,0,0,62.0,0.0,0.0,4887.6923076923085,4086.1538461538466,4701.538461538462,4616.923076923077,4404.615384615385,4707.6923076923085,4627.179487179488,4622.051282051282,4502.564102564103,4842.564102564103,4496.923076923077,4404.102564102564,4337.435897435898,4586.666666666667
1462.8274,0.7554628,0.43928134,0.25219095,0.60569894,0,0.0,0.0,0.0,0.0,0.0,0,0,0.0,0.0,0,0,62.0,0.0,0.0,4887.6923076923085,4086.1538461538466,4701.538461538462,4616.923076923077,4404.615384615385,4707.6923076923085,4627.179487179488,4622.051282051282,4502.564102564103,4842.564102564103,4496.923076923077,4404.102564102564,4337.435897435898,4586.666666666667
1463.3279,0.7391361,0.44081572,0.25172096,0.6044436,0,0.0,0.0,0.0,0.0,0.0,0,0,0.0,0.0,0,0,126.0,0.0,538.0,4862.564102564103,4071.7948717948725,4678.461538461539,4600.000000000001,4362.051282051282,4659.48717948718,4619.48717948718,4622.564102564103,4519.48717948718,4860.000000000001,4500.000000000001,4418.461538461539,4361.538461538462,4625.128205128206
1463.3279,0.7391361,0.44081572,0.25172096,0.6044436,0,0.0,0.0,0.0,0.0,0.0,0,0,0.0,0.0,0,0,126.0,0.0,538.0,4862.564102564103,4071.7948717948725,4678.461538461539,4600.000000000001,4362.051282051282,4659.48717948718,4619.48717948718,4622.564102564103,4519.48717948718,4860.000000000001,4500.000000000001,4418.461538461539,4361.538461538462,4625.128205128206
1463.8282,0.8379324,0.44219667,0.25129962,0.6041093,0,0.0,0.0,0.0,0.0,0.0,0,0,0.0,0.0,0,0,61.0,0.0,0.0,4831.282051282052,4076.410256410257,4643.076923076924,4600.000000000001,4364.615384615385,4663.076923076924,4602.564102564103,4601.025641025642,4531.794871794872,4861.025641025642,4483.589743589744,4417.435897435898,4348.205128205129,4675.8974358974365
1464.0785,0.8379324,0.44219667,0.25129962,0.6041093,0,0.0,0.0,0.0,0.0,0.41361478,0,0,0.0,0.0,0,0,93.0,0.0,502.0,4852.820512820514,4076.9230769230776,4647.6923076923085,4604.102564102564,4374.871794871796,4675.8974358974365,4613.333333333334,4596.410256410257,4541.025641025642,4876.923076923077,4481.538461538462,4418.461538461539,4353.846153846154,4673.846153846154
1464.3287,0.9042145,0.4434395,0.25204083,0.60301095,0,0.0,0.0,0.0,0.0,0.45222813,0,0,0.0,0.0,0,0,125.0,0.0,502.0,4887.6923076923085,4121.538461538462,4698.974358974359,4654.871794871796,4426.666666666667,4729.2307692307695,4656.410256410257,4633.333333333334,4568.205128205129,4932.307692307693,4536.410256410257,4459.48717948718,4410.769230769231,4703.076923076924
1464.4539,0.9042145,0.4434395,0.25204083,0.60301095,0,0.0,0.0,0.0,0.0,0.0,0,0,0.0,0.0,0,0,12.0,0.0,481.0,4904.615384615386,4134.871794871796,4713.333333333334,4663.589743589744,4443.076923076924,4746.666666666667,4673.333333333334,4653.333333333334,4579.48717948718,4942.564102564103,4554.358974358975,4488.717948717949,4428.717948717949,4723.076923076924
1464.8291,1.0,0.44455808,0.25263157,0.60202163,0,0.0,0.0,0.0,0.0,0.0,0,0,0.0,0.0,0,0,60.0,0.0,0.0,4901.538461538462,4193.333333333334,4760.000000000001,4716.410256410257,4483.076923076924,4789.743589743591,4715.384615384616,4693.846153846154,4606.153846153847,4995.384615384616,4605.641025641026,4532.307692307693,4485.128205128206,4731.794871794872
1465.0793,1.0,0.44455808,0.25263157,0.60202163,0,0.0,0.0,0.0,0.0,0.27972627,0,0,0.0,0.0,0,0,92.0,0.0,481.0,4892.307692307693,4185.128205128206,4753.846153846154,4704.615384615386,4469.743589743591,4782.051282051282,4702.564102564103,4679.48717948718,4602.564102564103,4975.384615384616,4592.820512820514,4505.128205128206,4456.923076923077,4718.974358974359
1465.3296,1.0,0.4455648,0.25255936,0.6019388,0,0.0,0.0,0.0,0.0,0.23765828,0,0,0.0,0.0,0,0,124.0,0.0,481.0,4863.076923076924,4160.000000000001,4740.000000000001,4694.871794871796,4458.461538461539,4764.102564102564,4675.8974358974365,4649.2307692307695,4596.410256410257,4954.358974358975,4584.615384615385,4487.179487179488,4436.410256410257,4732.307692307693
1465.5955,1.0,0.4455648,0.25255936,0.6019388,0,0.0,0.0,0.0,0.0,0.0,0,0,0.0,0.0,0,0,27.0,0.0,0.0,4842.564102564103,4135.384615384616,4718.974358974359,4675.384615384616,4434.871794871796,4740.000000000001,4652.307692307693,4622.051282051282,4586.666666666667,4910.769230769231,4538.974358974359,4426.153846153847,4386.666666666667,4707.179487179488
1465.8457,1.0,0.44647083,0.25312847,0.60397065,0,0.0,0.0,0.0,0.0,0.0,0,0,0.0,0.0,0,0,55.0,0.0,0.0,4811.282051282052,4129.2307692307695,4700.000000000001,4652.820512820514,4423.589743589744,4728.717948717949,4628.717948717949,4600.000000000001,4585.128205128206,4904.102564102564,4535.384615384616,4427.6923076923085,4388.717948717949,4695.8974358974365
1465.8457,1.0,0.44647083,0.25312847,0.60397065,0,0.0,0.0,0.0,0.0,0.0,0,0,0.0,0.0,0,0,59.0,0.0,0.0,4809.743589743591,4125.128205128206,4698.974358974359,4648.205128205129,4418.974358974359,4726.153846153847,4621.538461538462,4590.769230769231,4584.102564102564,4889.743589743591,4520.512820512821,4420.512820512821,4375.384615384616,4683.589743589744
1466.3304,0.9750048,0.44728628,0.25244465,0.6092446,0,0.0,0.0,0.0,0.0,0.0,0,0,0.0,0.0,0,0,123.0,0.0,408.0,4692.307692307693,4066.1538461538466,4616.410256410257,4581.025641025642,4354.358974358975,4654.871794871796,4553.333333333334,4528.205128205129,4562.564102564103,4827.179487179488,4456.923076923077,4340.000000000001,4307.179487179487,4620.512820512821
1466.3304,0.9750048,0.44728628,0.25244465,0.6092446,0,0.0,0.0,0.0,0.0,0.0,0,0,0.0,0.0,0,0,123.0,0.0,408.0,4692.307692307693,4066.1538461538466,4616.410256410257,4581.025641025642,4354.358974358975,4654.871794871796,4553.333333333334,4528.205128205129,4562.564102564103,4827.179487179488,4456.923076923077,4340.000000000001,4307.179487179487,4620.512820512821
1466.8309,1.0,0.44802016,0.2501398,0.6179722,0,0.0,0.0,0.0,0.0,0.0,0,0,0.0,0.0,0,0,58.0,0.0,0.0,4664.615384615386,4005.1282051282055,4554.871794871796,4519.48717948718,4264.102564102564,4566.153846153847,4472.307692307693,4426.666666666667,4522.564102564103,4740.512820512821,4374.871794871796,4275.384615384616,4222.564102564103,4567.179487179488
1466.8309,1.0,0.44802016,0.2501398,0.6179722,0,0.0,0.0,0.0,0.0,0.0,0,0,0.0,0.0,0,0,58.0,0.0,0.0,4664.615384615386,4005.1282051282055,4554.871794871796,4519.48717948718,4264.102564102564,4566.153846153847,4472.307692307693,4426.666666666667,4522.564102564103,4740.512820512821,4374.871794871796,4275.384615384616,4222.564102564103,4567.179487179488
1467.3313,1.0,0.39667663,0.24504292,0.6284611,0,0.0,0.0,0.0,0.0,0.0,0,0,0.0,0.0,0,0,122.0,0.0,534.0,4568.205128205129,3919.48717948718,4456.410256410257,4407.179487179487,4196.410256410257,4485.641025641026,4405.641025641026,4354.358974358975,4488.717948717949,4673.846153846154,4310.256410256411,4200.000000000001,4157.435897435898,4504.615384615385
1467.3313,1.0,0.39667663,0.24504292,0.6284611,0,0.0,0.0,0.0,0.0,0.0,0,0,0.0,0.0,0,0,122.0,0.0,534.0,4568.205128205129,3919.48717948718,4456.410256410257,4407.179487179487,4196.410256410257,4485.641025641026,4405.641025641026,4354.358974358975,4488.717948717949,4673.846153846154,4310.256410256411,4200.000000000001,4157.435897435898,4504.615384615385
1467.8318,1.0,0.35043243,0.23847261,0.63789773,0,0.0,0.0,0.0,0.0,0.0,0,0,0.0,0.0,0,0,57.0,0.0,0.0,4578.461538461539,3889.7435897435903,4424.102564102564,4341.538461538462,4178.974358974359,4457.435897435898,4356.410256410257,4310.769230769231,4457.948717948719,4641.538461538462,4277.435897435898,4153.846153846154,4115.8974358974365,4462.564102564103
1467.8318,1.0,0.35043243,0.23847261,0.63789773,0,0.0,0.0,0.0,0.0,0.0,0,0,0.0,0.0,0,0,57.0,0.0,0.0,4578.461538461539,3889.7435897435903,4424.102564102564,4341.538461538462,4178.974358974359,4457.435897435898,4356.410256410257,4310.769230769231,4457.948717948719,4641.538461538462,4277.435897435898,4153.846153846154,4115.8974358974365,4462.564102564103
1468.3322,1.0,0.30881262,0.2355869,0.6463867,0,0.0,0.0,0.0,0.0,0.0,0,0,0.0,0.0,0,0,121.0,0.0,499.0,4582.564102564103,3859.48717948718,4373.846153846154,4285.128205128206,4151.794871794872,4435.8974358974365,4343.076923076924,4292.307692307693,4426.153846153847,4614.871794871796,4299.48717948718,4104.102564102564,4068.205128205129,4438.974358974359
1468.3322,1.0,0.30881262,0.2355869,0.6463867,0,0.0,0.0,0.0,0.0,0.0,0,0,0.0,0.0,0,0,121.0,0.0,499.0,4582.564102564103,3859.48717948718,4373.846153846154,4285.128205128206,4151.794871794872,4435.8974358974365,4343.076923076924,4292.307692307693,4426.153846153847,4614.871794871796,4299.48717948718,4104.102564102564,4068.205128205129,4438.974358974359
1468.8326,1.0,0.2713548,0.23405091,0.6540224,0,0.0,0.0,0.0,0.0,0.0,0,0,0.0,0.0,0,0,56.0,0.0,0.0,4576.923076923077,3836.410256410257,4344.615384615385,4278.461538461539,4117.948717948719,4405.128205128206,4341.538461538462,4292.307692307693,4408.205128205129,4594.358974358975,4228.717948717949,4095.3846153846157,4024.1025641025644,4419.48717948718
1469.0828,1.0,0.2713548,0.23405091,0.6540224,0,0.0,0.0,0.0,0.0,0.13089953,0,0,0.0,0.0,0,0,88.0,0.0,484.0,4552.820512820514,3828.717948717949,4343.076923076924,4269.2307692307695,4108.717948717949,4395.8974358974365,4330.256410256411,4280.000000000001,4388.205128205129,4571.282051282052,4204.615384615385,4086.1538461538466,4000.0000000000005,4411.282051282052
1469.333,1.0,0.23764275,0.2303138,0.6608897,0,0.0,0.0,0.0,0.0,0.8174363,0,0,0.0,0.0,0,0,120.0,0.0,484.0,4493.333333333334,3815.3846153846157,4317.435897435898,4246.153846153847,4090.7692307692314,4377.948717948719,4305.641025641026,4266.153846153847,4375.8974358974365,4545.128205128206,4177.435897435898,4066.1538461538466,3983.076923076924,4386.666666666667
1469.4581,1.0,0.23764275,0.2303138,0.6608897,0,0.0,0.0,0.0,0.0,1.0,0,0,0.0,0.0,0,0,7.0,0.0,474.0,4491.282051282052,3824.615384615385,4346.153846153847,4270.769230769231,4110.256410256411,4396.410256410257,4328.205128205129,4290.769230769231,4377.948717948719,4578.461538461539,4208.717948717949,4101.538461538462,4026.1538461538466,4400.512820512821
1469.8335,1.0,0.20730191,0.23072372,0.66202354,0,0.0,0.0,0.0,0.0,1.0,0,0,0.0,0.0,0,0,55.0,0.0,0.0,4458.974358974359,3831.7948717948725,4363.589743589744,4269.2307692307695,4104.102564102564,4395.384615384616,4328.205128205129,4288.205128205129,4375.384615384616,4581.025641025642,4225.641025641026,4098.974358974359,4051.2820512820517,4389.2307692307695
1470.0836,1.0,0.20730191,0.23072372,0.66202354,0,0.0,0.0,0.0,0.0,0.3937129,0,0,0.0,0.0,0,0,87.0,0.0,410.0,4492.820512820514,3863.076923076924,4376.923076923077,4281.538461538462,4126.153846153847,4415.384615384616,4336.410256410257,4294.871794871796,4372.307692307693,4590.256410256411,4220.000000000001,4078.461538461539,4056.410256410257,4396.410256410257
1470.3339,1.0,0.17999516,0.23360373,0.65711915,0,0.0,0.0,0.0,0.0,0.37050116,0,0,0.0,0.0,0,0,119.0,0.0,410.0,4538.461538461539,3894.8717948717954,4416.410256410257,4315.384615384616,4145.641025641026,4432.820512820514,4363.589743589744,4320.512820512821,4380.512820512821,4626.666666666667,4262.564102564103,4122.564102564103,4108.205128205129,4427.179487179487
1470.5841,1.0,0.17999516,0.23360373,0.65711915,0,0.0,0.0,0.0,0.0,0.0,0,0,0.0,0.0,0,0,22.0,0.0,0.0,4588.205128205129,3917.9487179487182,4435.384615384616,4332.307692307693,4162.564102564103,4451.282051282052,4393.846153846154,4346.666666666667,4384.102564102564,4638.974358974359,4277.948717948719,4150.256410256411,4117.948717948719,4436.410256410257
1470.8344,0.98394835,0.15541908,0.23619759,0.65304357,0,0.0,0.0,0.0,0.0,0.0,0,0,0.0,0.0,0,0,54.0,0.0,0.0,4616.923076923077,3921.538461538462,4427.6923076923085,4325.641025641026,4172.307692307693,4461.538461538462,4396.410256410257,4351.794871794872,4376.410256410257,4645.128205128206,4274.358974358975,4142.564102564103,4117.435897435898,4431.282051282052
1471.0845,0.98394835,0.15541908,0.23619759,0.65304357,0,0.0,0.0,0.0,0.0,0.68622684,0,0,0.0,0.0,0,0,86.0,0.0,535.0,4657.435897435898,3909.2307692307695,4403.589743589744,4326.666666666667,4186.666666666667,4475.384615384616,4418.974358974359,4373.846153846154,4358.974358974359,4620.512820512821,4239.48717948718,4130.256410256411,4065.1282051282055,4432.820512820514
1471.3347,0.8633434,0.13330062,0.2385041,0.64868873,0,0.0,0.0,0.0,0.0,0.10455475,0,0,0.0,0.0,0,0,118.0,0.0,535.0,4648.205128205129,3889.7435897435903,4366.666666666667,4300.512820512821,4175.8974358974365,4462.051282051282,4412.307692307693,4357.948717948719,4346.666666666667,4590.256410256411,4205.641025641026,4104.615384615385,4014.358974358975,4422.564102564103
1471.585,0.8633434,0.13330062,0.2385041,0.64868873,0,0.0,0.0,0.0,0.0,0.053489607,0,0,0.0,0.0,0,0,21.0,0.0,0.0,4614.871794871796,3890.2564102564106,4350.769230769231,4282.051282051282,4174.871794871796,4460.000000000001,4404.102564102564,4360.000000000001,4345.641025641026,4585.128205128206,4205.128205128206,4108.717948717949,3993.8461538461543,4422.564102564103
1471.8352,0.814051,0.18687591,0.23979941,0.6425491,0,0.0,0.0,0.0,0.0,0.0,0,0,0.0,0.0,0,0,53.0,0.0,0.0,4603.076923076924,3874.358974358975,4337.435897435898,4276.923076923077,4173.846153846154,4464.102564102564,4408.205128205129,4365.641025641026,4335.384615384616,4589.743589743591,4222.051282051282,4116.410256410257,4014.358974358975,4412.307692307693
1471.8352,0.814051,0.18687591,0.23979941,0.6425491,0,0.0,0.0,0.0,0.0,0.0,0,0,0.0,0.0,0,0,53.0,0.0,0.0,4603.076923076924,3874.358974358975,4337.435897435898,4276.923076923077,4173.846153846154,4464.102564102564,4408.205128205129,4365.641025641026,4335.384615384616,4589.743589743591,4222.051282051282,4116.410256410257,4014.358974358975,4412.307692307693
1472.3356,0.7052131,0.22541964,0.24174945,0.6324704,0,0.0,0.0,0.0,0.0,0.17294805,0,0,0.0,0.0,0,0,106.0,0.0,535.0,4586.666666666667,3895.8974358974365,4403.076923076924,4309.743589743591,4170.769230769231,4470.769230769231,4398.461538461539,4362.564102564103,4353.846153846154,4629.743589743591,4259.48717948718,4145.128205128206,4094.8717948717954,4430.256410256411
