timestamp,excitement,frustration,meditation,engagementBoredom,blink,clench,laugh,smile,eyebrow,furrowBrow,lookLeft,lookRight,smirkLeft,smirkRight,winkLeft,winkRight,eeg0,eeg1,eeg2,eeg3,eeg4,eeg5,eeg6,eeg7,eeg8,eeg9,eeg10,eeg11,eeg12,eeg13,eeg14,eeg15,eeg16
1198.1156,0.526794,0.6772767,0.3515442,0.68851626,0,0.0,0.0,0.0,0.0,0.0,0,0,0.0,0.0,0,0,4.0,0.0,507.0,4477.435897435898,3912.820512820513,4691.282051282052,4613.846153846154,4248.205128205129,4544.615384615385,4456.410256410257,4432.820512820514,4345.641025641026,4738.974358974359,4448.205128205129,4178.974358974359,4218.461538461539,4681.538461538462
1198.1156,0.526794,0.6772767,0.3515442,0.68851626,0,0.0,0.0,0.0,0.0,0.0,0,0,0.0,0.0,0,0,4.0,0.0,507.0,4477.435897435898,3912.820512820513,4691.282051282052,4613.846153846154,4248.205128205129,4544.615384615385,4456.410256410257,4432.820512820514,4345.641025641026,4738.974358974359,4448.205128205129,4178.974358974359,4218.461538461539,4681.538461538462
1198.616,0.64563674,0.6340729,0.34914395,0.6826014,0,0.0,0.0,0.0,0.0,0.0,0,0,0.0,0.0,0,0,68.0,0.0,507.0,4503.076923076924,3914.8717948717954,4663.589743589744,4580.000000000001,4245.641025641026,4544.102564102564,4490.256410256411,4468.717948717949,4365.128205128206,4744.615384615386,4435.384615384616,4279.48717948718,4282.564102564103,4696.923076923077
1198.616,0.64563674,0.6340729,0.34914395,0.6826014,0,0.0,0.0,0.0,0.0,0.0,0,0,0.0,0.0,0,0,68.0,0.0,507.0,4503.076923076924,3914.8717948717954,4663.589743589744,4580.000000000001,4245.641025641026,4544.102564102564,4490.256410256411,4468.717948717949,4365.128205128206,4744.615384615386,4435.384615384616,4279.48717948718,4282.564102564103,4696.923076923077
1199.1165,0.61655986,0.5951895,0.34781015,0.68063307,0,0.0,0.0,0.0,0.0,0.0,0,0,0.0,0.0,0,0,3.0,0.0,424.0,4538.461538461539,3968.717948717949,4644.102564102564,4519.48717948718,4282.564102564103,4575.8974358974365,4515.384615384616,4497.435897435898,4375.384615384616,4742.051282051282,4408.717948717949,4277.948717948719,4226.666666666667,4656.923076923077
1199.1165,0.61655986,0.5951895,0.34781015,0.68063307,0,0.0,0.0,0.0,0.0,0.0,0,0,0.0,0.0,0,0,3.0,0.0,424.0,4538.461538461539,3968.717948717949,4644.102564102564,4519.48717948718,4282.564102564103,4575.8974358974365,4515.384615384616,4497.435897435898,4375.384615384616,4742.051282051282,4408.717948717949,4277.948717948719,4226.666666666667,4656.923076923077
1199.6168,0.6435265,0.56019443,0.34660938,0.6788581,0,0.0,0.0,0.0,0.0,0.0,0,0,0.0,0.0,0,0,67.0,0.0,424.0,4573.333333333334,3975.8974358974365,4652.307692307693,4538.974358974359,4286.153846153847,4585.128205128206,4522.564102564103,4496.410256410257,4397.435897435898,4762.564102564103,4441.538461538462,4349.2307692307695,4225.641025641026,4644.615384615385
1199.6168,0.6435265,0.56019443,0.34660938,0.6788581,0,0.0,0.0,0.0,0.0,0.0,0,0,0.0,0.0,0,0,67.0,0.0,424.0,4573.333333333334,3975.8974358974365,4652.307692307693,4538.974358974359,4286.153846153847,4585.128205128206,4522.564102564103,4496.410256410257,4397.435897435898,4762.564102564103,4441.538461538462,4349.2307692307695,4225.641025641026,4644.615384615385
1200.1173,0.6840027,0.52869886,0.34470123,0.6772571,0,0.0,0.0,0.0,0.0,0.0,0,0,0.0,0.0,0,0,2.0,0.0,354.0,4569.743589743591,3965.6410256410263,4609.2307692307695,4524.102564102564,4280.000000000001,4575.384615384616,4509.743589743591,4481.538461538462,4382.051282051282,4743.076923076924,4431.282051282052,4335.384615384616,4234.871794871796,4573.846153846154
1200.1173,0.6840027,0.52869886,0.34470123,0.6772571,0,0.0,0.0,0.0,0.0,0.0,0,0,0.0,0.0,0,0,2.0,0.0,354.0,4569.743589743591,3965.6410256410263,4609.2307692307695,4524.102564102564,4280.000000000001,4575.384615384616,4509.743589743591,4481.538461538462,4382.051282051282,4743.076923076924,4431.282051282052,4335.384615384616,4234.871794871796,4573.846153846154
1200.7428,0.6997918,0.52910113,0.34140977,0.67311853,0,0.0,0.0,0.0,0.0,1.0,0,0,0.0,0.0,0,0,82.0,0.0,531.0,4652.820512820514,3948.205128205129,4549.743589743591,4401.025641025642,4249.2307692307695,4539.48717948718,4495.8974358974365,4442.564102564103,4377.948717948719,4735.384615384616,4365.641025641026,4300.512820512821,4303.076923076924,4700.000000000001
1200.7428,0.6997918,0.52910113,0.34140977,0.67311853,0,0.0,0.0,0.0,0.0,1.0,0,0,0.0,0.0,0,0,82.0,0.0,531.0,4652.820512820514,3948.205128205129,4549.743589743591,4401.025641025642,4249.2307692307695,4539.48717948718,4495.8974358974365,4442.564102564103,4377.948717948719,4735.384615384616,4365.641025641026,4300.512820512821,4303.076923076924,4700.000000000001
1201.2433,0.62699825,0.6430665,0.34054488,0.66617227,0,0.0,0.0,0.0,0.0,0.17470823,0,0,0.0,0.0,0,0,17.0,0.0,0.0,4661.025641025642,3896.410256410257,4385.128205128206,4327.179487179487,4232.820512820514,4524.615384615385,4544.102564102564,4493.333333333334,4386.666666666667,4714.871794871796,4411.282051282052,4255.8974358974365,4153.846153846154,4582.564102564103
1201.4935,0.62699825,0.6430665,0.34054488,0.66617227,0,0.0,0.0,0.0,0.0,0.1312176,0,0,0.0,0.0,0,0,49.0,0.0,0.0,4634.871794871796,3905.6410256410263,4386.666666666667,4340.000000000001,4248.205128205129,4545.128205128206,4584.102564102564,4542.051282051282,4413.333333333334,4743.076923076924,4413.333333333334,4223.589743589744,4147.6923076923085,4538.974358974359
1201.7437,0.5432671,0.7652208,0.33982223,0.6590257,0,0.0,0.0,0.0,0.0,0.20644373,0,0,0.0,0.0,0,0,81.0,0.0,497.0,4627.179487179488,3885.6410256410263,4402.051282051282,4363.076923076924,4251.794871794872,4549.743589743591,4578.974358974359,4527.179487179488,4399.48717948718,4721.025641025642,4403.589743589744,4220.000000000001,4118.974358974359,4514.358974358975
1201.9939,0.5432671,0.7652208,0.33982223,0.6590257,0,0.0,0.0,0.0,0.0,0.12418202,0,0,0.0,0.0,0,0,113.0,0.0,497.0,4621.025641025642,3911.7948717948725,4415.384615384616,4378.974358974359,4279.48717948718,4578.461538461539,4604.615384615385,4554.871794871796,4379.48717948718,4699.48717948718,4371.794871794872,4191.794871794872,4041.0256410256416,4471.794871794872
1202.2441,0.4718608,0.9133971,0.33917168,0.65007484,0,0.0,0.0,0.0,0.0,0.05166499,0,0,0.0,0.0,0,0,16.0,0.0,0.0,4599.48717948718,3913.333333333334,4394.358974358975,4367.6923076923085,4277.435897435898,4586.153846153847,4592.820512820514,4538.461538461539,4344.102564102564,4604.615384615385,4294.871794871796,4031.7948717948725,3911.2820512820517,4393.846153846154
1202.4944,0.4718608,0.9133971,0.33917168,0.65007484,0,0.0,0.0,0.0,0.0,0.07246155,0,0,0.0,0.0,0,0,48.0,0.0,0.0,4566.666666666667,3922.0512820512827,4444.102564102564,4379.48717948718,4275.384615384616,4590.256410256411,4561.538461538462,4507.179487179488,4333.333333333334,4575.384615384616,4278.461538461539,3971.2820512820517,3904.1025641025644,4390.769230769231
1202.6194,0.55892897,0.926585,0.33858606,0.64026505,0,0.0,0.0,0.0,0.0,0.0,0,0,0.0,0.0,0,0,64.0,0.0,509.0,4536.923076923077,3907.1794871794878,4464.102564102564,4381.538461538462,4262.051282051282,4572.307692307693,4525.641025641026,4470.256410256411,4333.333333333334,4551.282051282052,4257.948717948719,3948.205128205129,3918.9743589743593,4383.076923076924
1202.6194,0.55892897,0.926585,0.33858606,0.64026505,0,0.0,0.0,0.0,0.0,0.0,0,0,0.0,0.0,0,0,64.0,0.0,509.0,4536.923076923077,3907.1794871794878,4464.102564102564,4381.538461538462,4262.051282051282,4572.307692307693,4525.641025641026,4470.256410256411,4333.333333333334,4551.282051282052,4257.948717948719,3948.205128205129,3918.9743589743593,4383.076923076924
1203.1199,0.57642233,0.8570329,0.3380589,0.63143617,0,0.0,0.0,0.0,0.0,0.0,0,0,0.0,0.0,0,0,128.0,0.0,478.0,4493.333333333334,3918.9743589743593,4537.435897435898,4401.025641025642,4245.128205128206,4552.820512820514,4420.512820512821,4374.358974358975,4352.820512820514,4589.2307692307695,4278.461538461539,3933.333333333334,4041.538461538462,4324.102564102564
1203.4952,0.57642233,0.8570329,0.3380589,0.63143617,0,0.0,0.0,0.0,0.0,0.010468515,0,0,0.0,0.0,0,0,47.0,0.0,0.0,4506.666666666667,3927.1794871794878,4600.000000000001,4439.48717948718,4237.435897435898,4536.923076923077,4390.256410256411,4346.153846153847,4386.666666666667,4667.179487179488,4348.205128205129,4082.564102564103,4216.923076923077,4334.871794871796
1203.7454,0.58046883,0.8020305,0.33758435,0.6234898,0,0.0,0.0,0.0,0.0,0.0,0,0,0.0,0.0,0,0,79.0,0.0,413.0,4553.846153846154,3957.9487179487182,4632.307692307693,4466.153846153847,4264.615384615385,4558.461538461539,4430.256410256411,4379.48717948718,4407.6923076923085,4729.2307692307695,4398.461538461539,4180.000000000001,4296.410256410257,4329.743589743591
1203.7454,0.58046883,0.8020305,0.33758435,0.6234898,0,0.0,0.0,0.0,0.0,0.0,0,0,0.0,0.0,0,0,79.0,0.0,413.0,4553.846153846154,3957.9487179487182,4632.307692307693,4466.153846153847,4264.615384615385,4558.461538461539,4430.256410256411,4379.48717948718,4407.6923076923085,4729.2307692307695,4398.461538461539,4180.000000000001,4296.410256410257,4329.743589743591
1204.1207,0.6839185,0.7777223,0.3364627,0.6228944,0,0.0,0.0,0.0,0.0,0.0,0,0,0.0,0.0,0,0,127.0,0.0,413.0,4585.128205128206,3976.410256410257,4638.974358974359,4470.256410256411,4283.076923076924,4574.871794871796,4466.666666666667,4414.358974358975,4429.743589743591,4784.102564102564,4445.128205128206,4411.794871794872,4382.564102564103,4333.846153846154
1204.1207,0.6839185,0.7777223,0.3364627,0.6228944,0,0.0,0.0,0.0,0.0,0.0,0,0,0.0,0.0,0,0,127.0,0.0,413.0,4585.128205128206,3976.410256410257,4638.974358974359,4470.256410256411,4283.076923076924,4574.871794871796,4466.666666666667,4414.358974358975,4429.743589743591,4784.102564102564,4445.128205128206,4411.794871794872,4382.564102564103,4333.846153846154
1204.6212,0.7453263,0.76779395,0.3345721,0.62737054,0,0.0,0.0,0.0,0.0,0.0,0,0,0.0,0.0,0,0,62.0,0.0,0.0,4602.051282051282,3980.0000000000005,4616.923076923077,4469.743589743591,4295.8974358974365,4591.794871794872,4516.923076923077,4462.564102564103,4459.48717948718,4847.6923076923085,4516.923076923077,4472.307692307693,4453.846153846154,4404.102564102564
1204.6212,0.7453263,0.76779395,0.3345721,0.62737054,0,0.0,0.0,0.0,0.0,0.0,0,0,0.0,0.0,0,0,62.0,0.0,0.0,4602.051282051282,3980.0000000000005,4616.923076923077,4469.743589743591,4295.8974358974365,4591.794871794872,4516.923076923077,4462.564102564103,4459.48717948718,4847.6923076923085,4516.923076923077,4472.307692307693,4453.846153846154,4404.102564102564
1205.1216,0.71962225,0.7531256,0.33287054,0.6313963,0,0.0,0.0,0.0,0.0,0.0,0,0,0.0,0.0,0,0,126.0,0.0,529.0,4634.871794871796,3986.666666666667,4606.153846153847,4476.923076923077,4271.282051282052,4558.974358974359,4525.641025641026,4481.538461538462,4464.615384615385,4859.48717948718,4507.6923076923085,4455.8974358974365,4450.769230769231,4406.153846153847
1205.1216,0.71962225,0.7531256,0.33287054,0.6313963,0,0.0,0.0,0.0,0.0,0.0,0,0,0.0,0.0,0,0,126.0,0.0,529.0,4634.871794871796,3986.666666666667,4606.153846153847,4476.923076923077,4271.282051282052,4558.974358974359,4525.641025641026,4481.538461538462,4464.615384615385,4859.48717948718,4507.6923076923085,4455.8974358974365,4450.769230769231,4406.153846153847
1205.6221,0.67108256,0.74714184,0.33133912,0.6350166,0,0.0,0.0,0.0,0.0,0.0,0,0,0.0,0.0,0,0,61.0,0.0,0.0,4616.923076923077,3941.538461538462,4546.666666666667,4461.025641025642,4263.589743589744,4549.743589743591,4524.615384615385,4491.282051282052,4466.666666666667,4839.48717948718,4524.102564102564,4408.717948717949,4379.48717948718,4404.102564102564
1205.6221,0.67108256,0.74714184,0.33133912,0.6350166,0,0.0,0.0,0.0,0.0,0.0,0,0,0.0,0.0,0,0,61.0,0.0,0.0,4616.923076923077,3941.538461538462,4546.666666666667,4461.025641025642,4263.589743589744,4549.743589743591,4524.615384615385,4491.282051282052,4466.666666666667,4839.48717948718,4524.102564102564,4408.717948717949,4379.48717948718,4404.102564102564
1206.2476,0.6838362,0.71897435,0.33193687,0.63517827,0,0.0,0.0,0.0,0.0,0.08633249,0,0,0.0,0.0,0,0,12.0,0.0,474.0,4611.282051282052,3874.358974358975,4361.538461538462,4346.666666666667,4241.538461538462,4496.923076923077,4501.025641025642,4466.666666666667,4407.6923076923085,4672.820512820514,4308.205128205129,4139.48717948718,4063.076923076924,4349.2307692307695
1206.4978,0.6838362,0.71897435,0.33193687,0.63517827,0,0.0,0.0,0.0,0.0,0.070148945,0,0,0.0,0.0,0,0,44.0,0.0,0.0,4617.948717948719,3880.0000000000005,4365.128205128206,4335.384615384616,4221.538461538462,4488.717948717949,4495.8974358974365,4462.051282051282,4397.948717948719,4655.384615384616,4314.358974358975,4095.8974358974365,4032.820512820513,4335.384615384616
1206.748,0.71466655,0.6977108,0.33663285,0.63330626,0,0.0,0.0,0.0,0.0,0.0,0,0,0.0,0.0,0,0,76.0,0.0,474.0,4629.2307692307695,3914.358974358975,4425.128205128206,4378.974358974359,4246.666666666667,4521.538461538462,4513.846153846154,4481.025641025642,4410.769230769231,4677.435897435898,4344.102564102564,4085.6410256410263,4070.2564102564106,4350.769230769231
1206.748,0.71466655,0.6977108,0.33663285,0.63330626,0,0.0,0.0,0.0,0.0,0.0,0,0,0.0,0.0,0,0,76.0,0.0,474.0,4629.2307692307695,3914.358974358975,4425.128205128206,4378.974358974359,4246.666666666667,4521.538461538462,4513.846153846154,4481.025641025642,4410.769230769231,4677.435897435898,4344.102564102564,4085.6410256410263,4070.2564102564106,4350.769230769231
1207.1233,0.73408514,0.6643026,0.34085914,0.63161975,0,0.0,0.0,0.0,0.0,0.0,0,0,0.0,0.0,0,0,124.0,0.0,474.0,4704.102564102564,3989.23076923077,4549.2307692307695,4459.48717948718,4277.948717948719,4554.871794871796,4496.410256410257,4443.076923076924,4413.846153846154,4668.717948717949,4333.333333333334,4060.0000000000005,4088.205128205129,4277.435897435898
1207.4987,0.73408514,0.6643026,0.34085914,0.63161975,0,0.0,0.0,0.0,0.0,0.099768944,0,0,0.0,0.0,0,0,43.0,0.0,0.0,4692.307692307693,3987.692307692308,4583.076923076924,4459.48717948718,4260.000000000001,4544.102564102564,4464.615384615385,4418.461538461539,4410.256410256411,4686.153846153847,4309.2307692307695,4129.74358974359,4173.846153846154,4296.923076923077
1207.7489,0.65172106,0.67818606,0.34466264,0.6301002,0,0.0,0.0,0.0,0.0,0.0,0,0,0.0,0.0,0,0,75.0,0.0,414.0,4688.205128205129,3980.0000000000005,4566.666666666667,4449.743589743591,4248.717948717949,4535.384615384616,4454.358974358975,4416.410256410257,4419.48717948718,4713.333333333334,4327.6923076923085,4178.461538461539,4251.794871794872,4317.948717948719
1207.7489,0.65172106,0.67818606,0.34466264,0.6301002,0,0.0,0.0,0.0,0.0,0.0,0,0,0.0,0.0,0,0,75.0,0.0,414.0,4688.205128205129,3980.0000000000005,4566.666666666667,4449.743589743591,4248.717948717949,4535.384615384616,4454.358974358975,4416.410256410257,4419.48717948718,4713.333333333334,4327.6923076923085,4178.461538461539,4251.794871794872,4317.948717948719
1208.1241,0.6275359,0.6922204,0.34295863,0.6291172,0,0.0,0.0,0.0,0.0,0.0,0,0,0.0,0.0,0,0,123.0,0.0,414.0,4692.307692307693,3959.48717948718,4548.717948717949,4438.461538461539,4232.820512820514,4516.923076923077,4436.410256410257,4406.666666666667,4415.384615384616,4725.641025641026,4351.282051282052,4282.564102564103,4271.794871794872,4312.820512820514
1208.1241,0.6275359,0.6922204,0.34295863,0.6291172,0,0.0,0.0,0.0,0.0,0.0,0,0,0.0,0.0,0,0,123.0,0.0,414.0,4692.307692307693,3959.48717948718,4548.717948717949,4438.461538461539,4232.820512820514,4516.923076923077,4436.410256410257,4406.666666666667,4415.384615384616,4725.641025641026,4351.282051282052,4282.564102564103,4271.794871794872,4312.820512820514
1208.6246,0.5301051,0.70325047,0.33843473,0.6291381,0,0.0,0.0,0.0,0.0,0.0,0,0,0.0,0.0,0,0,58.0,0.0,0.0,4688.717948717949,3919.48717948718,4494.871794871796,4424.102564102564,4237.435897435898,4523.076923076924,4469.2307692307695,4482.051282051282,4398.461538461539,4697.435897435898,4324.615384615385,4266.666666666667,4116.923076923077,4321.538461538462
1208.9999,0.5301051,0.70325047,0.33843473,0.6291381,0,0.0,0.0,0.0,0.0,0.0143617615,0,0,0.0,0.0,0,0,106.0,0.0,530.0,4623.076923076924,3914.358974358975,4464.615384615385,4404.615384615385,4246.666666666667,4534.871794871796,4494.871794871796,4478.461538461539,4386.153846153847,4655.384615384616,4284.102564102564,4173.333333333334,4027.1794871794878,4277.948717948719
1209.2501,0.49975714,0.7149339,0.33261853,0.6292691,0,0.0,0.0,0.0,0.0,1.0,0,0,0.0,0.0,0,0,9.0,0.0,491.0,4575.384615384616,3953.333333333334,4515.384615384616,4452.307692307693,4277.435897435898,4571.794871794872,4498.974358974359,4484.615384615385,4396.410256410257,4695.8974358974365,4351.282051282052,4161.025641025642,4112.307692307693,4285.641025641026
1209.5004,0.49975714,0.7149339,0.33261853,0.6292691,0,0.0,0.0,0.0,0.0,0.13887478,0,0,0.0,0.0,0,0,41.0,0.0,0.0,4584.615384615385,3962.564102564103,4549.2307692307695,4474.358974358975,4284.615384615385,4575.384615384616,4498.974358974359,4474.871794871796,4405.641025641026,4713.333333333334,4361.538461538462,4201.538461538462,4165.128205128206,4294.358974358975
1209.7506,0.51275617,0.6944522,0.32623768,0.62938505,0,0.0,0.0,0.0,0.0,0.0027919335,0,0,0.0,0.0,0,0,73.0,0.0,491.0,4608.205128205129,3998.9743589743593,4600.512820512821,4506.153846153847,4296.410256410257,4582.564102564103,4502.051282051282,4480.000000000001,4418.461538461539,4751.282051282052,4421.025641025642,4265.641025641026,4240.000000000001,4312.307692307693
1209.8757,0.51275617,0.6944522,0.32623768,0.62938505,0,0.0,0.0,0.0,0.0,0.0,0,0,0.0,0.0,0,0,89.0,0.0,496.0,4616.410256410257,4000.5128205128212,4586.666666666667,4508.205128205129,4312.307692307693,4595.8974358974365,4515.384615384616,4490.769230769231,4417.435897435898,4762.051282051282,4415.8974358974365,4262.051282051282,4246.666666666667,4292.820512820514
1210.1259,0.4993554,0.6746273,0.32010373,0.6294874,0,0.0,0.0,0.0,0.0,0.0,0,0,0.0,0.0,0,0,121.0,0.0,496.0,4601.538461538462,3977.435897435898,4502.564102564103,4488.717948717949,4311.794871794872,4602.051282051282,4522.051282051282,4511.282051282052,4396.923076923077,4700.000000000001,4278.461538461539,4172.820512820514,4151.794871794872,4271.794871794872
1210.5012,0.4993554,0.6746273,0.32010373,0.6294874,0,0.0,0.0,0.0,0.0,0.0,0,0,0.0,0.0,0,0,40.0,0.0,0.0,4537.435897435898,3911.7948717948725,4375.8974358974365,4398.974358974359,4292.820512820514,4595.384615384616,4481.025641025642,4491.794871794872,4345.128205128206,4571.282051282052,4253.846153846154,3843.589743589744,3982.0512820512827,4202.051282051282
1210.6263,0.5691206,0.6319187,0.3145835,0.6299067,0,0.0,0.0,0.0,0.0,0.0,0,0,0.0,0.0,0,0,56.0,0.0,0.0,4502.564102564103,3910.7692307692314,4390.256410256411,4408.717948717949,4315.8974358974365,4623.589743589744,4455.384615384616,4460.000000000001,4342.564102564103,4568.717948717949,4295.8974358974365,3784.615384615385,4031.2820512820517,4189.2307692307695
1210.6263,0.5691206,0.6319187,0.3145835,0.6299067,0,0.0,0.0,0.0,0.0,0.0,0,0,0.0,0.0,0,0,56.0,0.0,0.0,4502.564102564103,3910.7692307692314,4390.256410256411,4408.717948717949,4315.8974358974365,4623.589743589744,4455.384615384616,4460.000000000001,4342.564102564103,4568.717948717949,4295.8974358974365,3784.615384615385,4031.2820512820517,4189.2307692307695
1211.2518,0.51391494,0.5857846,0.30857605,0.63497096,0,0.0,0.0,0.0,0.0,0.012841891,0,0,0.0,0.0,0,0,7.0,0.0,471.0,4395.384615384616,3936.9230769230776,4534.871794871796,4441.025641025642,4260.000000000001,4564.102564102564,4271.282051282052,4276.923076923077,4326.666666666667,4622.051282051282,4381.025641025642,3967.1794871794878,4213.333333333334,4192.820512820514
1211.5021,0.51391494,0.5857846,0.30857605,0.63497096,0,0.0,0.0,0.0,0.0,0.008177557,0,0,0.0,0.0,0,0,39.0,0.0,0.0,4382.051282051282,3921.0256410256416,4571.282051282052,4448.717948717949,4202.051282051282,4494.358974358975,4250.769230769231,4252.307692307693,4326.666666666667,4623.589743589744,4401.538461538462,4022.0512820512827,4226.666666666667,4186.153846153847
1211.6272,0.5357573,0.54264706,0.30124032,0.6395254,0,0.0,0.0,0.0,0.0,0.0,0,0,0.0,0.0,0,0,55.0,0.0,0.0,4380.000000000001,3903.589743589744,4559.48717948718,4446.153846153847,4183.076923076924,4473.846153846154,4246.153846153847,4253.333333333334,4316.923076923077,4610.769230769231,4395.8974358974365,4069.7435897435903,4201.538461538462,4171.794871794872
1211.6272,0.5357573,0.54264706,0.30124032,0.6395254,0,0.0,0.0,0.0,0.0,0.0,0,0,0.0,0.0,0,0,55.0,0.0,0.0,4380.000000000001,3903.589743589744,4559.48717948718,4446.153846153847,4183.076923076924,4473.846153846154,4246.153846153847,4253.333333333334,4316.923076923077,4610.769230769231,4395.8974358974365,4069.7435897435903,4201.538461538462,4171.794871794872
1212.1276,0.5447667,0.4959931,0.293198,0.6374934,0,0.0,0.0,0.0,0.0,0.0,0,0,0.0,0.0,0,0,119.0,0.0,414.0,4383.076923076924,3896.410256410257,4518.974358974359,4412.820512820514,4115.384615384616,4397.435897435898,4280.000000000001,4281.025641025642,4311.282051282052,4562.564102564103,4350.256410256411,4056.410256410257,4068.717948717949,4120.512820512821
1212.1276,0.5447667,0.4959931,0.293198,0.6374934,0,0.0,0.0,0.0,0.0,0.0,0,0,0.0,0.0,0,0,119.0,0.0,414.0,4383.076923076924,3896.410256410257,4518.974358974359,4412.820512820514,4115.384615384616,4397.435897435898,4280.000000000001,4281.025641025642,4311.282051282052,4562.564102564103,4350.256410256411,4056.410256410257,4068.717948717949,4120.512820512821
1212.628,0.52108103,0.45399165,0.28454754,0.6356627,0,0.0,0.0,0.0,0.0,0.0,0,0,0.0,0.0,0,0,54.0,0.0,0.0,4384.102564102564,3880.0000000000005,4490.769230769231,4380.512820512821,4085.6410256410263,4362.564102564103,4257.948717948719,4266.153846153847,4296.923076923077,4540.512820512821,4311.282051282052,4112.820512820514,4066.666666666667,4162.564102564103
1212.628,0.52108103,0.45399165,0.28454754,0.6356627,0,0.0,0.0,0.0,0.0,0.0,0,0,0.0,0.0,0,0,54.0,0.0,0.0,4384.102564102564,3880.0000000000005,4490.769230769231,4380.512820512821,4085.6410256410263,4362.564102564103,4257.948717948719,4266.153846153847,4296.923076923077,4540.512820512821,4311.282051282052,4112.820512820514,4066.666666666667,4162.564102564103
1213.2535,0.60954803,0.4161903,0.27561986,0.6383179,0,0.0,0.0,0.0,0.0,0.2647876,0,0,0.0,0.0,0,0,5.0,0.0,525.0,4505.128205128206,3928.717948717949,4565.128205128206,4452.307692307693,4169.74358974359,4455.8974358974365,4350.256410256411,4375.8974358974365,4338.974358974359,4601.025641025642,4366.153846153847,4258.974358974359,4159.48717948718,4172.820512820514
1213.5038,0.60954803,0.4161903,0.27561986,0.6383179,0,0.0,0.0,0.0,0.0,0.101584904,0,0,0.0,0.0,0,0,37.0,0.0,0.0,4489.2307692307695,3939.48717948718,4523.589743589744,4440.512820512821,4198.974358974359,4478.461538461539,4390.769230769231,4410.769230769231,4346.153846153847,4640.000000000001,4378.974358974359,4330.256410256411,4205.641025641026,4185.128205128206
1213.6289,0.6033628,0.38216913,0.26758656,0.64070463,0,0.0,0.0,0.0,0.0,0.0,0,0,0.0,0.0,0,0,53.0,0.0,0.0,4492.307692307693,3944.615384615385,4493.846153846154,4427.6923076923085,4213.846153846154,4496.923076923077,4425.128205128206,4440.000000000001,4352.820512820514,4655.8974358974365,4391.282051282052,4347.6923076923085,4205.641025641026,4181.538461538462
1213.6289,0.6033628,0.38216913,0.26758656,0.64070463,0,0.0,0.0,0.0,0.0,0.0,0,0,0.0,0.0,0,0,53.0,0.0,0.0,4492.307692307693,3944.615384615385,4493.846153846154,4427.6923076923085,4213.846153846154,4496.923076923077,4425.128205128206,4440.000000000001,4352.820512820514,4655.8974358974365,4391.282051282052,4347.6923076923085,4205.641025641026,4181.538461538462
1214.1294,0.6027096,0.35155004,0.26043728,0.64326334,0,0.0,0.0,0.0,0.0,0.0,0,0,0.0,0.0,0,0,117.0,0.0,497.0,4502.564102564103,3973.8461538461543,4488.205128205129,4433.846153846154,4260.512820512821,4546.153846153847,4433.846153846154,4457.435897435898,4360.512820512821,4692.820512820514,4392.307692307693,4342.564102564103,4293.846153846154,4243.589743589744
1214.1294,0.6027096,0.35155004,0.26043728,0.64326334,0,0.0,0.0,0.0,0.0,0.0,0,0,0.0,0.0,0,0,117.0,0.0,497.0,4502.564102564103,3973.8461538461543,4488.205128205129,4433.846153846154,4260.512820512821,4546.153846153847,4433.846153846154,4457.435897435898,4360.512820512821,4692.820512820514,4392.307692307693,4342.564102564103,4293.846153846154,4243.589743589744
1214.6298,0.6174703,0.3934048,0.25400499,0.6450847,0,0.0,0.0,0.0,0.0,0.0,0,0,0.0,0.0,0,0,52.0,0.0,0.0,4524.102564102564,3990.7692307692314,4563.076923076924,4460.512820512821,4291.794871794872,4582.564102564103,4441.025641025642,4465.641025641026,4381.025641025642,4749.743589743591,4482.564102564103,4384.615384615385,4336.410256410257,4314.358974358975
1214.6298,0.6174703,0.3934048,0.25400499,0.6450847,0,0.0,0.0,0.0,0.0,0.0,0,0,0.0,0.0,0,0,52.0,0.0,0.0,4524.102564102564,3990.7692307692314,4563.076923076924,4460.512820512821,4291.794871794872,4582.564102564103,4441.025641025642,4465.641025641026,4381.025641025642,4749.743589743591,4482.564102564103,4384.615384615385,4336.410256410257,4314.358974358975
1215.1302,0.7175594,0.435781,0.24959348,0.6467207,0,0.0,0.0,0.0,0.0,0.0,0,0,0.0,0.0,0,0,116.0,0.0,477.0,4605.641025641026,4035.3846153846157,4652.307692307693,4522.051282051282,4312.820512820514,4613.846153846154,4512.820512820514,4517.948717948719,4424.615384615385,4838.461538461539,4522.564102564103,4478.974358974359,4358.461538461539,4357.435897435898
1215.1302,0.7175594,0.435781,0.24959348,0.6467207,0,0.0,0.0,0.0,0.0,0.0,0,0,0.0,0.0,0,0,116.0,0.0,477.0,4605.641025641026,4035.3846153846157,4652.307692307693,4522.051282051282,4312.820512820514,4613.846153846154,4512.820512820514,4517.948717948719,4424.615384615385,4838.461538461539,4522.564102564103,4478.974358974359,4358.461538461539,4357.435897435898
1215.6306,0.74839085,0.46806714,0.25187466,0.64943254,0,0.0,0.0,0.0,0.0,0.0,0,0,0.0,0.0,0,0,51.0,0.0,0.0,4633.333333333334,4032.307692307693,4630.256410256411,4518.974358974359,4297.435897435898,4592.820512820514,4528.205128205129,4504.615384615385,4416.410256410257,4806.666666666667,4478.974358974359,4485.641025641026,4334.358974358975,4349.743589743591
1215.6306,0.74839085,0.46806714,0.25187466,0.64943254,0,0.0,0.0,0.0,0.0,0.0,0,0,0.0,0.0,0,0,51.0,0.0,0.0,4633.333333333334,4032.307692307693,4630.256410256411,4518.974358974359,4297.435897435898,4592.820512820514,4528.205128205129,4504.615384615385,4416.410256410257,4806.666666666667,4478.974358974359,4485.641025641026,4334.358974358975,4349.743589743591
1216.1311,0.82744783,0.50798196,0.25392956,0.6504384,0,0.0,0.0,0.0,0.0,0.0,0,0,0.0,0.0,0,0,115.0,0.0,417.0,4631.282051282052,4016.410256410257,4577.435897435898,4485.641025641026,4294.358974358975,4596.923076923077,4534.871794871796,4498.461538461539,4422.051282051282,4793.846153846154,4431.794871794872,4457.948717948719,4280.000000000001,4364.102564102564
1216.1311,0.82744783,0.50798196,0.25392956,0.6504384,0,0.0,0.0,0.0,0.0,0.0,0,0,0.0,0.0,0,0,115.0,0.0,417.0,4631.282051282052,4016.410256410257,4577.435897435898,4485.641025641026,4294.358974358975,4596.923076923077,4534.871794871796,4498.461538461539,4422.051282051282,4793.846153846154,4431.794871794872,4457.948717948719,4280.000000000001,4364.102564102564
1216.6315,0.8352529,0.5360846,0.2557808,0.6470196,0,0.0,0.0,0.0,0.0,0.0,0,0,0.0,0.0,0,0,50.0,0.0,0.0,4686.666666666667,3995.8974358974365,4545.128205128206,4452.820512820514,4274.871794871796,4567.6923076923085,4523.076923076924,4475.384615384616,4419.48717948718,4771.794871794872,4420.512820512821,4422.564102564103,4226.666666666667,4396.923076923077
1217.0068,0.8352529,0.5360846,0.2557808,0.6470196,0,0.0,0.0,0.0,0.0,0.42793414,0,0,0.0,0.0,0,0,98.0,0.0,533.0,4714.358974358975,3986.666666666667,4518.974358974359,4444.615384615385,4280.000000000001,4569.743589743591,4508.205128205129,4448.717948717949,4424.615384615385,4767.6923076923085,4391.794871794872,4367.6923076923085,4208.717948717949,4383.076923076924
1217.2571,0.8121037,0.5783367,0.25789928,0.6393723,0,0.0,0.0,0.0,0.0,0.0,0,0,0.0,0.0,0,0,1.0,0.0,415.0,4719.48717948718,3973.333333333334,4500.000000000001,4425.641025641026,4253.333333333334,4542.051282051282,4482.051282051282,4433.333333333334,4420.512820512821,4757.948717948719,4383.076923076924,4350.256410256411,4227.6923076923085,4386.153846153847
1217.2571,0.8121037,0.5783367,0.25789928,0.6393723,0,0.0,0.0,0.0,0.0,0.0,0,0,0.0,0.0,0,0,1.0,0.0,415.0,4719.48717948718,3973.333333333334,4500.000000000001,4425.641025641026,4253.333333333334,4542.051282051282,4482.051282051282,4433.333333333334,4420.512820512821,4757.948717948719,4383.076923076924,4350.256410256411,4227.6923076923085,4386.153846153847
1217.6323,0.80851257,0.60387194,0.25636575,0.63123834,0,0.0,0.0,0.0,0.0,0.0,0,0,0.0,0.0,0,0,49.0,0.0,0.0,4716.923076923077,3966.666666666667,4485.641025641026,4414.358974358975,4247.6923076923085,4529.743589743591,4472.307692307693,4420.512820512821,4406.153846153847,4716.410256410257,4345.128205128206,4298.461538461539,4172.307692307693,4379.48717948718
1217.6323,0.80851257,0.60387194,0.25636575,0.63123834,0,0.0,0.0,0.0,0.0,0.0,0,0,0.0,0.0,0,0,49.0,0.0,0.0,4716.923076923077,3966.666666666667,4485.641025641026,4414.358974358975,4247.6923076923085,4529.743589743591,4472.307692307693,4420.512820512821,4406.153846153847,4716.410256410257,4345.128205128206,4298.461538461539,4172.307692307693,4379.48717948718
1218.1328,0.81894964,0.59698224,0.25498745,0.6239172,0,0.0,0.0,0.0,0.0,0.0,0,0,0.0,0.0,0,0,113.0,0.0,493.0,4646.666666666667,3924.1025641025644,4268.205128205129,4305.641025641026,4213.333333333334,4493.846153846154,4490.769230769231,4455.8974358974365,4362.051282051282,4638.974358974359,4283.589743589744,4184.615384615385,4038.461538461539,4323.076923076924
1218.508,0.81894964,0.59698224,0.25498745,0.6239172,0,0.0,0.0,0.0,0.0,0.07310181,0,0,0.0,0.0,0,0,32.0,0.0,0.0,4595.8974358974365,3934.358974358975,4260.000000000001,4292.307692307693,4200.512820512821,4490.256410256411,4497.435897435898,4482.051282051282,4364.615384615385,4644.615384615385,4275.8974358974365,4148.717948717949,4044.1025641025644,4331.282051282052
1218.7583,0.763969,0.5801577,0.2537489,0.61330634,0,0.0,0.0,0.0,0.0,0.0,0,0,0.0,0.0,0,0,64.0,0.0,511.0,4566.666666666667,3950.2564102564106,4347.6923076923085,4328.717948717949,4210.769230769231,4497.948717948719,4482.051282051282,4480.000000000001,4376.923076923077,4658.461538461539,4304.102564102564,4126.666666666667,4089.7435897435903,4333.846153846154
1218.7583,0.763969,0.5801577,0.2537489,0.61330634,0,0.0,0.0,0.0,0.0,0.0,0,0,0.0,0.0,0,0,64.0,0.0,511.0,4566.666666666667,3950.2564102564106,4347.6923076923085,4328.717948717949,4210.769230769231,4497.948717948719,4482.051282051282,4480.000000000001,4376.923076923077,4658.461538461539,4304.102564102564,4126.666666666667,4089.7435897435903,4333.846153846154
1219.1337,0.6978225,0.5553124,0.25680527,0.6011338,0,0.0,0.0,0.0,0.0,0.0,0,0,0.0,0.0,0,0,112.0,0.0,477.0,4557.948717948719,3960.5128205128212,4461.538461538462,4383.076923076924,4238.461538461539,4523.589743589744,4450.256410256411,4456.923076923077,4388.717948717949,4703.076923076924,4326.153846153847,4127.179487179487,4157.948717948719,4358.974358974359
1219.1337,0.6978225,0.5553124,0.25680527,0.6011338,0,0.0,0.0,0.0,0.0,0.0,0,0,0.0,0.0,0,0,112.0,0.0,477.0,4557.948717948719,3960.5128205128212,4461.538461538462,4383.076923076924,4238.461538461539,4523.589743589744,4450.256410256411,4456.923076923077,4388.717948717949,4703.076923076924,4326.153846153847,4127.179487179487,4157.948717948719,4358.974358974359
1219.634,0.65428543,0.5327302,0.2661961,0.5901783,0,0.0,0.0,0.0,0.0,0.0,0,0,0.0,0.0,0,0,47.0,0.0,0.0,4587.179487179488,3962.0512820512827,4506.153846153847,4413.846153846154,4260.000000000001,4544.615384615385,4433.333333333334,4451.282051282052,4304.615384615385,4740.000000000001,4343.589743589744,4151.794871794872,4224.615384615385,4355.8974358974365
1220.0094,0.65428543,0.5327302,0.2661961,0.5901783,0,0.0,0.0,0.0,0.0,0.014204771,0,0,0.0,0.0,0,0,95.0,0.0,417.0,4561.538461538462,3959.48717948718,4445.128205128206,4396.923076923077,4260.000000000001,4548.717948717949,4431.794871794872,4449.2307692307695,4294.358974358975,4688.205128205129,4312.307692307693,3999.48717948718,4166.666666666667,4308.717948717949
1220.1345,0.6239135,0.51747805,0.28138286,0.5782039,0,0.0,0.0,0.0,0.0,0.0,0,0,0.0,0.0,0,0,111.0,0.0,417.0,4550.769230769231,3955.3846153846157,4423.589743589744,4391.794871794872,4266.153846153847,4552.820512820514,4413.846153846154,4437.948717948719,4289.2307692307695,4662.564102564103,4302.564102564103,3951.2820512820517,4153.333333333334,4294.358974358975
1220.1345,0.6239135,0.51747805,0.28138286,0.5782039,0,0.0,0.0,0.0,0.0,0.0,0,0,0.0,0.0,0,0,111.0,0.0,417.0,4550.769230769231,3955.3846153846157,4423.589743589744,4391.794871794872,4266.153846153847,4552.820512820514,4413.846153846154,4437.948717948719,4289.2307692307695,4662.564102564103,4302.564102564103,3951.2820512820517,4153.333333333334,4294.358974358975
1220.6349,0.5548715,0.51554114,0.29527572,0.57060933,0,0.0,0.0,0.0,0.0,0.0,0,0,0.0,0.0,0,0,46.0,0.0,0.0,4552.307692307693,3938.9743589743593,4487.179487179488,4419.48717948718,4210.769230769231,4521.025641025642,4332.307692307693,4370.769230769231,4300.512820512821,4671.282051282052,4328.205128205129,3970.7692307692314,4231.794871794872,4244.102564102564
1220.6349,0.5548715,0.51554114,0.29527572,0.57060933,0,0.0,0.0,0.0,0.0,0.0,0,0,0.0,0.0,0,0,46.0,0.0,0.0,4552.307692307693,3938.9743589743593,4487.179487179488,4419.48717948718,4210.769230769231,4521.025641025642,4332.307692307693,4370.769230769231,4300.512820512821,4671.282051282052,4328.205128205129,3970.7692307692314,4231.794871794872,4244.102564102564
1221.2605,0.566363,0.5117699,0.30778003,0.56615037,0,0.0,0.0,0.0,0.0,0.25192168,0,0,0.0,0.0,0,0,126.0,0.0,533.0,4589.2307692307695,3921.0256410256416,4543.589743589744,4398.974358974359,4246.666666666667,4531.794871794872,4327.6923076923085,4333.846153846154,4329.743589743591,4700.512820512821,4344.615384615385,4127.6923076923085,4272.307692307693,4189.2307692307695
1221.3856,0.566363,0.5117699,0.30778003,0.56615037,0,0.0,0.0,0.0,0.0,0.0,0,0,0.0,0.0,0,0,13.0,0.0,496.0,4605.641025641026,3925.6410256410263,4538.974358974359,4404.102564102564,4269.2307692307695,4549.743589743591,4347.6923076923085,4341.025641025642,4330.256410256411,4705.128205128206,4352.820512820514,4175.8974358974365,4254.358974358975,4216.410256410257
1221.6357,0.6186609,0.5464129,0.31614038,0.562137,0,0.0,0.0,0.0,0.0,0.0,0,0,0.0,0.0,0,0,45.0,0.0,0.0,4630.769230769231,3910.2564102564106,4469.743589743591,4436.923076923077,4318.461538461539,4593.333333333334,4392.820512820514,4385.641025641026,4320.000000000001,4715.8974358974365,4360.000000000001,4189.2307692307695,4240.512820512821,4223.589743589744
1221.6357,0.6186609,0.5464129,0.31614038,0.562137,0,0.0,0.0,0.0,0.0,0.0,0,0,0.0,0.0,0,0,45.0,0.0,0.0,4630.769230769231,3910.2564102564106,4469.743589743591,4436.923076923077,4318.461538461539,4593.333333333334,4392.820512820514,4385.641025641026,4320.000000000001,4715.8974358974365,4360.000000000001,4189.2307692307695,4240.512820512821,4223.589743589744
1222.2614,0.61312,0.583693,0.31772348,0.56257176,0,0.0,0.0,0.0,0.0,0.1264557,0,0,0.0,0.0,0,0,125.0,0.0,497.0,4462.564102564103,3885.1282051282055,4382.564102564103,4413.846153846154,4254.871794871796,4567.6923076923085,4333.846153846154,4366.666666666667,4268.717948717949,4607.179487179488,4391.794871794872,3875.3846153846157,4103.589743589744,4140.512820512821
1222.5116,0.61312,0.583693,0.31772348,0.56257176,0,0.0,0.0,0.0,0.0,0.030847115,0,0,0.0,0.0,0,0,28.0,0.0,0.0,4393.333333333334,3855.8974358974365,4450.769230769231,4432.307692307693,4246.666666666667,4564.615384615385,4208.205128205129,4254.358974358975,4247.6923076923085,4590.769230769231,4378.461538461539,3859.48717948718,4095.3846153846157,4121.025641025642
1222.7617,0.647737,0.6172771,0.31491184,0.5636969,0,0.0,0.0,0.0,0.0,0.0041538603,0,0,0.0,0.0,0,0,60.0,0.0,0.0,4396.410256410257,3831.2820512820517,4535.384615384616,4465.641025641026,4224.102564102564,4531.282051282052,4137.948717948719,4187.179487179487,4248.205128205129,4601.025641025642,4246.153846153847,3897.435897435898,4085.1282051282055,4142.564102564103
1223.012,0.647737,0.6172771,0.31491184,0.5636969,1,0.0,0.0,0.0,0.0,0.06743639,0,0,0.0,0.0,0,0,92.0,0.0,477.0,4458.461538461539,3926.1538461538466,4663.076923076924,4566.153846153847,4281.538461538462,4585.128205128206,4227.179487179487,4288.717948717949,4304.102564102564,4733.333333333334,4402.564102564103,4088.717948717949,4256.923076923077,4215.384615384616
1223.1371,0.77273726,0.6475028,0.31004605,0.5678958,0,0.0,0.0,0.0,0.0,0.0,0,0,0.0,0.0,0,0,108.0,0.0,477.0,4488.717948717949,3945.6410256410263,4705.128205128206,4587.6923076923085,4270.769230769231,4576.410256410257,4244.102564102564,4311.282051282052,4321.025641025642,4775.384615384616,4426.153846153847,4180.512820512821,4302.051282051282,4233.333333333334
1223.1371,0.77273726,0.6475028,0.31004605,0.5678958,0,0.0,0.0,0.0,0.0,0.0,0,0,0.0,0.0,0,0,108.0,0.0,477.0,4488.717948717949,3945.6410256410263,4705.128205128206,4587.6923076923085,4270.769230769231,4576.410256410257,4244.102564102564,4311.282051282052,4321.025641025642,4775.384615384616,4426.153846153847,4180.512820512821,4302.051282051282,4233.333333333334
1223.6375,0.8102598,0.67470586,0.3044854,0.57591236,0,0.0,0.0,0.0,0.0,0.0,0,0,0.0,0.0,0,0,43.0,0.0,0.0,4591.794871794872,4038.461538461539,4764.102564102564,4635.384615384616,4297.948717948719,4575.384615384616,4395.8974358974365,4411.794871794872,4384.102564102564,4875.8974358974365,4557.948717948719,4408.205128205129,4429.2307692307695,4307.179487179487
1223.6375,0.8102598,0.67470586,0.3044854,0.57591236,0,0.0,0.0,0.0,0.0,0.0,0,0,0.0,0.0,0,0,43.0,0.0,0.0,4591.794871794872,4038.461538461539,4764.102564102564,4635.384615384616,4297.948717948719,4575.384615384616,4395.8974358974365,4411.794871794872,4384.102564102564,4875.8974358974365,4557.948717948719,4408.205128205129,4429.2307692307695,4307.179487179487
1224.138,0.92248595,0.69918865,0.2994815,0.5841918,0,0.0,0.0,0.0,0.0,0.0,0,0,0.0,0.0,0,0,107.0,0.0,417.0,4618.461538461539,4086.666666666667,4757.435897435898,4642.051282051282,4348.205128205129,4637.948717948719,4503.076923076924,4497.435897435898,4424.102564102564,4896.923076923077,4520.000000000001,4535.8974358974365,4464.102564102564,4361.025641025642
1224.138,0.92248595,0.69918865,0.2994815,0.5841918,0,0.0,0.0,0.0,0.0,0.0,0,0,0.0,0.0,0,0,107.0,0.0,417.0,4618.461538461539,4086.666666666667,4757.435897435898,4642.051282051282,4348.205128205129,4637.948717948719,4503.076923076924,4497.435897435898,4424.102564102564,4896.923076923077,4520.000000000001,4535.8974358974365,4464.102564102564,4361.025641025642
1224.6384,1.0,0.7212231,0.2976448,0.59592944,0,0.0,0.0,0.0,0.0,0.0,0,0,0.0,0.0,0,0,42.0,0.0,0.0,4599.48717948718,4027.692307692308,4658.461538461539,4643.589743589744,4394.358974358975,4632.820512820514,4528.205128205129,4523.589743589744,4530.769230769231,4889.743589743591,4478.461538461539,4604.615384615385,4492.307692307693,4420.000000000001
1224.6384,1.0,0.7212231,0.2976448,0.59592944,0,0.0,0.0,0.0,0.0,0.0,0,0,0.0,0.0,0,0,42.0,0.0,0.0,4599.48717948718,4027.692307692308,4658.461538461539,4643.589743589744,4394.358974358975,4632.820512820514,4528.205128205129,4523.589743589744,4530.769230769231,4889.743589743591,4478.461538461539,4604.615384615385,4492.307692307693,4420.000000000001
1225.1388,1.0,0.7410542,0.29900935,0.6064915,0,0.0,0.0,0.0,0.0,0.0,0,0,0.0,0.0,0,0,106.0,0.0,528.0,4480.512820512821,3885.1282051282055,4306.153846153847,4655.384615384616,4374.358974358975,4462.564102564103,4270.256410256411,4286.666666666667,4411.794871794872,4606.153846153847,3955.3846153846157,4798.974358974359,4225.128205128206,4397.435897435898
1225.1388,1.0,0.7410542,0.29900935,0.6064915,0,0.0,0.0,0.0,0.0,0.0,0,0,0.0,0.0,0,0,106.0,0.0,528.0,4480.512820512821,3885.1282051282055,4306.153846153847,4655.384615384616,4374.358974358975,4462.564102564103,4270.256410256411,4286.666666666667,4411.794871794872,4606.153846153847,3955.3846153846157,4798.974358974359,4225.128205128206,4397.435897435898
1225.6705,0.93384063,0.75890213,0.30167586,0.61601007,0,0.0,0.0,0.0,0.0,0.0,0,0,0.0,0.0,0,0,45.0,0.0,0.0,4555.8974358974365,3955.8974358974365,4377.948717948719,4650.769230769231,4338.974358974359,4501.025641025642,4393.846153846154,4381.538461538462,4387.6923076923085,4662.051282051282,3869.2307692307695,4452.307692307693,4073.8461538461543,4348.205128205129
1226.0145,0.93384063,0.75890213,0.30167586,0.61601007,0,0.0,0.0,0.0,0.0,0.88504297,0,0,0.0,0.0,0,0,89.0,0.0,491.0,4566.153846153847,3963.589743589744,4310.769230769231,4550.769230769231,4268.205128205129,4465.641025641026,4352.820512820514,4321.538461538462,4338.461538461539,4554.871794871796,3923.076923076924,4223.589743589744,3953.333333333334,4318.974358974359
1226.2648,0.91897887,0.7749653,0.30484807,0.6224471,0,0.0,0.0,0.0,0.0,0.27665827,0,0,0.0,0.0,0,0,121.0,0.0,491.0,4498.974358974359,3935.8974358974365,4301.538461538462,4552.820512820514,4232.307692307693,4459.48717948718,4347.179487179487,4318.974358974359,4336.410256410257,4560.000000000001,4047.1794871794878,4173.333333333334,3982.564102564103,4307.6923076923085
1226.3899,0.91897887,0.7749653,0.30484807,0.6224471,0,0.0,0.0,0.0,0.0,1.0,0,0,0.0,0.0,0,0,8.0,0.0,360.0,4503.589743589744,3955.8974358974365,4345.128205128206,4536.410256410257,4235.384615384616,4470.769230769231,4365.128205128206,4333.846153846154,4340.512820512821,4583.589743589744,4082.564102564103,4155.384615384616,4011.7948717948725,4291.282051282052
1226.6401,0.8537342,0.7894221,0.3077037,0.62111366,0,0.0,0.0,0.0,0.0,0.0,0,0,0.0,0.0,0,0,40.0,0.0,0.0,4509.2307692307695,3993.333333333334,4421.025641025642,4518.974358974359,4202.051282051282,4462.051282051282,4379.48717948718,4337.948717948719,4356.923076923077,4634.871794871796,4189.2307692307695,4158.974358974359,4104.615384615385,4302.564102564103
1226.6401,0.8537342,0.7894221,0.3077037,0.62111366,0,0.0,0.0,0.0,0.0,0.0,0,0,0.0,0.0,0,0,40.0,0.0,0.0,4509.2307692307695,3993.333333333334,4421.025641025642,4518.974358974359,4202.051282051282,4462.051282051282,4379.48717948718,4337.948717948719,4356.923076923077,4634.871794871796,4189.2307692307695,4158.974358974359,4104.615384615385,4302.564102564103
1227.1405,0.8254619,0.80243325,0.3102737,0.6142103,0,0.0,0.0,0.0,0.0,0.0,0,0,0.0,0.0,0,0,104.0,0.0,475.0,4506.153846153847,3998.9743589743593,4505.128205128206,4503.589743589744,4251.282051282052,4492.820512820514,4415.384615384616,4392.307692307693,4380.512820512821,4733.333333333334,4345.128205128206,4194.871794871796,4231.282051282052,4337.948717948719
1227.1405,0.8254619,0.80243325,0.3102737,0.6142103,0,0.0,0.0,0.0,0.0,0.0,0,0,0.0,0.0,0,0,104.0,0.0,475.0,4506.153846153847,3998.9743589743593,4505.128205128206,4503.589743589744,4251.282051282052,4492.820512820514,4415.384615384616,4392.307692307693,4380.512820512821,4733.333333333334,4345.128205128206,4194.871794871796,4231.282051282052,4337.948717948719
1227.641,0.8391302,0.8141433,0.31258598,0.60799384,0,0.0,0.0,0.0,0.0,0.0,0,0,0.0,0.0,0,0,39.0,0.0,0.0,4785.128205128206,4184.615384615385,4761.025641025642,4705.641025641026,4108.205128205129,4457.948717948719,4677.435897435898,4649.743589743591,4507.6923076923085,4986.666666666667,4415.384615384616,5420.512820512821,4462.564102564103,4450.769230769231
1228.0162,0.8391302,0.8141433,0.31258598,0.60799384,0,0.0,0.0,0.0,0.0,0.0,0,0,0.0,0.0,0,0,87.0,0.0,417.0,4753.333333333334,4184.102564102564,4850.256410256411,4767.6923076923085,4361.538461538462,4583.589743589744,4724.102564102564,4748.205128205129,4530.769230769231,5051.794871794872,4502.564102564103,4970.769230769231,4458.974358974359,4478.974358974359
1228.329,0.9484346,0.82468235,0.31466326,0.6024094,1,0.0,0.0,0.0,0.0,0.0,0,0,0.0,0.0,0,0,127.0,0.0,417.0,4828.717948717949,4292.820512820514,4916.923076923077,4798.974358974359,4481.538461538462,4723.076923076924,4852.307692307693,4843.589743589744,4582.564102564103,5135.384615384616,4619.48717948718,4784.102564102564,4554.358974358975,4491.794871794872
1228.4855,0.9484346,0.82468235,0.31466326,0.6024094,0,0.0,0.0,0.0,0.0,0.0,0,0,0.0,0.0,0,0,18.0,0.0,0.0,4825.641025641026,4274.871794871796,4885.641025641026,4758.461538461539,4472.820512820514,4716.923076923077,4835.8974358974365,4813.333333333334,4569.743589743591,5111.282051282052,4644.102564102564,4699.48717948718,4540.512820512821,4487.6923076923085
1228.6731,1.0,0.8341675,0.31653127,0.5973863,0,0.0,0.0,0.0,0.0,0.0,0,0,0.0,0.0,0,0,42.0,0.0,0.0,4763.589743589744,4202.564102564103,4790.256410256411,4683.076923076924,4471.794871794872,4677.435897435898,4747.179487179488,4716.410256410257,4533.846153846154,5001.025641025642,4531.794871794872,4563.589743589744,4452.820512820514,4454.358974358975
1228.6731,1.0,0.8341675,0.31653127,0.5973863,0,0.0,0.0,0.0,0.0,0.0,0,0,0.0,0.0,0,0,42.0,0.0,0.0,4763.589743589744,4202.564102564103,4790.256410256411,4683.076923076924,4471.794871794872,4677.435897435898,4747.179487179488,4716.410256410257,4533.846153846154,5001.025641025642,4531.794871794872,4563.589743589744,4452.820512820514,4454.358974358975
1229.2673,1.0,0.84270406,0.3182149,0.59286046,0,0.0,0.0,0.0,0.20759563,0.0,0,0,0.0,0.0,0,0,118.0,0.0,524.0,4616.923076923077,4106.153846153847,4436.410256410257,4569.743589743591,4458.974358974359,4649.743589743591,4715.8974358974365,4806.666666666667,4504.615384615385,4891.794871794872,3848.717948717949,5358.461538461539,4537.435897435898,4660.512820512821
1229.5176,1.0,0.84270406,0.3182149,0.59286046,0,0.0,0.0,0.0,0.016147248,0.0,0,0,0.0,0.0,0,0,21.0,0.0,0.0,4588.205128205129,4081.538461538462,4330.256410256411,4508.205128205129,4406.666666666667,4606.666666666667,4696.923076923077,4797.435897435898,4474.871794871796,4835.8974358974365,4289.2307692307695,4637.948717948719,4393.846153846154,4580.000000000001
1229.7678,0.980952,0.85038704,0.31972742,0.5887967,0,0.0,0.0,0.0,0.15495564,0.0,0,0,0.0,0.0,0,0,53.0,0.0,0.0,4437.435897435898,3897.9487179487182,4167.6923076923085,4316.923076923077,4189.74358974359,4307.179487179487,4304.102564102564,4391.282051282052,4295.384615384616,4393.333333333334,4104.615384615385,3835.8974358974365,3956.410256410257,4313.846153846154
1230.018,0.980952,0.85038704,0.31972742,0.5887967,0,0.0,0.0,0.0,0.027718632,0.0,0,0,0.0,0.0,0,0,85.0,0.0,497.0,4466.153846153847,3983.589743589744,4425.641025641026,4541.025641025642,4435.8974358974365,4548.717948717949,4424.102564102564,4618.461538461539,4416.923076923077,4686.153846153847,4379.48717948718,4010.7692307692314,4176.923076923077,4573.333333333334
1230.2682,1.0,0.8573017,0.32108834,0.5851393,0,0.0,0.0,0.0,0.0,0.12160287,0,0,0.0,0.0,0,1,117.0,0.0,497.0,4487.6923076923085,4031.7948717948725,4512.820512820514,4517.948717948719,4366.666666666667,4556.410256410257,4432.820512820514,4591.794871794872,4422.051282051282,4630.256410256411,4604.615384615385,3816.410256410257,4267.6923076923085,4497.948717948719
1230.5184,1.0,0.8573017,0.32108834,0.5851393,0,0.0,0.0,0.0,0.0,0.07036266,0,0,0.0,0.0,0,0,20.0,0.0,0.0,4551.282051282052,4072.307692307693,4615.8974358974365,4568.717948717949,4387.179487179487,4603.589743589744,4449.2307692307695,4566.666666666667,4453.333333333334,4752.307692307693,4893.333333333334,3953.333333333334,4378.461538461539,4474.871794871796
1230.7687,0.9468295,0.8635249,0.3223132,0.58184844,0,0.0,0.0,0.0,0.0,0.29879645,0,0,0.0,0.0,0,0,52.0,0.0,0.0,4613.333333333334,4088.205128205129,4650.256410256411,4582.564102564103,4354.358974358975,4581.025641025642,4477.948717948719,4588.717948717949,4461.025641025642,4826.153846153847,4892.307692307693,4060.5128205128212,4419.48717948718,4412.820512820514
1231.0188,0.9468295,0.8635249,0.3223132,0.58184844,0,0.0,0.0,0.0,0.0,0.2219719,0,0,0.0,0.0,0,0,84.0,0.0,457.0,4634.358974358975,4112.820512820514,4638.974358974359,4446.666666666667,4354.871794871796,4587.6923076923085,4508.717948717949,4595.384615384616,4462.051282051282,4795.384615384616,4879.48717948718,4111.794871794872,4401.025641025642,4442.051282051282
1231.1439,0.85590136,0.8691258,0.32341743,0.578882,0,0.0,0.0,0.0,0.0,0.0,0,0,0.0,0.0,0,0,100.0,0.0,457.0,4637.948717948719,4120.512820512821,4663.589743589744,4431.794871794872,4380.512820512821,4624.615384615385,4537.435897435898,4618.461538461539,4483.076923076924,4836.410256410257,4881.538461538462,4143.076923076924,4432.307692307693,4473.846153846154
1231.1439,0.85590136,0.8691258,0.32341743,0.578882,0,0.0,0.0,0.0,0.0,0.0,0,0,0.0,0.0,0,0,100.0,0.0,457.0,4637.948717948719,4120.512820512821,4663.589743589744,4431.794871794872,4380.512820512821,4624.615384615385,4537.435897435898,4618.461538461539,4483.076923076924,4836.410256410257,4881.538461538462,4143.076923076924,4432.307692307693,4473.846153846154
1231.6444,0.8099709,0.87416655,0.32441148,0.5762117,0,0.0,0.0,0.0,0.0,0.0,0,0,0.0,0.0,0,0,35.0,0.0,0.0,4678.974358974359,4102.564102564103,4757.948717948719,4451.282051282052,4346.666666666667,4594.871794871796,4511.282051282052,4556.923076923077,4477.948717948719,4833.846153846154,4765.641025641026,4019.48717948718,4380.000000000001,4451.282051282052
1231.6444,0.8099709,0.87416655,0.32441148,0.5762117,0,0.0,0.0,0.0,0.0,0.0,0,0,0.0,0.0,0,0,35.0,0.0,0.0,4678.974358974359,4102.564102564103,4757.948717948719,4451.282051282052,4346.666666666667,4594.871794871796,4511.282051282052,4556.923076923077,4477.948717948719,4833.846153846154,4765.641025641026,4019.48717948718,4380.000000000001,4451.282051282052
1232.2699,0.7952461,0.8981124,0.32530633,0.573808,0,0.0,0.0,0.0,0.0,0.06433421,0,0,0.0,0.0,0,0,115.0,0.0,410.0,4688.717948717949,4064.615384615385,4708.717948717949,4360.512820512821,4178.974358974359,4460.000000000001,4378.974358974359,4416.410256410257,4441.538461538462,4731.282051282052,4454.358974358975,4023.076923076924,4256.410256410257,4343.076923076924
1232.5201,0.7952461,0.8981124,0.32530633,0.573808,0,0.0,0.0,0.0,0.0,0.0,0,0,0.0,0.0,0,0,18.0,0.0,0.0,4711.282051282052,3980.0000000000005,4541.025641025642,4196.410256410257,4102.564102564103,4357.948717948719,4261.025641025642,4296.410256410257,4390.769230769231,4621.538461538462,4335.8974358974365,4006.666666666667,4118.461538461539,4270.256410256411
1232.6453,0.8867121,0.9200107,0.32611185,0.5716448,0,0.0,0.0,0.0,0.0,0.0,0,0,0.0,0.0,0,0,34.0,0.0,0.0,4778.974358974359,3991.2820512820517,4540.000000000001,4186.666666666667,4122.564102564103,4377.435897435898,4296.410256410257,4312.820512820514,4405.128205128206,4645.128205128206,4384.102564102564,4046.1538461538466,4129.74358974359,4267.179487179487
1232.6453,0.8867121,0.9200107,0.32611185,0.5716448,0,0.0,0.0,0.0,0.0,0.0,0,0,0.0,0.0,0,0,34.0,0.0,0.0,4778.974358974359,3991.2820512820517,4540.000000000001,4186.666666666667,4122.564102564103,4377.435897435898,4296.410256410257,4312.820512820514,4405.128205128206,4645.128205128206,4384.102564102564,4046.1538461538466,4129.74358974359,4267.179487179487
1233.2708,0.9536092,0.93971914,0.326837,0.5696986,0,0.0,0.0,0.0,0.0,0.09501238,0,0,0.0,0.0,0,0,114.0,0.0,533.0,4713.333333333334,4074.358974358975,4540.000000000001,4222.564102564103,4067.1794871794878,4311.794871794872,4474.358974358975,4494.871794871796,4437.948717948719,4752.820512820514,4493.333333333334,4224.102564102564,4226.153846153847,4391.282051282052
1233.3959,0.9536092,0.93971914,0.326837,0.5696986,0,0.0,0.0,0.0,0.0,0.0,0,0,0.0,0.0,0,0,1.0,0.0,415.0,4663.589743589744,4042.0512820512827,4474.358974358975,4217.435897435898,4130.256410256411,4391.282051282052,4420.000000000001,4444.615384615385,4412.820512820514,4695.384615384616,4426.153846153847,4168.205128205129,4153.846153846154,4363.589743589744
1233.6461,0.8949031,0.95745677,0.32888308,0.5679466,0,0.0,0.0,0.0,0.0,0.0,0,0,0.0,0.0,0,0,33.0,0.0,0.0,4672.307692307693,4085.6410256410263,4475.8974358974365,4245.641025641026,4151.794871794872,4411.794871794872,4425.128205128206,4466.153846153847,4415.384615384616,4715.384615384616,4443.589743589744,4181.538461538462,4167.179487179487,4385.641025641026
1234.0215,0.8949031,0.95745677,0.32888308,0.5679466,0,0.0,0.0,0.0,0.0,0.4375214,0,0,0.0,0.0,0,0,81.0,0.0,499.0,4632.307692307693,4050.2564102564106,4518.974358974359,4293.846153846154,4189.2307692307695,4450.256410256411,4488.717948717949,4518.461538461539,4444.102564102564,4775.8974358974365,4447.179487179487,4259.48717948718,4216.923076923077,4431.282051282052
1234.2716,0.8459487,0.9734206,0.33751854,0.56636953,0,0.0,0.0,0.0,0.0,0.076479636,0,0,0.0,0.0,0,0,113.0,0.0,499.0,4665.641025641026,4068.717948717949,4539.48717948718,4330.769230769231,4212.307692307693,4476.923076923077,4480.512820512821,4513.333333333334,4458.461538461539,4798.974358974359,4508.205128205129,4254.358974358975,4237.948717948719,4428.717948717949
1234.3967,0.8459487,0.9734206,0.33751854,0.56636953,0,0.0,0.0,0.0,0.0,0.0,0,0,0.0,0.0,0,0,0.0,0.0,506.0,4672.820512820514,4078.461538461539,4545.641025641026,4351.282051282052,4222.051282051282,4508.205128205129,4502.051282051282,4540.000000000001,4470.769230769231,4840.000000000001,4545.128205128206,4302.051282051282,4284.615384615385,4429.743589743591
1234.647,0.7902804,0.9877881,0.35098937,0.5672989,0,0.0,0.0,0.0,0.0,0.0,0,0,0.0,0.0,0,0,32.0,0.0,0.0,4665.128205128206,4072.307692307693,4549.743589743591,4368.205128205129,4246.153846153847,4521.025641025642,4531.794871794872,4559.48717948718,4476.410256410257,4865.641025641026,4560.000000000001,4363.076923076924,4293.333333333334,4421.025641025642
1235.0223,0.7902804,0.9877881,0.35098937,0.5672989,0,0.0,0.0,0.0,0.0,0.12537414,0,0,0.0,0.0,0,0,80.0,0.0,471.0,4671.282051282052,4060.5128205128212,4502.564102564103,4380.512820512821,4247.6923076923085,4536.410256410257,4570.256410256411,4614.871794871796,4493.333333333334,4889.743589743591,4596.410256410257,4414.358974358975,4273.333333333334,4478.974358974359
1235.2725,0.7544149,0.9238419,0.36311266,0.5767369,0,0.0,0.0,0.0,0.0,0.0,0,0,0.0,0.0,0,0,112.0,0.0,471.0,4680.000000000001,4054.8717948717954,4501.025641025642,4396.923076923077,4265.128205128206,4551.794871794872,4586.153846153847,4632.820512820514,4508.717948717949,4898.974358974359,4600.512820512821,4445.641025641026,4282.564102564103,4494.358974358975
1235.2725,0.7544149,0.9238419,0.36311266,0.5767369,0,0.0,0.0,0.0,0.0,0.0,0,0,0.0,0.0,0,0,112.0,0.0,471.0,4680.000000000001,4054.8717948717954,4501.025641025642,4396.923076923077,4265.128205128206,4551.794871794872,4586.153846153847,4632.820512820514,4508.717948717949,4898.974358974359,4600.512820512821,4445.641025641026,4282.564102564103,4494.358974358975
1235.6478,0.7494332,0.8709218,0.37402284,0.58523047,0,0.0,0.0,0.0,0.0,0.0,0,0,0.0,0.0,0,0,31.0,0.0,0.0,4678.461538461539,4060.5128205128212,4567.6923076923085,4445.128205128206,4283.076923076924,4568.717948717949,4570.256410256411,4606.666666666667,4497.435897435898,4889.2307692307695,4599.48717948718,4473.846153846154,4250.256410256411,4489.743589743591
1236.0232,0.7494332,0.8709218,0.37402284,0.58523047,0,0.0,0.0,0.0,0.0,0.039414406,0,0,0.0,0.0,0,0,79.0,0.0,414.0,4688.205128205129,4085.1282051282055,4618.461538461539,4488.717948717949,4288.205128205129,4571.282051282052,4560.512820512821,4574.871794871796,4504.102564102564,4890.256410256411,4604.102564102564,4457.948717948719,4266.153846153847,4518.461538461539
1236.2733,0.6398316,0.82180023,0.37924272,0.58932364,0,0.0,0.0,0.0,0.0,0.01980139,0,0,0.0,0.0,0,0,111.0,0.0,414.0,4686.153846153847,4095.8974358974365,4638.974358974359,4506.666666666667,4298.974358974359,4586.153846153847,4572.307692307693,4567.179487179488,4507.179487179488,4899.48717948718,4663.589743589744,4460.000000000001,4294.358974358975,4506.153846153847
1236.5236,0.6398316,0.82180023,0.37924272,0.58932364,0,0.0,0.0,0.0,0.0,0.03537233,0,0,0.0,0.0,0,0,14.0,0.0,533.0,4674.358974358975,4074.8717948717954,4648.205128205129,4509.743589743591,4293.333333333334,4574.358974358975,4570.769230769231,4552.307692307693,4506.666666666667,4893.846153846154,4646.666666666667,4468.205128205129,4262.564102564103,4526.666666666667
1236.7738,0.6192702,0.76594806,0.37382045,0.5993582,0,0.0,0.0,0.0,0.0,0.10046261,0,0,0.0,0.0,0,0,46.0,0.0,0.0,4682.564102564103,4065.1282051282055,4602.051282051282,4498.461538461539,4278.461538461539,4563.589743589744,4590.256410256411,4553.333333333334,4490.769230769231,4873.846153846154,4607.179487179488,4444.615384615385,4227.6923076923085,4515.384615384616
1237.024,0.6192702,0.76594806,0.37382045,0.5993582,0,0.0,0.0,0.0,0.0,0.016405733,0,0,0.0,0.0,0,0,78.0,0.0,533.0,4645.641025641026,4008.717948717949,4420.000000000001,4425.128205128206,4249.74358974359,4534.871794871796,4598.974358974359,4568.205128205129,4439.48717948718,4774.358974358975,4510.256410256411,4350.256410256411,4075.3846153846157,4504.615384615385
1237.2742,0.5885496,0.7100807,0.36219,0.6131976,0,0.0,0.0,0.0,0.0,0.0034344594,0,0,0.0,0.0,0,0,110.0,0.0,533.0,4586.153846153847,3973.333333333334,4325.641025641026,4414.358974358975,4270.256410256411,4560.000000000001,4589.743589743591,4589.743589743591,4401.025641025642,4676.410256410257,4424.102564102564,4155.8974358974365,3922.0512820512827,4433.333333333334
1237.5244,0.5885496,0.7100807,0.36219,0.6131976,0,0.0,0.0,0.0,0.0,0.058410496,0,0,0.0,0.0,0,0,13.0,0.0,499.0,4515.384615384616,3971.2820512820517,4385.128205128206,4440.000000000001,4315.384615384616,4609.743589743591,4501.025641025642,4538.461538461539,4398.461538461539,4655.384615384616,4425.128205128206,4013.8461538461543,3957.435897435898,4395.384615384616
1237.7747,0.66703606,0.6528131,0.349995,0.6256498,0,0.0,0.0,0.0,0.0,0.020273307,0,0,0.0,0.0,0,0,45.0,0.0,0.0,4505.641025641026,3976.410256410257,4495.384615384616,4480.000000000001,4361.538461538462,4667.179487179488,4408.717948717949,4478.461538461539,4415.384615384616,4627.179487179488,4426.153846153847,4009.23076923077,4080.0000000000005,4391.282051282052
1237.8998,0.66703606,0.6528131,0.349995,0.6256498,0,0.0,0.0,0.0,0.0,0.0,0,0,0.0,0.0,0,0,61.0,0.0,0.0,4505.128205128206,3975.8974358974365,4544.102564102564,4504.102564102564,4390.256410256411,4692.820512820514,4369.743589743591,4430.769230769231,4418.974358974359,4646.666666666667,4336.923076923077,4011.2820512820517,4150.256410256411,4399.48717948718
1238.2751,0.7184081,0.6013161,0.33902037,0.63206166,0,0.0,0.0,0.0,0.0,0.0031076511,0,0,0.0,0.0,0,0,109.0,0.0,499.0,4524.615384615385,3989.7435897435903,4651.794871794872,4544.615384615385,4417.948717948719,4723.589743589744,4313.333333333334,4365.128205128206,4448.205128205129,4741.025641025642,4478.461538461539,4151.282051282052,4334.871794871796,4424.615384615385
1238.4001,0.7184081,0.6013161,0.33902037,0.63206166,0,0.0,0.0,0.0,0.0,0.0,0,0,0.0,0.0,0,0,125.0,0.0,499.0,4518.974358974359,3983.076923076924,4664.102564102564,4539.48717948718,4387.6923076923085,4693.846153846154,4312.820512820514,4358.974358974359,4447.179487179487,4765.128205128206,4505.641025641026,4185.641025641026,4367.179487179487,4439.48717948718
1238.6504,0.822115,0.55496883,0.33067113,0.6326674,0,0.0,0.0,0.0,0.0,0.0,0,0,0.0,0.0,0,0,28.0,0.0,0.0,4532.820512820514,3963.076923076924,4670.769230769231,4488.205128205129,4324.615384615385,4614.358974358975,4342.564102564103,4345.641025641026,4461.538461538462,4798.461538461539,4535.8974358974365,4263.076923076924,4396.923076923077,4449.2307692307695
1238.6504,0.822115,0.55496883,0.33067113,0.6326674,0,0.0,0.0,0.0,0.0,0.0,0,0,0.0,0.0,0,0,28.0,0.0,0.0,4532.820512820514,3963.076923076924,4670.769230769231,4488.205128205129,4324.615384615385,4614.358974358975,4342.564102564103,4345.641025641026,4461.538461538462,4798.461538461539,4535.8974358974365,4263.076923076924,4396.923076923077,4449.2307692307695
1239.1509,0.87063366,0.5132563,0.32791132,0.6281611,0,0.0,0.0,0.0,0.0,0.0,0,0,0.0,0.0,0,0,92.0,0.0,470.0,4583.076923076924,4013.8461538461543,4714.358974358975,4565.128205128206,4278.974358974359,4569.2307692307695,4466.153846153847,4473.333333333334,4491.794871794872,4891.794871794872,4576.923076923077,4456.923076923077,4447.6923076923085,4540.000000000001
1239.1509,0.87063366,0.5132563,0.32791132,0.6281611,0,0.0,0.0,0.0,0.0,0.0,0,0,0.0,0.0,0,0,92.0,0.0,470.0,4583.076923076924,4013.8461538461543,4714.358974358975,4565.128205128206,4278.974358974359,4569.2307692307695,4466.153846153847,4473.333333333334,4491.794871794872,4891.794871794872,4576.923076923077,4456.923076923077,4447.6923076923085,4540.000000000001
1239.6512,0.85754037,0.475715,0.32845473,0.62055093,0,0.0,0.0,0.0,0.0,0.0,0,0,0.0,0.0,0,0,27.0,0.0,0.0,4612.820512820514,4015.8974358974365,4682.051282051282,4609.2307692307695,4289.2307692307695,4562.051282051282,4568.717948717949,4535.8974358974365,4503.076923076924,4908.205128205129,4569.743589743591,4541.025641025642,4413.846153846154,4520.512820512821
1239.6512,0.85754037,0.475715,0.32845473,0.62055093,0,0.0,0.0,0.0,0.0,0.0,0,0,0.0,0.0,0,0,27.0,0.0,0.0,4612.820512820514,4015.8974358974365,4682.051282051282,4609.2307692307695,4289.2307692307695,4562.051282051282,4568.717948717949,4535.8974358974365,4503.076923076924,4908.205128205129,4569.743589743591,4541.025641025642,4413.846153846154,4520.512820512821
1240.2769,0.7972588,0.5127147,0.3289441,0.6136982,0,0.0,0.0,0.0,0.0,0.060964517,0,0,0.0,0.0,0,0,107.0,0.0,414.0,4667.179487179488,4017.9487179487182,4630.256410256411,4555.8974358974365,4270.769230769231,4556.923076923077,4648.205128205129,4586.153846153847,4507.6923076923085,4911.282051282052,4502.051282051282,4437.435897435898,4362.564102564103,4523.076923076924
1240.527,0.7972588,0.5127147,0.3289441,0.6136982,0,0.0,0.0,0.0,0.0,0.0036915324,0,0,0.0,0.0,0,0,10.0,0.0,533.0,4669.2307692307695,4020.0000000000005,4501.025641025642,4521.538461538462,4277.435897435898,4562.051282051282,4689.743589743591,4655.8974358974365,4477.435897435898,4890.769230769231,4519.48717948718,4410.256410256411,4293.333333333334,4515.8974358974365
1240.7772,0.7453958,0.5315757,0.3293846,0.60753,0,0.0,0.0,0.0,0.0,0.008901879,0,0,0.0,0.0,0,0,42.0,0.0,0.0,4584.615384615385,3973.333333333334,4294.358974358975,4431.282051282052,4258.974358974359,4547.6923076923085,4668.205128205129,4652.307692307693,4411.282051282052,4738.974358974359,4383.589743589744,4206.153846153847,4095.8974358974365,4506.666666666667
1241.0275,0.7453958,0.5315757,0.3293846,0.60753,0,0.0,0.0,0.0,0.0,0.07092117,0,0,0.0,0.0,0,0,74.0,0.0,533.0,4507.179487179488,3968.717948717949,4324.615384615385,4473.846153846154,4265.128205128206,4562.051282051282,4537.948717948719,4575.8974358974365,4378.461538461539,4625.128205128206,4305.641025641026,3928.205128205129,4010.7692307692314,4381.025641025642
1241.2777,0.8327161,0.54856336,0.329781,0.6019811,0,0.0,0.0,0.0,0.0,0.04504042,0,0,0.0,0.0,0,0,106.0,0.0,533.0,4429.743589743591,3960.0000000000005,4464.615384615385,4522.051282051282,4321.025641025642,4641.025641025642,4387.179487179487,4458.974358974359,4389.743589743591,4656.410256410257,4373.333333333334,3878.9743589743593,4151.282051282052,4305.128205128206
1241.5278,0.8327161,0.54856336,0.329781,0.6019811,0,0.0,0.0,0.0,0.0,0.010018981,0,0,0.0,0.0,0,0,9.0,0.0,492.0,4501.025641025642,3980.0000000000005,4640.512820512821,4602.564102564103,4408.717948717949,4746.153846153847,4315.384615384616,4387.179487179487,4425.128205128206,4736.923076923077,4347.6923076923085,4045.6410256410263,4298.461538461539,4308.205128205129
1241.7781,0.80671865,0.5638523,0.32940635,0.6045915,0,0.0,0.0,0.0,0.0,0.025471712,0,0,0.0,0.0,0,0,41.0,0.0,0.0,4572.820512820514,4015.3846153846157,4735.8974358974365,4643.076923076924,4441.025641025642,4765.641025641026,4312.307692307693,4372.307692307693,4442.564102564103,4821.538461538462,4457.948717948719,4245.641025641026,4420.000000000001,4287.6923076923085
1242.0283,0.80671865,0.5638523,0.32940635,0.6045915,0,0.0,0.0,0.0,0.0,0.10333688,0,0,0.0,0.0,0,0,73.0,0.0,492.0,4651.794871794872,4064.1025641025644,4804.615384615386,4670.256410256411,4446.153846153847,4749.743589743591,4387.179487179487,4428.717948717949,4482.051282051282,4910.256410256411,4545.641025641026,4383.076923076924,4490.769230769231,4335.384615384616
1242.1534,0.91991246,0.57761234,0.32906926,0.61278605,0,0.0,0.0,0.0,0.0,0.0,0,0,0.0,0.0,0,0,89.0,0.0,499.0,4684.102564102564,4090.2564102564106,4825.641025641026,4682.051282051282,4440.000000000001,4734.871794871796,4417.948717948719,4444.102564102564,4501.538461538462,4941.538461538462,4560.512820512821,4411.282051282052,4522.051282051282,4369.2307692307695
1242.1534,0.91991246,0.57761234,0.32906926,0.61278605,0,0.0,0.0,0.0,0.0,0.0,0,0,0.0,0.0,0,0,89.0,0.0,499.0,4684.102564102564,4090.2564102564106,4825.641025641026,4682.051282051282,4440.000000000001,4734.871794871796,4417.948717948719,4444.102564102564,4501.538461538462,4941.538461538462,4560.512820512821,4411.282051282052,4522.051282051282,4369.2307692307695
1242.6538,1.0,0.58999634,0.3281543,0.6201588,0,0.0,0.0,0.0,0.0,0.0,0,0,0.0,0.0,0,0,24.0,0.0,0.0,4870.256410256411,4212.820512820514,4935.384615384616,4808.205128205129,4444.615384615385,4747.6923076923085,4656.410256410257,4648.717948717949,4587.179487179488,5103.076923076924,4694.358974358975,4627.6923076923085,4626.666666666667,4483.076923076924
1242.6538,1.0,0.58999634,0.3281543,0.6201588,0,0.0,0.0,0.0,0.0,0.0,0,0,0.0,0.0,0,0,24.0,0.0,0.0,4870.256410256411,4212.820512820514,4935.384615384616,4808.205128205129,4444.615384615385,4747.6923076923085,4656.410256410257,4648.717948717949,4587.179487179488,5103.076923076924,4694.358974358975,4627.6923076923085,4626.666666666667,4483.076923076924
1243.1543,0.9453594,0.601142,0.32733098,0.6267914,0,0.0,0.0,0.0,0.0,0.0,0,0,0.0,0.0,0,0,88.0,0.0,470.0,4952.820512820514,4250.769230769231,4911.282051282052,4808.205128205129,4356.410256410257,4683.076923076924,4800.512820512821,4759.48717948718,4613.846153846154,5112.307692307693,4696.923076923077,4672.820512820514,4595.384615384616,4526.153846153847
1243.1543,0.9453594,0.601142,0.32733098,0.6267914,0,0.0,0.0,0.0,0.0,0.0,0,0,0.0,0.0,0,0,88.0,0.0,470.0,4952.820512820514,4250.769230769231,4911.282051282052,4808.205128205129,4356.410256410257,4683.076923076924,4800.512820512821,4759.48717948718,4613.846153846154,5112.307692307693,4696.923076923077,4672.820512820514,4595.384615384616,4526.153846153847
1243.6547,1.0,0.61117303,0.32558703,0.63680506,0,0.0,0.0,0.0,0.0,0.0,0,0,0.0,0.0,0,0,23.0,0.0,0.0,4952.307692307693,4235.384615384616,4845.128205128206,4783.076923076924,4336.410256410257,4634.358974358975,4798.461538461539,4730.256410256411,4613.846153846154,5068.205128205129,4683.589743589744,4627.6923076923085,4503.589743589744,4525.128205128206
1243.6547,1.0,0.61117303,0.32558703,0.63680506,0,0.0,0.0,0.0,0.0,0.0,0,0,0.0,0.0,0,0,23.0,0.0,0.0,4952.307692307693,4235.384615384616,4845.128205128206,4783.076923076924,4336.410256410257,4634.358974358975,4798.461538461539,4730.256410256411,4613.846153846154,5068.205128205129,4683.589743589744,4627.6923076923085,4503.589743589744,4525.128205128206
1244.2803,1.0,0.620201,0.32594293,0.6454202,0,0.0,0.0,0.0,0.0,0.0,0,0,0.0,0.0,0,0,103.0,0.0,414.0,4923.589743589744,4186.153846153847,4675.8974358974365,4687.6923076923085,4314.358974358975,4604.615384615385,4764.615384615386,4660.512820512821,4568.717948717949,4951.794871794872,4627.6923076923085,4490.256410256411,4357.948717948719,4568.717948717949
1244.2803,1.0,0.620201,0.32594293,0.6454202,0,0.0,0.0,0.0,0.0,0.0,0,0,0.0,0.0,0,0,103.0,0.0,414.0,4923.589743589744,4186.153846153847,4675.8974358974365,4687.6923076923085,4314.358974358975,4604.615384615385,4764.615384615386,4660.512820512821,4568.717948717949,4951.794871794872,4627.6923076923085,4490.256410256411,4357.948717948719,4568.717948717949
1244.7806,0.9489132,0.6283261,0.3291664,0.6444015,0,0.0,0.0,0.0,0.0,0.04333097,0,0,0.0,0.0,0,0,38.0,0.0,0.0,4893.333333333334,4150.256410256411,4573.333333333334,4631.282051282052,4326.666666666667,4611.794871794872,4769.743589743591,4682.051282051282,4535.8974358974365,4863.589743589744,4581.538461538462,4345.641025641026,4231.282051282052,4568.717948717949
1245.0309,0.9489132,0.6283261,0.3291664,0.6444015,0,0.0,0.0,0.0,0.0,0.06597509,0,0,0.0,0.0,0,0,70.0,0.0,537.0,4902.564102564103,4159.48717948718,4636.923076923077,4643.076923076924,4331.282051282052,4611.282051282052,4705.641025641026,4664.615384615386,4539.48717948718,4854.871794871796,4557.435897435898,4323.589743589744,4210.256410256411,4581.538461538462
1245.156,0.97454524,0.6356388,0.33341244,0.6394727,0,0.0,0.0,0.0,0.0,0.0,0,0,0.0,0.0,0,0,86.0,0.0,532.0,4892.820512820514,4187.179487179487,4693.846153846154,4649.2307692307695,4382.051282051282,4661.025641025642,4720.000000000001,4686.666666666667,4559.48717948718,4905.641025641026,4631.794871794872,4360.000000000001,4273.846153846154,4605.128205128206
1245.5314,0.97454524,0.6356388,0.33341244,0.6394727,0,0.0,0.0,0.0,0.0,0.02381624,0,0,0.0,0.0,0,0,5.0,0.0,515.0,4796.410256410257,4120.000000000001,4711.282051282052,4584.615384615385,4304.102564102564,4569.743589743591,4587.6923076923085,4551.794871794872,4537.435897435898,4858.461538461539,4566.153846153847,4309.743589743591,4274.358974358975,4539.48717948718
1245.7815,0.934685,0.64039797,0.34230742,0.6342972,0,0.0,0.0,0.0,0.0,0.01030898,0,0,0.0,0.0,0,0,37.0,0.0,0.0,4795.384615384616,4136.923076923077,4741.538461538462,4613.846153846154,4308.717948717949,4574.358974358975,4560.000000000001,4525.641025641026,4553.846153846154,4877.948717948719,4543.076923076924,4335.8974358974365,4313.333333333334,4522.051282051282
1246.0317,0.934685,0.64039797,0.34230742,0.6342972,0,0.0,0.0,0.0,0.0,0.21102758,0,0,0.0,0.0,0,0,69.0,0.0,515.0,4808.717948717949,4150.256410256411,4778.461538461539,4661.025641025642,4348.205128205129,4623.589743589744,4611.282051282052,4601.538461538462,4588.205128205129,4965.641025641026,4626.153846153847,4430.769230769231,4444.615384615385,4586.666666666667
1246.282,0.9373994,0.66974485,0.3522395,0.6256642,0,0.0,0.0,0.0,0.0,1.0,0,0,0.0,0.0,0,0,101.0,0.0,496.0,4721.025641025642,4154.358974358975,4773.333333333334,4652.820512820514,4276.410256410257,4590.256410256411,4594.358974358975,4604.102564102564,4596.923076923077,4978.974358974359,4595.8974358974365,4505.128205128206,4503.076923076924,4663.076923076924
1246.5322,0.9373994,0.66974485,0.3522395,0.6256642,0,0.0,0.0,0.0,0.0,0.7384778,0,0,0.0,0.0,0,0,4.0,0.0,498.0,4723.589743589744,4178.461538461539,4760.000000000001,4662.564102564103,4331.794871794872,4698.974358974359,4596.923076923077,4576.923076923077,4566.666666666667,4866.153846153847,4480.512820512821,4425.641025641026,4346.153846153847,4532.307692307693
1246.7823,0.87930626,0.6962234,0.3611779,0.61789405,0,0.0,0.0,0.0,0.0,0.5017588,0,0,0.0,0.0,0,0,36.0,0.0,0.0,4735.8974358974365,4127.6923076923085,4729.2307692307695,4649.743589743591,4273.333333333334,4569.743589743591,4638.974358974359,4602.051282051282,4568.205128205129,4922.564102564103,4600.512820512821,4526.153846153847,4384.615384615385,4530.256410256411
1247.0326,0.87930626,0.6962234,0.3611779,0.61789405,0,0.0,0.0,0.0,0.0,0.0,0,0,0.0,0.0,0,0,68.0,0.0,498.0,4747.179487179488,4113.846153846154,4698.461538461539,4629.743589743591,4237.948717948719,4535.8974358974365,4635.8974358974365,4592.820512820514,4558.461538461539,4893.846153846154,4566.666666666667,4530.769230769231,4357.948717948719,4558.461538461539
1247.1577,0.7717832,0.7200541,0.36933225,0.60744065,0,0.0,0.0,0.0,0.0,0.0,0,0,0.0,0.0,0,0,84.0,0.0,470.0,4752.307692307693,4089.23076923077,4677.948717948719,4622.051282051282,4250.256410256411,4535.8974358974365,4625.641025641026,4597.435897435898,4558.461538461539,4908.205128205129,4601.538461538462,4535.8974358974365,4374.871794871796,4581.025641025642
1247.5331,0.7717832,0.7200541,0.36933225,0.60744065,0,0.0,0.0,0.0,0.06165176,0.0,0,0,0.0,0.0,0,0,3.0,0.0,429.0,4800.000000000001,4060.0000000000005,4755.384615384616,4665.641025641026,4307.179487179487,4592.307692307693,4633.333333333334,4633.846153846154,4564.102564102564,4914.358974358975,4594.871794871796,4517.948717948719,4373.333333333334,4547.179487179488
1247.7832,0.7089287,0.7415017,0.37464103,0.5980421,0,0.0,0.0,0.0,0.019802146,0.0,0,0,0.0,0.0,0,0,35.0,0.0,0.0,4767.6923076923085,3987.692307692308,4672.820512820514,4595.384615384616,4267.6923076923085,4560.512820512821,4610.256410256411,4579.48717948718,4534.871794871796,4859.48717948718,4553.333333333334,4432.307692307693,4272.307692307693,4509.743589743591
1248.0334,0.7089287,0.7415017,0.37464103,0.5980421,0,0.0,0.0,0.0,0.023186248,0.0,0,0,0.0,0.0,0,0,67.0,0.0,429.0,4860.000000000001,4058.461538461539,4691.282051282052,4625.641025641026,4369.743589743591,4667.179487179488,4718.461538461539,4692.820512820514,4569.743589743591,4982.051282051283,4678.974358974359,4531.794871794872,4332.820512820514,4552.820512820514
1248.2837,0.7331833,0.76080453,0.3765931,0.5919629,0,0.0,0.0,0.0,0.0,0.11757574,0,0,0.0,0.0,0,0,99.0,0.0,412.0,4817.435897435898,4043.076923076924,4605.128205128206,4547.179487179488,4344.615384615385,4633.333333333334,4694.358974358975,4669.2307692307695,4553.333333333334,4931.282051282052,4636.410256410257,4493.333333333334,4288.717948717949,4486.153846153847
1248.5339,0.7331833,0.76080453,0.3765931,0.5919629,0,0.0,0.0,0.0,0.0,0.10594161,0,0,0.0,0.0,0,0,2.0,0.0,355.0,4723.076923076924,4073.8461538461543,4326.666666666667,4411.282051282052,4325.128205128206,4615.8974358974365,4644.615384615385,4608.717948717949,4503.076923076924,4736.923076923077,3442.564102564103,4304.615384615385,4293.333333333334,4476.923076923077
1248.784,0.71260613,0.77817714,0.37307253,0.5879831,0,0.0,0.0,0.0,0.0,0.0,0,0,0.0,0.23715523,0,0,34.0,0.0,0.0,4671.282051282052,4100.000000000001,4393.846153846154,4465.641025641026,4321.538461538462,4619.48717948718,4601.538461538462,4560.512820512821,4493.846153846154,4623.076923076924,3426.666666666667,4284.615384615385,4218.974358974359,4465.128205128206
1249.0343,0.71260613,0.77817714,0.37307253,0.5879831,0,0.0,0.0,0.0,0.0,0.0,0,0,0.0,0.33645588,0,0,66.0,0.0,355.0,4723.076923076924,4151.282051282052,4558.974358974359,4544.615384615385,4347.6923076923085,4641.025641025642,4632.820512820514,4585.641025641026,4536.410256410257,4810.769230769231,3800.512820512821,4407.179487179487,4312.820512820514,4475.384615384616
1249.2845,0.7338232,0.79381245,0.36909774,0.5844072,0,0.0,0.0,0.0,0.0,0.0,0,0,0.0,0.46379438,0,0,98.0,0.0,529.0,4776.410256410257,4155.384615384616,4643.076923076924,4567.6923076923085,4306.666666666667,4586.666666666667,4612.820512820514,4559.48717948718,4531.794871794872,4824.615384615386,4051.2820512820517,4436.410256410257,4322.051282051282,4478.461538461539
1249.5348,0.7338232,0.79381245,0.36909774,0.5844072,0,0.0,0.0,0.0,0.0,0.0,0,0,0.0,0.18374981,0,0,1.0,0.0,410.0,4763.589743589744,4165.128205128206,4662.051282051282,4566.153846153847,4306.666666666667,4585.641025641026,4589.743589743591,4550.256410256411,4534.871794871796,4855.8974358974365,4273.846153846154,4435.8974358974365,4336.923076923077,4481.025641025642
1249.785,0.67350906,0.8078842,0.3655132,0.581183,0,0.0,0.0,0.0,0.0,0.0,0,0,0.0,0.02291379,0,0,33.0,0.0,0.0,4796.923076923077,4123.589743589744,4635.8974358974365,4537.435897435898,4278.974358974359,4557.948717948719,4555.8974358974365,4511.282051282052,4523.589743589744,4862.051282051283,4588.205128205129,4402.564102564103,4290.256410256411,4480.512820512821
1250.0352,0.67350906,0.8078842,0.3655132,0.581183,0,0.0,0.0,0.0,0.0,0.0,0,0,0.0,0.08182172,0,0,65.0,0.0,410.0,4826.666666666667,4069.7435897435903,4580.512820512821,4492.820512820514,4244.615384615385,4520.000000000001,4497.435897435898,4461.538461538462,4493.333333333334,4800.512820512821,4615.384615384616,4380.000000000001,4281.025641025642,4445.128205128206
1250.2854,0.70842355,0.82054883,0.36228645,0.57828146,0,0.0,0.0,0.0,0.0,0.8340902,0,0,0.0,0.0,0,0,97.0,0.0,494.0,4864.102564102564,4040.0000000000005,4568.717948717949,4472.307692307693,4223.589743589744,4498.461538461539,4470.769230769231,4434.871794871796,4484.102564102564,4784.615384615386,4603.076923076924,4366.666666666667,4269.74358974359,4525.641025641026
1250.5356,0.70842355,0.82054883,0.36228645,0.57828146,0,0.0,0.0,0.0,0.0,0.9481051,0,0,0.0,0.0,0,0,0.0,0.0,505.0,4816.410256410257,4011.7948717948725,4530.256410256411,4422.051282051282,4203.589743589744,4483.589743589744,4442.051282051282,4411.794871794872,4473.846153846154,4789.2307692307695,4705.128205128206,4320.000000000001,4227.6923076923085,4562.051282051282
1250.7859,0.7509596,0.9000244,0.3593826,0.5756703,0,0.0,0.0,0.0,0.0,0.26403028,0,0,0.0,0.0,0,0,32.0,0.0,0.0,4784.615384615386,3993.333333333334,4518.974358974359,4405.128205128206,4208.717948717949,4482.564102564103,4448.205128205129,4407.6923076923085,4480.000000000001,4796.410256410257,4751.282051282052,4300.512820512821,4222.051282051282,4524.102564102564
1251.036,0.7509596,0.9000244,0.3593826,0.5756703,0,0.0,0.0,0.0,0.0,0.0,0,0,0.0,1.0,0,0,64.0,0.0,505.0,4716.923076923077,3963.076923076924,4464.615384615385,4360.000000000001,4236.410256410257,4518.461538461539,4398.974358974359,4333.333333333334,4427.179487179487,4665.641025641026,4385.641025641026,4145.128205128206,4115.8974358974365,4408.717948717949
1251.2863,0.83618593,0.97187954,0.35676858,0.57332045,0,0.0,0.0,0.0,0.0,0.0,0,0,0.0,0.9608963,0,0,96.0,0.0,467.0,4686.666666666667,3942.0512820512827,4437.948717948719,4362.564102564103,4212.307692307693,4507.6923076923085,4386.666666666667,4323.589743589744,4413.846153846154,4611.794871794872,4072.820512820513,4113.846153846154,4113.846153846154,4365.641025641026
1251.5365,0.83618593,0.97187954,0.35676858,0.57332045,0,0.0,0.0,0.0,0.0,0.0,0,0,0.0,0.15294811,0,0,128.0,0.0,467.0,4673.846153846154,3941.538461538462,4457.948717948719,4397.435897435898,4234.871794871796,4527.179487179488,4416.923076923077,4352.820512820514,4424.102564102564,4567.6923076923085,3890.2564102564106,4126.153846153847,4136.923076923077,4389.2307692307695
1251.7867,0.8313492,1.0,0.35441616,0.5712062,0,0.0,0.0,0.0,0.0,0.0,0,0,0.0,0.44715765,0,0,31.0,0.0,0.0,4688.205128205129,3958.461538461539,4476.923076923077,4409.743589743591,4220.000000000001,4515.384615384616,4431.282051282052,4358.974358974359,4412.820512820514,4560.512820512821,3742.564102564103,4125.641025641026,4159.48717948718,4421.538461538462
1252.0369,0.8313492,1.0,0.35441616,0.5712062,0,0.0,0.0,0.0,0.0,0.0,0,0,0.0,0.24971785,0,0,63.0,0.0,0.0,4648.205128205129,3941.538461538462,4449.2307692307695,4370.256410256411,4210.256410256411,4492.307692307693,4427.6923076923085,4357.435897435898,4403.076923076924,4575.384615384616,3852.307692307693,4131.794871794872,4146.153846153847,4445.641025641026
1252.2871,0.89475834,1.0,0.3523041,0.5693082,0,0.0,0.0,0.0,0.0,0.0,0,0,0.0,0.96981245,0,0,95.0,0.0,412.0,4616.410256410257,3911.2820512820517,4350.769230769231,4315.8974358974365,4209.2307692307695,4491.282051282052,4449.2307692307695,4387.179487179487,4392.307692307693,4608.205128205129,4028.205128205129,4167.6923076923085,4132.307692307693,4561.538461538462
1252.5374,0.89475834,1.0,0.3523041,0.5693082,0,0.0,0.0,0.0,0.0,0.104631476,0,0,0.0,0.0,0,0,127.0,0.0,412.0,4555.8974358974365,3860.512820512821,4136.410256410257,4201.538461538462,4166.666666666667,4440.000000000001,4475.384615384616,4445.641025641026,4346.666666666667,4617.435897435898,4468.205128205129,4086.1538461538466,3995.3846153846157,4572.307692307693
1252.7876,0.8059076,1.0,0.35040167,0.5675982,0,0.0,0.0,0.0,0.0,0.0,0,0,0.0,0.020740075,0,0,30.0,0.0,0.0,4478.974358974359,3821.0256410256416,4107.6923076923085,4174.358974358975,4154.358974358975,4428.205128205129,4476.923076923077,4478.974358974359,4331.794871794872,4646.666666666667,4592.307692307693,3963.076923076924,3983.076923076924,4563.076923076924
1253.0377,0.8059076,1.0,0.35040167,0.5675982,0,0.0,0.0,0.0,0.0,0.0,0,0,0.0,0.13523279,0,0,62.0,0.0,0.0,4384.615384615385,3857.435897435898,4305.128205128206,4276.923076923077,4232.307692307693,4521.025641025642,4409.2307692307695,4467.6923076923085,4389.743589743591,4782.051282051282,5234.358974358975,3921.0256410256416,4104.615384615385,4571.282051282052
1253.288,0.8083059,1.0,0.34869066,0.56605923,0,0.0,0.0,0.0,0.0,0.077965274,0,0,0.0,0.0,0,0,94.0,0.0,533.0,4324.102564102564,3833.333333333334,4501.025641025642,4351.794871794872,4324.102564102564,4632.820512820514,4281.538461538462,4365.641025641026,4393.846153846154,4767.6923076923085,5090.769230769231,3820.0000000000005,4256.410256410257,4490.256410256411
1253.5382,0.8083059,1.0,0.34869066,0.56605923,0,0.0,0.0,0.0,0.0,0.058317672,0,0,0.0,0.0,0,0,126.0,0.0,533.0,4377.435897435898,3888.717948717949,4686.666666666667,4443.589743589744,4390.769230769231,4705.128205128206,4254.871794871796,4334.358974358975,4411.794871794872,4796.923076923077,4931.282051282052,3891.2820512820517,4346.153846153847,4403.076923076924
1253.7885,0.76495326,1.0,0.3471508,0.56467444,0,0.0,0.0,0.0,0.057927188,0.0,0,0,0.0,0.0,0,0,29.0,0.0,0.0,4389.2307692307695,3941.0256410256416,4701.025641025642,4463.589743589744,4385.641025641026,4703.076923076924,4206.666666666667,4289.2307692307695,4420.000000000001,4800.000000000001,4861.025641025642,3934.8717948717954,4370.256410256411,4379.48717948718
1254.0386,0.76495326,1.0,0.3471508,0.56467444,0,0.0,0.0,0.0,0.10183154,0.0,0,0,0.0,0.0,0,0,61.0,0.0,0.0,4446.153846153847,3980.5128205128212,4714.871794871796,4492.820512820514,4380.512820512821,4693.333333333334,4247.6923076923085,4295.384615384616,4430.256410256411,4811.282051282052,4743.076923076924,4045.6410256410263,4439.48717948718,4360.000000000001
1254.2888,0.7459362,1.0,0.34576535,0.5634279,0,0.0,0.0,0.0,0.0,0.0,0,0,0.0,0.0,0,0,93.0,0.0,496.0,4526.666666666667,4003.589743589744,4761.538461538462,4537.435897435898,4353.846153846154,4658.461538461539,4305.128205128206,4333.846153846154,4451.794871794872,4851.794871794872,4725.641025641026,4190.769230769231,4477.948717948719,4364.615384615385
1254.2888,0.7459362,1.0,0.34576535,0.5634279,0,0.0,0.0,0.0,0.0,0.0,0,0,0.0,0.0,0,0,93.0,0.0,496.0,4526.666666666667,4003.589743589744,4761.538461538462,4537.435897435898,4353.846153846154,4658.461538461539,4305.128205128206,4333.846153846154,4451.794871794872,4851.794871794872,4725.641025641026,4190.769230769231,4477.948717948719,4364.615384615385
1254.6642,0.75773025,1.0,0.34451747,0.5623058,0,0.0,0.0,0.0,0.0,0.0,0,0,0.0,0.0,0,0,12.0,0.0,462.0,4632.307692307693,3986.1538461538466,4725.641025641026,4529.743589743591,4294.358974358975,4585.641025641026,4386.153846153847,4375.8974358974365,4460.000000000001,4864.615384615386,4678.461538461539,4311.282051282052,4466.666666666667,4380.000000000001
1254.6642,0.75773025,1.0,0.34451747,0.5623058,0,0.0,0.0,0.0,0.0,0.0,0,0,0.0,0.0,0,0,12.0,0.0,462.0,4632.307692307693,3986.1538461538466,4725.641025641026,4529.743589743591,4294.358974358975,4585.641025641026,4386.153846153847,4375.8974358974365,4460.000000000001,4864.615384615386,4678.461538461539,4311.282051282052,4466.666666666667,4380.000000000001
1255.1646,0.62449366,1.0,0.3433941,0.5643801,0,0.0,0.0,0.0,0.0,0.0,0,0,0.0,0.0,0,0,76.0,0.0,467.0,4671.282051282052,3954.8717948717954,4630.769230769231,4490.256410256411,4227.6923076923085,4510.256410256411,4431.794871794872,4365.128205128206,4442.051282051282,4768.205128205129,4569.743589743591,4402.051282051282,4335.384615384616,4415.384615384616
1255.1646,0.62449366,1.0,0.3433941,0.5643801,0,0.0,0.0,0.0,0.0,0.0,0,0,0.0,0.0,0,0,76.0,0.0,467.0,4671.282051282052,3954.8717948717954,4630.769230769231,4490.256410256411,4227.6923076923085,4510.256410256411,4431.794871794872,4365.128205128206,4442.051282051282,4768.205128205129,4569.743589743591,4402.051282051282,4335.384615384616,4415.384615384616
1255.7902,0.5627215,1.0,0.34127152,0.57119954,0,0.0,0.0,0.0,0.0,0.05077786,0,0,0.0,0.0,0,0,27.0,0.0,0.0,4626.666666666667,3907.1794871794878,4510.769230769231,4440.512820512821,4200.000000000001,4476.410256410257,4486.666666666667,4408.717948717949,4422.564102564103,4733.333333333334,4481.025641025642,4375.8974358974365,4223.589743589744,4449.2307692307695
1256.0404,0.5627215,1.0,0.34127152,0.57119954,0,0.0,0.0,0.0,0.0,0.00806998,0,0,0.0,0.0,0,0,59.0,0.0,0.0,4601.025641025642,3909.2307692307695,4457.948717948719,4429.2307692307695,4214.358974358975,4490.769230769231,4526.666666666667,4460.512820512821,4425.641025641026,4743.589743589744,4474.358974358975,4377.435897435898,4183.076923076924,4445.128205128206
1256.2905,0.49982417,1.0,0.3353224,0.5799343,0,0.0,0.0,0.0,0.0,0.005522927,0,0,0.0,0.0,0,0,91.0,0.0,413.0,4586.153846153847,3899.48717948718,4404.102564102564,4411.794871794872,4192.307692307693,4476.410256410257,4532.307692307693,4473.846153846154,4407.6923076923085,4714.358974358975,4437.435897435898,4354.358974358975,4148.205128205129,4423.589743589744
1256.5408,0.49982417,1.0,0.3353224,0.5799343,0,0.0,0.0,0.0,0.0,0.060670804,0,0,0.0,0.0,0,0,123.0,0.0,413.0,4620.000000000001,3900.0000000000005,4447.179487179487,4433.333333333334,4191.282051282052,4473.846153846154,4538.461538461539,4481.538461538462,4407.6923076923085,4717.948717948719,4431.282051282052,4351.282051282052,4156.923076923077,4429.2307692307695
1256.791,0.44022307,1.0,0.32684472,0.5888312,0,0.0,0.0,0.0,0.0,0.9079013,0,0,0.0,0.0,0,0,26.0,0.0,0.0,4616.410256410257,3915.3846153846157,4497.435897435898,4458.974358974359,4202.564102564103,4485.641025641026,4539.48717948718,4482.564102564103,4421.025641025642,4734.871794871796,4420.512820512821,4326.153846153847,4170.256410256411,4379.48717948718
1257.0413,0.44022307,1.0,0.32684472,0.5888312,0,0.0,0.0,0.0,0.0,0.26524124,0,0,0.0,0.0,0,0,58.0,0.0,0.0,4600.512820512821,3926.1538461538466,4521.538461538462,4462.051282051282,4200.000000000001,4476.410256410257,4511.794871794872,4460.000000000001,4413.333333333334,4724.102564102564,4422.564102564103,4302.051282051282,4191.282051282052,4372.820512820514
1257.2914,0.3631937,1.0,0.31921497,0.5958006,0,0.0,0.0,0.0,0.0,0.043177914,0,0,0.0,0.0,0,0,90.0,0.0,531.0,4599.48717948718,3916.9230769230776,4552.307692307693,4476.923076923077,4201.025641025642,4474.871794871796,4492.820512820514,4458.974358974359,4417.435897435898,4738.974358974359,4432.820512820514,4308.717948717949,4217.435897435898,4416.410256410257
1257.5416,0.3631937,1.0,0.31921497,0.5958006,0,0.0,0.0,0.0,0.0,0.27263704,0,0,0.0,0.0,0,0,122.0,0.0,531.0,4643.076923076924,3952.820512820513,4568.717948717949,4495.384615384616,4218.461538461539,4493.846153846154,4509.743589743591,4477.435897435898,4422.564102564103,4732.307692307693,4411.282051282052,4321.025641025642,4227.179487179487,4455.384615384616
1257.7919,0.3506614,1.0,0.31234848,0.60207164,1,0.0,0.0,0.0,0.0,0.11967584,0,0,0.0,0.0,0,0,25.0,0.0,0.0,4703.076923076924,4026.1538461538466,4616.923076923077,4553.333333333334,4286.153846153847,4570.769230769231,4602.564102564103,4570.769230769231,4445.641025641026,4811.794871794872,4490.256410256411,4377.948717948719,4312.307692307693,4497.948717948719
1258.0421,0.3506614,1.0,0.31234848,0.60207164,0,0.0,0.0,0.0,0.0,0.23419535,0,0,0.0,0.0,0,0,57.0,0.0,0.0,4666.666666666667,4011.2820512820517,4571.282051282052,4517.948717948719,4253.846153846154,4532.307692307693,4576.923076923077,4534.358974358975,4435.384615384616,4773.333333333334,4448.205128205129,4340.512820512821,4285.641025641026,4509.2307692307695
1258.2922,0.47773972,0.92960936,0.30451208,0.60665405,0,0.0,0.0,0.0,0.0,0.0,0,0,0.0,0.0,0,0,89.0,0.0,498.0,4694.871794871796,4034.358974358975,4601.538461538462,4539.48717948718,4278.974358974359,4565.641025641026,4588.717948717949,4550.256410256411,4442.564102564103,4778.461538461539,4445.641025641026,4346.666666666667,4292.307692307693,4569.2307692307695
1258.2922,0.47773972,0.92960936,0.30451208,0.60665405,0,0.0,0.0,0.0,0.0,0.0,0,0,0.0,0.0,0,0,89.0,0.0,498.0,4694.871794871796,4034.358974358975,4601.538461538462,4539.48717948718,4278.974358974359,4565.641025641026,4588.717948717949,4550.256410256411,4442.564102564103,4778.461538461539,4445.641025641026,4346.666666666667,4292.307692307693,4569.2307692307695
1258.7927,0.52844787,0.85315496,0.29852933,0.6085533,0,0.0,0.0,0.0,0.0,0.651541,0,0,0.0,0.0,0,0,24.0,0.0,0.0,4644.615384615385,4123.589743589744,4556.410256410257,4503.589743589744,4262.051282051282,4549.743589743591,4518.974358974359,4477.435897435898,4429.743589743591,4733.333333333334,4382.051282051282,4217.435897435898,4212.820512820514,4444.102564102564
1259.043,0.52844787,0.85315496,0.29852933,0.6085533,0,0.0,0.0,0.0,0.0,0.082038626,0,0,0.0,0.0,0,0,56.0,0.0,0.0,4644.102564102564,4134.871794871796,4570.769230769231,4475.8974358974365,4264.615384615385,4539.48717948718,4503.589743589744,4459.48717948718,4431.282051282052,4750.256410256411,4415.384615384616,4236.410256410257,4249.2307692307695,4478.974358974359
1259.2931,0.50880104,0.78434604,0.2940463,0.6102612,0,0.0,0.0,0.0,0.0,0.036436666,0,0,0.0,0.0,0,0,88.0,0.0,478.0,4640.000000000001,4168.205128205129,4548.717948717949,4456.923076923077,4253.333333333334,4536.923076923077,4483.589743589744,4444.102564102564,4428.205128205129,4749.743589743591,4404.615384615385,4242.051282051282,4249.2307692307695,4460.512820512821
1259.5433,0.50880104,0.78434604,0.2940463,0.6102612,0,0.0,0.0,0.0,0.0,0.06231965,0,0,0.0,0.0,0,0,120.0,0.0,478.0,4626.666666666667,4240.000000000001,4538.974358974359,4449.743589743591,4232.307692307693,4513.333333333334,4461.025641025642,4418.461538461539,4426.666666666667,4758.974358974359,4437.948717948719,4271.282051282052,4254.871794871796,4509.2307692307695
1259.7936,0.4674948,0.7626094,0.29168367,0.6117968,0,0.0,0.0,0.0,0.0,0.025103303,0,0,0.0,0.0,0,0,23.0,0.0,0.0,4655.8974358974365,4288.205128205129,4582.564102564103,4505.641025641026,4310.769230769231,4605.641025641026,4632.820512820514,4478.461538461539,4456.923076923077,4827.6923076923085,4470.256410256411,4320.512820512821,4295.8974358974365,4569.743589743591
1260.0751,0.4674948,0.7626094,0.29168367,0.6117968,0,0.0,0.0,0.0,0.0,0.0051720864,0,0,0.0,0.0,0,0,59.0,0.0,0.0,4631.282051282052,4216.410256410257,4550.769230769231,4495.384615384616,4297.435897435898,4591.282051282052,4595.8974358974365,4467.179487179487,4442.564102564103,4802.564102564103,4447.179487179487,4294.358974358975,4274.358974358975,4554.871794871796
1260.2941,0.5289973,0.7345507,0.28749472,0.6149508,0,0.0,0.0,0.0,0.0,0.06825854,0,0,0.0,0.0,0,0,87.0,0.0,413.0,4633.333333333334,4154.871794871796,4523.076923076924,4472.307692307693,4271.282051282052,4557.435897435898,4536.410256410257,4441.538461538462,4429.743589743591,4774.358974358975,4413.333333333334,4264.615384615385,4243.589743589744,4537.948717948719
1260.5442,0.5289973,0.7345507,0.28749472,0.6149508,0,0.0,0.0,0.0,0.0,0.14242823,0,0,0.0,0.0,0,0,119.0,0.0,413.0,4583.076923076924,4062.0512820512827,4427.179487179487,4397.948717948719,4208.717948717949,4493.846153846154,4457.948717948719,4369.743589743591,4396.923076923077,4702.051282051282,4343.589743589744,4193.333333333334,4161.538461538462,4452.820512820514
1260.7944,0.55595225,0.7060952,0.28524145,0.6179105,0,0.0,0.0,0.0,0.0,0.26292542,0,0,0.0,0.0,0,0,22.0,0.0,0.0,4598.461538461539,4032.820512820513,4436.410256410257,4394.358974358975,4199.48717948718,4485.128205128206,4426.666666666667,4356.923076923077,4394.871794871796,4698.461538461539,4338.461538461539,4216.410256410257,4154.871794871796,4463.076923076924
1260.9196,0.55595225,0.7060952,0.28524145,0.6179105,0,0.0,0.0,0.0,0.0,0.0,0,0,0.0,0.0,0,0,38.0,0.0,0.0,4604.102564102564,4029.23076923077,4443.589743589744,4391.794871794872,4201.538461538462,4491.282051282052,4430.769230769231,4359.48717948718,4396.923076923077,4702.051282051282,4339.48717948718,4215.384615384616,4157.948717948719,4471.282051282052
1261.2949,0.5286715,0.69290626,0.28707647,0.62057227,0,0.0,0.0,0.0,0.0,0.10463065,0,0,0.0,0.0,0,0,86.0,0.0,534.0,4578.974358974359,3976.9230769230776,4435.8974358974365,4367.6923076923085,4199.48717948718,4488.717948717949,4428.205128205129,4363.076923076924,4392.820512820514,4687.6923076923085,4281.025641025642,4209.2307692307695,4144.102564102564,4438.461538461539
1261.545,0.5286715,0.69290626,0.28707647,0.62057227,0,0.0,0.0,0.0,0.0,0.17726327,0,0,0.0,0.0,0,0,118.0,0.0,534.0,4585.641025641026,3950.7692307692314,4432.307692307693,4357.435897435898,4192.307692307693,4475.384615384616,4430.769230769231,4361.025641025642,4383.076923076924,4675.384615384616,4251.282051282052,4204.615384615385,4135.384615384616,4447.179487179487
1261.7953,0.5664227,0.68480194,0.2903957,0.6229659,0,0.0,0.0,0.0,0.0,0.06340035,0,0,0.0,0.0,0,0,21.0,0.0,0.0,4581.538461538462,3927.1794871794878,4423.589743589744,4343.076923076924,4189.74358974359,4476.923076923077,4426.153846153847,4363.076923076924,4382.051282051282,4678.461538461539,4269.2307692307695,4223.589743589744,4140.512820512821,4441.538461538462
1262.0455,0.5664227,0.68480194,0.2903957,0.6229659,0,0.0,0.0,0.0,0.0,0.33893397,0,0,0.0,0.0,0,0,53.0,0.0,0.0,4597.948717948719,3925.6410256410263,4420.000000000001,4337.948717948719,4184.102564102564,4474.358974358975,4427.179487179487,4356.923076923077,4373.333333333334,4666.153846153847,4295.8974358974365,4211.282051282052,4114.871794871796,4431.282051282052
1262.2958,0.55292803,0.6565137,0.29171687,0.62269276,0,0.0,0.0,0.0,0.0,0.0,0,0,0.0,0.0,0,0,85.0,0.0,499.0,4638.461538461539,3923.589743589744,4430.256410256411,4348.717948717949,4192.820512820514,4474.358974358975,4429.743589743591,4367.179487179487,4381.025641025642,4687.179487179488,4277.435897435898,4216.923076923077,4143.589743589744,4427.6923076923085
1262.2958,0.55292803,0.6565137,0.29171687,0.62269276,0,0.0,0.0,0.0,0.0,0.0,0,0,0.0,0.0,0,0,85.0,0.0,499.0,4638.461538461539,3923.589743589744,4430.256410256411,4348.717948717949,4192.820512820514,4474.358974358975,4429.743589743591,4367.179487179487,4381.025641025642,4687.179487179488,4277.435897435898,4216.923076923077,4143.589743589744,4427.6923076923085
1262.671,0.55356485,0.6562529,0.2886482,0.62150973,0,0.0,0.0,0.0,0.0,0.0,0,0,0.0,0.0,0,0,4.0,0.0,501.0,4749.2307692307695,3904.1025641025644,4455.384615384616,4376.410256410257,4204.615384615385,4494.871794871796,4461.025641025642,4396.410256410257,4392.307692307693,4717.948717948719,4308.717948717949,4255.384615384616,4171.794871794872,4440.512820512821
1262.671,0.55356485,0.6562529,0.2886482,0.62150973,0,0.0,0.0,0.0,0.0,0.0,0,0,0.0,0.0,0,0,4.0,0.0,501.0,4749.2307692307695,3904.1025641025644,4455.384615384616,4376.410256410257,4204.615384615385,4494.871794871796,4461.025641025642,4396.410256410257,4392.307692307693,4717.948717948719,4308.717948717949,4255.384615384616,4171.794871794872,4440.512820512821
1263.2966,0.55881554,0.66631305,0.28551564,0.62044346,0,0.0,0.0,0.0,0.0,0.31980878,0,0,0.0,0.0,0,0,84.0,0.0,483.0,4647.6923076923085,3878.9743589743593,4406.153846153847,4380.512820512821,4187.179487179487,4471.794871794872,4469.2307692307695,4421.538461538462,4380.000000000001,4709.2307692307695,4312.307692307693,4258.974358974359,4153.333333333334,4470.769230769231
1263.5468,0.55881554,0.66631305,0.28551564,0.62044346,0,0.0,0.0,0.0,0.0,0.09470635,0,0,0.0,0.0,0,0,116.0,0.0,483.0,4631.794871794872,3838.461538461539,4341.538461538462,4353.333333333334,4169.74358974359,4446.153846153847,4478.974358974359,4430.256410256411,4365.641025641026,4679.48717948718,4310.256410256411,4253.333333333334,4116.923076923077,4491.794871794872
1263.797,0.50375414,0.6716048,0.28349623,0.6194824,0,0.0,0.0,0.0,0.0,0.10993564,0,0,0.0,0.0,0,0,19.0,0.0,0.0,4616.410256410257,3847.1794871794878,4305.128205128206,4336.410256410257,4151.282051282052,4429.743589743591,4471.282051282052,4427.179487179487,4364.102564102564,4671.282051282052,4296.410256410257,4245.128205128206,4102.564102564103,4500.512820512821
1264.0472,0.50375414,0.6716048,0.28349623,0.6194824,0,0.0,0.0,0.0,0.0,0.88550204,0,0,0.0,0.0,0,0,51.0,0.0,0.0,4568.717948717949,3849.7435897435903,4319.48717948718,4330.256410256411,4138.461538461539,4414.871794871796,4443.589743589744,4408.717948717949,4356.923076923077,4668.717948717949,4292.820512820514,4230.769230769231,4121.538461538462,4494.358974358975
1264.2975,0.4432159,0.66850024,0.2816799,0.62181765,0,0.0,0.0,0.0,0.0,0.18941207,0,0,0.0,0.0,0,0,83.0,0.0,413.0,4600.512820512821,3877.435897435898,4402.051282051282,4365.128205128206,4151.794871794872,4426.153846153847,4435.384615384616,4405.641025641026,4363.076923076924,4683.589743589744,4304.615384615385,4239.48717948718,4163.076923076924,4458.461538461539
1264.5476,0.4432159,0.66850024,0.2816799,0.62181765,0,0.0,0.0,0.0,0.0,0.09404333,0,0,0.0,0.0,0,0,115.0,0.0,413.0,4634.871794871796,3912.820512820513,4483.076923076924,4412.307692307693,4187.179487179487,4462.564102564103,4443.589743589744,4412.307692307693,4382.564102564103,4716.410256410257,4326.666666666667,4248.717948717949,4188.205128205129,4475.8974358974365
1264.7979,0.42443004,0.6367434,0.2800464,0.62391907,0,0.0,0.0,0.0,0.0,0.027685909,0,0,0.0,0.0,0,0,18.0,0.0,0.0,4683.589743589744,3981.0256410256416,4574.871794871796,4464.102564102564,4233.333333333334,4512.307692307693,4464.615384615385,4450.256410256411,4413.846153846154,4786.666666666667,4381.025641025642,4300.000000000001,4276.410256410257,4491.282051282052
1264.923,0.42443004,0.6367434,0.2800464,0.62391907,0,0.0,0.0,0.0,0.0,0.0,0,0,0.0,0.0,0,0,34.0,0.0,0.0,4678.974358974359,3972.307692307693,4567.6923076923085,4456.923076923077,4214.871794871796,4499.48717948718,4449.2307692307695,4425.641025641026,4395.384615384616,4748.205128205129,4346.153846153847,4261.025641025642,4235.384615384616,4443.589743589744
1265.1732,0.45010522,0.6530678,0.283006,0.62615854,0,0.0,0.0,0.0,0.0,0.0,0,0,0.0,0.0,0,0,66.0,0.0,361.0,4660.512820512821,3984.615384615385,4584.102564102564,4470.256410256411,4216.923076923077,4502.564102564103,4426.666666666667,4406.153846153847,4396.923076923077,4748.205128205129,4350.256410256411,4278.461538461539,4244.615384615385,4402.564102564103
1265.1732,0.45010522,0.6530678,0.283006,0.62615854,0,0.0,0.0,0.0,0.0,0.0,0,0,0.0,0.0,0,0,66.0,0.0,361.0,4660.512820512821,3984.615384615385,4584.102564102564,4470.256410256411,4216.923076923077,4502.564102564103,4426.666666666667,4406.153846153847,4396.923076923077,4748.205128205129,4350.256410256411,4278.461538461539,4244.615384615385,4402.564102564103
1265.6736,0.46403307,0.7200197,0.2866936,0.6307393,0,0.0,0.0,0.0,0.0,0.0,0,0,0.0,0.0,0,0,1.0,0.0,416.0,4683.589743589744,3934.8717948717954,4487.6923076923085,4416.410256410257,4182.051282051282,4464.102564102564,4414.871794871796,4390.769230769231,4383.589743589744,4689.743589743591,4312.820512820514,4249.2307692307695,4188.717948717949,4417.435897435898
1265.6736,0.46403307,0.7200197,0.2866936,0.6307393,0,0.0,0.0,0.0,0.0,0.0,0,0,0.0,0.0,0,0,1.0,0.0,416.0,4683.589743589744,3934.8717948717954,4487.6923076923085,4416.410256410257,4182.051282051282,4464.102564102564,4414.871794871796,4390.769230769231,4383.589743589744,4689.743589743591,4312.820512820514,4249.2307692307695,4188.717948717949,4417.435897435898
1266.1741,0.46110687,0.8094347,0.29153278,0.63485914,0,0.0,0.0,0.0,0.0,0.0,0,0,0.0,0.0,0,0,65.0,0.0,416.0,4641.025641025642,3894.8717948717954,4410.769230769231,4381.538461538462,4158.461538461539,4443.076923076924,4445.128205128206,4418.461538461539,4371.794871794872,4681.025641025642,4311.282051282052,4246.666666666667,4153.333333333334,4409.2307692307695
1266.5494,0.46110687,0.8094347,0.29153278,0.63485914,0,0.0,0.0,0.0,0.0,0.67733467,0,0,0.0,0.0,0,0,113.0,0.0,502.0,4604.615384615385,3914.358974358975,4467.6923076923085,4445.128205128206,4183.589743589744,4467.179487179487,4448.205128205129,4443.076923076924,4394.358974358975,4710.256410256411,4332.820512820514,4253.846153846154,4192.820512820514,4416.410256410257
1266.7996,0.4191317,0.86207145,0.29855803,0.6365686,0,0.0,0.0,0.0,0.0,0.047625106,0,0,0.0,0.0,0,0,16.0,0.0,0.0,4611.282051282052,3908.205128205129,4503.589743589744,4456.410256410257,4198.461538461539,4488.717948717949,4429.2307692307695,4423.589743589744,4395.8974358974365,4724.102564102564,4353.846153846154,4277.948717948719,4228.717948717949,4409.2307692307695
1267.0498,0.4191317,0.86207145,0.29855803,0.6365686,0,0.0,0.0,0.0,0.0,0.0,0,0,0.0,0.0,0,0,48.0,0.0,0.0,4601.025641025642,3894.358974358975,4539.48717948718,4490.256410256411,4215.384615384616,4501.025641025642,4431.794871794872,4411.282051282052,4400.512820512821,4720.000000000001,4338.974358974359,4246.666666666667,4217.948717948719,4370.769230769231
1267.1749,0.36279336,0.8676413,0.30488145,0.6355362,0,0.0,0.0,0.0,0.0,0.0,0,0,0.0,0.0,0,0,64.0,0.0,512.0,4610.769230769231,3874.358974358975,4548.205128205129,4486.666666666667,4195.384615384616,4485.128205128206,4405.641025641026,4381.025641025642,4389.2307692307695,4701.538461538462,4323.076923076924,4209.74358974359,4209.74358974359,4356.923076923077
1267.1749,0.36279336,0.8676413,0.30488145,0.6355362,0,0.0,0.0,0.0,0.0,0.0,0,0,0.0,0.0,0,0,64.0,0.0,512.0,4610.769230769231,3874.358974358975,4548.205128205129,4486.666666666667,4195.384615384616,4485.128205128206,4405.641025641026,4381.025641025642,4389.2307692307695,4701.538461538462,4323.076923076924,4209.74358974359,4209.74358974359,4356.923076923077
1267.6753,0.35511687,0.8556915,0.31094024,0.6346051,0,0.0,0.0,0.0,0.0,0.0,0,0,0.0,0.0,0,0,128.0,0.0,485.0,4617.435897435898,3881.0256410256416,4565.641025641026,4497.435897435898,4224.102564102564,4509.743589743591,4424.102564102564,4393.333333333334,4398.461538461539,4725.641025641026,4355.384615384616,4233.333333333334,4230.769230769231,4362.564102564103
1267.6753,0.35511687,0.8556915,0.31094024,0.6346051,0,0.0,0.0,0.0,0.0,0.0,0,0,0.0,0.0,0,0,128.0,0.0,485.0,4617.435897435898,3881.0256410256416,4565.641025641026,4497.435897435898,4224.102564102564,4509.743589743591,4424.102564102564,4393.333333333334,4398.461538461539,4725.641025641026,4355.384615384616,4233.333333333334,4230.769230769231,4362.564102564103
1268.3009,0.31657308,0.8037489,0.31372273,0.632635,0,0.0,0.0,0.0,0.0,0.0053908145,0,0,0.0,0.0,0,0,79.0,0.0,416.0,4573.333333333334,3860.0000000000005,4276.410256410257,4426.666666666667,4183.076923076924,4461.538461538462,4535.8974358974365,4520.512820512821,4340.000000000001,4639.48717948718,4305.128205128206,4081.538461538462,4073.8461538461543,4397.435897435898
1268.5511,0.31657308,0.8037489,0.31372273,0.632635,0,0.0,0.0,0.0,0.0,0.045325596,0,0,0.0,0.0,0,0,111.0,0.0,416.0,4423.076923076924,3771.794871794872,4202.051282051282,4365.128205128206,4137.435897435898,4428.717948717949,4388.717948717949,4398.974358974359,4282.564102564103,4473.846153846154,4151.282051282052,3795.8974358974365,3962.0512820512827,4312.820512820514
1268.8013,0.42977408,0.7571937,0.31519258,0.62927425,0,0.0,0.0,0.0,0.0,0.0,0,0,0.0,0.0,0,0,14.0,0.0,535.0,4380.512820512821,3778.461538461539,4268.717948717949,4393.846153846154,4185.641025641026,4490.769230769231,4272.820512820514,4336.410256410257,4299.48717948718,4490.256410256411,4197.948717948719,3748.717948717949,4042.564102564103,4320.000000000001
1268.8013,0.42977408,0.7571937,0.31519258,0.62927425,0,0.0,0.0,0.0,0.0,0.0,0,0,0.0,0.0,0,0,14.0,0.0,535.0,4380.512820512821,3778.461538461539,4268.717948717949,4393.846153846154,4185.641025641026,4490.769230769231,4272.820512820514,4336.410256410257,4299.48717948718,4490.256410256411,4197.948717948719,3748.717948717949,4042.564102564103,4320.000000000001
1269.1766,0.49395522,0.715294,0.31338543,0.6253593,0,0.0,0.0,0.0,0.0,0.0,0,0,0.0,0.0,0,0,62.0,0.0,0.0,4424.102564102564,3781.538461538462,4434.871794871796,4470.769230769231,4243.076923076924,4560.512820512821,4214.871794871796,4280.000000000001,4325.128205128206,4546.153846153847,4248.205128205129,3760.0000000000005,4168.717948717949,4300.000000000001
1269.552,0.49395522,0.715294,0.31338543,0.6253593,0,0.0,0.0,0.0,0.0,0.08556728,0,0,0.0,0.0,0,0,110.0,0.0,535.0,4488.717948717949,3846.1538461538466,4570.256410256411,4522.564102564103,4232.307692307693,4537.435897435898,4204.102564102564,4273.846153846154,4353.333333333334,4628.717948717949,4294.358974358975,3934.8717948717954,4296.923076923077,4269.2307692307695
1269.6771,0.5500488,0.6775843,0.31158388,0.61871487,0,0.0,0.0,0.0,0.0,0.0,0,0,0.0,0.0,0,0,126.0,0.0,535.0,4536.923076923077,3866.1538461538466,4616.923076923077,4538.974358974359,4222.051282051282,4526.153846153847,4223.589743589744,4282.051282051282,4364.615384615385,4613.846153846154,4292.820512820514,4018.9743589743593,4315.384615384616,4259.48717948718
1269.6771,0.5500488,0.6775843,0.31158388,0.61871487,0,0.0,0.0,0.0,0.0,0.0,0,0,0.0,0.0,0,0,126.0,0.0,535.0,4536.923076923077,3866.1538461538466,4616.923076923077,4538.974358974359,4222.051282051282,4526.153846153847,4223.589743589744,4282.051282051282,4364.615384615385,4613.846153846154,4292.820512820514,4018.9743589743593,4315.384615384616,4259.48717948718
1270.1775,0.6493107,0.6436455,0.30830756,0.6134948,0,0.0,0.0,0.0,0.0,0.0,0,0,0.0,0.0,0,0,61.0,0.0,0.0,4601.538461538462,3978.461538461539,4725.128205128206,4597.435897435898,4241.025641025642,4539.48717948718,4361.538461538462,4372.307692307693,4425.128205128206,4773.333333333334,4385.641025641026,4321.025641025642,4376.923076923077,4329.2307692307695
1270.1775,0.6493107,0.6436455,0.30830756,0.6134948,0,0.0,0.0,0.0,0.0,0.0,0,0,0.0,0.0,0,0,61.0,0.0,0.0,4601.538461538462,3978.461538461539,4725.128205128206,4597.435897435898,4241.025641025642,4539.48717948718,4361.538461538462,4372.307692307693,4425.128205128206,4773.333333333334,4385.641025641026,4321.025641025642,4376.923076923077,4329.2307692307695
1270.678,0.68970567,0.61310065,0.30225763,0.61204565,0,0.0,0.0,0.0,0.0,0.0,0,0,0.0,0.0,0,0,125.0,0.0,501.0,4664.615384615386,4015.8974358974365,4708.205128205129,4587.179487179488,4231.794871794872,4526.666666666667,4456.923076923077,4430.256410256411,4442.564102564103,4825.128205128206,4442.564102564103,4442.051282051282,4363.076923076924,4339.48717948718
1270.678,0.68970567,0.61310065,0.30225763,0.61204565,0,0.0,0.0,0.0,0.0,0.0,0,0,0.0,0.0,0,0,125.0,0.0,501.0,4664.615384615386,4015.8974358974365,4708.205128205129,4587.179487179488,4231.794871794872,4526.666666666667,4456.923076923077,4430.256410256411,4442.564102564103,4825.128205128206,4442.564102564103,4442.051282051282,4363.076923076924,4339.48717948718
1271.1783,0.7244075,0.63194823,0.29660538,0.6114589,0,0.0,0.0,0.0,0.0,0.0,0,0,0.0,0.0,0,0,60.0,0.0,0.0,4654.871794871796,3987.1794871794878,4616.923076923077,4535.384615384616,4187.179487179487,4514.871794871796,4490.256410256411,4448.205128205129,4444.615384615385,4809.743589743591,4430.256410256411,4400.000000000001,4303.076923076924,4331.794871794872
1271.1783,0.7244075,0.63194823,0.29660538,0.6114589,0,0.0,0.0,0.0,0.0,0.0,0,0,0.0,0.0,0,0,60.0,0.0,0.0,4654.871794871796,3987.1794871794878,4616.923076923077,4535.384615384616,4187.179487179487,4514.871794871796,4490.256410256411,4448.205128205129,4444.615384615385,4809.743589743591,4430.256410256411,4400.000000000001,4303.076923076924,4331.794871794872
1271.7101,0.73118925,0.65163904,0.29234225,0.608535,0,0.0,0.0,0.0,0.0,0.0,0,0,0.0,0.0,0,0,128.0,0.0,487.0,4685.641025641026,3956.9230769230776,4505.641025641026,4475.8974358974365,4021.0256410256416,4542.564102564103,4555.384615384616,4499.48717948718,4450.769230769231,4827.179487179488,4440.000000000001,4408.717948717949,4273.333333333334,4365.128205128206
1271.7101,0.73118925,0.65163904,0.29234225,0.608535,0,0.0,0.0,0.0,0.0,0.0,0,0,0.0,0.0,0,0,128.0,0.0,487.0,4685.641025641026,3956.9230769230776,4505.641025641026,4475.8974358974365,4021.0256410256416,4542.564102564103,4555.384615384616,4499.48717948718,4450.769230769231,4827.179487179488,4440.000000000001,4408.717948717949,4273.333333333334,4365.128205128206
1272.2104,0.7333025,0.6590003,0.29078642,0.6058917,0,0.0,0.0,0.0,0.0,0.0,0,0,0.0,0.0,0,1,63.0,0.0,0.0,4713.846153846154,3996.410256410257,4522.564102564103,4509.743589743591,4159.48717948718,4602.051282051282,4640.000000000001,4615.8974358974365,4490.769230769231,4911.282051282052,4516.410256410257,4506.666666666667,4343.076923076924,4449.2307692307695
1272.5546,0.7333025,0.6590003,0.29078642,0.6058917,0,0.0,0.0,0.0,0.0,0.0,0,0,0.0,0.0,0,0,107.0,0.0,420.0,4709.2307692307695,3998.9743589743593,4563.076923076924,4558.461538461539,4155.384615384616,4601.025641025642,4592.820512820514,4566.666666666667,4474.358974358975,4862.564102564103,4474.358974358975,4443.076923076924,4295.384615384616,4409.2307692307695
1272.6797,0.78027815,0.6698056,0.29097852,0.6035129,0,0.0,0.0,0.0,0.0,0.0,0,0,0.0,0.0,0,0,123.0,0.0,420.0,4719.48717948718,3998.9743589743593,4597.435897435898,4569.2307692307695,4153.846153846154,4583.076923076924,4576.923076923077,4553.333333333334,4472.820512820514,4864.615384615386,4490.769230769231,4470.256410256411,4316.923076923077,4455.8974358974365
1272.6797,0.78027815,0.6698056,0.29097852,0.6035129,0,0.0,0.0,0.0,0.0,0.0,0,0,0.0,0.0,0,0,123.0,0.0,420.0,4719.48717948718,3998.9743589743593,4597.435897435898,4569.2307692307695,4153.846153846154,4583.076923076924,4576.923076923077,4553.333333333334,4472.820512820514,4864.615384615386,4490.769230769231,4470.256410256411,4316.923076923077,4455.8974358974365
1273.18,0.7647224,0.6980932,0.29522333,0.59837466,0,0.0,0.0,0.0,0.0,0.0,0,0,0.0,0.0,0,0,58.0,0.0,0.0,4718.461538461539,4047.1794871794878,4657.435897435898,4595.8974358974365,4229.74358974359,4604.615384615385,4576.923076923077,4529.743589743591,4474.871794871796,4865.128205128206,4498.461538461539,4420.512820512821,4318.461538461539,4434.358974358975
1273.18,0.7647224,0.6980932,0.29522333,0.59837466,0,0.0,0.0,0.0,0.0,0.0,0,0,0.0,0.0,0,0,58.0,0.0,0.0,4718.461538461539,4047.1794871794878,4657.435897435898,4595.8974358974365,4229.74358974359,4604.615384615385,4576.923076923077,4529.743589743591,4474.871794871796,4865.128205128206,4498.461538461539,4420.512820512821,4318.461538461539,4434.358974358975
1273.6805,0.828213,0.72363454,0.2990463,0.59374964,0,0.0,0.0,0.0,0.0,0.0,0,0,0.0,0.0,0,0,122.0,0.0,535.0,4747.6923076923085,4045.6410256410263,4662.564102564103,4567.179487179488,4274.358974358975,4618.974358974359,4567.6923076923085,4521.025641025642,4475.8974358974365,4866.666666666667,4500.000000000001,4410.769230769231,4317.435897435898,4441.538461538462
1273.6805,0.828213,0.72363454,0.2990463,0.59374964,0,0.0,0.0,0.0,0.0,0.0,0,0,0.0,0.0,0,0,122.0,0.0,535.0,4747.6923076923085,4045.6410256410263,4662.564102564103,4567.179487179488,4274.358974358975,4618.974358974359,4567.6923076923085,4521.025641025642,4475.8974358974365,4866.666666666667,4500.000000000001,4410.769230769231,4317.435897435898,4441.538461538462
1274.1809,0.8489475,0.7466217,0.3024877,0.58958447,0,0.0,0.0,0.0,0.0,0.0,0,0,0.0,0.0,0,0,57.0,0.0,0.0,4731.794871794872,4011.2820512820517,4611.282051282052,4520.000000000001,4256.923076923077,4577.435897435898,4537.948717948719,4476.923076923077,4460.000000000001,4810.769230769231,4455.8974358974365,4361.025641025642,4265.128205128206,4482.564102564103
1274.1809,0.8489475,0.7466217,0.3024877,0.58958447,0,0.0,0.0,0.0,0.0,0.0,0,0,0.0,0.0,0,0,57.0,0.0,0.0,4731.794871794872,4011.2820512820517,4611.282051282052,4520.000000000001,4256.923076923077,4577.435897435898,4537.948717948719,4476.923076923077,4460.000000000001,4810.769230769231,4455.8974358974365,4361.025641025642,4265.128205128206,4482.564102564103
1274.6814,0.85381925,0.76731026,0.30558375,0.5858352,0,0.0,0.0,0.0,0.0,0.0,0,0,0.0,0.0,0,0,121.0,0.0,499.0,4678.974358974359,3977.435897435898,4549.2307692307695,4517.435897435898,4244.102564102564,4583.076923076924,4506.153846153847,4446.153846153847,4454.871794871796,4780.000000000001,4415.8974358974365,4305.641025641026,4233.846153846154,4471.282051282052
1274.6814,0.85381925,0.76731026,0.30558375,0.5858352,0,0.0,0.0,0.0,0.0,0.0,0,0,0.0,0.0,0,0,121.0,0.0,499.0,4678.974358974359,3977.435897435898,4549.2307692307695,4517.435897435898,4244.102564102564,4583.076923076924,4506.153846153847,4446.153846153847,4454.871794871796,4780.000000000001,4415.8974358974365,4305.641025641026,4233.846153846154,4471.282051282052
1275.1818,0.84328556,0.7859299,0.3083708,0.57852876,0,0.0,0.0,0.0,0.0,0.0,0,0,0.0,0.0,0,0,56.0,0.0,0.0,4754.358974358975,4028.205128205129,4607.179487179488,4624.102564102564,4274.358974358975,4605.641025641026,4556.410256410257,4504.615384615385,4484.102564102564,4845.641025641026,4469.2307692307695,4353.846153846154,4288.717948717949,4507.179487179488
1275.1818,0.84328556,0.7859299,0.3083708,0.57852876,0,0.0,0.0,0.0,0.0,0.0,0,0,0.0,0.0,0,0,56.0,0.0,0.0,4754.358974358975,4028.205128205129,4607.179487179488,4624.102564102564,4274.358974358975,4605.641025641026,4556.410256410257,4504.615384615385,4484.102564102564,4845.641025641026,4469.2307692307695,4353.846153846154,4288.717948717949,4507.179487179488
1275.6823,0.83689046,0.778127,0.30786055,0.5719536,0,0.0,0.0,0.0,0.0,0.0,0,0,0.0,0.0,0,0,120.0,0.0,483.0,4717.435897435898,3994.358974358975,4505.128205128206,4566.153846153847,4210.769230769231,4532.307692307693,4474.871794871796,4412.307692307693,4431.282051282052,4746.666666666667,4390.256410256411,4247.6923076923085,4188.717948717949,4441.025641025642
1275.6823,0.83689046,0.778127,0.30786055,0.5719536,0,0.0,0.0,0.0,0.0,0.0,0,0,0.0,0.0,0,0,120.0,0.0,483.0,4717.435897435898,3994.358974358975,4505.128205128206,4566.153846153847,4210.769230769231,4532.307692307693,4474.871794871796,4412.307692307693,4431.282051282052,4746.666666666667,4390.256410256411,4247.6923076923085,4188.717948717949,4441.025641025642
1276.1826,0.84599525,0.7541421,0.30360052,0.5682861,0,0.0,0.0,0.0,0.0,0.0,0,0,0.0,0.0,0,0,55.0,0.0,0.0,4772.820512820514,4035.3846153846157,4544.102564102564,4535.8974358974365,4249.2307692307695,4560.512820512821,4505.128205128206,4449.2307692307695,4443.589743589744,4797.948717948719,4443.076923076924,4286.153846153847,4233.333333333334,4531.794871794872
1276.1826,0.84599525,0.7541421,0.30360052,0.5682861,0,0.0,0.0,0.0,0.0,0.0,0,0,0.0,0.0,0,0,55.0,0.0,0.0,4772.820512820514,4035.3846153846157,4544.102564102564,4535.8974358974365,4249.2307692307695,4560.512820512821,4505.128205128206,4449.2307692307695,4443.589743589744,4797.948717948719,4443.076923076924,4286.153846153847,4233.333333333334,4531.794871794872
1276.8082,0.8433049,0.7505095,0.2989526,0.56498516,0,0.0,0.0,0.0,0.0,0.37176785,0,0,0.0,0.0,0,0,6.0,0.0,546.0,4751.794871794872,4021.0256410256416,4533.846153846154,4478.461538461539,4262.564102564103,4561.538461538462,4508.717948717949,4442.564102564103,4437.948717948719,4786.153846153847,4411.282051282052,4284.102564102564,4221.025641025642,4490.256410256411
1277.0585,0.8433049,0.7505095,0.2989526,0.56498516,0,0.0,0.0,0.0,0.0,0.6246251,0,0,0.0,0.0,0,0,38.0,0.0,0.0,4721.538461538462,3986.666666666667,4515.8974358974365,4456.923076923077,4261.538461538462,4553.333333333334,4500.512820512821,4434.871794871796,4437.948717948719,4774.871794871796,4404.615384615385,4279.48717948718,4203.076923076924,4472.307692307693
1277.3086,0.8172572,0.74932516,0.29118997,0.56834745,0,0.0,0.0,0.0,0.0,0.29801416,0,0,0.0,0.0,0,0,70.0,0.0,546.0,4687.6923076923085,3945.1282051282055,4483.589743589744,4440.512820512821,4252.820512820514,4558.974358974359,4506.153846153847,4431.794871794872,4436.410256410257,4792.307692307693,4428.205128205129,4295.384615384616,4242.564102564103,4473.846153846154
1277.5588,0.8172572,0.74932516,0.29118997,0.56834745,0,0.0,0.0,0.0,0.0,0.2972526,0,0,0.0,0.0,0,0,102.0,0.0,535.0,4701.538461538462,3922.564102564103,4476.923076923077,4430.769230769231,4249.2307692307695,4550.769230769231,4507.6923076923085,4445.128205128206,4438.974358974359,4782.564102564103,4412.307692307693,4283.076923076924,4231.282051282052,4462.051282051282
1277.8091,0.7719506,0.7307417,0.2806261,0.57207274,0,0.0,0.0,0.0,0.0,0.23100932,0,0,0.0,0.0,0,0,5.0,0.0,517.0,4656.410256410257,3897.435897435898,4467.6923076923085,4418.461538461539,4228.205128205129,4529.743589743591,4480.512820512821,4423.589743589744,4423.589743589744,4768.717948717949,4391.794871794872,4281.538461538462,4221.025641025642,4472.307692307693
1278.0593,0.7719506,0.7307417,0.2806261,0.57207274,0,0.0,0.0,0.0,0.0,0.18700539,0,0,0.0,0.0,0,0,37.0,0.0,0.0,4653.333333333334,3907.1794871794878,4491.282051282052,4429.2307692307695,4225.641025641026,4522.051282051282,4473.846153846154,4411.282051282052,4423.076923076924,4747.179487179488,4339.48717948718,4247.6923076923085,4167.179487179487,4455.8974358974365
1278.286,0.76802653,0.71849084,0.27095708,0.58200324,0,0.0,0.0,0.0,0.0,0.0,0,0,0.0,0.0,0,0,69.0,0.0,517.0,4657.435897435898,3914.8717948717954,4489.743589743591,4428.717948717949,4210.256410256411,4516.923076923077,4464.102564102564,4400.512820512821,4418.461538461539,4788.205128205129,4347.6923076923085,4225.128205128206,4155.8974358974365,4478.974358974359
1278.286,0.76802653,0.71849084,0.27095708,0.58200324,0,0.0,0.0,0.0,0.0,0.0,0,0,0.0,0.0,0,0,69.0,0.0,517.0,4657.435897435898,3914.8717948717954,4489.743589743591,4428.717948717949,4210.256410256411,4516.923076923077,4464.102564102564,4400.512820512821,4418.461538461539,4788.205128205129,4347.6923076923085,4225.128205128206,4155.8974358974365,4478.974358974359
1278.6614,0.65550894,0.719774,0.26225668,0.600034,0,0.0,0.0,0.0,0.0,0.0,0,0,0.0,0.0,0,0,117.0,0.0,502.0,4669.2307692307695,3913.333333333334,4476.923076923077,4412.307692307693,4207.179487179487,4506.666666666667,4437.435897435898,4379.48717948718,4408.205128205129,4750.256410256411,4342.051282051282,4219.48717948718,4145.128205128206,4493.333333333334
1278.6614,0.65550894,0.719774,0.26225668,0.600034,0,0.0,0.0,0.0,0.0,0.0,0,0,0.0,0.0,0,0,117.0,0.0,502.0,4669.2307692307695,3913.333333333334,4476.923076923077,4412.307692307693,4207.179487179487,4506.666666666667,4437.435897435898,4379.48717948718,4408.205128205129,4750.256410256411,4342.051282051282,4219.48717948718,4145.128205128206,4493.333333333334
1279.1617,0.63294894,0.724185,0.25442824,0.616259,0,0.0,0.0,0.0,0.0,0.0,0,0,0.0,0.0,0,0,52.0,0.0,0.0,4662.051282051282,3918.9743589743593,4487.179487179488,4417.435897435898,4201.538461538462,4496.923076923077,4425.641025641026,4378.461538461539,4397.948717948719,4727.6923076923085,4332.820512820514,4232.820512820514,4149.2307692307695,4487.6923076923085
1279.1617,0.63294894,0.724185,0.25442824,0.616259,0,0.0,0.0,0.0,0.0,0.0,0,0,0.0,0.0,0,0,52.0,0.0,0.0,4662.051282051282,3918.9743589743593,4487.179487179488,4417.435897435898,4201.538461538462,4496.923076923077,4425.641025641026,4378.461538461539,4397.948717948719,4727.6923076923085,4332.820512820514,4232.820512820514,4149.2307692307695,4487.6923076923085
1279.6622,0.61163,0.6973476,0.25199744,0.6308576,0,0.0,0.0,0.0,0.0,0.0,0,0,0.0,0.0,0,0,116.0,0.0,483.0,4593.846153846154,3894.358974358975,4447.179487179487,4397.948717948719,4171.282051282052,4473.333333333334,4423.589743589744,4395.384615384616,4378.461538461539,4629.2307692307695,4286.666666666667,4216.923076923077,4128.205128205129,4526.666666666667
1279.6622,0.61163,0.6973476,0.25199744,0.6308576,0,0.0,0.0,0.0,0.0,0.0,0,0,0.0,0.0,0,0,116.0,0.0,483.0,4593.846153846154,3894.358974358975,4447.179487179487,4397.948717948719,4171.282051282052,4473.333333333334,4423.589743589744,4395.384615384616,4378.461538461539,4629.2307692307695,4286.666666666667,4216.923076923077,4128.205128205129,4526.666666666667
1280.1626,0.6791633,0.67396134,0.2515824,0.64005744,0,0.0,0.0,0.0,0.0,0.0,0,0,0.0,0.0,0,0,51.0,0.0,0.0,4585.641025641026,3877.9487179487182,4355.8974358974365,4362.051282051282,4155.8974358974365,4447.6923076923085,4427.6923076923085,4414.871794871796,4366.666666666667,4610.256410256411,4232.307692307693,4217.435897435898,4098.461538461539,4556.923076923077
1280.1626,0.6791633,0.67396134,0.2515824,0.64005744,0,0.0,0.0,0.0,0.0,0.0,0,0,0.0,0.0,0,0,51.0,0.0,0.0,4585.641025641026,3877.9487179487182,4355.8974358974365,4362.051282051282,4155.8974358974365,4447.6923076923085,4427.6923076923085,4414.871794871796,4366.666666666667,4610.256410256411,4232.307692307693,4217.435897435898,4098.461538461539,4556.923076923077
1280.7882,0.6564196,0.62880313,0.25201908,0.64645344,0,0.0,0.0,0.0,0.0,0.07625938,0,0,0.0,0.0,0,0,2.0,0.0,361.0,4610.256410256411,3887.1794871794878,4278.974358974359,4336.923076923077,4155.384615384616,4452.307692307693,4474.871794871796,4445.128205128206,4371.794871794872,4645.641025641026,4266.666666666667,4236.410256410257,4095.8974358974365,4585.128205128206
1281.0385,0.6564196,0.62880313,0.25201908,0.64645344,0,0.0,0.0,0.0,0.0,0.14456987,0,0,0.0,0.0,0,0,34.0,0.0,0.0,4614.871794871796,3888.205128205129,4285.641025641026,4330.256410256411,4157.435897435898,4456.923076923077,4442.051282051282,4420.000000000001,4370.769230769231,4637.435897435898,4268.205128205129,4190.256410256411,4098.974358974359,4610.769230769231
1281.2886,0.6522638,0.59131044,0.25241393,0.6449078,0,0.0,0.0,0.0,0.0,0.023422949,0,0,0.0,0.0,0,0,66.0,0.0,361.0,4656.923076923077,3930.2564102564106,4376.923076923077,4366.153846153847,4186.666666666667,4480.000000000001,4431.794871794872,4417.948717948719,4381.538461538462,4663.076923076924,4308.205128205129,4193.333333333334,4154.871794871796,4626.666666666667
