timestamp,excitement,frustration,meditation,engagementBoredom,blink,clench,laugh,smile,eyebrow,furrowBrow,lookLeft,lookRight,smirkLeft,smirkRight,winkLeft,winkRight,eeg0,eeg1,eeg2,eeg3,eeg4,eeg5,eeg6,eeg7,eeg8,eeg9,eeg10,eeg11,eeg12,eeg13,eeg14,eeg15,eeg16
1714.5359,0.8341823,0.85679716,0.27267757,0.57072973,0,0.0,0.0,0.0,0.0,0.0,0,0,0.0,0.0,0,0,4.0,0.0,507.0,4874.358974358975,4103.589743589744,4775.8974358974365,4580.512820512821,4297.435897435898,4550.769230769231,4691.282051282052,4684.102564102564,4372.820512820514,4814.358974358975,4462.051282051282,4170.256410256411,4349.743589743591,4422.051282051282
1714.5359,0.8341823,0.85679716,0.27267757,0.57072973,0,0.0,0.0,0.0,0.0,0.0,0,0,0.0,0.0,0,0,4.0,0.0,507.0,4874.358974358975,4103.589743589744,4775.8974358974365,4580.512820512821,4297.435897435898,4550.769230769231,4691.282051282052,4684.102564102564,4372.820512820514,4814.358974358975,4462.051282051282,4170.256410256411,4349.743589743591,4422.051282051282
1715.0364,0.9371903,0.8864018,0.27875847,0.5688774,0,0.0,0.0,0.0,0.0,0.0,0,0,0.0,0.0,0,0,68.0,0.0,507.0,4855.8974358974365,4138.461538461539,4806.153846153847,4680.512820512821,4304.102564102564,4573.333333333334,4672.307692307693,4668.205128205129,4418.974358974359,4884.615384615386,4607.6923076923085,4196.923076923077,4398.461538461539,4422.564102564103
1715.2866,0.9371903,0.8864018,0.27875847,0.5688774,0,0.0,0.0,0.0,0.0,0.0,0,0,0.0,0.0,0,0,100.0,0.0,472.0,4816.410256410257,4144.102564102564,4804.615384615386,4669.2307692307695,4271.282051282052,4547.6923076923085,4691.794871794872,4682.564102564103,4450.769230769231,4922.564102564103,4637.948717948719,4239.48717948718,4422.564102564103,4433.846153846154
1715.5367,1.0,0.91304594,0.2842309,0.56721,0,0.0,0.0,0.0,0.0,0.0,0,0,0.0,0.0,0,0,3.0,0.0,435.0,4805.128205128206,4137.948717948719,4797.948717948719,4642.564102564103,4220.000000000001,4487.179487179488,4638.974358974359,4637.948717948719,4459.48717948718,4910.256410256411,4609.2307692307695,4277.948717948719,4422.564102564103,4428.717948717949
1715.5367,1.0,0.91304594,0.2842309,0.56721,0,0.0,0.0,0.0,0.0,0.0,0,0,0.0,0.0,0,0,3.0,0.0,435.0,4805.128205128206,4137.948717948719,4797.948717948719,4642.564102564103,4220.000000000001,4487.179487179488,4638.974358974359,4637.948717948719,4459.48717948718,4910.256410256411,4609.2307692307695,4277.948717948719,4422.564102564103,4428.717948717949
1716.0372,1.0,0.9370257,0.28915682,0.5674172,0,0.0,0.0,0.0,0.0,0.0,0,0,0.0,0.0,0,0,67.0,0.0,435.0,4769.743589743591,4090.2564102564106,4755.384615384616,4579.48717948718,4181.538461538462,4444.102564102564,4589.743589743591,4575.384615384616,4460.000000000001,4868.717948717949,4559.48717948718,4312.820512820514,4401.538461538462,4447.6923076923085
1716.0372,1.0,0.9370257,0.28915682,0.5674172,0,0.0,0.0,0.0,0.0,0.0,0,0,0.0,0.0,0,0,67.0,0.0,435.0,4769.743589743591,4090.2564102564106,4755.384615384616,4579.48717948718,4181.538461538462,4444.102564102564,4589.743589743591,4575.384615384616,4460.000000000001,4868.717948717949,4559.48717948718,4312.820512820514,4401.538461538462,4447.6923076923085
1716.5376,1.0,0.95860755,0.2971487,0.5737739,0,0.0,0.0,0.0,0.0,0.0,0,0,0.0,0.0,0,0,2.0,0.0,358.0,4732.307692307693,4049.7435897435903,4652.820512820514,4498.461538461539,4174.358974358975,4434.871794871796,4516.923076923077,4498.974358974359,4445.128205128206,4774.358974358975,4472.307692307693,4267.179487179487,4313.333333333334,4421.538461538462
1716.5376,1.0,0.95860755,0.2971487,0.5737739,0,0.0,0.0,0.0,0.0,0.0,0,0,0.0,0.0,0,0,2.0,0.0,358.0,4732.307692307693,4049.7435897435903,4652.820512820514,4498.461538461539,4174.358974358975,4434.871794871796,4516.923076923077,4498.974358974359,4445.128205128206,4774.358974358975,4472.307692307693,4267.179487179487,4313.333333333334,4421.538461538462
1717.0381,0.9799164,0.97803116,0.30915654,0.5850889,0,0.0,0.0,0.0,0.0,0.0,0,0,0.0,0.0,0,0,66.0,0.0,358.0,4628.205128205129,3981.538461538462,4449.743589743591,4392.820512820514,4219.48717948718,4497.948717948719,4464.615384615385,4436.410256410257,4375.8974358974365,4640.000000000001,4331.794871794872,4160.000000000001,4114.871794871796,4394.871794871796
1717.0381,0.9799164,0.97803116,0.30915654,0.5850889,0,0.0,0.0,0.0,0.0,0.0,0,0,0.0,0.0,0,0,66.0,0.0,358.0,4628.205128205129,3981.538461538462,4449.743589743591,4392.820512820514,4219.48717948718,4497.948717948719,4464.615384615385,4436.410256410257,4375.8974358974365,4640.000000000001,4331.794871794872,4160.000000000001,4114.871794871796,4394.871794871796
1717.5386,0.93863505,0.99551237,0.31996396,0.5953531,0,0.0,0.0,0.0,0.0,0.0,0,0,0.0,0.0,0,0,1.0,0.0,413.0,4618.461538461539,3949.2307692307695,4334.871794871796,4329.2307692307695,4283.589743589744,4578.461538461539,4477.435897435898,4463.589743589744,4335.8974358974365,4592.307692307693,4321.025641025642,4115.8974358974365,4003.076923076924,4397.948717948719
1717.5386,0.93863505,0.99551237,0.31996396,0.5953531,0,0.0,0.0,0.0,0.0,0.0,0,0,0.0,0.0,0,0,1.0,0.0,413.0,4618.461538461539,3949.2307692307695,4334.871794871796,4329.2307692307695,4283.589743589744,4578.461538461539,4477.435897435898,4463.589743589744,4335.8974358974365,4592.307692307693,4321.025641025642,4115.8974358974365,4003.076923076924,4397.948717948719
1718.039,0.9753547,0.97405475,0.32736,0.60458964,0,0.0,0.0,0.0,0.0,0.0,0,0,0.0,0.0,0,0,65.0,0.0,414.0,4669.2307692307695,3969.7435897435903,4455.384615384616,4381.025641025642,4289.2307692307695,4586.666666666667,4478.461538461539,4466.666666666667,4347.6923076923085,4629.743589743591,4378.461538461539,4063.589743589744,4092.307692307693,4372.820512820514
1718.039,0.9753547,0.97405475,0.32736,0.60458964,0,0.0,0.0,0.0,0.0,0.0,0,0,0.0,0.0,0,0,65.0,0.0,414.0,4669.2307692307695,3969.7435897435903,4455.384615384616,4381.025641025642,4289.2307692307695,4586.666666666667,4478.461538461539,4466.666666666667,4347.6923076923085,4629.743589743591,4378.461538461539,4063.589743589744,4092.307692307693,4372.820512820514
1718.5394,0.8293368,0.96046275,0.3371678,0.61176926,0,0.0,0.0,0.0,0.0,0.0,0,0,0.0,0.0,0,0,0.0,0.0,516.0,4647.179487179488,3966.1538461538466,4529.2307692307695,4398.461538461539,4239.48717948718,4516.923076923077,4469.2307692307695,4449.743589743591,4376.410256410257,4671.794871794872,4402.564102564103,4072.307692307693,4196.410256410257,4396.410256410257
1718.5394,0.8293368,0.96046275,0.3371678,0.61176926,0,0.0,0.0,0.0,0.0,0.0,0,0,0.0,0.0,0,0,0.0,0.0,516.0,4647.179487179488,3966.1538461538466,4529.2307692307695,4398.461538461539,4239.48717948718,4516.923076923077,4469.2307692307695,4449.743589743591,4376.410256410257,4671.794871794872,4402.564102564103,4072.307692307693,4196.410256410257,4396.410256410257
1719.0398,0.73893404,0.9393426,0.34857553,0.61822927,0,0.0,0.0,0.0,0.0,0.0,0,0,0.0,0.0,0,0,64.0,0.0,516.0,4607.179487179488,3942.564102564103,4513.846153846154,4390.256410256411,4213.846153846154,4494.358974358975,4469.743589743591,4445.128205128206,4394.871794871796,4695.8974358974365,4389.2307692307695,4108.205128205129,4214.358974358975,4404.102564102564
1719.0398,0.73893404,0.9393426,0.34857553,0.61822927,0,0.0,0.0,0.0,0.0,0.0,0,0,0.0,0.0,0,0,64.0,0.0,516.0,4607.179487179488,3942.564102564103,4513.846153846154,4390.256410256411,4213.846153846154,4494.358974358975,4469.743589743591,4445.128205128206,4394.871794871796,4695.8974358974365,4389.2307692307695,4108.205128205129,4214.358974358975,4404.102564102564
1719.5403,0.7553539,0.9152305,0.35518506,0.62366486,0,0.0,0.0,0.0,0.0,0.0,0,0,0.0,0.0,0,0,128.0,0.0,477.0,4668.717948717949,3946.666666666667,4557.435897435898,4430.256410256411,4220.512820512821,4495.8974358974365,4515.384615384616,4480.512820512821,4416.410256410257,4735.384615384616,4420.512820512821,4186.153846153847,4228.717948717949,4426.666666666667
1719.5403,0.7553539,0.9152305,0.35518506,0.62366486,0,0.0,0.0,0.0,0.0,0.0,0,0,0.0,0.0,0,0,128.0,0.0,477.0,4668.717948717949,3946.666666666667,4557.435897435898,4430.256410256411,4220.512820512821,4495.8974358974365,4515.384615384616,4480.512820512821,4416.410256410257,4735.384615384616,4420.512820512821,4186.153846153847,4228.717948717949,4426.666666666667
1720.0406,0.72302,0.85330856,0.35456696,0.62666154,0,0.0,0.0,0.0,0.0,0.0,0,0,0.0,0.0,0,0,63.0,0.0,0.0,4652.820512820514,3927.1794871794878,4550.256410256411,4431.794871794872,4205.128205128206,4483.589743589744,4474.871794871796,4444.102564102564,4413.333333333334,4723.589743589744,4391.282051282052,4209.2307692307695,4200.512820512821,4434.871794871796
1720.0406,0.72302,0.85330856,0.35456696,0.62666154,0,0.0,0.0,0.0,0.0,0.0,0,0,0.0,0.0,0,0,63.0,0.0,0.0,4652.820512820514,3927.1794871794878,4550.256410256411,4431.794871794872,4205.128205128206,4483.589743589744,4474.871794871796,4444.102564102564,4413.333333333334,4723.589743589744,4391.282051282052,4209.2307692307695,4200.512820512821,4434.871794871796
1720.5411,0.6615095,0.8232275,0.35657424,0.62694436,0,0.0,0.0,0.0,0.0,0.0,0,0,0.0,0.0,0,0,127.0,0.0,416.0,4688.205128205129,3931.7948717948725,4572.820512820514,4449.743589743591,4218.974358974359,4493.846153846154,4443.589743589744,4423.589743589744,4408.717948717949,4709.743589743591,4356.923076923077,4206.153846153847,4166.666666666667,4424.102564102564
1720.5411,0.6615095,0.8232275,0.35657424,0.62694436,0,0.0,0.0,0.0,0.0,0.0,0,0,0.0,0.0,0,0,127.0,0.0,416.0,4688.205128205129,3931.7948717948725,4572.820512820514,4449.743589743591,4218.974358974359,4493.846153846154,4443.589743589744,4423.589743589744,4408.717948717949,4709.743589743591,4356.923076923077,4206.153846153847,4166.666666666667,4424.102564102564
1721.0415,0.6607709,0.7961461,0.357088,0.6272173,0,0.0,0.0,0.0,0.0,0.0,0,0,0.0,0.0,0,0,62.0,0.0,0.0,4678.974358974359,3941.0256410256416,4574.871794871796,4477.948717948719,4240.000000000001,4525.128205128206,4462.051282051282,4443.589743589744,4412.820512820514,4715.384615384616,4353.333333333334,4238.461538461539,4191.794871794872,4450.256410256411
1721.0415,0.6607709,0.7961461,0.357088,0.6272173,0,0.0,0.0,0.0,0.0,0.0,0,0,0.0,0.0,0,0,62.0,0.0,0.0,4678.974358974359,3941.0256410256416,4574.871794871796,4477.948717948719,4240.000000000001,4525.128205128206,4462.051282051282,4443.589743589744,4412.820512820514,4715.384615384616,4353.333333333334,4238.461538461539,4191.794871794872,4450.256410256411
1721.542,0.5864987,0.7504942,0.35498527,0.62889713,0,0.0,0.0,0.0,0.0,0.0,0,0,0.0,0.0,0,0,126.0,0.0,539.0,4673.333333333334,3909.7435897435903,4428.205128205129,4422.051282051282,4307.6923076923085,4600.000000000001,4434.871794871796,4443.589743589744,4346.153846153847,4641.538461538462,4300.000000000001,4224.102564102564,4062.0512820512827,4401.538461538462
1721.542,0.5864987,0.7504942,0.35498527,0.62889713,0,0.0,0.0,0.0,0.0,0.0,0,0,0.0,0.0,0,0,126.0,0.0,539.0,4673.333333333334,3909.7435897435903,4428.205128205129,4422.051282051282,4307.6923076923085,4600.000000000001,4434.871794871796,4443.589743589744,4346.153846153847,4641.538461538462,4300.000000000001,4224.102564102564,4062.0512820512827,4401.538461538462
1722.0424,0.6934442,0.716029,0.35054564,0.6304074,0,0.0,0.0,0.0,0.0,0.0,0,0,0.0,0.0,0,0,61.0,0.0,0.0,4552.820512820514,3841.0256410256416,4196.410256410257,4297.948717948719,4323.589743589744,4628.717948717949,4334.871794871796,4389.2307692307695,4255.8974358974365,4500.512820512821,4221.538461538462,4035.8974358974365,3861.0256410256416,4364.615384615385
1722.0424,0.6934442,0.716029,0.35054564,0.6304074,0,0.0,0.0,0.0,0.0,0.0,0,0,0.0,0.0,0,0,61.0,0.0,0.0,4552.820512820514,3841.0256410256416,4196.410256410257,4297.948717948719,4323.589743589744,4628.717948717949,4334.871794871796,4389.2307692307695,4255.8974358974365,4500.512820512821,4221.538461538462,4035.8974358974365,3861.0256410256416,4364.615384615385
1722.5428,0.7402074,0.66617405,0.3456778,0.63664,0,0.0,0.0,0.0,0.0,0.0,0,0,0.0,0.0,0,0,125.0,0.0,501.0,4536.923076923077,3869.2307692307695,4336.410256410257,4356.923076923077,4297.948717948719,4602.564102564103,4353.333333333334,4389.743589743591,4271.794871794872,4564.102564102564,4286.153846153847,3929.7435897435903,3967.692307692308,4349.2307692307695
1722.5428,0.7402074,0.66617405,0.3456778,0.63664,0,0.0,0.0,0.0,0.0,0.0,0,0,0.0,0.0,0,0,125.0,0.0,501.0,4536.923076923077,3869.2307692307695,4336.410256410257,4356.923076923077,4297.948717948719,4602.564102564103,4353.333333333334,4389.743589743591,4271.794871794872,4564.102564102564,4286.153846153847,3929.7435897435903,3967.692307692308,4349.2307692307695
1723.0432,0.77414227,0.66196185,0.3412965,0.6440872,0,0.0,0.0,0.0,0.0,0.0,0,0,0.0,0.0,0,0,60.0,0.0,0.0,4586.666666666667,3938.461538461539,4507.179487179488,4452.820512820514,4265.641025641026,4558.461538461539,4414.871794871796,4438.461538461539,4333.333333333334,4727.6923076923085,4406.153846153847,4009.7435897435903,4176.410256410257,4366.666666666667
1723.0432,0.77414227,0.66196185,0.3412965,0.6440872,0,0.0,0.0,0.0,0.0,0.0,0,0,0.0,0.0,0,0,60.0,0.0,0.0,4586.666666666667,3938.461538461539,4507.179487179488,4452.820512820514,4265.641025641026,4558.461538461539,4414.871794871796,4438.461538461539,4333.333333333334,4727.6923076923085,4406.153846153847,4009.7435897435903,4176.410256410257,4366.666666666667
1723.5437,0.77347034,0.6690838,0.33582002,0.6507863,0,0.0,0.0,0.0,0.0,0.0,0,0,0.0,0.0,0,0,124.0,0.0,481.0,4630.256410256411,3993.8461538461543,4637.435897435898,4482.564102564103,4241.538461538462,4525.641025641026,4474.871794871796,4479.48717948718,4401.538461538462,4837.435897435898,4466.666666666667,4116.410256410257,4284.615384615385,4384.615384615385
1723.5437,0.77347034,0.6690838,0.33582002,0.6507863,0,0.0,0.0,0.0,0.0,0.0,0,0,0.0,0.0,0,0,124.0,0.0,481.0,4630.256410256411,3993.8461538461543,4637.435897435898,4482.564102564103,4241.538461538462,4525.641025641026,4474.871794871796,4479.48717948718,4401.538461538462,4837.435897435898,4466.666666666667,4116.410256410257,4284.615384615385,4384.615384615385
1724.0441,0.81391484,0.6705259,0.3297136,0.65681183,0,0.0,0.0,0.0,0.0,0.0,0,0,0.0,0.0,0,0,59.0,0.0,0.0,4598.974358974359,4010.7692307692314,4651.794871794872,4521.025641025642,4255.384615384616,4541.538461538462,4508.717948717949,4509.2307692307695,4411.282051282052,4845.641025641026,4464.615384615385,4191.282051282052,4284.102564102564,4393.846153846154
1724.0441,0.81391484,0.6705259,0.3297136,0.65681183,0,0.0,0.0,0.0,0.0,0.0,0,0,0.0,0.0,0,0,59.0,0.0,0.0,4598.974358974359,4010.7692307692314,4651.794871794872,4521.025641025642,4255.384615384616,4541.538461538462,4508.717948717949,4509.2307692307695,4411.282051282052,4845.641025641026,4464.615384615385,4191.282051282052,4284.102564102564,4393.846153846154
1724.5446,0.78445816,0.6700886,0.3242179,0.6579178,0,0.0,0.0,0.0,0.0,0.0,0,0,0.0,0.0,0,0,123.0,0.0,416.0,4572.307692307693,3982.564102564103,4562.564102564103,4473.846153846154,4286.153846153847,4573.333333333334,4501.025641025642,4509.743589743591,4389.743589743591,4780.000000000001,4440.000000000001,4223.076923076924,4192.820512820514,4405.128205128206
1724.5446,0.78445816,0.6700886,0.3242179,0.6579178,0,0.0,0.0,0.0,0.0,0.0,0,0,0.0,0.0,0,0,123.0,0.0,416.0,4572.307692307693,3982.564102564103,4562.564102564103,4473.846153846154,4286.153846153847,4573.333333333334,4501.025641025642,4509.743589743591,4389.743589743591,4780.000000000001,4440.000000000001,4223.076923076924,4192.820512820514,4405.128205128206
1725.0449,0.7415479,0.6353577,0.31481022,0.65497327,0,0.0,0.0,0.0,0.0,0.0,0,0,0.0,0.0,0,0,58.0,0.0,0.0,4534.871794871796,3981.0256410256416,4524.615384615385,4461.025641025642,4307.179487179487,4592.820512820514,4511.794871794872,4521.025641025642,4390.256410256411,4773.333333333334,4431.794871794872,4220.512820512821,4155.384615384616,4406.153846153847
1725.0449,0.7415479,0.6353577,0.31481022,0.65497327,0,0.0,0.0,0.0,0.0,0.0,0,0,0.0,0.0,0,0,58.0,0.0,0.0,4534.871794871796,3981.0256410256416,4524.615384615385,4461.025641025642,4307.179487179487,4592.820512820514,4511.794871794872,4521.025641025642,4390.256410256411,4773.333333333334,4431.794871794872,4220.512820512821,4155.384615384616,4406.153846153847
1725.5454,0.6573233,0.5869127,0.3039085,0.6483412,0,0.0,0.0,0.0,0.0,0.0,0,0,0.0,0.0,0,0,122.0,0.0,542.0,4562.564102564103,3980.5128205128212,4465.641025641026,4422.051282051282,4307.6923076923085,4600.512820512821,4516.923076923077,4516.923076923077,4373.333333333334,4746.666666666667,4406.666666666667,4191.282051282052,4101.025641025642,4380.000000000001
1725.5454,0.6573233,0.5869127,0.3039085,0.6483412,0,0.0,0.0,0.0,0.0,0.0,0,0,0.0,0.0,0,0,122.0,0.0,542.0,4562.564102564103,3980.5128205128212,4465.641025641026,4422.051282051282,4307.6923076923085,4600.512820512821,4516.923076923077,4516.923076923077,4373.333333333334,4746.666666666667,4406.666666666667,4191.282051282052,4101.025641025642,4380.000000000001
1726.0458,0.64946645,0.58155364,0.29409745,0.6396655,0,0.0,0.0,0.0,0.0,0.0,0,0,0.0,0.0,0,0,57.0,0.0,0.0,4624.615384615385,4027.1794871794878,4567.6923076923085,4488.717948717949,4312.307692307693,4608.717948717949,4559.48717948718,4562.564102564103,4422.564102564103,4840.512820512821,4478.974358974359,4228.205128205129,4223.589743589744,4394.871794871796
1726.0458,0.64946645,0.58155364,0.29409745,0.6396655,0,0.0,0.0,0.0,0.0,0.0,0,0,0.0,0.0,0,0,57.0,0.0,0.0,4624.615384615385,4027.1794871794878,4567.6923076923085,4488.717948717949,4312.307692307693,4608.717948717949,4559.48717948718,4562.564102564103,4422.564102564103,4840.512820512821,4478.974358974359,4228.205128205129,4223.589743589744,4394.871794871796
1726.5463,0.59542495,0.6170453,0.28526825,0.6324972,0,0.0,0.0,0.0,0.0,0.0,0,0,0.0,0.0,0,0,121.0,0.0,501.0,4668.205128205129,4037.435897435898,4626.153846153847,4521.025641025642,4287.6923076923085,4577.435897435898,4556.410256410257,4558.974358974359,4458.461538461539,4884.102564102564,4525.128205128206,4275.8974358974365,4278.974358974359,4407.6923076923085
1726.5463,0.59542495,0.6170453,0.28526825,0.6324972,0,0.0,0.0,0.0,0.0,0.0,0,0,0.0,0.0,0,0,121.0,0.0,501.0,4668.205128205129,4037.435897435898,4626.153846153847,4521.025641025642,4287.6923076923085,4577.435897435898,4556.410256410257,4558.974358974359,4458.461538461539,4884.102564102564,4525.128205128206,4275.8974358974365,4278.974358974359,4407.6923076923085
1727.0466,0.59393334,0.6578434,0.28065616,0.6260452,0,0.0,0.0,0.0,0.0,0.0,0,0,0.0,0.0,0,0,56.0,0.0,0.0,4659.48717948718,4046.666666666667,4608.205128205129,4475.384615384616,4258.974358974359,4542.051282051282,4557.948717948719,4547.179487179488,4483.589743589744,4890.256410256411,4522.564102564103,4343.076923076924,4332.307692307693,4440.000000000001
1727.0466,0.59393334,0.6578434,0.28065616,0.6260452,0,0.0,0.0,0.0,0.0,0.0,0,0,0.0,0.0,0,0,56.0,0.0,0.0,4659.48717948718,4046.666666666667,4608.205128205129,4475.384615384616,4258.974358974359,4542.051282051282,4557.948717948719,4547.179487179488,4483.589743589744,4890.256410256411,4522.564102564103,4343.076923076924,4332.307692307693,4440.000000000001
1727.5471,0.579787,0.70001906,0.27825257,0.62023795,0,0.0,0.0,0.0,0.0,0.0,0,0,0.0,0.0,0,0,120.0,0.0,478.0,4675.8974358974365,4055.3846153846157,4640.512820512821,4499.48717948718,4287.6923076923085,4567.6923076923085,4577.948717948719,4572.307692307693,4501.025641025642,4892.820512820514,4520.512820512821,4385.641025641026,4345.128205128206,4450.256410256411
1727.5471,0.579787,0.70001906,0.27825257,0.62023795,0,0.0,0.0,0.0,0.0,0.0,0,0,0.0,0.0,0,0,120.0,0.0,478.0,4675.8974358974365,4055.3846153846157,4640.512820512821,4499.48717948718,4287.6923076923085,4567.6923076923085,4577.948717948719,4572.307692307693,4501.025641025642,4892.820512820514,4520.512820512821,4385.641025641026,4345.128205128206,4450.256410256411
1728.0476,0.59276325,0.69301325,0.27754614,0.60929185,0,0.0,0.0,0.0,0.0,0.0,0,0,0.0,0.0,0,0,55.0,0.0,0.0,4658.974358974359,4056.410256410257,4649.2307692307695,4531.794871794872,4323.076923076924,4611.794871794872,4594.871794871796,4573.333333333334,4506.153846153847,4871.794871794872,4503.076923076924,4398.974358974359,4326.153846153847,4443.589743589744
1728.0476,0.59276325,0.69301325,0.27754614,0.60929185,0,0.0,0.0,0.0,0.0,0.0,0,0,0.0,0.0,0,0,55.0,0.0,0.0,4658.974358974359,4056.410256410257,4649.2307692307695,4531.794871794872,4323.076923076924,4611.794871794872,4594.871794871796,4573.333333333334,4506.153846153847,4871.794871794872,4503.076923076924,4398.974358974359,4326.153846153847,4443.589743589744
1728.548,0.6032445,0.66517687,0.27773136,0.6032862,0,0.0,0.0,0.0,0.0,0.0,0,0,0.0,0.0,0,0,119.0,0.0,416.0,4671.794871794872,4061.0256410256416,4661.538461538462,4536.923076923077,4356.410256410257,4651.282051282052,4605.128205128206,4570.769230769231,4502.564102564103,4874.871794871796,4491.794871794872,4377.948717948719,4290.769230769231,4456.410256410257
1728.548,0.6032445,0.66517687,0.27773136,0.6032862,0,0.0,0.0,0.0,0.0,0.0,0,0,0.0,0.0,0,0,119.0,0.0,416.0,4671.794871794872,4061.0256410256416,4661.538461538462,4536.923076923077,4356.410256410257,4651.282051282052,4605.128205128206,4570.769230769231,4502.564102564103,4874.871794871796,4491.794871794872,4377.948717948719,4290.769230769231,4456.410256410257
1729.0485,0.58034205,0.65103006,0.27789897,0.6004843,0,0.0,0.0,0.0,0.0,0.0,0,0,0.0,0.0,0,0,54.0,0.0,0.0,4663.589743589744,4006.1538461538466,4600.512820512821,4475.8974358974365,4292.820512820514,4547.179487179488,4550.769230769231,4508.205128205129,4467.6923076923085,4766.153846153847,4420.512820512821,4321.025641025642,4192.820512820514,4432.307692307693
1729.0485,0.58034205,0.65103006,0.27789897,0.6004843,0,0.0,0.0,0.0,0.0,0.0,0,0,0.0,0.0,0,0,54.0,0.0,0.0,4663.589743589744,4006.1538461538466,4600.512820512821,4475.8974358974365,4292.820512820514,4547.179487179488,4550.769230769231,4508.205128205129,4467.6923076923085,4766.153846153847,4420.512820512821,4321.025641025642,4192.820512820514,4432.307692307693
1729.5488,0.57120955,0.6195074,0.27948663,0.5938993,0,0.0,0.0,0.0,0.0,0.0,0,0,0.0,0.0,0,0,118.0,0.0,542.0,4664.102564102564,3967.692307692308,4444.615384615385,4403.076923076924,4323.076923076924,4601.025641025642,4530.769230769231,4494.871794871796,4378.461538461539,4660.000000000001,4355.8974358974365,4287.6923076923085,4033.333333333334,4457.435897435898
1729.5488,0.57120955,0.6195074,0.27948663,0.5938993,0,0.0,0.0,0.0,0.0,0.0,0,0,0.0,0.0,0,0,118.0,0.0,542.0,4664.102564102564,3967.692307692308,4444.615384615385,4403.076923076924,4323.076923076924,4601.025641025642,4530.769230769231,4494.871794871796,4378.461538461539,4660.000000000001,4355.8974358974365,4287.6923076923085,4033.333333333334,4457.435897435898
1730.0493,0.55143803,0.6082036,0.28175205,0.58421814,0,0.0,0.0,0.0,0.0,0.0,0,0,0.0,0.0,0,0,53.0,0.0,0.0,4628.717948717949,3952.820512820513,4400.512820512821,4366.666666666667,4320.000000000001,4633.846153846154,4531.282051282052,4527.6923076923085,4370.769230769231,4651.282051282052,4355.8974358974365,4168.205128205129,4025.6410256410263,4440.000000000001
1730.0493,0.55143803,0.6082036,0.28175205,0.58421814,0,0.0,0.0,0.0,0.0,0.0,0,0,0.0,0.0,0,0,53.0,0.0,0.0,4628.717948717949,3952.820512820513,4400.512820512821,4366.666666666667,4320.000000000001,4633.846153846154,4531.282051282052,4527.6923076923085,4370.769230769231,4651.282051282052,4355.8974358974365,4168.205128205129,4025.6410256410263,4440.000000000001
1730.5497,0.51964575,0.61457753,0.28206798,0.5755048,0,0.0,0.0,0.0,0.0,0.0,0,0,0.0,0.0,0,0,117.0,0.0,501.0,4622.564102564103,3971.7948717948725,4498.461538461539,4411.282051282052,4274.871794871796,4582.051282051282,4503.589743589744,4502.051282051282,4403.589743589744,4723.589743589744,4415.384615384616,4150.769230769231,4160.512820512821,4442.564102564103
1730.5497,0.51964575,0.61457753,0.28206798,0.5755048,0,0.0,0.0,0.0,0.0,0.0,0,0,0.0,0.0,0,0,117.0,0.0,501.0,4622.564102564103,3971.7948717948725,4498.461538461539,4411.282051282052,4274.871794871796,4582.051282051282,4503.589743589744,4502.051282051282,4403.589743589744,4723.589743589744,4415.384615384616,4150.769230769231,4160.512820512821,4442.564102564103
1731.0502,0.52799976,0.61411047,0.28120825,0.57141787,0,0.0,0.0,0.0,0.0,0.0,0,0,0.0,0.0,0,0,52.0,0.0,0.0,4647.179487179488,4014.358974358975,4651.794871794872,4501.538461538462,4252.820512820514,4548.717948717949,4533.333333333334,4520.000000000001,4413.846153846154,4821.025641025642,4463.076923076924,4221.025641025642,4300.000000000001,4468.717948717949
1731.0502,0.52799976,0.61411047,0.28120825,0.57141787,0,0.0,0.0,0.0,0.0,0.0,0,0,0.0,0.0,0,0,52.0,0.0,0.0,4647.179487179488,4014.358974358975,4651.794871794872,4501.538461538462,4252.820512820514,4548.717948717949,4533.333333333334,4520.000000000001,4413.846153846154,4821.025641025642,4463.076923076924,4221.025641025642,4300.000000000001,4468.717948717949
1731.5505,0.53529656,0.6033222,0.27888748,0.5702043,0,0.0,0.0,0.0,0.0,0.0,0,0,0.0,0.0,0,0,116.0,0.0,477.0,4633.333333333334,4036.410256410257,4682.564102564103,4519.48717948718,4243.076923076924,4535.384615384616,4564.102564102564,4543.076923076924,4480.000000000001,4840.512820512821,4468.205128205129,4271.794871794872,4343.589743589744,4472.307692307693
1731.5505,0.53529656,0.6033222,0.27888748,0.5702043,0,0.0,0.0,0.0,0.0,0.0,0,0,0.0,0.0,0,0,116.0,0.0,477.0,4633.333333333334,4036.410256410257,4682.564102564103,4519.48717948718,4243.076923076924,4535.384615384616,4564.102564102564,4543.076923076924,4480.000000000001,4840.512820512821,4468.205128205129,4271.794871794872,4343.589743589744,4472.307692307693
1732.051,0.50920516,0.5945417,0.276321,0.5665639,0,0.0,0.0,0.0,0.0,0.0,0,0,0.0,0.0,0,0,51.0,0.0,0.0,4639.48717948718,3990.2564102564106,4480.512820512821,4425.641025641026,4288.717948717949,4586.153846153847,4543.589743589744,4511.794871794872,4389.743589743591,4681.538461538462,4376.410256410257,4206.153846153847,4068.205128205129,4468.205128205129
1732.051,0.50920516,0.5945417,0.276321,0.5665639,0,0.0,0.0,0.0,0.0,0.0,0,0,0.0,0.0,0,0,51.0,0.0,0.0,4639.48717948718,3990.2564102564106,4480.512820512821,4425.641025641026,4288.717948717949,4586.153846153847,4543.589743589744,4511.794871794872,4389.743589743591,4681.538461538462,4376.410256410257,4206.153846153847,4068.205128205129,4468.205128205129
1732.5514,0.4916869,0.57810247,0.27389875,0.5652078,0,0.0,0.0,0.0,0.0,0.0,0,0,0.0,0.0,0,0,115.0,0.0,416.0,4586.666666666667,3956.410256410257,4460.512820512821,4425.641025641026,4321.025641025642,4615.384615384616,4568.205128205129,4527.179487179488,4373.333333333334,4635.8974358974365,4359.48717948718,4048.205128205129,4045.6410256410263,4444.615384615385
1732.5514,0.4916869,0.57810247,0.27389875,0.5652078,0,0.0,0.0,0.0,0.0,0.0,0,0,0.0,0.0,0,0,115.0,0.0,416.0,4586.666666666667,3956.410256410257,4460.512820512821,4425.641025641026,4321.025641025642,4615.384615384616,4568.205128205129,4527.179487179488,4373.333333333334,4635.8974358974365,4359.48717948718,4048.205128205129,4045.6410256410263,4444.615384615385
1733.0519,0.48304564,0.539921,0.27171972,0.5675495,0,0.0,0.0,0.0,0.0,0.0,0,0,0.0,0.0,0,0,50.0,0.0,0.0,4611.282051282052,3987.692307692308,4546.666666666667,4472.820512820514,4311.282051282052,4606.153846153847,4556.410256410257,4553.333333333334,4411.282051282052,4729.743589743591,4407.6923076923085,4102.564102564103,4208.205128205129,4466.666666666667
1733.0519,0.48304564,0.539921,0.27171972,0.5675495,0,0.0,0.0,0.0,0.0,0.0,0,0,0.0,0.0,0,0,50.0,0.0,0.0,4611.282051282052,3987.692307692308,4546.666666666667,4472.820512820514,4311.282051282052,4606.153846153847,4556.410256410257,4553.333333333334,4411.282051282052,4729.743589743591,4407.6923076923085,4102.564102564103,4208.205128205129,4466.666666666667
1733.5522,0.36825016,0.5268106,0.2705203,0.56609386,0,0.0,0.0,0.0,0.0,0.0,0,0,0.0,0.0,0,0,114.0,0.0,542.0,4578.461538461539,4036.410256410257,4692.820512820514,4548.205128205129,4283.589743589744,4572.820512820514,4542.051282051282,4547.6923076923085,4462.051282051282,4793.333333333334,4463.076923076924,4200.000000000001,4300.000000000001,4484.102564102564
1733.5522,0.36825016,0.5268106,0.2705203,0.56609386,0,0.0,0.0,0.0,0.0,0.0,0,0,0.0,0.0,0,0,114.0,0.0,542.0,4578.461538461539,4036.410256410257,4692.820512820514,4548.205128205129,4283.589743589744,4572.820512820514,4542.051282051282,4547.6923076923085,4462.051282051282,4793.333333333334,4463.076923076924,4200.000000000001,4300.000000000001,4484.102564102564
1734.0527,0.3996579,0.4897464,0.27005553,0.5639417,0,0.0,0.0,0.0,0.0,0.0,0,0,0.0,0.0,0,0,49.0,0.0,0.0,4562.564102564103,4045.6410256410263,4693.846153846154,4574.358974358975,4292.820512820514,4574.871794871796,4553.333333333334,4558.974358974359,4480.512820512821,4805.641025641026,4456.923076923077,4311.794871794872,4337.948717948719,4507.179487179488
1734.0527,0.3996579,0.4897464,0.27005553,0.5639417,0,0.0,0.0,0.0,0.0,0.0,0,0,0.0,0.0,0,0,49.0,0.0,0.0,4562.564102564103,4045.6410256410263,4693.846153846154,4574.358974358975,4292.820512820514,4574.871794871796,4553.333333333334,4558.974358974359,4480.512820512821,4805.641025641026,4456.923076923077,4311.794871794872,4337.948717948719,4507.179487179488
1734.5531,0.35927045,0.47251162,0.27118066,0.5600831,0,0.0,0.0,0.0,0.0,0.0,0,0,0.0,0.0,0,0,113.0,0.0,501.0,4617.948717948719,4062.564102564103,4691.794871794872,4608.205128205129,4321.025641025642,4610.769230769231,4579.48717948718,4575.8974358974365,4483.589743589744,4804.102564102564,4463.076923076924,4395.8974358974365,4318.461538461539,4511.282051282052
1734.5531,0.35927045,0.47251162,0.27118066,0.5600831,0,0.0,0.0,0.0,0.0,0.0,0,0,0.0,0.0,0,0,113.0,0.0,501.0,4617.948717948719,4062.564102564103,4691.794871794872,4608.205128205129,4321.025641025642,4610.769230769231,4579.48717948718,4575.8974358974365,4483.589743589744,4804.102564102564,4463.076923076924,4395.8974358974365,4318.461538461539,4511.282051282052
1735.0536,0.3570513,0.45501876,0.27457574,0.55828595,0,0.0,0.0,0.0,0.0,0.0,0,0,0.0,0.0,0,0,48.0,0.0,0.0,4585.641025641026,4047.1794871794878,4674.871794871796,4575.384615384616,4303.076923076924,4593.333333333334,4578.461538461539,4547.179487179488,4478.974358974359,4775.384615384616,4454.871794871796,4391.794871794872,4319.48717948718,4501.025641025642
1735.0536,0.3570513,0.45501876,0.27457574,0.55828595,0,0.0,0.0,0.0,0.0,0.0,0,0,0.0,0.0,0,0,48.0,0.0,0.0,4585.641025641026,4047.1794871794878,4674.871794871796,4575.384615384616,4303.076923076924,4593.333333333334,4578.461538461539,4547.179487179488,4478.974358974359,4775.384615384616,4454.871794871796,4391.794871794872,4319.48717948718,4501.025641025642
1735.554,0.36883852,0.43410477,0.2776322,0.5566684,0,0.0,0.0,0.0,0.0,0.0,0,0,0.0,0.0,0,0,112.0,0.0,477.0,4569.2307692307695,4008.205128205129,4654.871794871796,4555.384615384616,4287.179487179487,4574.871794871796,4531.282051282052,4509.2307692307695,4473.333333333334,4750.256410256411,4407.179487179487,4340.512820512821,4289.74358974359,4496.410256410257
1735.554,0.36883852,0.43410477,0.2776322,0.5566684,0,0.0,0.0,0.0,0.0,0.0,0,0,0.0,0.0,0,0,112.0,0.0,477.0,4569.2307692307695,4008.205128205129,4654.871794871796,4555.384615384616,4287.179487179487,4574.871794871796,4531.282051282052,4509.2307692307695,4473.333333333334,4750.256410256411,4407.179487179487,4340.512820512821,4289.74358974359,4496.410256410257
1736.0544,0.34871313,0.4282872,0.28038388,0.55521256,0,0.0,0.0,0.0,0.0,0.0,0,0,0.0,0.0,0,0,47.0,0.0,0.0,4594.358974358975,4013.8461538461543,4643.076923076924,4556.923076923077,4286.666666666667,4576.923076923077,4530.769230769231,4485.128205128206,4477.435897435898,4743.076923076924,4404.615384615385,4332.820512820514,4266.153846153847,4486.666666666667
1736.0544,0.34871313,0.4282872,0.28038388,0.55521256,0,0.0,0.0,0.0,0.0,0.0,0,0,0.0,0.0,0,0,47.0,0.0,0.0,4594.358974358975,4013.8461538461543,4643.076923076924,4556.923076923077,4286.666666666667,4576.923076923077,4530.769230769231,4485.128205128206,4477.435897435898,4743.076923076924,4404.615384615385,4332.820512820514,4266.153846153847,4486.666666666667
1736.5548,0.32986498,0.40878427,0.27804318,0.5569866,0,0.0,0.0,0.0,0.0,0.0,0,0,0.0,0.0,0,0,111.0,0.0,411.0,4560.000000000001,3993.333333333334,4604.102564102564,4540.512820512821,4318.461538461539,4566.666666666667,4532.307692307693,4490.256410256411,4483.589743589744,4780.512820512821,4430.769230769231,4330.769230769231,4295.8974358974365,4518.461538461539
1736.5548,0.32986498,0.40878427,0.27804318,0.5569866,0,0.0,0.0,0.0,0.0,0.0,0,0,0.0,0.0,0,0,111.0,0.0,411.0,4560.000000000001,3993.333333333334,4604.102564102564,4540.512820512821,4318.461538461539,4566.666666666667,4532.307692307693,4490.256410256411,4483.589743589744,4780.512820512821,4430.769230769231,4330.769230769231,4295.8974358974365,4518.461538461539
1737.0553,0.35555434,0.38910934,0.27125525,0.55858314,0,0.0,0.0,0.0,0.0,0.0,0,0,0.0,0.0,0,0,46.0,0.0,0.0,4583.589743589744,4029.7435897435903,4641.025641025642,4588.717948717949,4331.794871794872,4631.794871794872,4578.461538461539,4513.333333333334,4493.846153846154,4816.923076923077,4446.153846153847,4352.307692307693,4321.025641025642,4540.512820512821
1737.0553,0.35555434,0.38910934,0.27125525,0.55858314,0,0.0,0.0,0.0,0.0,0.0,0,0,0.0,0.0,0,0,46.0,0.0,0.0,4583.589743589744,4029.7435897435903,4641.025641025642,4588.717948717949,4331.794871794872,4631.794871794872,4578.461538461539,4513.333333333334,4493.846153846154,4816.923076923077,4446.153846153847,4352.307692307693,4321.025641025642,4540.512820512821
1737.5557,0.32119223,0.37379107,0.2628962,0.5625592,0,0.0,0.0,0.0,0.0,0.0,0,0,0.0,0.0,0,0,110.0,0.0,542.0,4615.384615384616,4049.7435897435903,4643.076923076924,4596.410256410257,4345.128205128206,4648.717948717949,4572.820512820514,4517.948717948719,4496.410256410257,4830.256410256411,4447.179487179487,4346.153846153847,4317.948717948719,4543.589743589744
1737.5557,0.32119223,0.37379107,0.2628962,0.5625592,0,0.0,0.0,0.0,0.0,0.0,0,0,0.0,0.0,0,0,110.0,0.0,542.0,4615.384615384616,4049.7435897435903,4643.076923076924,4596.410256410257,4345.128205128206,4648.717948717949,4572.820512820514,4517.948717948719,4496.410256410257,4830.256410256411,4447.179487179487,4346.153846153847,4317.948717948719,4543.589743589744
1738.0562,0.31867346,0.35579804,0.25439045,0.56700754,0,0.0,0.0,0.0,0.0,0.0,0,0,0.0,0.0,0,0,45.0,0.0,0.0,4644.102564102564,4025.6410256410263,4635.384615384616,4577.435897435898,4332.307692307693,4631.794871794872,4568.205128205129,4514.871794871796,4487.179487179488,4811.794871794872,4423.589743589744,4335.384615384616,4308.205128205129,4520.000000000001
1738.0562,0.31867346,0.35579804,0.25439045,0.56700754,0,0.0,0.0,0.0,0.0,0.0,0,0,0.0,0.0,0,0,45.0,0.0,0.0,4644.102564102564,4025.6410256410263,4635.384615384616,4577.435897435898,4332.307692307693,4631.794871794872,4568.205128205129,4514.871794871796,4487.179487179488,4811.794871794872,4423.589743589744,4335.384615384616,4308.205128205129,4520.000000000001
1738.5566,0.29507232,0.36140776,0.2454844,0.5715852,0,0.0,0.0,0.0,0.0,0.0,0,0,0.0,0.0,0,0,109.0,0.0,501.0,4664.102564102564,4034.8717948717954,4625.641025641026,4544.102564102564,4327.6923076923085,4623.589743589744,4549.2307692307695,4497.435897435898,4485.641025641026,4789.743589743591,4404.102564102564,4343.589743589744,4298.461538461539,4542.051282051282
1738.5566,0.29507232,0.36140776,0.2454844,0.5715852,0,0.0,0.0,0.0,0.0,0.0,0,0,0.0,0.0,0,0,109.0,0.0,501.0,4664.102564102564,4034.8717948717954,4625.641025641026,4544.102564102564,4327.6923076923085,4623.589743589744,4549.2307692307695,4497.435897435898,4485.641025641026,4789.743589743591,4404.102564102564,4343.589743589744,4298.461538461539,4542.051282051282
1739.057,0.30516806,0.3602784,0.23863553,0.5790887,0,0.0,0.0,0.0,0.0,0.0,0,0,0.0,0.0,0,0,44.0,0.0,0.0,4616.923076923077,3995.3846153846157,4562.051282051282,4489.2307692307695,4284.102564102564,4585.641025641026,4505.128205128206,4463.589743589744,4465.641025641026,4758.461538461539,4370.769230769231,4335.8974358974365,4260.512820512821,4535.384615384616
1739.057,0.30516806,0.3602784,0.23863553,0.5790887,0,0.0,0.0,0.0,0.0,0.0,0,0,0.0,0.0,0,0,44.0,0.0,0.0,4616.923076923077,3995.3846153846157,4562.051282051282,4489.2307692307695,4284.102564102564,4585.641025641026,4505.128205128206,4463.589743589744,4465.641025641026,4758.461538461539,4370.769230769231,4335.8974358974365,4260.512820512821,4535.384615384616
1739.5575,0.35240325,0.33549228,0.23094459,0.5884822,0,0.0,0.0,0.0,0.0,0.0,0,0,0.0,0.0,0,0,108.0,0.0,477.0,4576.410256410257,3957.435897435898,4502.564102564103,4436.923076923077,4269.74358974359,4573.846153846154,4495.384615384616,4454.871794871796,4462.051282051282,4748.205128205129,4358.461538461539,4334.358974358975,4254.871794871796,4525.641025641026
1739.5575,0.35240325,0.33549228,0.23094459,0.5884822,0,0.0,0.0,0.0,0.0,0.0,0,0,0.0,0.0,0,0,108.0,0.0,477.0,4576.410256410257,3957.435897435898,4502.564102564103,4436.923076923077,4269.74358974359,4573.846153846154,4495.384615384616,4454.871794871796,4462.051282051282,4748.205128205129,4358.461538461539,4334.358974358975,4254.871794871796,4525.641025641026
1740.0579,0.44864315,0.31314114,0.2240249,0.5980978,0,0.0,0.0,0.0,0.0,0.0,0,0,0.0,0.0,0,0,43.0,0.0,0.0,4503.076923076924,3895.3846153846157,4203.076923076924,4270.769230769231,4311.794871794872,4624.102564102564,4441.538461538462,4381.025641025642,4314.871794871796,4529.2307692307695,4168.205128205129,4189.74358974359,3922.564102564103,4449.2307692307695
1740.0579,0.44864315,0.31314114,0.2240249,0.5980978,0,0.0,0.0,0.0,0.0,0.0,0,0,0.0,0.0,0,0,43.0,0.0,0.0,4503.076923076924,3895.3846153846157,4203.076923076924,4270.769230769231,4311.794871794872,4624.102564102564,4441.538461538462,4381.025641025642,4314.871794871796,4529.2307692307695,4168.205128205129,4189.74358974359,3922.564102564103,4449.2307692307695
1740.5583,0.56826943,0.2930251,0.21792142,0.6081815,0,0.0,0.0,0.0,0.0,0.0,0,0,0.0,0.0,0,0,107.0,0.0,411.0,4402.564102564103,3874.8717948717954,4139.48717948718,4209.74358974359,4331.282051282052,4656.410256410257,4358.461538461539,4347.6923076923085,4254.358974358975,4415.384615384616,4132.307692307693,3813.8461538461543,3872.307692307693,4392.820512820514
1740.5583,0.56826943,0.2930251,0.21792142,0.6081815,0,0.0,0.0,0.0,0.0,0.0,0,0,0.0,0.0,0,0,107.0,0.0,411.0,4402.564102564103,3874.8717948717954,4139.48717948718,4209.74358974359,4331.282051282052,4656.410256410257,4358.461538461539,4347.6923076923085,4254.358974358975,4415.384615384616,4132.307692307693,3813.8461538461543,3872.307692307693,4392.820512820514
1741.0587,0.49152336,0.27492067,0.21557228,0.61725503,0,0.0,0.0,0.0,0.0,0.0,0,0,0.0,0.0,0,0,42.0,0.0,0.0,4407.179487179487,3870.2564102564106,4273.333333333334,4256.410256410257,4315.384615384616,4636.923076923077,4269.2307692307695,4336.410256410257,4289.2307692307695,4506.153846153847,4252.307692307693,3806.1538461538466,4009.7435897435903,4360.000000000001
1741.0587,0.49152336,0.27492067,0.21557228,0.61725503,0,0.0,0.0,0.0,0.0,0.0,0,0,0.0,0.0,0,0,42.0,0.0,0.0,4407.179487179487,3870.2564102564106,4273.333333333334,4256.410256410257,4315.384615384616,4636.923076923077,4269.2307692307695,4336.410256410257,4289.2307692307695,4506.153846153847,4252.307692307693,3806.1538461538466,4009.7435897435903,4360.000000000001
1741.5592,0.58908755,0.2586267,0.21842334,0.625053,0,0.0,0.0,0.0,0.0,0.0,0,0,0.0,0.0,0,0,106.0,0.0,539.0,4493.846153846154,3950.7692307692314,4526.666666666667,4406.153846153847,4293.333333333334,4590.256410256411,4377.435897435898,4433.846153846154,4375.384615384616,4716.923076923077,4450.769230769231,4103.076923076924,4221.538461538462,4345.128205128206
1741.5592,0.58908755,0.2586267,0.21842334,0.625053,0,0.0,0.0,0.0,0.0,0.0,0,0,0.0,0.0,0,0,106.0,0.0,539.0,4493.846153846154,3950.7692307692314,4526.666666666667,4406.153846153847,4293.333333333334,4590.256410256411,4377.435897435898,4433.846153846154,4375.384615384616,4716.923076923077,4450.769230769231,4103.076923076924,4221.538461538462,4345.128205128206
1742.0596,0.65388197,0.24396212,0.22099109,0.6320688,0,0.0,0.0,0.0,0.0,0.0,0,0,0.0,0.0,0,0,41.0,0.0,0.0,4573.333333333334,4002.564102564103,4656.410256410257,4488.205128205129,4256.923076923077,4546.153846153847,4522.051282051282,4521.025641025642,4426.153846153847,4840.000000000001,4484.102564102564,4283.589743589744,4333.846153846154,4363.589743589744
1742.0596,0.65388197,0.24396212,0.22099109,0.6320688,0,0.0,0.0,0.0,0.0,0.0,0,0,0.0,0.0,0,0,41.0,0.0,0.0,4573.333333333334,4002.564102564103,4656.410256410257,4488.205128205129,4256.923076923077,4546.153846153847,4522.051282051282,4521.025641025642,4426.153846153847,4840.000000000001,4484.102564102564,4283.589743589744,4333.846153846154,4363.589743589744
1742.56,0.5916846,0.230764,0.22330385,0.6383805,0,0.0,0.0,0.0,0.0,0.0,0,0,0.0,0.0,0,0,105.0,0.0,502.0,4597.948717948719,4012.820512820513,4614.358974358975,4481.538461538462,4233.333333333334,4518.974358974359,4545.641025641026,4505.128205128206,4430.769230769231,4787.6923076923085,4437.948717948719,4265.128205128206,4264.102564102564,4363.076923076924
1742.56,0.5916846,0.230764,0.22330385,0.6383805,0,0.0,0.0,0.0,0.0,0.0,0,0,0.0,0.0,0,0,105.0,0.0,502.0,4597.948717948719,4012.820512820513,4614.358974358975,4481.538461538462,4233.333333333334,4518.974358974359,4545.641025641026,4505.128205128206,4430.769230769231,4787.6923076923085,4437.948717948719,4265.128205128206,4264.102564102564,4363.076923076924
1743.0604,0.5756423,0.21888568,0.22971363,0.6440583,0,0.0,0.0,0.0,0.0,0.0,0,0,0.0,0.0,0,0,40.0,0.0,0.0,4611.282051282052,3951.2820512820517,4454.871794871796,4410.256410256411,4234.358974358975,4527.179487179488,4495.8974358974365,4464.102564102564,4373.333333333334,4663.076923076924,4249.74358974359,4204.102564102564,4111.794871794872,4349.743589743591
1743.0604,0.5756423,0.21888568,0.22971363,0.6440583,0,0.0,0.0,0.0,0.0,0.0,0,0,0.0,0.0,0,0,40.0,0.0,0.0,4611.282051282052,3951.2820512820517,4454.871794871796,4410.256410256411,4234.358974358975,4527.179487179488,4495.8974358974365,4464.102564102564,4373.333333333334,4663.076923076924,4249.74358974359,4204.102564102564,4111.794871794872,4349.743589743591
1743.5609,0.54565233,0.27343866,0.23548388,0.64679486,0,0.0,0.0,0.0,0.0,0.0,0,0,0.0,0.0,0,0,104.0,0.0,483.0,4597.435897435898,3942.0512820512827,4469.2307692307695,4428.717948717949,4205.128205128206,4501.538461538462,4455.8974358974365,4430.256410256411,4374.358974358975,4653.846153846154,4229.2307692307695,4192.820512820514,4147.6923076923085,4357.948717948719
1743.5609,0.54565233,0.27343866,0.23548388,0.64679486,0,0.0,0.0,0.0,0.0,0.0,0,0,0.0,0.0,0,0,104.0,0.0,483.0,4597.435897435898,3942.0512820512827,4469.2307692307695,4428.717948717949,4205.128205128206,4501.538461538462,4455.8974358974365,4430.256410256411,4374.358974358975,4653.846153846154,4229.2307692307695,4192.820512820514,4147.6923076923085,4357.948717948719
1744.0613,0.49863246,0.2781929,0.24052775,0.6529795,0,0.0,0.0,0.0,0.0,0.0,0,0,0.0,0.0,0,0,39.0,0.0,0.0,4586.153846153847,3962.0512820512827,4577.435897435898,4493.333333333334,4195.8974358974365,4483.076923076924,4464.102564102564,4446.666666666667,4409.2307692307695,4728.205128205129,4357.435897435898,4256.923076923077,4243.076923076924,4363.076923076924
1744.0613,0.49863246,0.2781929,0.24052775,0.6529795,0,0.0,0.0,0.0,0.0,0.0,0,0,0.0,0.0,0,0,39.0,0.0,0.0,4586.153846153847,3962.0512820512827,4577.435897435898,4493.333333333334,4195.8974358974365,4483.076923076924,4464.102564102564,4446.666666666667,4409.2307692307695,4728.205128205129,4357.435897435898,4256.923076923077,4243.076923076924,4363.076923076924
1744.5618,0.54522824,0.3291302,0.24047637,0.6660272,0,0.0,0.0,0.0,0.0,0.0,0,0,0.0,0.0,0,0,103.0,0.0,412.0,4600.000000000001,4000.0000000000005,4700.512820512821,4566.666666666667,4193.846153846154,4475.384615384616,4513.333333333334,4491.794871794872,4446.153846153847,4784.615384615386,4425.641025641026,4325.641025641026,4333.846153846154,4387.6923076923085
1744.5618,0.54522824,0.3291302,0.24047637,0.6660272,0,0.0,0.0,0.0,0.0,0.0,0,0,0.0,0.0,0,0,103.0,0.0,412.0,4600.000000000001,4000.0000000000005,4700.512820512821,4566.666666666667,4193.846153846154,4475.384615384616,4513.333333333334,4491.794871794872,4446.153846153847,4784.615384615386,4425.641025641026,4325.641025641026,4333.846153846154,4387.6923076923085
1745.0621,0.5264196,0.3836276,0.24765521,0.6777633,0,0.0,0.0,0.0,0.0,0.0,0,0,0.0,0.0,0,0,38.0,0.0,0.0,4647.179487179488,3997.435897435898,4674.871794871796,4532.820512820514,4189.2307692307695,4473.333333333334,4514.358974358975,4497.435897435898,4461.025641025642,4792.820512820514,4426.153846153847,4375.8974358974365,4343.076923076924,4374.358974358975
1745.0621,0.5264196,0.3836276,0.24765521,0.6777633,0,0.0,0.0,0.0,0.0,0.0,0,0,0.0,0.0,0,0,38.0,0.0,0.0,4647.179487179488,3997.435897435898,4674.871794871796,4532.820512820514,4189.2307692307695,4473.333333333334,4514.358974358975,4497.435897435898,4461.025641025642,4792.820512820514,4426.153846153847,4375.8974358974365,4343.076923076924,4374.358974358975
1745.5626,0.56113225,0.4219665,0.2587877,0.6808331,0,0.0,0.0,0.0,0.0,0.0,0,0,0.0,0.0,0,0,102.0,0.0,539.0,4613.333333333334,3986.1538461538466,4635.384615384616,4497.948717948719,4194.358974358975,4482.051282051282,4500.512820512821,4462.051282051282,4451.282051282052,4757.948717948719,4379.48717948718,4356.410256410257,4284.102564102564,4330.769230769231
1745.5626,0.56113225,0.4219665,0.2587877,0.6808331,0,0.0,0.0,0.0,0.0,0.0,0,0,0.0,0.0,0,0,102.0,0.0,539.0,4613.333333333334,3986.1538461538466,4635.384615384616,4497.948717948719,4194.358974358975,4482.051282051282,4500.512820512821,4462.051282051282,4451.282051282052,4757.948717948719,4379.48717948718,4356.410256410257,4284.102564102564,4330.769230769231
1746.063,0.5071858,0.45017642,0.27529564,0.677288,0,0.0,0.0,0.0,0.0,0.0,0,0,0.0,0.0,0,0,37.0,0.0,0.0,4590.256410256411,3988.205128205129,4600.512820512821,4471.282051282052,4228.205128205129,4518.461538461539,4511.794871794872,4480.512820512821,4469.2307692307695,4786.666666666667,4423.589743589744,4375.384615384616,4310.769230769231,4366.153846153847
1746.063,0.5071858,0.45017642,0.27529564,0.677288,0,0.0,0.0,0.0,0.0,0.0,0,0,0.0,0.0,0,0,37.0,0.0,0.0,4590.256410256411,3988.205128205129,4600.512820512821,4471.282051282052,4228.205128205129,4518.461538461539,4511.794871794872,4480.512820512821,4469.2307692307695,4786.666666666667,4423.589743589744,4375.384615384616,4310.769230769231,4366.153846153847
1746.5635,0.4307689,0.4464335,0.2864407,0.66914773,0,0.0,0.0,0.0,0.0,0.0,0,0,0.0,0.0,0,0,101.0,0.0,502.0,4636.410256410257,3995.8974358974365,4600.512820512821,4487.6923076923085,4265.641025641026,4554.871794871796,4515.384615384616,4469.2307692307695,4462.564102564103,4762.051282051282,4393.846153846154,4323.076923076924,4272.820512820514,4334.871794871796
1746.5635,0.4307689,0.4464335,0.2864407,0.66914773,0,0.0,0.0,0.0,0.0,0.0,0,0,0.0,0.0,0,0,101.0,0.0,502.0,4636.410256410257,3995.8974358974365,4600.512820512821,4487.6923076923085,4265.641025641026,4554.871794871796,4515.384615384616,4469.2307692307695,4462.564102564103,4762.051282051282,4393.846153846154,4323.076923076924,4272.820512820514,4334.871794871796
1747.0638,0.467524,0.45172107,0.29695708,0.6618212,0,0.0,0.0,0.0,0.0,0.0,0,0,0.0,0.0,0,0,36.0,0.0,0.0,4670.769230769231,4017.435897435898,4632.307692307693,4515.384615384616,4317.435897435898,4608.717948717949,4536.410256410257,4498.461538461539,4481.538461538462,4787.6923076923085,4404.102564102564,4356.410256410257,4292.820512820514,4345.641025641026
1747.0638,0.467524,0.45172107,0.29695708,0.6618212,0,0.0,0.0,0.0,0.0,0.0,0,0,0.0,0.0,0,0,36.0,0.0,0.0,4670.769230769231,4017.435897435898,4632.307692307693,4515.384615384616,4317.435897435898,4608.717948717949,4536.410256410257,4498.461538461539,4481.538461538462,4787.6923076923085,4404.102564102564,4356.410256410257,4292.820512820514,4345.641025641026
1747.5643,0.44021153,0.45459622,0.30642235,0.6552269,0,0.0,0.0,0.0,0.0,0.0,0,0,0.0,0.0,0,0,100.0,0.0,483.0,4628.717948717949,4003.076923076924,4598.461538461539,4487.6923076923085,4322.051282051282,4615.384615384616,4531.282051282052,4510.256410256411,4488.205128205129,4800.512820512821,4418.461538461539,4379.48717948718,4293.846153846154,4387.6923076923085
1747.5643,0.44021153,0.45459622,0.30642235,0.6552269,0,0.0,0.0,0.0,0.0,0.0,0,0,0.0,0.0,0,0,100.0,0.0,483.0,4628.717948717949,4003.076923076924,4598.461538461539,4487.6923076923085,4322.051282051282,4615.384615384616,4531.282051282052,4510.256410256411,4488.205128205129,4800.512820512821,4418.461538461539,4379.48717948718,4293.846153846154,4387.6923076923085
1748.0647,0.43661347,0.44900116,0.30564913,0.64815366,0,0.0,0.0,0.0,0.0,0.0,0,0,0.0,0.0,0,0,35.0,0.0,0.0,4596.410256410257,4023.076923076924,4594.871794871796,4487.179487179488,4327.6923076923085,4626.666666666667,4524.615384615385,4515.8974358974365,4502.564102564103,4794.871794871796,4424.615384615385,4409.2307692307695,4301.538461538462,4412.307692307693
1748.0647,0.43661347,0.44900116,0.30564913,0.64815366,0,0.0,0.0,0.0,0.0,0.0,0,0,0.0,0.0,0,0,35.0,0.0,0.0,4596.410256410257,4023.076923076924,4594.871794871796,4487.179487179488,4327.6923076923085,4626.666666666667,4524.615384615385,4515.8974358974365,4502.564102564103,4794.871794871796,4424.615384615385,4409.2307692307695,4301.538461538462,4412.307692307693
1748.5652,0.46308056,0.42667127,0.30490863,0.64279455,0,0.0,0.0,0.0,0.0,0.0,0,0,0.0,0.0,0,0,99.0,0.0,413.0,4577.948717948719,4004.1025641025644,4567.6923076923085,4474.871794871796,4304.102564102564,4595.8974358974365,4496.410256410257,4483.076923076924,4501.538461538462,4772.820512820514,4393.846153846154,4342.051282051282,4279.48717948718,4371.282051282052
1748.5652,0.46308056,0.42667127,0.30490863,0.64279455,0,0.0,0.0,0.0,0.0,0.0,0,0,0.0,0.0,0,0,99.0,0.0,413.0,4577.948717948719,4004.1025641025644,4567.6923076923085,4474.871794871796,4304.102564102564,4595.8974358974365,4496.410256410257,4483.076923076924,4501.538461538462,4772.820512820514,4393.846153846154,4342.051282051282,4279.48717948718,4371.282051282052
1749.0656,0.3856304,0.4134322,0.30424264,0.6402903,0,0.0,0.0,0.0,0.0,0.0,0,0,0.0,0.0,0,0,34.0,0.0,0.0,4619.48717948718,4000.0000000000005,4486.153846153847,4441.025641025642,4286.153846153847,4577.435897435898,4478.974358974359,4451.794871794872,4470.769230769231,4692.307692307693,4293.333333333334,4283.589743589744,4160.000000000001,4341.538461538462
1749.0656,0.3856304,0.4134322,0.30424264,0.6402903,0,0.0,0.0,0.0,0.0,0.0,0,0,0.0,0.0,0,0,34.0,0.0,0.0,4619.48717948718,4000.0000000000005,4486.153846153847,4441.025641025642,4286.153846153847,4577.435897435898,4478.974358974359,4451.794871794872,4470.769230769231,4692.307692307693,4293.333333333334,4283.589743589744,4160.000000000001,4341.538461538462
1749.566,0.43757617,0.41708893,0.30412927,0.63803524,0,0.0,0.0,0.0,0.0,0.0,0,0,0.0,0.0,0,0,98.0,0.0,539.0,4600.000000000001,3937.435897435898,4295.384615384616,4324.102564102564,4276.410256410257,4572.307692307693,4498.974358974359,4454.358974358975,4434.358974358975,4634.871794871796,4254.871794871796,4252.820512820514,4032.820512820513,4344.615384615385
1749.566,0.43757617,0.41708893,0.30412927,0.63803524,0,0.0,0.0,0.0,0.0,0.0,0,0,0.0,0.0,0,0,98.0,0.0,539.0,4600.000000000001,3937.435897435898,4295.384615384616,4324.102564102564,4276.410256410257,4572.307692307693,4498.974358974359,4454.358974358975,4434.358974358975,4634.871794871796,4254.871794871796,4252.820512820514,4032.820512820513,4344.615384615385
1750.0665,0.45497003,0.4151084,0.30638158,0.6360044,0,0.0,0.0,0.0,0.0,0.0,0,0,0.0,0.0,0,0,33.0,0.0,0.0,4563.589743589744,3936.410256410257,4378.461538461539,4356.410256410257,4257.435897435898,4550.769230769231,4501.538461538462,4457.435897435898,4442.051282051282,4652.307692307693,4143.589743589744,4287.6923076923085,4124.102564102564,4343.589743589744
1750.0665,0.45497003,0.4151084,0.30638158,0.6360044,0,0.0,0.0,0.0,0.0,0.0,0,0,0.0,0.0,0,0,33.0,0.0,0.0,4563.589743589744,3936.410256410257,4378.461538461539,4356.410256410257,4257.435897435898,4550.769230769231,4501.538461538462,4457.435897435898,4442.051282051282,4652.307692307693,4143.589743589744,4287.6923076923085,4124.102564102564,4343.589743589744
1750.5669,0.34060147,0.41248313,0.30840907,0.6341754,0,0.0,0.0,0.0,0.0,0.0,0,0,0.0,0.0,0,0,97.0,0.0,502.0,4517.948717948719,3935.8974358974365,4474.358974358975,4398.974358974359,4242.564102564103,4530.769230769231,4474.358974358975,4435.8974358974365,4466.153846153847,4710.256410256411,4254.871794871796,4272.307692307693,4238.461538461539,4366.153846153847
1750.5669,0.34060147,0.41248313,0.30840907,0.6341754,0,0.0,0.0,0.0,0.0,0.0,0,0,0.0,0.0,0,0,97.0,0.0,502.0,4517.948717948719,3935.8974358974365,4474.358974358975,4398.974358974359,4242.564102564103,4530.769230769231,4474.358974358975,4435.8974358974365,4466.153846153847,4710.256410256411,4254.871794871796,4272.307692307693,4238.461538461539,4366.153846153847
1751.0674,0.35441577,0.38188687,0.3119727,0.6359265,0,0.0,0.0,0.0,0.0,0.0,0,0,0.0,0.0,0,0,32.0,0.0,0.0,4567.6923076923085,3937.9487179487182,4582.051282051282,4478.974358974359,4224.615384615385,4525.128205128206,4461.538461538462,4428.717948717949,4481.025641025642,4738.461538461539,4308.205128205129,4302.564102564103,4276.410256410257,4392.307692307693
1751.0674,0.35441577,0.38188687,0.3119727,0.6359265,0,0.0,0.0,0.0,0.0,0.0,0,0,0.0,0.0,0,0,32.0,0.0,0.0,4567.6923076923085,3937.9487179487182,4582.051282051282,4478.974358974359,4224.615384615385,4525.128205128206,4461.538461538462,4428.717948717949,4481.025641025642,4738.461538461539,4308.205128205129,4302.564102564103,4276.410256410257,4392.307692307693
1751.5677,0.325308,0.3554512,0.3151803,0.64186996,0,0.0,0.0,0.0,0.0,0.0,0,0,0.0,0.0,0,0,96.0,0.0,483.0,4584.102564102564,3909.7435897435903,4561.538461538462,4487.6923076923085,4230.256410256411,4518.974358974359,4451.282051282052,4408.205128205129,4474.358974358975,4741.025641025642,4328.205128205129,4289.74358974359,4262.051282051282,4408.205128205129
1751.5677,0.325308,0.3554512,0.3151803,0.64186996,0,0.0,0.0,0.0,0.0,0.0,0,0,0.0,0.0,0,0,96.0,0.0,483.0,4584.102564102564,3909.7435897435903,4561.538461538462,4487.6923076923085,4230.256410256411,4518.974358974359,4451.282051282052,4408.205128205129,4474.358974358975,4741.025641025642,4328.205128205129,4289.74358974359,4262.051282051282,4408.205128205129
1752.0682,0.3159407,0.35127115,0.3160719,0.64721626,0,0.0,0.0,0.0,0.0,0.0,0,0,0.0,0.0,0,0,31.0,0.0,0.0,4631.794871794872,3932.307692307693,4586.666666666667,4510.256410256411,4243.589743589744,4526.153846153847,4449.743589743591,4418.974358974359,4473.846153846154,4740.512820512821,4327.6923076923085,4295.8974358974365,4240.000000000001,4424.615384615385
1752.0682,0.3159407,0.35127115,0.3160719,0.64721626,0,0.0,0.0,0.0,0.0,0.0,0,0,0.0,0.0,0,0,31.0,0.0,0.0,4631.794871794872,3932.307692307693,4586.666666666667,4510.256410256411,4243.589743589744,4526.153846153847,4449.743589743591,4418.974358974359,4473.846153846154,4740.512820512821,4327.6923076923085,4295.8974358974365,4240.000000000001,4424.615384615385
1752.5686,0.3359943,0.34929052,0.31386924,0.6520249,0,0.0,0.0,0.0,0.0,0.0,0,0,0.0,0.0,0,0,95.0,0.0,414.0,4655.8974358974365,3943.589743589744,4589.2307692307695,4529.2307692307695,4255.384615384616,4532.820512820514,4460.000000000001,4430.256410256411,4480.512820512821,4764.102564102564,4367.179487179487,4305.128205128206,4256.923076923077,4446.153846153847
1752.5686,0.3359943,0.34929052,0.31386924,0.6520249,0,0.0,0.0,0.0,0.0,0.0,0,0,0.0,0.0,0,0,95.0,0.0,414.0,4655.8974358974365,3943.589743589744,4589.2307692307695,4529.2307692307695,4255.384615384616,4532.820512820514,4460.000000000001,4430.256410256411,4480.512820512821,4764.102564102564,4367.179487179487,4305.128205128206,4256.923076923077,4446.153846153847
1753.0691,0.25178367,0.36836076,0.3081549,0.65616345,0,0.0,0.0,0.0,0.0,0.0,0,0,0.0,0.0,0,0,30.0,0.0,0.0,4666.666666666667,3943.076923076924,4573.333333333334,4526.666666666667,4252.820512820514,4532.307692307693,4456.923076923077,4414.871794871796,4472.820512820514,4733.333333333334,4329.2307692307695,4270.256410256411,4209.74358974359,4444.102564102564
1753.0691,0.25178367,0.36836076,0.3081549,0.65616345,0,0.0,0.0,0.0,0.0,0.0,0,0,0.0,0.0,0,0,30.0,0.0,0.0,4666.666666666667,3943.076923076924,4573.333333333334,4526.666666666667,4252.820512820514,4532.307692307693,4456.923076923077,4414.871794871796,4472.820512820514,4733.333333333334,4329.2307692307695,4270.256410256411,4209.74358974359,4444.102564102564
1753.6007,0.32301444,1.0,0.30674106,0.6571858,0,0.0,0.0,0.0,1.0,0.0,0,0,0.0,0.0,0,0,98.0,0.0,543.0,5484.102564102564,3928.717948717949,4623.589743589744,4578.461538461539,4245.128205128206,4523.589743589744,4441.025641025642,4394.871794871796,4471.282051282052,4713.846153846154,4117.435897435898,4620.000000000001,4183.076923076924,5356.923076923078
1753.6007,0.32301444,1.0,0.30674106,0.6571858,0,0.0,0.0,0.0,1.0,0.0,0,0,0.0,0.0,0,0,98.0,0.0,543.0,5484.102564102564,3928.717948717949,4623.589743589744,4578.461538461539,4245.128205128206,4523.589743589744,4441.025641025642,4394.871794871796,4471.282051282052,4713.846153846154,4117.435897435898,4620.000000000001,4183.076923076924,5356.923076923078
1754.1012,0.43998694,1.0,0.30546862,0.6567234,0,0.0,0.0,0.0,1.0,0.0,0,0,0.0,0.0,0,0,33.0,0.0,0.0,5318.974358974359,3942.0512820512827,4494.871794871796,4489.2307692307695,4207.179487179487,4509.2307692307695,4424.102564102564,4375.8974358974365,4450.769230769231,4681.025641025642,4192.820512820514,4550.256410256411,4206.666666666667,5164.615384615386
1754.1012,0.43998694,1.0,0.30546862,0.6567234,0,0.0,0.0,0.0,1.0,0.0,0,0,0.0,0.0,0,0,33.0,0.0,0.0,5318.974358974359,3942.0512820512827,4494.871794871796,4489.2307692307695,4207.179487179487,4509.2307692307695,4424.102564102564,4375.8974358974365,4450.769230769231,4681.025641025642,4192.820512820514,4550.256410256411,4206.666666666667,5164.615384615386
1754.6016,0.51619714,1.0,0.30545333,0.65107054,0,0.0,0.0,0.0,1.0,0.0,0,0,0.0,0.0,0,0,97.0,0.0,488.0,4602.564102564103,4007.692307692308,4506.666666666667,4484.615384615385,4243.589743589744,4535.8974358974365,4461.025641025642,4412.307692307693,4444.102564102564,4728.205128205129,4379.48717948718,4390.769230769231,4309.743589743591,5042.051282051283
1754.8206,0.51619714,1.0,0.30545333,0.65107054,0,0.0,0.0,0.0,0.0,1.0,0,0,0.0,0.0,0,0,125.0,0.0,488.0,4601.025641025642,4028.205128205129,4523.589743589744,4492.820512820514,4265.641025641026,4559.48717948718,4483.589743589744,4434.871794871796,4451.794871794872,4767.6923076923085,4486.153846153847,4462.051282051282,4316.923076923077,5071.794871794872
1755.0708,0.5347304,1.0,0.30824524,0.64117026,0,0.0,0.0,0.0,0.0,0.42957056,0,0,0.0,0.0,0,0,28.0,0.0,0.0,4619.48717948718,4047.692307692308,4563.589743589744,4525.128205128206,4279.48717948718,4575.8974358974365,4485.128205128206,4432.307692307693,4452.820512820514,4777.435897435898,4440.000000000001,4827.6923076923085,4331.282051282052,5027.6923076923085
1755.321,0.5347304,1.0,0.30824524,0.64117026,0,0.0,0.0,0.0,0.0,1.0,0,0,0.0,0.0,0,0,60.0,0.0,0.0,4646.666666666667,4016.9230769230776,4568.205128205129,4524.615384615385,4292.307692307693,4583.076923076924,4489.743589743591,4433.333333333334,4453.846153846154,4788.205128205129,4437.435897435898,4726.153846153847,4343.076923076924,4987.179487179488
1755.5712,0.49517182,1.0,0.31075832,0.6322599,0,0.0,0.0,0.0,0.0,1.0,0,0,0.0,0.0,0,0,92.0,0.0,482.0,4703.589743589744,4007.1794871794878,4563.076923076924,4513.333333333334,4282.051282051282,4576.923076923077,4470.256410256411,4414.871794871796,4448.717948717949,4768.717948717949,4415.384615384616,4447.6923076923085,4303.589743589744,4882.564102564103
1755.5712,0.49517182,1.0,0.31075832,0.6322599,0,0.0,0.0,0.0,0.0,1.0,0,0,0.0,0.0,0,0,92.0,0.0,482.0,4703.589743589744,4007.1794871794878,4563.076923076924,4513.333333333334,4282.051282051282,4576.923076923077,4470.256410256411,4414.871794871796,4448.717948717949,4768.717948717949,4415.384615384616,4447.6923076923085,4303.589743589744,4882.564102564103
1756.0717,0.4733124,1.0,0.31302047,0.6242404,0,0.0,0.0,0.0,0.0,1.0,0,0,0.0,0.0,0,0,27.0,0.0,0.0,4764.102564102564,3952.820512820513,4550.256410256411,4498.461538461539,4268.205128205129,4557.435897435898,4467.179487179487,4416.923076923077,4442.051282051282,4762.564102564103,4410.256410256411,4230.256410256411,4285.641025641026,4795.384615384616
1756.3219,0.4733124,1.0,0.31302047,0.6242404,0,0.0,0.0,0.0,0.0,0.7557505,0,0,0.0,0.0,0,0,59.0,0.0,0.0,4720.000000000001,3927.692307692308,4520.512820512821,4481.025641025642,4255.8974358974365,4542.564102564103,4443.076923076924,4390.256410256411,4427.179487179487,4732.307692307693,4376.923076923077,4192.307692307693,4247.6923076923085,4735.384615384616
1756.572,0.44419542,1.0,0.31505668,0.6170237,0,0.0,0.0,0.0,0.0,1.0,0,0,0.0,0.0,0,0,91.0,0.0,394.0,4695.8974358974365,3938.461538461539,4534.871794871796,4494.871794871796,4267.6923076923085,4553.846153846154,4473.333333333334,4420.000000000001,4434.871794871796,4753.333333333334,4438.461538461539,4221.538461538462,4258.974358974359,4708.205128205129
1756.8223,0.44419542,1.0,0.31505668,0.6170237,0,0.0,0.0,0.0,0.0,0.8561009,0,0,0.0,0.0,0,0,123.0,0.0,394.0,4641.025641025642,3921.0256410256416,4506.666666666667,4470.256410256411,4263.076923076924,4552.307692307693,4467.6923076923085,4413.846153846154,4431.282051282052,4756.923076923077,4431.794871794872,4205.641025641026,4273.846153846154,4691.282051282052
1757.0725,0.36248493,1.0,0.31688958,0.6105306,0,0.0,0.0,0.0,0.0,0.12645613,0,0,0.0,0.0,0,0,26.0,0.0,0.0,4639.48717948718,3941.538461538462,4512.820512820514,4464.615384615385,4250.769230769231,4538.461538461539,4465.641025641026,4411.794871794872,4417.948717948719,4742.564102564103,4447.6923076923085,4235.8974358974365,4231.282051282052,4661.538461538462
1757.3228,0.36248493,1.0,0.31688958,0.6105306,0,0.0,0.0,0.0,0.0,0.2666126,0,0,0.0,0.0,0,0,58.0,0.0,0.0,4629.2307692307695,3938.9743589743593,4480.512820512821,4436.923076923077,4245.128205128206,4535.384615384616,4450.256410256411,4391.794871794872,4389.743589743591,4700.512820512821,4393.333333333334,4190.256410256411,4144.615384615385,4610.769230769231
1757.5729,0.39224353,1.0,0.3191172,0.61473113,0,0.0,0.0,0.0,0.0,0.11080267,0,0,0.0,0.0,0,0,90.0,0.0,539.0,4640.000000000001,3938.9743589743593,4465.641025641026,4414.871794871796,4245.641025641026,4534.358974358975,4454.358974358975,4386.666666666667,4365.641025641026,4674.358974358975,4361.025641025642,4160.000000000001,4102.564102564103,4599.48717948718
1757.8231,0.39224353,1.0,0.3191172,0.61473113,0,0.0,0.0,0.0,0.0,0.18872662,0,0,0.0,0.0,0,0,122.0,0.0,539.0,4620.512820512821,3949.2307692307695,4455.8974358974365,4403.076923076924,4244.615384615385,4534.871794871796,4466.153846153847,4388.717948717949,4366.666666666667,4680.000000000001,4366.153846153847,4195.8974358974365,4147.6923076923085,4578.974358974359
1758.0734,0.42349657,1.0,0.32447848,0.6202679,0,0.0,0.0,0.0,0.0,0.0,0,0,0.0,0.0,0,0,25.0,0.0,0.0,4606.153846153847,3975.8974358974365,4468.205128205129,4406.666666666667,4256.923076923077,4549.743589743591,4488.717948717949,4409.2307692307695,4373.846153846154,4710.256410256411,4381.025641025642,4224.615384615385,4199.48717948718,4578.974358974359
1758.0734,0.42349657,1.0,0.32447848,0.6202679,0,0.0,0.0,0.0,0.0,0.0,0,0,0.0,0.0,0,0,25.0,0.0,0.0,4606.153846153847,3975.8974358974365,4468.205128205129,4406.666666666667,4256.923076923077,4549.743589743591,4488.717948717949,4409.2307692307695,4373.846153846154,4710.256410256411,4381.025641025642,4224.615384615385,4199.48717948718,4578.974358974359
1758.5737,0.4537798,1.0,0.32988244,0.62524927,0,0.0,0.0,0.0,0.0,0.0,0,0,0.0,0.0,0,0,89.0,0.0,503.0,4666.153846153847,4021.538461538462,4557.435897435898,4483.589743589744,4277.948717948719,4572.307692307693,4515.8974358974365,4446.153846153847,4404.615384615385,4771.282051282052,4411.794871794872,4256.923076923077,4261.538461538462,4565.128205128206
1758.5737,0.4537798,1.0,0.32988244,0.62524927,0,0.0,0.0,0.0,0.0,0.0,0,0,0.0,0.0,0,0,89.0,0.0,503.0,4666.153846153847,4021.538461538462,4557.435897435898,4483.589743589744,4277.948717948719,4572.307692307693,4515.8974358974365,4446.153846153847,4404.615384615385,4771.282051282052,4411.794871794872,4256.923076923077,4261.538461538462,4565.128205128206
1759.082,0.4212645,1.0,0.33474606,0.6297306,0,0.0,0.0,0.0,0.0,0.0,0,0,0.0,0.0,0,0,24.0,0.0,0.0,4616.410256410257,4023.076923076924,4553.333333333334,4468.205128205129,4273.846153846154,4571.282051282052,4511.794871794872,4455.384615384616,4423.076923076924,4815.8974358974365,4444.102564102564,4299.48717948718,4334.358974358975,4537.948717948719
1759.082,0.4212645,1.0,0.33474606,0.6297306,0,0.0,0.0,0.0,0.0,0.0,0,0,0.0,0.0,0,0,24.0,0.0,0.0,4616.410256410257,4023.076923076924,4553.333333333334,4468.205128205129,4273.846153846154,4571.282051282052,4511.794871794872,4455.384615384616,4423.076923076924,4815.8974358974365,4444.102564102564,4299.48717948718,4334.358974358975,4537.948717948719
1759.5825,0.44617206,1.0,0.3363436,0.62845206,0,0.0,0.0,0.0,0.0,0.0,0,0,0.0,0.0,0,0,88.0,0.0,482.0,4586.666666666667,4023.076923076924,4547.6923076923085,4441.538461538462,4241.538461538462,4538.974358974359,4477.948717948719,4406.153846153847,4403.076923076924,4748.205128205129,4359.48717948718,4208.717948717949,4238.974358974359,4528.717948717949
1759.5825,0.44617206,1.0,0.3363436,0.62845206,0,0.0,0.0,0.0,0.0,0.0,0,0,0.0,0.0,0,0,88.0,0.0,482.0,4586.666666666667,4023.076923076924,4547.6923076923085,4441.538461538462,4241.538461538462,4538.974358974359,4477.948717948719,4406.153846153847,4403.076923076924,4748.205128205129,4359.48717948718,4208.717948717949,4238.974358974359,4528.717948717949
1760.0829,0.46004674,1.0,0.33778134,0.62238437,0,0.0,0.0,0.0,0.0,0.0,0,0,0.0,0.0,0,0,23.0,0.0,0.0,4553.846153846154,3987.1794871794878,4531.282051282052,4434.871794871796,4236.923076923077,4528.717948717949,4452.820512820514,4386.666666666667,4403.589743589744,4743.076923076924,4349.743589743591,4249.74358974359,4241.538461538462,4530.769230769231
1760.0829,0.46004674,1.0,0.33778134,0.62238437,0,0.0,0.0,0.0,0.0,0.0,0,0,0.0,0.0,0,0,23.0,0.0,0.0,4553.846153846154,3987.1794871794878,4531.282051282052,4434.871794871796,4236.923076923077,4528.717948717949,4452.820512820514,4386.666666666667,4403.589743589744,4743.076923076924,4349.743589743591,4249.74358974359,4241.538461538462,4530.769230769231
1760.5834,0.50333464,0.9203336,0.33802265,0.6128669,0,0.0,0.0,0.0,0.0,0.0,0,0,0.0,0.0,0,0,87.0,0.0,403.0,4509.2307692307695,3944.1025641025644,4506.666666666667,4413.846153846154,4224.102564102564,4511.282051282052,4424.102564102564,4371.282051282052,4321.538461538462,4711.794871794872,4325.641025641026,4215.384615384616,4182.051282051282,4474.871794871796
1760.5834,0.50333464,0.9203336,0.33802265,0.6128669,0,0.0,0.0,0.0,0.0,0.0,0,0,0.0,0.0,0,0,87.0,0.0,403.0,4509.2307692307695,3944.1025641025644,4506.666666666667,4413.846153846154,4224.102564102564,4511.282051282052,4424.102564102564,4371.282051282052,4321.538461538462,4711.794871794872,4325.641025641026,4215.384615384616,4182.051282051282,4474.871794871796
1761.0837,0.45959693,0.84687096,0.33503556,0.6006759,0,0.0,0.0,0.0,0.0,0.0,0,0,0.0,0.0,0,0,22.0,0.0,0.0,4553.333333333334,3928.205128205129,4488.717948717949,4390.769230769231,4211.282051282052,4501.025641025642,4413.846153846154,4358.461538461539,4333.846153846154,4701.538461538462,4312.307692307693,4229.74358974359,4160.512820512821,4464.615384615385
1761.0837,0.45959693,0.84687096,0.33503556,0.6006759,0,0.0,0.0,0.0,0.0,0.0,0,0,0.0,0.0,0,0,22.0,0.0,0.0,4553.333333333334,3928.205128205129,4488.717948717949,4390.769230769231,4211.282051282052,4501.025641025642,4413.846153846154,4358.461538461539,4333.846153846154,4701.538461538462,4312.307692307693,4229.74358974359,4160.512820512821,4464.615384615385
1761.5842,0.41176385,0.78593916,0.33234715,0.5897038,0,0.0,0.0,0.0,0.0,0.0,0,0,0.0,0.0,0,0,86.0,0.0,539.0,4534.871794871796,3919.48717948718,4466.153846153847,4368.205128205129,4208.205128205129,4500.000000000001,4406.666666666667,4352.820512820514,4335.8974358974365,4689.2307692307695,4309.743589743591,4232.307692307693,4162.051282051282,4442.051282051282
1761.8344,0.41176385,0.78593916,0.33234715,0.5897038,0,0.0,0.0,0.0,0.0,0.2989843,0,0,0.0,0.0,0,0,118.0,0.0,539.0,4537.948717948719,3926.666666666667,4484.102564102564,4394.871794871796,4217.948717948719,4505.641025641026,4428.717948717949,4377.948717948719,4351.282051282052,4712.820512820514,4323.076923076924,4255.8974358974365,4192.820512820514,4452.820512820514
1762.0846,0.46032926,0.73881984,0.33498728,0.5834546,0,0.0,0.0,0.0,0.0,0.0,0,0,0.0,0.0,0,0,21.0,0.0,0.0,4563.589743589744,3947.692307692308,4498.974358974359,4422.051282051282,4230.769230769231,4516.410256410257,4436.410256410257,4389.743589743591,4353.846153846154,4714.358974358975,4317.435897435898,4254.871794871796,4189.2307692307695,4450.256410256411
1762.0846,0.46032926,0.73881984,0.33498728,0.5834546,0,0.0,0.0,0.0,0.0,0.0,0,0,0.0,0.0,0,0,21.0,0.0,0.0,4563.589743589744,3947.692307692308,4498.974358974359,4422.051282051282,4230.769230769231,4516.410256410257,4436.410256410257,4389.743589743591,4353.846153846154,4714.358974358975,4317.435897435898,4254.871794871796,4189.2307692307695,4450.256410256411
1762.5851,0.44216287,0.6947247,0.33579025,0.5778301,0,0.0,0.0,0.0,0.0,0.0,0,0,0.0,0.0,0,0,85.0,0.0,503.0,4529.743589743591,3948.717948717949,4480.512820512821,4420.000000000001,4224.615384615385,4512.820512820514,4449.743589743591,4397.435897435898,4342.564102564103,4702.564102564103,4315.384615384616,4277.435897435898,4191.282051282052,4450.769230769231
1762.5851,0.44216287,0.6947247,0.33579025,0.5778301,0,0.0,0.0,0.0,0.0,0.0,0,0,0.0,0.0,0,0,85.0,0.0,503.0,4529.743589743591,3948.717948717949,4480.512820512821,4420.000000000001,4224.615384615385,4512.820512820514,4449.743589743591,4397.435897435898,4342.564102564103,4702.564102564103,4315.384615384616,4277.435897435898,4191.282051282052,4450.769230769231
1763.0854,0.41980028,0.63514537,0.33138245,0.57659084,0,0.0,0.0,0.0,0.0,0.0,0,0,0.0,0.0,0,0,20.0,0.0,0.0,4532.307692307693,3954.358974358975,4485.641025641026,4403.589743589744,4227.6923076923085,4510.769230769231,4436.923076923077,4379.48717948718,4333.846153846154,4676.923076923077,4272.820512820514,4243.589743589744,4139.48717948718,4424.102564102564
1763.0854,0.41980028,0.63514537,0.33138245,0.57659084,0,0.0,0.0,0.0,0.0,0.0,0,0,0.0,0.0,0,0,20.0,0.0,0.0,4532.307692307693,3954.358974358975,4485.641025641026,4403.589743589744,4227.6923076923085,4510.769230769231,4436.923076923077,4379.48717948718,4333.846153846154,4676.923076923077,4272.820512820514,4243.589743589744,4139.48717948718,4424.102564102564
1763.5859,0.3887049,0.58111024,0.3271054,0.5811994,0,0.0,0.0,0.0,0.0,0.0,0,0,0.0,0.0,0,0,84.0,0.0,482.0,4548.205128205129,3937.9487179487182,4477.435897435898,4406.153846153847,4231.282051282052,4513.333333333334,4434.871794871796,4387.6923076923085,4355.8974358974365,4715.384615384616,4319.48717948718,4282.564102564103,4179.48717948718,4457.435897435898
1763.5859,0.3887049,0.58111024,0.3271054,0.5811994,0,0.0,0.0,0.0,0.0,0.0,0,0,0.0,0.0,0,0,84.0,0.0,482.0,4548.205128205129,3937.9487179487182,4477.435897435898,4406.153846153847,4231.282051282052,4513.333333333334,4434.871794871796,4387.6923076923085,4355.8974358974365,4715.384615384616,4319.48717948718,4282.564102564103,4179.48717948718,4457.435897435898
1764.0863,0.32505098,0.5493671,0.32117322,0.58539355,0,0.0,0.0,0.0,0.0,0.0,0,0,0.0,0.0,0,0,19.0,0.0,0.0,4554.871794871796,3947.692307692308,4487.6923076923085,4403.076923076924,4220.000000000001,4502.564102564103,4427.6923076923085,4380.000000000001,4363.076923076924,4701.538461538462,4301.538461538462,4246.666666666667,4149.2307692307695,4484.615384615385
1764.0863,0.32505098,0.5493671,0.32117322,0.58539355,0,0.0,0.0,0.0,0.0,0.0,0,0,0.0,0.0,0,0,19.0,0.0,0.0,4554.871794871796,3947.692307692308,4487.6923076923085,4403.076923076924,4220.000000000001,4502.564102564103,4427.6923076923085,4380.000000000001,4363.076923076924,4701.538461538462,4301.538461538462,4246.666666666667,4149.2307692307695,4484.615384615385
1764.5868,0.32158738,0.5300933,0.31583446,0.5894807,0,0.0,0.0,0.0,0.0,0.0,0,0,0.0,0.0,0,0,83.0,0.0,412.0,4602.564102564103,3950.7692307692314,4518.974358974359,4411.794871794872,4256.410256410257,4534.358974358975,4462.564102564103,4409.2307692307695,4377.948717948719,4742.564102564103,4340.000000000001,4300.512820512821,4212.307692307693,4518.461538461539
1764.5868,0.32158738,0.5300933,0.31583446,0.5894807,0,0.0,0.0,0.0,0.0,0.0,0,0,0.0,0.0,0,0,83.0,0.0,412.0,4602.564102564103,3950.7692307692314,4518.974358974359,4411.794871794872,4256.410256410257,4534.358974358975,4462.564102564103,4409.2307692307695,4377.948717948719,4742.564102564103,4340.000000000001,4300.512820512821,4212.307692307693,4518.461538461539
1765.0872,0.37434793,0.52206975,0.31102985,0.59298426,0,0.0,0.0,0.0,0.0,0.36815518,0,0,0.0,0.0,0,0,18.0,0.0,0.0,4638.461538461539,3975.8974358974365,4545.641025641026,4460.000000000001,4282.051282051282,4564.102564102564,4491.794871794872,4440.512820512821,4399.48717948718,4780.512820512821,4363.076923076924,4321.538461538462,4249.74358974359,4510.256410256411
1765.2123,0.37434793,0.52206975,0.31102985,0.59298426,0,0.0,0.0,0.0,0.0,0.0,0,0,0.0,0.0,0,0,34.0,0.0,0.0,4632.307692307693,3982.564102564103,4553.846153846154,4475.384615384616,4284.615384615385,4571.282051282052,4501.025641025642,4451.794871794872,4411.282051282052,4800.512820512821,4381.538461538462,4330.769230769231,4268.717948717949,4524.102564102564
1765.5876,0.44873697,0.5058202,0.30670607,0.5961367,0,0.0,0.0,0.0,0.0,0.0,0,0,0.0,0.0,0,0,82.0,0.0,540.0,4639.48717948718,3970.7692307692314,4539.48717948718,4465.641025641026,4268.205128205129,4553.846153846154,4475.384615384616,4428.717948717949,4390.769230769231,4759.48717948718,4356.923076923077,4308.717948717949,4233.846153846154,4505.641025641026
1765.5876,0.44873697,0.5058202,0.30670607,0.5961367,0,0.0,0.0,0.0,0.0,0.0,0,0,0.0,0.0,0,0,82.0,0.0,540.0,4639.48717948718,3970.7692307692314,4539.48717948718,4465.641025641026,4268.205128205129,4553.846153846154,4475.384615384616,4428.717948717949,4390.769230769231,4759.48717948718,4356.923076923077,4308.717948717949,4233.846153846154,4505.641025641026
1766.088,0.46484002,0.50003105,0.30579334,0.5989731,0,0.0,0.0,0.0,0.0,0.0,0,0,0.0,0.0,0,0,17.0,0.0,0.0,4622.051282051282,3954.8717948717954,4526.153846153847,4456.410256410257,4249.2307692307695,4535.384615384616,4458.461538461539,4419.48717948718,4399.48717948718,4763.589743589744,4366.666666666667,4324.615384615385,4243.589743589744,4500.512820512821
1766.088,0.46484002,0.50003105,0.30579334,0.5989731,0,0.0,0.0,0.0,0.0,0.0,0,0,0.0,0.0,0,0,17.0,0.0,0.0,4622.051282051282,3954.8717948717954,4526.153846153847,4456.410256410257,4249.2307692307695,4535.384615384616,4458.461538461539,4419.48717948718,4399.48717948718,4763.589743589744,4366.666666666667,4324.615384615385,4243.589743589744,4500.512820512821
1766.5885,0.4605507,0.5078484,0.3063239,0.601525,0,0.0,0.0,0.0,0.0,0.0,0,0,0.0,0.0,0,0,81.0,0.0,503.0,4622.051282051282,3940.0000000000005,4534.871794871796,4474.358974358975,4262.051282051282,4550.769230769231,4472.307692307693,4430.256410256411,4403.076923076924,4774.871794871796,4375.8974358974365,4342.051282051282,4246.666666666667,4516.410256410257
1766.5885,0.4605507,0.5078484,0.3063239,0.601525,0,0.0,0.0,0.0,0.0,0.0,0,0,0.0,0.0,0,0,81.0,0.0,503.0,4622.051282051282,3940.0000000000005,4534.871794871796,4474.358974358975,4262.051282051282,4550.769230769231,4472.307692307693,4430.256410256411,4403.076923076924,4774.871794871796,4375.8974358974365,4342.051282051282,4246.666666666667,4516.410256410257
1767.0889,0.47936913,0.5049523,0.30747515,0.60492694,0,0.0,0.0,0.0,0.0,0.0,0,0,0.0,0.0,0,0,16.0,0.0,0.0,4606.153846153847,3918.461538461539,4506.153846153847,4440.512820512821,4238.461538461539,4523.589743589744,4451.282051282052,4400.512820512821,4393.333333333334,4737.435897435898,4348.205128205129,4303.589743589744,4206.666666666667,4512.820512820514
1767.0889,0.47936913,0.5049523,0.30747515,0.60492694,0,0.0,0.0,0.0,0.0,0.0,0,0,0.0,0.0,0,0,16.0,0.0,0.0,4606.153846153847,3918.461538461539,4506.153846153847,4440.512820512821,4238.461538461539,4523.589743589744,4451.282051282052,4400.512820512821,4393.333333333334,4737.435897435898,4348.205128205129,4303.589743589744,4206.666666666667,4512.820512820514
1767.5894,0.47064233,0.49019322,0.30914792,0.6096521,0,0.0,0.0,0.0,0.0,0.0,0,0,0.0,0.0,0,0,80.0,0.0,482.0,4586.666666666667,3904.1025641025644,4477.435897435898,4423.076923076924,4226.666666666667,4514.358974358975,4418.461538461539,4368.717948717949,4383.589743589744,4711.794871794872,4305.128205128206,4271.282051282052,4176.410256410257,4504.102564102564
1767.5894,0.47064233,0.49019322,0.30914792,0.6096521,0,0.0,0.0,0.0,0.0,0.0,0,0,0.0,0.0,0,0,80.0,0.0,482.0,4586.666666666667,3904.1025641025644,4477.435897435898,4423.076923076924,4226.666666666667,4514.358974358975,4418.461538461539,4368.717948717949,4383.589743589744,4711.794871794872,4305.128205128206,4271.282051282052,4176.410256410257,4504.102564102564
1768.0897,0.4288998,0.48812208,0.3106538,0.6145257,0,0.0,0.0,0.0,0.0,0.0,0,0,0.0,0.0,0,0,15.0,0.0,412.0,4602.051282051282,3875.8974358974365,4437.435897435898,4406.666666666667,4217.948717948719,4503.589743589744,4417.948717948719,4379.48717948718,4367.6923076923085,4697.948717948719,4300.000000000001,4279.48717948718,4135.8974358974365,4486.153846153847
1768.0897,0.4288998,0.48812208,0.3106538,0.6145257,0,0.0,0.0,0.0,0.0,0.0,0,0,0.0,0.0,0,0,15.0,0.0,412.0,4602.051282051282,3875.8974358974365,4437.435897435898,4406.666666666667,4217.948717948719,4503.589743589744,4417.948717948719,4379.48717948718,4367.6923076923085,4697.948717948719,4300.000000000001,4279.48717948718,4135.8974358974365,4486.153846153847
1768.5902,0.45224285,0.4833183,0.31350577,0.6180387,0,0.0,0.0,0.0,0.0,0.0,0,0,0.0,0.0,0,0,79.0,0.0,412.0,4612.307692307693,3877.435897435898,4317.435897435898,4321.025641025642,4211.282051282052,4504.102564102564,4416.923076923077,4348.205128205129,4313.846153846154,4610.769230769231,4244.615384615385,4245.128205128206,4034.358974358975,4457.948717948719
1768.5902,0.45224285,0.4833183,0.31350577,0.6180387,0,0.0,0.0,0.0,0.0,0.0,0,0,0.0,0.0,0,0,79.0,0.0,412.0,4612.307692307693,3877.435897435898,4317.435897435898,4321.025641025642,4211.282051282052,4504.102564102564,4416.923076923077,4348.205128205129,4313.846153846154,4610.769230769231,4244.615384615385,4245.128205128206,4034.358974358975,4457.948717948719
1769.0906,0.45503733,0.48714447,0.32140553,0.61590654,0,0.0,0.0,0.0,0.0,0.0,0,0,0.0,0.0,0,0,14.0,0.0,540.0,4584.102564102564,3877.435897435898,4334.871794871796,4277.948717948719,4208.205128205129,4501.538461538462,4386.153846153847,4321.025641025642,4300.512820512821,4578.461538461539,4229.2307692307695,4162.564102564103,4038.461538461539,4448.205128205129
1769.0906,0.45503733,0.48714447,0.32140553,0.61590654,0,0.0,0.0,0.0,0.0,0.0,0,0,0.0,0.0,0,0,14.0,0.0,540.0,4584.102564102564,3877.435897435898,4334.871794871796,4277.948717948719,4208.205128205129,4501.538461538462,4386.153846153847,4321.025641025642,4300.512820512821,4578.461538461539,4229.2307692307695,4162.564102564103,4038.461538461539,4448.205128205129
1769.5911,0.4943956,0.4864537,0.3310099,0.61398673,0,0.0,0.0,0.0,0.0,0.0,0,0,0.0,0.0,0,0,78.0,0.0,540.0,4577.948717948719,3891.7948717948725,4433.846153846154,4332.820512820514,4198.461538461539,4486.153846153847,4392.820512820514,4343.589743589744,4315.384615384616,4636.410256410257,4263.589743589744,4207.179487179487,4123.076923076924,4474.871794871796
1769.5911,0.4943956,0.4864537,0.3310099,0.61398673,0,0.0,0.0,0.0,0.0,0.0,0,0,0.0,0.0,0,0,78.0,0.0,540.0,4577.948717948719,3891.7948717948725,4433.846153846154,4332.820512820514,4198.461538461539,4486.153846153847,4392.820512820514,4343.589743589744,4315.384615384616,4636.410256410257,4263.589743589744,4207.179487179487,4123.076923076924,4474.871794871796
1770.0916,0.45128,0.46761864,0.3394326,0.6033389,0,0.0,0.0,0.0,0.0,0.0,0,0,0.0,0.0,0,0,13.0,0.0,503.0,4602.564102564103,3911.7948717948725,4507.179487179488,4409.743589743591,4197.948717948719,4481.025641025642,4391.282051282052,4360.000000000001,4334.871794871796,4685.128205128206,4289.74358974359,4244.615384615385,4193.846153846154,4504.102564102564
1770.0916,0.45128,0.46761864,0.3394326,0.6033389,0,0.0,0.0,0.0,0.0,0.0,0,0,0.0,0.0,0,0,13.0,0.0,503.0,4602.564102564103,3911.7948717948725,4507.179487179488,4409.743589743591,4197.948717948719,4481.025641025642,4391.282051282052,4360.000000000001,4334.871794871796,4685.128205128206,4289.74358974359,4244.615384615385,4193.846153846154,4504.102564102564
1770.5919,0.40873846,0.46233112,0.35171437,0.59375554,0,0.0,0.0,0.0,0.0,0.0,0,0,0.0,0.0,0,0,77.0,0.0,503.0,4611.794871794872,3909.2307692307695,4515.384615384616,4397.948717948719,4178.461538461539,4468.717948717949,4385.128205128206,4359.48717948718,4338.974358974359,4688.205128205129,4287.179487179487,4237.435897435898,4185.128205128206,4503.076923076924
1770.5919,0.40873846,0.46233112,0.35171437,0.59375554,0,0.0,0.0,0.0,0.0,0.0,0,0,0.0,0.0,0,0,77.0,0.0,503.0,4611.794871794872,3909.2307692307695,4515.384615384616,4397.948717948719,4178.461538461539,4468.717948717949,4385.128205128206,4359.48717948718,4338.974358974359,4688.205128205129,4287.179487179487,4237.435897435898,4185.128205128206,4503.076923076924
1771.0924,0.34731564,0.45298508,0.36276764,0.58346206,0,0.0,0.0,0.0,0.0,0.0,0,0,0.0,0.0,0,0,12.0,0.0,482.0,4626.153846153847,3909.7435897435903,4506.153846153847,4390.769230769231,4174.358974358975,4464.102564102564,4393.846153846154,4364.615384615385,4336.923076923077,4686.153846153847,4281.025641025642,4226.153846153847,4173.333333333334,4481.538461538462
1771.0924,0.34731564,0.45298508,0.36276764,0.58346206,0,0.0,0.0,0.0,0.0,0.0,0,0,0.0,0.0,0,0,12.0,0.0,482.0,4626.153846153847,3909.7435897435903,4506.153846153847,4390.769230769231,4174.358974358975,4464.102564102564,4393.846153846154,4364.615384615385,4336.923076923077,4686.153846153847,4281.025641025642,4226.153846153847,4173.333333333334,4481.538461538462
1771.5928,0.3009885,0.43637198,0.37271506,0.57720184,0,0.0,0.0,0.0,0.0,0.0,0,0,0.0,0.0,0,0,76.0,0.0,482.0,4616.923076923077,3929.7435897435903,4484.102564102564,4383.589743589744,4177.435897435898,4463.076923076924,4391.794871794872,4353.333333333334,4338.461538461539,4686.153846153847,4330.769230769231,4228.205128205129,4169.2307692307695,4463.076923076924
1771.5928,0.3009885,0.43637198,0.37271506,0.57720184,0,0.0,0.0,0.0,0.0,0.0,0,0,0.0,0.0,0,0,76.0,0.0,482.0,4616.923076923077,3929.7435897435903,4484.102564102564,4383.589743589744,4177.435897435898,4463.076923076924,4391.794871794872,4353.333333333334,4338.461538461539,4686.153846153847,4330.769230769231,4228.205128205129,4169.2307692307695,4463.076923076924
1772.0933,0.26295602,0.42438057,0.37551636,0.5740402,0,0.0,0.0,0.0,0.0,0.0,0,0,0.0,0.0,0,0,11.0,0.0,412.0,4650.769230769231,3924.615384615385,4462.564102564103,4368.717948717949,4184.615384615385,4468.205128205129,4390.769230769231,4332.820512820514,4327.6923076923085,4661.025641025642,4328.717948717949,4186.666666666667,4132.307692307693,4447.179487179487
1772.0933,0.26295602,0.42438057,0.37551636,0.5740402,0,0.0,0.0,0.0,0.0,0.0,0,0,0.0,0.0,0,0,11.0,0.0,412.0,4650.769230769231,3924.615384615385,4462.564102564103,4368.717948717949,4184.615384615385,4468.205128205129,4390.769230769231,4332.820512820514,4327.6923076923085,4661.025641025642,4328.717948717949,4186.666666666667,4132.307692307693,4447.179487179487
1772.5936,0.2092058,0.4084545,0.3718442,0.573392,0,0.0,0.0,0.0,0.0,0.11361658,0,0,0.0,0.0,0,0,75.0,0.0,412.0,4611.282051282052,3887.1794871794878,4362.051282051282,4307.179487179487,4187.179487179487,4468.205128205129,4391.282051282052,4340.512820512821,4299.48717948718,4617.948717948719,4252.820512820514,4192.307692307693,4031.2820512820517,4449.743589743591
1772.8439,0.2092058,0.4084545,0.3718442,0.573392,0,0.0,0.0,0.0,0.0,0.031641588,0,0,0.0,0.0,0,0,107.0,0.0,412.0,4579.48717948718,3862.564102564103,4280.000000000001,4268.717948717949,4185.641025641026,4475.384615384616,4405.128205128206,4375.8974358974365,4277.948717948719,4591.794871794872,4246.666666666667,4190.769230769231,4011.2820512820517,4454.358974358975
1773.0941,0.14849323,0.39058676,0.36264887,0.5728083,0,0.0,0.0,0.0,0.0,0.020294636,0,0,0.0,0.0,0,0,10.0,0.0,540.0,4554.358974358975,3853.8461538461543,4273.846153846154,4267.6923076923085,4191.794871794872,4480.512820512821,4406.666666666667,4421.538461538462,4267.6923076923085,4562.051282051282,4221.538461538462,4183.589743589744,4014.8717948717954,4463.076923076924
1773.3442,0.14849323,0.39058676,0.36264887,0.5728083,0,0.0,0.0,0.0,0.0,0.015253329,0,0,0.0,0.0,0,0,42.0,0.0,0.0,4572.307692307693,3874.8717948717954,4320.512820512821,4310.256410256411,4187.179487179487,4478.974358974359,4404.102564102564,4438.974358974359,4278.461538461539,4562.051282051282,4226.666666666667,4207.6923076923085,4057.435897435898,4483.589743589744
1773.5945,0.21843348,0.38042918,0.35189456,0.57228273,0,0.0,0.0,0.0,0.0,0.021239486,0,0,0.0,0.0,0,0,74.0,0.0,540.0,4583.589743589744,3878.461538461539,4388.205128205129,4351.794871794872,4180.512820512821,4471.282051282052,4396.923076923077,4452.307692307693,4298.974358974359,4584.615384615385,4265.641025641026,4218.461538461539,4099.48717948718,4484.102564102564
1773.7196,0.21843348,0.38042918,0.35189456,0.57228273,0,0.0,0.0,0.0,0.0,0.0,0,0,0.0,0.0,0,0,90.0,0.0,540.0,4603.076923076924,3889.2307692307695,4420.512820512821,4377.435897435898,4179.48717948718,4468.717948717949,4398.974358974359,4451.794871794872,4309.743589743591,4591.794871794872,4274.358974358975,4223.076923076924,4128.717948717949,4425.128205128206
1774.095,0.19442843,0.38766363,0.3416502,0.5755915,0,0.0,0.0,0.0,0.0,0.0,0,0,0.0,0.0,0,0,9.0,0.0,499.0,4630.256410256411,3907.1794871794878,4501.538461538462,4429.743589743591,4174.871794871796,4463.589743589744,4400.000000000001,4468.205128205129,4344.102564102564,4616.923076923077,4311.794871794872,4226.153846153847,4197.948717948719,4480.000000000001
1774.095,0.19442843,0.38766363,0.3416502,0.5755915,0,0.0,0.0,0.0,0.0,0.0,0,0,0.0,0.0,0,0,9.0,0.0,499.0,4630.256410256411,3907.1794871794878,4501.538461538462,4429.743589743591,4174.871794871796,4463.589743589744,4400.000000000001,4468.205128205129,4344.102564102564,4616.923076923077,4311.794871794872,4226.153846153847,4197.948717948719,4480.000000000001
1774.5953,0.2210558,0.39538848,0.33243012,0.5766235,0,0.0,0.0,0.0,0.0,0.0,0,0,0.0,0.0,0,0,66.0,0.0,359.0,4648.717948717949,3936.9230769230776,4528.205128205129,4432.820512820514,4163.076923076924,4449.743589743591,4382.051282051282,4441.025641025642,4365.128205128206,4627.6923076923085,4314.358974358975,4210.256410256411,4231.282051282052,4518.461538461539
1774.5953,0.2210558,0.39538848,0.33243012,0.5766235,0,0.0,0.0,0.0,0.0,0.0,0,0,0.0,0.0,0,0,73.0,0.0,499.0,4645.641025641026,3933.8461538461543,4529.743589743591,4434.358974358975,4164.102564102564,4450.256410256411,4384.615384615385,4432.307692307693,4368.717948717949,4630.256410256411,4316.410256410257,4219.48717948718,4231.794871794872,4524.102564102564
1775.0958,0.18155594,0.40855342,0.3237703,0.57654077,0,0.0,0.0,0.0,0.0,0.13038862,0,0,0.0,0.0,0,0,8.0,0.0,382.0,4675.8974358974365,3960.0000000000005,4558.461538461539,4442.564102564103,4172.307692307693,4454.358974358975,4378.461538461539,4396.410256410257,4382.564102564103,4624.615384615385,4285.641025641026,4191.282051282052,4201.025641025642,4535.384615384616
1775.3461,0.18155594,0.40855342,0.3237703,0.57654077,0,0.0,0.0,0.0,0.0,0.0,0,0,0.0,0.0,0,0,40.0,0.0,0.0,4698.974358974359,3971.2820512820517,4578.974358974359,4457.435897435898,4181.538461538462,4465.128205128206,4394.358974358975,4407.179487179487,4389.743589743591,4639.48717948718,4288.205128205129,4194.358974358975,4183.589743589744,4527.179487179488
1775.5962,0.13738328,0.41764027,0.31425875,0.5823272,0,0.0,0.0,0.0,0.0,0.0,0,0,0.0,0.0,0,0,72.0,0.0,382.0,4665.128205128206,3967.1794871794878,4560.512820512821,4445.641025641026,4186.666666666667,4469.743589743591,4391.794871794872,4400.000000000001,4361.538461538462,4645.641025641026,4286.666666666667,4188.717948717949,4173.333333333334,4518.974358974359
1775.5962,0.13738328,0.41764027,0.31425875,0.5823272,0,0.0,0.0,0.0,0.0,0.0,0,0,0.0,0.0,0,0,72.0,0.0,382.0,4665.128205128206,3967.1794871794878,4560.512820512821,4445.641025641026,4186.666666666667,4469.743589743591,4391.794871794872,4400.000000000001,4361.538461538462,4645.641025641026,4286.666666666667,4188.717948717949,4173.333333333334,4518.974358974359
1776.0967,0.14405096,0.40764755,0.30599836,0.59008783,0,0.0,0.0,0.0,0.0,0.0,0,0,0.0,0.0,0,0,5.0,0.0,521.0,4624.615384615385,3946.666666666667,4534.358974358975,4426.666666666667,4188.205128205129,4470.769230769231,4394.871794871796,4377.948717948719,4395.8974358974365,4643.589743589744,4283.076923076924,4185.641025641026,4145.128205128206,4500.512820512821
1776.0967,0.14405096,0.40764755,0.30599836,0.59008783,0,0.0,0.0,0.0,0.0,0.0,0,0,0.0,0.0,0,0,7.0,0.0,482.0,4616.923076923077,3944.1025641025644,4531.794871794872,4425.641025641026,4186.153846153847,4470.256410256411,4397.948717948719,4380.000000000001,4396.410256410257,4646.153846153847,4285.128205128206,4189.2307692307695,4151.282051282052,4508.205128205129
1776.597,0.13805032,0.38952217,0.29856443,0.5939819,0,0.0,0.0,0.0,0.0,0.0,0,0,0.0,0.0,0,0,67.0,0.0,435.0,4585.128205128206,3927.1794871794878,4496.410256410257,4412.820512820514,4208.205128205129,4489.743589743591,4424.102564102564,4399.48717948718,4408.205128205129,4692.307692307693,4373.333333333334,4205.128205128206,4177.435897435898,4503.589743589744
1776.8473,0.13805032,0.38952217,0.29856443,0.5939819,0,0.0,0.0,0.0,0.0,0.26371682,0,0,0.0,0.0,0,0,103.0,0.0,412.0,4597.948717948719,3933.8461538461543,4498.974358974359,4419.48717948718,4212.820512820514,4503.076923076924,4421.538461538462,4393.846153846154,4409.2307692307695,4696.923076923077,4357.948717948719,4216.923076923077,4187.6923076923085,4507.6923076923085
1777.0975,0.17759733,0.37272388,0.2940108,0.59224594,0,0.0,0.0,0.0,0.0,0.0,0,0,0.0,0.0,0,0,6.0,0.0,554.0,4621.538461538462,3926.666666666667,4541.538461538462,4452.820512820514,4223.076923076924,4507.179487179488,4442.564102564103,4403.076923076924,4411.282051282052,4702.051282051282,4372.820512820514,4290.769230769231,4204.615384615385,4539.48717948718
1777.0975,0.17759733,0.37272388,0.2940108,0.59224594,0,0.0,0.0,0.0,0.0,0.0,0,0,0.0,0.0,0,0,6.0,0.0,554.0,4621.538461538462,3926.666666666667,4541.538461538462,4452.820512820514,4223.076923076924,4507.179487179488,4442.564102564103,4403.076923076924,4411.282051282052,4702.051282051282,4372.820512820514,4290.769230769231,4204.615384615385,4539.48717948718
1777.5979,0.15192455,0.3720265,0.29228473,0.59563845,0,0.0,0.0,0.0,0.0,0.0,0,0,0.0,0.0,0,0,48.0,0.0,0.0,4620.000000000001,3905.1282051282055,4485.641025641026,4437.948717948719,4235.8974358974365,4522.564102564103,4454.871794871796,4425.641025641026,4414.871794871796,4708.205128205129,4355.8974358974365,4287.6923076923085,4177.948717948719,4533.846153846154
1777.5979,0.15192455,0.3720265,0.29228473,0.59563845,0,0.0,0.0,0.0,0.0,0.0,0,0,0.0,0.0,0,0,70.0,0.0,554.0,4613.333333333334,3887.692307692308,4435.384615384616,4413.333333333334,4234.871794871796,4523.076923076924,4445.641025641026,4419.48717948718,4403.076923076924,4679.48717948718,4323.589743589744,4272.307692307693,4126.153846153847,4516.923076923077
1777.5979,0.15192455,0.3720265,0.29228473,0.59563845,0,0.0,0.0,0.0,0.0,0.0,0,0,0.0,0.0,0,0,70.0,0.0,554.0,4613.333333333334,3887.692307692308,4435.384615384616,4413.333333333334,4234.871794871796,4523.076923076924,4445.641025641026,4419.48717948718,4403.076923076924,4679.48717948718,4323.589743589744,4272.307692307693,4126.153846153847,4516.923076923077
1778.1062,0.22534865,0.380915,0.2907319,0.5971588,0,0.0,0.0,0.0,0.0,0.0,0,0,0.0,0.0,0,0,5.0,0.0,521.0,4570.256410256411,3868.205128205129,4371.282051282052,4375.384615384616,4218.461538461539,4518.461538461539,4433.333333333334,4398.974358974359,4387.179487179487,4635.384615384616,4254.358974358975,4241.025641025642,4054.358974358975,4480.000000000001
1778.4816,0.22534865,0.380915,0.2907319,0.5971588,0,0.0,0.0,0.0,0.0,0.3165273,0,0,0.0,0.0,0,0,53.0,0.0,0.0,4536.923076923077,3868.205128205129,4382.051282051282,4344.102564102564,4197.435897435898,4493.333333333334,4413.846153846154,4383.589743589744,4383.076923076924,4649.2307692307695,4277.435897435898,4244.615384615385,4113.846153846154,4470.769230769231
1778.8568,0.22069043,0.38554454,0.28933504,0.59762126,0,0.0,0.0,0.0,0.0,0.06990048,0,0,0.0,0.0,0,0,98.0,0.0,540.0,4492.307692307693,3872.820512820513,4407.6923076923085,4333.846153846154,4164.102564102564,4455.8974358974365,4365.128205128206,4324.102564102564,4369.743589743591,4608.205128205129,4222.051282051282,4155.8974358974365,4075.3846153846157,4414.358974358975
1779.107,0.276583,0.36229944,0.28641042,0.59555864,0,0.0,0.0,0.0,0.0,0.0,0,0,0.0,0.0,0,0,125.0,0.0,503.0,4474.871794871796,3881.0256410256416,4440.000000000001,4332.820512820514,4159.48717948718,4446.153846153847,4355.384615384616,4318.974358974359,4371.282051282052,4625.128205128206,4233.846153846154,4158.461538461539,4097.435897435898,4399.48717948718
1779.107,0.276583,0.36229944,0.28641042,0.59555864,0,0.0,0.0,0.0,0.0,0.0,0,0,0.0,0.0,0,0,4.0,0.0,507.0,4469.2307692307695,3885.1282051282055,4443.076923076924,4317.948717948719,4157.435897435898,4447.179487179487,4353.333333333334,4319.48717948718,4372.820512820514,4624.615384615385,4236.923076923077,4153.846153846154,4105.641025641026,4409.743589743591
1779.6075,0.32653657,0.34288898,0.283779,0.5937017,0,0.0,0.0,0.0,0.0,0.0,0,0,0.0,0.0,0,0,13.0,0.0,503.0,4489.743589743591,3894.8717948717954,4463.076923076924,4327.6923076923085,4160.000000000001,4449.2307692307695,4360.512820512821,4316.410256410257,4377.948717948719,4636.923076923077,4245.128205128206,4162.564102564103,4117.948717948719,4410.256410256411
1779.6075,0.32653657,0.34288898,0.283779,0.5937017,0,0.0,0.0,0.0,0.0,0.0,0,0,0.0,0.0,0,0,68.0,0.0,507.0,4537.435897435898,3915.3846153846157,4489.743589743591,4322.564102564103,4174.871794871796,4457.948717948719,4370.256410256411,4320.000000000001,4372.307692307693,4640.000000000001,4250.769230769231,4157.435897435898,4108.205128205129,4397.948717948719
1779.6075,0.32653657,0.34288898,0.283779,0.5937017,0,0.0,0.0,0.0,0.0,0.0,0,0,0.0,0.0,0,0,68.0,0.0,507.0,4537.435897435898,3915.3846153846157,4489.743589743591,4322.564102564103,4174.871794871796,4457.948717948719,4370.256410256411,4320.000000000001,4372.307692307693,4640.000000000001,4250.769230769231,4157.435897435898,4108.205128205129,4397.948717948719
1780.1079,0.31944588,0.3406329,0.28141156,0.59390694,0,0.0,0.0,0.0,0.0,0.0,0,0,0.0,0.0,0,0,3.0,0.0,435.0,4546.153846153847,3895.3846153846157,4426.153846153847,4363.076923076924,4205.128205128206,4489.743589743591,4371.794871794872,4331.794871794872,4353.846153846154,4655.384615384616,4248.205128205129,4181.538461538462,4132.307692307693,4392.820512820514
1780.1079,0.31944588,0.3406329,0.28141156,0.59390694,0,0.0,0.0,0.0,0.0,0.0,0,0,0.0,0.0,0,0,3.0,0.0,435.0,4546.153846153847,3895.3846153846157,4426.153846153847,4363.076923076924,4205.128205128206,4489.743589743591,4371.794871794872,4331.794871794872,4353.846153846154,4655.384615384616,4248.205128205129,4181.538461538462,4132.307692307693,4392.820512820514
1780.6084,0.33588254,0.3506224,0.28075522,0.59240353,0,0.0,0.0,0.0,0.0,0.0,0,0,0.0,0.0,0,0,67.0,0.0,435.0,4460.000000000001,3853.8461538461543,4187.179487179487,4238.461538461539,4230.769230769231,4535.384615384616,4344.615384615385,4303.076923076924,4252.820512820514,4500.000000000001,4162.564102564103,4084.615384615385,3922.0512820512827,4367.179487179487
1781.1088,0.40004677,0.3595796,0.28295714,0.5910499,0,0.0,0.0,0.0,0.0,0.0,0,0,0.0,0.0,0,0,87.0,0.0,412.0,4428.717948717949,3838.461538461539,4145.641025641026,4200.000000000001,4209.74358974359,4516.410256410257,4330.256410256411,4286.666666666667,4237.948717948719,4466.666666666667,4142.564102564103,4055.3846153846157,3916.410256410257,4361.538461538462
1781.1088,0.40004677,0.3595796,0.28295714,0.5910499,0,0.0,0.0,0.0,0.0,0.0,0,0,0.0,0.0,0,0,2.0,0.0,359.0,4412.307692307693,3843.589743589744,4226.153846153847,4276.923076923077,4231.282051282052,4543.589743589744,4331.794871794872,4328.205128205129,4260.512820512821,4514.871794871796,4197.948717948719,4071.7948717948725,4020.5128205128212,4378.461538461539
1781.6093,0.46783337,0.36764106,0.28930846,0.58983105,0,0.0,0.0,0.0,0.0,0.0,0,0,0.0,0.0,0,0,57.0,0.0,0.0,4447.179487179487,3881.538461538462,4401.538461538462,4403.589743589744,4230.769230769231,4530.769230769231,4332.820512820514,4366.153846153847,4300.512820512821,4607.179487179488,4276.923076923077,4101.025641025642,4176.923076923077,4413.333333333334
1781.6093,0.46783337,0.36764106,0.28930846,0.58983105,0,0.0,0.0,0.0,0.0,0.0,0,0,0.0,0.0,0,0,66.0,0.0,361.0,4453.333333333334,3888.205128205129,4420.000000000001,4407.6923076923085,4224.615384615385,4518.461538461539,4330.256410256411,4359.48717948718,4310.769230769231,4613.333333333334,4278.461538461539,4091.2820512820517,4177.948717948719,4402.051282051282
1781.6093,0.46783337,0.36764106,0.28930846,0.58983105,0,0.0,0.0,0.0,0.0,0.0,0,0,0.0,0.0,0,0,66.0,0.0,361.0,4453.333333333334,3888.205128205129,4420.000000000001,4407.6923076923085,4224.615384615385,4518.461538461539,4330.256410256411,4359.48717948718,4310.769230769231,4613.333333333334,4278.461538461539,4091.2820512820517,4177.948717948719,4402.051282051282
1782.1096,0.4840807,0.3748964,0.29502526,0.58915657,0,0.0,0.0,0.0,0.0,0.0,0,0,0.0,0.0,0,0,1.0,0.0,419.0,4514.358974358975,3958.9743589743593,4598.974358974359,4478.461538461539,4184.102564102564,4477.435897435898,4406.153846153847,4405.128205128206,4368.205128205129,4698.461538461539,4337.948717948719,4144.615384615385,4247.6923076923085,4428.717948717949
1782.1096,0.4840807,0.3748964,0.29502526,0.58915657,0,0.0,0.0,0.0,0.0,0.0,0,0,0.0,0.0,0,0,1.0,0.0,419.0,4514.358974358975,3958.9743589743593,4598.974358974359,4478.461538461539,4184.102564102564,4477.435897435898,4406.153846153847,4405.128205128206,4368.205128205129,4698.461538461539,4337.948717948719,4144.615384615385,4247.6923076923085,4428.717948717949
1782.6101,0.606172,0.3814262,0.29651442,0.58892465,0,0.0,0.0,0.0,0.0,0.0,0,0,0.0,0.0,0,0,65.0,0.0,419.0,4578.974358974359,4011.2820512820517,4676.923076923077,4524.615384615385,4213.333333333334,4501.538461538462,4465.128205128206,4453.846153846154,4422.564102564103,4792.307692307693,4400.000000000001,4241.538461538462,4322.051282051282,4454.358974358975
1782.6101,0.606172,0.3814262,0.29651442,0.58892465,0,0.0,0.0,0.0,0.0,0.0,0,0,0.0,0.0,0,0,65.0,0.0,419.0,4578.974358974359,4011.2820512820517,4676.923076923077,4524.615384615385,4213.333333333334,4501.538461538462,4465.128205128206,4453.846153846154,4422.564102564103,4792.307692307693,4400.000000000001,4241.538461538462,4322.051282051282,4454.358974358975
1783.1105,0.7276725,0.38730302,0.29785523,0.5880625,0,0.0,0.0,0.0,0.0,0.0,0,0,0.0,0.0,0,0,0.0,0.0,513.0,4584.615384615385,4030.2564102564106,4691.282051282052,4546.666666666667,4250.769230769231,4540.000000000001,4507.6923076923085,4470.769230769231,4442.564102564103,4801.538461538462,4409.743589743591,4286.666666666667,4303.076923076924,4463.589743589744
1783.611,0.83305067,0.39259216,0.29885334,0.58591044,0,0.0,0.0,0.0,0.0,0.0,0,0,0.0,0.0,0,0,10.0,0.0,540.0,4594.871794871796,4034.8717948717954,4680.512820512821,4535.8974358974365,4256.923076923077,4545.641025641026,4497.435897435898,4464.615384615385,4444.615384615385,4809.2307692307695,4419.48717948718,4296.410256410257,4308.717948717949,4458.974358974359
1783.611,0.83305067,0.39259216,0.29885334,0.58591044,0,0.0,0.0,0.0,0.0,0.0,0,0,0.0,0.0,0,0,64.0,0.0,513.0,4568.717948717949,4008.205128205129,4617.948717948719,4497.948717948719,4245.128205128206,4540.000000000001,4472.820512820514,4435.384615384616,4442.051282051282,4778.461538461539,4397.948717948719,4282.051282051282,4280.512820512821,4466.153846153847
1783.611,0.83305067,0.39259216,0.29885334,0.58591044,0,0.0,0.0,0.0,0.0,0.0,0,0,0.0,0.0,0,0,64.0,0.0,513.0,4568.717948717949,4008.205128205129,4617.948717948719,4497.948717948719,4245.128205128206,4540.000000000001,4472.820512820514,4435.384615384616,4442.051282051282,4778.461538461539,4397.948717948719,4282.051282051282,4280.512820512821,4466.153846153847
1784.3616,0.8466762,0.39735237,0.29852584,0.586002,0,0.0,0.0,0.0,0.0,1.0,0,0,0.0,0.0,0,0,29.0,0.0,0.0,4642.051282051282,3944.615384615385,4576.410256410257,4452.820512820514,4210.256410256411,4497.435897435898,4470.256410256411,4415.8974358974365,4436.923076923077,4755.8974358974365,4371.794871794872,4294.871794871796,4217.435897435898,4494.358974358975
1784.4867,0.8466762,0.39735237,0.29852584,0.586002,0,0.0,0.0,0.0,0.0,0.0,0,0,0.0,0.0,0,0,47.0,0.0,0.0,4661.538461538462,3939.48717948718,4569.2307692307695,4444.615384615385,4212.820512820514,4501.025641025642,4468.717948717949,4405.128205128206,4435.8974358974365,4765.128205128206,4377.948717948719,4300.000000000001,4219.48717948718,4494.871794871796
1784.6118,0.79415613,0.40163657,0.29728687,0.58748704,0,0.0,0.0,0.0,0.0,0.0,0,0,0.0,0.0,0,0,63.0,0.0,0.0,4665.641025641026,3936.410256410257,4553.333333333334,4427.179487179487,4207.179487179487,4487.6923076923085,4449.2307692307695,4378.461538461539,4416.410256410257,4728.205128205129,4342.564102564103,4268.717948717949,4183.076923076924,4469.743589743591
1785.1122,0.7765138,0.43949792,0.29617238,0.58882296,0,0.0,0.0,0.0,0.0,0.0,0,0,0.0,0.0,0,0,74.0,0.0,540.0,4667.179487179488,3947.692307692308,4559.48717948718,4435.384615384616,4214.871794871796,4501.538461538462,4452.820512820514,4389.743589743591,4427.6923076923085,4750.256410256411,4363.076923076924,4283.589743589744,4198.974358974359,4481.025641025642
1785.1122,0.7765138,0.43949792,0.29617238,0.58882296,0,0.0,0.0,0.0,0.0,0.0,0,0,0.0,0.0,0,0,127.0,0.0,412.0,4638.461538461539,3933.333333333334,4519.48717948718,4407.6923076923085,4206.666666666667,4490.769230769231,4420.512820512821,4355.384615384616,4406.666666666667,4724.102564102564,4327.6923076923085,4266.666666666667,4175.8974358974365,4466.666666666667
1785.1122,0.7765138,0.43949792,0.29617238,0.58882296,0,0.0,0.0,0.0,0.0,0.0,0,0,0.0,0.0,0,0,127.0,0.0,412.0,4638.461538461539,3933.333333333334,4519.48717948718,4407.6923076923085,4206.666666666667,4490.769230769231,4420.512820512821,4355.384615384616,4406.666666666667,4724.102564102564,4327.6923076923085,4266.666666666667,4175.8974358974365,4466.666666666667
1785.6127,0.7731699,0.47087324,0.2966902,0.5887413,0,0.0,0.0,0.0,0.0,0.0,0,0,0.0,0.0,0,0,62.0,0.0,0.0,4595.384615384616,3897.9487179487182,4463.589743589744,4334.358974358975,4186.666666666667,4472.820512820514,4372.820512820514,4314.871794871796,4381.538461538462,4677.435897435898,4286.153846153847,4227.6923076923085,4125.641025641026,4447.6923076923085
1785.6127,0.7731699,0.47087324,0.2966902,0.5887413,0,0.0,0.0,0.0,0.0,0.0,0,0,0.0,0.0,0,0,62.0,0.0,0.0,4595.384615384616,3897.9487179487182,4463.589743589744,4334.358974358975,4186.666666666667,4472.820512820514,4372.820512820514,4314.871794871796,4381.538461538462,4677.435897435898,4286.153846153847,4227.6923076923085,4125.641025641026,4447.6923076923085
1786.113,0.74938184,0.48778594,0.29715678,0.58939826,0,0.0,0.0,0.0,0.0,0.0,0,0,0.0,0.0,0,0,126.0,0.0,540.0,4613.333333333334,3904.1025641025644,4468.205128205129,4330.256410256411,4194.871794871796,4484.102564102564,4388.205128205129,4331.794871794872,4383.076923076924,4701.538461538462,4303.076923076924,4233.846153846154,4155.8974358974365,4449.743589743591
1786.113,0.74938184,0.48778594,0.29715678,0.58939826,0,0.0,0.0,0.0,0.0,0.0,0,0,0.0,0.0,0,0,126.0,0.0,540.0,4613.333333333334,3904.1025641025644,4468.205128205129,4330.256410256411,4194.871794871796,4484.102564102564,4388.205128205129,4331.794871794872,4383.076923076924,4701.538461538462,4303.076923076924,4233.846153846154,4155.8974358974365,4449.743589743591
1786.6135,0.69693714,0.45212358,0.29605654,0.59257877,0,0.0,0.0,0.0,0.0,0.0,0,0,0.0,0.0,0,0,61.0,0.0,0.0,4615.8974358974365,3916.9230769230776,4477.948717948719,4351.282051282052,4230.769230769231,4522.564102564103,4429.2307692307695,4369.743589743591,4390.256410256411,4725.641025641026,4310.769230769231,4240.512820512821,4164.102564102564,4443.076923076924
1786.6135,0.69693714,0.45212358,0.29605654,0.59257877,0,0.0,0.0,0.0,0.0,0.0,0,0,0.0,0.0,0,0,61.0,0.0,0.0,4615.8974358974365,3916.9230769230776,4477.948717948719,4351.282051282052,4230.769230769231,4522.564102564103,4429.2307692307695,4369.743589743591,4390.256410256411,4725.641025641026,4310.769230769231,4240.512820512821,4164.102564102564,4443.076923076924
1787.1139,0.6085327,0.42777354,0.29174632,0.5943001,0,0.0,0.0,0.0,0.0,0.0,0,0,0.0,0.0,0,0,125.0,0.0,503.0,4600.512820512821,3940.5128205128212,4496.410256410257,4375.384615384616,4239.48717948718,4527.179487179488,4449.2307692307695,4392.307692307693,4390.769230769231,4749.743589743591,4352.307692307693,4270.256410256411,4191.794871794872,4431.282051282052
1787.1139,0.6085327,0.42777354,0.29174632,0.5943001,0,0.0,0.0,0.0,0.0,0.0,0,0,0.0,0.0,0,0,125.0,0.0,503.0,4600.512820512821,3940.5128205128212,4496.410256410257,4375.384615384616,4239.48717948718,4527.179487179488,4449.2307692307695,4392.307692307693,4390.769230769231,4749.743589743591,4352.307692307693,4270.256410256411,4191.794871794872,4431.282051282052
1787.6144,0.520378,0.4344141,0.29472238,0.59325826,0,0.0,0.0,0.0,0.0,0.0,0,0,0.0,0.0,0,0,60.0,0.0,0.0,4695.384615384616,3915.8974358974365,4474.358974358975,4356.410256410257,4243.076923076924,4541.538461538462,4440.000000000001,4388.717948717949,4386.153846153847,4752.820512820514,4355.8974358974365,4261.025641025642,4199.48717948718,4458.974358974359
1787.6144,0.520378,0.4344141,0.29472238,0.59325826,0,0.0,0.0,0.0,0.0,0.0,0,0,0.0,0.0,0,0,60.0,0.0,0.0,4695.384615384616,3915.8974358974365,4474.358974358975,4356.410256410257,4243.076923076924,4541.538461538462,4440.000000000001,4388.717948717949,4386.153846153847,4752.820512820514,4355.8974358974365,4261.025641025642,4199.48717948718,4458.974358974359
1788.365,0.48972377,0.44337317,0.2974014,0.59049445,0,0.0,0.0,0.0,0.0,1.0,0,0,0.0,0.0,0,0,27.0,0.0,0.0,4615.8974358974365,3916.9230769230776,4455.8974358974365,4346.153846153847,4218.974358974359,4517.435897435898,4402.051282051282,4347.6923076923085,4365.128205128206,4711.282051282052,4311.794871794872,4236.410256410257,4160.000000000001,4446.666666666667
1788.365,0.48972377,0.44337317,0.2974014,0.59049445,0,0.0,0.0,0.0,0.0,1.0,0,0,0.0,0.0,0,0,27.0,0.0,0.0,4615.8974358974365,3916.9230769230776,4455.8974358974365,4346.153846153847,4218.974358974359,4517.435897435898,4402.051282051282,4347.6923076923085,4365.128205128206,4711.282051282052,4311.794871794872,4236.410256410257,4160.000000000001,4446.666666666667
1788.8655,0.48149556,0.43564963,0.29454336,0.58983237,0,0.0,0.0,0.0,0.0,0.0,0,0,0.0,0.0,0,0,91.0,0.0,412.0,4597.435897435898,3914.8717948717954,4479.48717948718,4346.666666666667,4222.564102564103,4514.358974358975,4411.794871794872,4363.076923076924,4363.076923076924,4719.48717948718,4311.794871794872,4248.717948717949,4161.025641025642,4463.076923076924
1788.8655,0.48149556,0.43564963,0.29454336,0.58983237,0,0.0,0.0,0.0,0.0,0.0,0,0,0.0,0.0,0,0,91.0,0.0,412.0,4597.435897435898,3914.8717948717954,4479.48717948718,4346.666666666667,4222.564102564103,4514.358974358975,4411.794871794872,4363.076923076924,4363.076923076924,4719.48717948718,4311.794871794872,4248.717948717949,4161.025641025642,4463.076923076924
1789.1156,0.47452676,0.420729,0.28960243,0.5922357,0,0.0,0.0,0.0,0.0,0.0,0,0,0.0,0.0,0,0,123.0,0.0,412.0,4607.6923076923085,3917.435897435898,4481.025641025642,4349.2307692307695,4215.384615384616,4513.846153846154,4416.410256410257,4367.179487179487,4365.128205128206,4720.000000000001,4312.307692307693,4264.615384615385,4159.48717948718,4477.435897435898
1789.1156,0.47452676,0.420729,0.28960243,0.5922357,0,0.0,0.0,0.0,0.0,0.0,0,0,0.0,0.0,0,0,123.0,0.0,412.0,4607.6923076923085,3917.435897435898,4481.025641025642,4349.2307692307695,4215.384615384616,4513.846153846154,4416.410256410257,4367.179487179487,4365.128205128206,4720.000000000001,4312.307692307693,4264.615384615385,4159.48717948718,4477.435897435898
1789.6161,0.42879078,0.40051025,0.28515634,0.60111994,0,0.0,0.0,0.0,0.0,0.0,0,0,0.0,0.0,0,0,58.0,0.0,0.0,4608.205128205129,3900.0000000000005,4458.461538461539,4327.179487179487,4220.000000000001,4493.846153846154,4400.000000000001,4351.282051282052,4348.205128205129,4694.871794871796,4285.128205128206,4242.051282051282,4119.48717948718,4461.025641025642
1789.6161,0.42879078,0.40051025,0.28515634,0.60111994,0,0.0,0.0,0.0,0.0,0.0,0,0,0.0,0.0,0,0,58.0,0.0,0.0,4608.205128205129,3900.0000000000005,4458.461538461539,4327.179487179487,4220.000000000001,4493.846153846154,4400.000000000001,4351.282051282052,4348.205128205129,4694.871794871796,4285.128205128206,4242.051282051282,4119.48717948718,4461.025641025642
1790.1165,0.37445012,0.36951646,0.28115565,0.61872077,0,0.0,0.0,0.0,0.0,0.0,0,0,0.0,0.0,0,0,122.0,0.0,540.0,4595.8974358974365,3923.589743589744,4465.641025641026,4348.205128205129,4214.358974358975,4497.435897435898,4407.6923076923085,4355.384615384616,4349.2307692307695,4699.48717948718,4296.923076923077,4237.948717948719,4144.615384615385,4466.666666666667
1790.1165,0.37445012,0.36951646,0.28115565,0.61872077,0,0.0,0.0,0.0,0.0,0.0,0,0,0.0,0.0,0,0,122.0,0.0,540.0,4595.8974358974365,3923.589743589744,4465.641025641026,4348.205128205129,4214.358974358975,4497.435897435898,4407.6923076923085,4355.384615384616,4349.2307692307695,4699.48717948718,4296.923076923077,4237.948717948719,4144.615384615385,4466.666666666667
1790.617,0.32649988,0.34525338,0.26972038,0.6345583,0,0.0,0.0,0.0,0.0,0.0,0,0,0.0,0.0,0,0,57.0,0.0,0.0,4558.461538461539,3913.8461538461543,4433.846153846154,4354.358974358975,4212.307692307693,4512.820512820514,4408.717948717949,4360.512820512821,4330.769230769231,4677.948717948719,4295.8974358974365,4227.6923076923085,4109.2307692307695,4430.769230769231
1790.617,0.32649988,0.34525338,0.26972038,0.6345583,0,0.0,0.0,0.0,0.0,0.0,0,0,0.0,0.0,0,0,57.0,0.0,0.0,4558.461538461539,3913.8461538461543,4433.846153846154,4354.358974358975,4212.307692307693,4512.820512820514,4408.717948717949,4360.512820512821,4330.769230769231,4677.948717948719,4295.8974358974365,4227.6923076923085,4109.2307692307695,4430.769230769231
1791.1174,0.40861496,0.32271272,0.25611314,0.6488079,0,0.0,0.0,0.0,0.0,0.0,0,0,0.0,0.0,0,0,121.0,0.0,503.0,4522.051282051282,3880.512820512821,4259.48717948718,4286.153846153847,4220.512820512821,4517.948717948719,4429.743589743591,4365.641025641026,4257.435897435898,4575.8974358974365,4192.820512820514,4168.205128205129,3966.1538461538466,4437.435897435898
1791.1174,0.40861496,0.32271272,0.25611314,0.6488079,0,0.0,0.0,0.0,0.0,0.0,0,0,0.0,0.0,0,0,121.0,0.0,503.0,4522.051282051282,3880.512820512821,4259.48717948718,4286.153846153847,4220.512820512821,4517.948717948719,4429.743589743591,4365.641025641026,4257.435897435898,4575.8974358974365,4192.820512820514,4168.205128205129,3966.1538461538466,4437.435897435898
1791.6178,0.49685538,0.29893106,0.24154565,0.6526984,0,0.0,0.0,0.0,0.0,0.0,0,0,0.0,0.0,0,0,56.0,0.0,0.0,4535.8974358974365,3890.2564102564106,4338.461538461539,4341.025641025642,4224.102564102564,4524.102564102564,4444.615384615385,4392.820512820514,4274.358974358975,4592.820512820514,4257.435897435898,4117.435897435898,4037.9487179487182,4465.128205128206
1792.1183,0.46135858,0.29849175,0.22843705,0.6459201,0,0.0,0.0,0.0,0.0,0.0,0,0,0.0,0.0,0,0,68.0,0.0,508.0,4556.923076923077,3904.615384615385,4374.871794871796,4364.102564102564,4224.102564102564,4525.641025641026,4451.282051282052,4405.128205128206,4284.615384615385,4616.923076923077,4281.025641025642,4124.102564102564,4069.7435897435903,4476.923076923077
1792.1183,0.46135858,0.29849175,0.22843705,0.6459201,0,0.0,0.0,0.0,0.0,0.0,0,0,0.0,0.0,0,0,120.0,0.0,484.0,4585.641025641026,3909.2307692307695,4469.743589743591,4409.743589743591,4177.435897435898,4468.205128205129,4409.2307692307695,4380.512820512821,4296.410256410257,4636.923076923077,4291.282051282052,4082.564102564103,4147.179487179487,4495.8974358974365
1792.1183,0.46135858,0.29849175,0.22843705,0.6459201,0,0.0,0.0,0.0,0.0,0.0,0,0,0.0,0.0,0,0,120.0,0.0,484.0,4585.641025641026,3909.2307692307695,4469.743589743591,4409.743589743591,4177.435897435898,4468.205128205129,4409.2307692307695,4380.512820512821,4296.410256410257,4636.923076923077,4291.282051282052,4082.564102564103,4147.179487179487,4495.8974358974365
1792.8689,0.43852785,0.336303,0.21664183,0.63939655,0,0.0,0.0,0.0,0.0,1.0,0,0,0.0,0.0,0,0,71.0,0.0,482.0,4831.794871794872,3922.0512820512827,4543.589743589744,4458.974358974359,4157.435897435898,4444.102564102564,4403.076923076924,4382.051282051282,4341.538461538462,4696.923076923077,4315.384615384616,4169.2307692307695,4220.512820512821,4531.794871794872
1792.8689,0.43852785,0.336303,0.21664183,0.63939655,0,0.0,0.0,0.0,0.0,1.0,0,0,0.0,0.0,0,0,87.0,0.0,410.0,4845.641025641026,3914.8717948717954,4540.512820512821,4454.358974358975,4158.461538461539,4445.128205128206,4409.2307692307695,4387.6923076923085,4341.025641025642,4700.000000000001,4315.8974358974365,4185.128205128206,4209.2307692307695,4526.153846153847
1793.3693,0.4779207,0.48564777,0.20982651,0.63293606,0,0.0,0.0,0.0,0.0,0.25885785,0,0,0.0,0.0,0,0,22.0,0.0,0.0,4840.512820512821,3895.8974358974365,4495.8974358974365,4441.025641025642,4149.74358974359,4433.333333333334,4371.794871794872,4334.358974358975,4315.384615384616,4654.871794871796,4261.025641025642,4177.948717948719,4125.641025641026,4494.871794871796
1793.4944,0.4779207,0.48564777,0.20982651,0.63293606,0,0.0,0.0,0.0,0.0,0.24690473,0,0,0.0,0.0,0,0,38.0,0.0,0.0,4832.307692307693,3898.9743589743593,4497.948717948719,4444.102564102564,4147.6923076923085,4433.846153846154,4372.307692307693,4333.846153846154,4314.871794871796,4656.410256410257,4265.641025641026,4193.846153846154,4124.102564102564,4500.512820512821
1793.6195,0.48281783,0.6344353,0.20793402,0.6257016,0,0.0,0.0,0.0,0.0,0.0,0,0,0.0,0.0,0,0,54.0,0.0,0.0,4827.6923076923085,3903.589743589744,4494.358974358975,4447.6923076923085,4157.948717948719,4442.564102564103,4377.435897435898,4325.128205128206,4310.256410256411,4651.794871794872,4260.512820512821,4196.410256410257,4119.48717948718,4491.794871794872
1793.6195,0.48281783,0.6344353,0.20793402,0.6257016,0,0.0,0.0,0.0,0.0,0.0,0,0,0.0,0.0,0,0,54.0,0.0,0.0,4827.6923076923085,3903.589743589744,4494.358974358975,4447.6923076923085,4157.948717948719,4442.564102564103,4377.435897435898,4325.128205128206,4310.256410256411,4651.794871794872,4260.512820512821,4196.410256410257,4119.48717948718,4491.794871794872
1794.12,0.4852885,0.746912,0.20725292,0.62060976,0,0.0,0.0,0.0,0.0,0.0,0,0,0.0,0.0,0,0,118.0,0.0,540.0,4728.205128205129,3864.1025641025644,4453.333333333334,4408.717948717949,4142.564102564103,4424.102564102564,4361.538461538462,4323.076923076924,4306.666666666667,4655.384615384616,4266.666666666667,4225.128205128206,4132.307692307693,4492.307692307693
1794.12,0.4852885,0.746912,0.20725292,0.62060976,0,0.0,0.0,0.0,0.0,0.0,0,0,0.0,0.0,0,0,118.0,0.0,540.0,4728.205128205129,3864.1025641025644,4453.333333333334,4408.717948717949,4142.564102564103,4424.102564102564,4361.538461538462,4323.076923076924,4306.666666666667,4655.384615384616,4266.666666666667,4225.128205128206,4132.307692307693,4492.307692307693
1794.8706,0.47677228,0.78274995,0.2072341,0.6146067,0,0.0,0.0,0.0,0.0,0.0,0,0,0.0,0.0,0,0,85.0,0.0,503.0,4683.076923076924,3897.9487179487182,4468.717948717949,4417.435897435898,4153.333333333334,4434.871794871796,4373.333333333334,4326.666666666667,4315.8974358974365,4664.102564102564,4274.871794871796,4213.333333333334,4146.153846153847,4514.358974358975
1794.8706,0.47677228,0.78274995,0.2072341,0.6146067,0,0.0,0.0,0.0,0.0,0.0,0,0,0.0,0.0,0,0,85.0,0.0,503.0,4683.076923076924,3897.9487179487182,4468.717948717949,4417.435897435898,4153.333333333334,4434.871794871796,4373.333333333334,4326.666666666667,4315.8974358974365,4664.102564102564,4274.871794871796,4213.333333333334,4146.153846153847,4514.358974358975
1795.1208,0.3751621,0.7194033,0.21369421,0.6065512,0,0.0,0.0,0.0,0.0,0.0,0,0,0.0,0.0,0,0,117.0,0.0,503.0,4659.48717948718,3902.0512820512827,4454.871794871796,4411.282051282052,4158.974358974359,4441.538461538462,4370.769230769231,4320.512820512821,4312.307692307693,4657.948717948719,4266.666666666667,4207.179487179487,4131.282051282052,4503.589743589744
1795.1208,0.3751621,0.7194033,0.21369421,0.6065512,0,0.0,0.0,0.0,0.0,0.0,0,0,0.0,0.0,0,0,117.0,0.0,503.0,4659.48717948718,3902.0512820512827,4454.871794871796,4411.282051282052,4158.974358974359,4441.538461538462,4370.769230769231,4320.512820512821,4312.307692307693,4657.948717948719,4266.666666666667,4207.179487179487,4131.282051282052,4503.589743589744
1795.6212,0.33903703,0.6359587,0.22545479,0.59930086,0,0.0,0.0,0.0,0.0,0.0,0,0,0.0,0.0,0,0,52.0,0.0,0.0,4615.384615384616,3896.410256410257,4425.641025641026,4374.358974358975,4153.846153846154,4434.358974358975,4368.205128205129,4323.076923076924,4284.615384615385,4623.076923076924,4235.384615384616,4188.717948717949,4070.7692307692314,4489.743589743591
1795.6212,0.33903703,0.6359587,0.22545479,0.59930086,0,0.0,0.0,0.0,0.0,0.0,0,0,0.0,0.0,0,0,52.0,0.0,0.0,4615.384615384616,3896.410256410257,4425.641025641026,4374.358974358975,4153.846153846154,4434.358974358975,4368.205128205129,4323.076923076924,4284.615384615385,4623.076923076924,4235.384615384616,4188.717948717949,4070.7692307692314,4489.743589743591
1796.1295,0.32237354,0.5583966,0.23604047,0.5945002,0,0.0,0.0,0.0,0.0,0.0,0,0,0.0,0.0,0,0,116.0,0.0,484.0,4548.205128205129,3888.205128205129,4433.846153846154,4360.000000000001,4155.8974358974365,4433.846153846154,4377.948717948719,4332.307692307693,4282.564102564103,4626.666666666667,4250.769230769231,4197.435897435898,4094.358974358975,4478.461538461539
1796.1295,0.32237354,0.5583966,0.23604047,0.5945002,0,0.0,0.0,0.0,0.0,0.0,0,0,0.0,0.0,0,0,116.0,0.0,484.0,4548.205128205129,3888.205128205129,4433.846153846154,4360.000000000001,4155.8974358974365,4433.846153846154,4377.948717948719,4332.307692307693,4282.564102564103,4626.666666666667,4250.769230769231,4197.435897435898,4094.358974358975,4478.461538461539
1796.6299,0.35028318,0.50946563,0.24985258,0.5879168,0,0.0,0.0,0.0,0.0,0.0,0,0,0.0,0.0,0,0,51.0,0.0,0.0,4548.717948717949,3898.461538461539,4444.102564102564,4375.8974358974365,4164.102564102564,4446.153846153847,4389.2307692307695,4341.538461538462,4306.666666666667,4666.666666666667,4276.410256410257,4200.000000000001,4149.74358974359,4491.282051282052
1796.6299,0.35028318,0.50946563,0.24985258,0.5879168,0,0.0,0.0,0.0,0.0,0.0,0,0,0.0,0.0,0,0,51.0,0.0,0.0,4548.717948717949,3898.461538461539,4444.102564102564,4375.8974358974365,4164.102564102564,4446.153846153847,4389.2307692307695,4341.538461538462,4306.666666666667,4666.666666666667,4276.410256410257,4200.000000000001,4149.74358974359,4491.282051282052
1797.1304,0.3120379,0.49318594,0.2624781,0.57925916,0,0.0,0.0,0.0,0.0,0.0,0,0,0.0,0.0,0,0,115.0,0.0,410.0,4554.358974358975,3895.8974358974365,4463.589743589744,4370.256410256411,4154.358974358975,4447.6923076923085,4380.000000000001,4330.256410256411,4314.871794871796,4678.461538461539,4275.8974358974365,4203.076923076924,4160.000000000001,4491.282051282052
1797.5057,0.3120379,0.49318594,0.2624781,0.57925916,0,0.0,0.0,1.0,0.0,0.0,0,0,0.0,0.0,0,0,34.0,0.0,0.0,4568.205128205129,3897.9487179487182,4453.846153846154,4363.076923076924,4074.8717948717954,4467.6923076923085,4377.948717948719,4313.846153846154,4307.6923076923085,4666.666666666667,4267.179487179487,4189.74358974359,4151.282051282052,4500.512820512821
1797.6307,0.27089345,0.47999105,0.2695568,0.5736869,0,0.0,0.0,0.0,0.0,0.0,0,0,0.0,0.0,0,0,50.0,0.0,0.0,4567.6923076923085,3893.333333333334,4446.666666666667,4381.538461538462,4075.3846153846157,4460.512820512821,4373.846153846154,4303.589743589744,4308.717948717949,4661.025641025642,4258.974358974359,4183.589743589744,4140.512820512821,4501.538461538462
