timestamp,excitement,frustration,meditation,engagementBoredom,blink,clench,laugh,smile,eyebrow,furrowBrow,lookLeft,lookRight,smirkLeft,smirkRight,winkLeft,winkRight,eeg0,eeg1,eeg2,eeg3,eeg4,eeg5,eeg6,eeg7,eeg8,eeg9,eeg10,eeg11,eeg12,eeg13,eeg14,eeg15,eeg16
159.30878,1.0,1.0,0.34340796,0.58268553,0,0.0,0.0,0.0,0.0,1.0,0,0,0.0,0.0,0,0,122.0,0.0,465.0,6278.974358974359,5637.435897435898,5846.666666666667,6032.820512820514,5707.179487179488,5752.820512820514,5721.538461538462,5645.641025641026,5384.102564102564,5936.923076923078,5704.615384615386,5089.743589743591,5413.333333333334,6013.333333333334
159.55899,1.0,1.0,0.34340796,0.58268553,0,0.0,0.0,0.0,0.0,0.22810648,0,0,0.0,0.0,0,0,25.0,0.0,0.0,6132.307692307693,5486.153846153847,5648.717948717949,5841.538461538462,5510.769230769231,5549.743589743591,5526.666666666667,5458.461538461539,5341.538461538462,5738.461538461539,5510.769230769231,5048.205128205129,5206.666666666667,5883.589743589744
159.80922,1.0,1.0,0.34240052,0.57964087,0,0.0,0.0,0.0,0.0,0.0,0,0,0.0,0.0,0,0,57.0,0.0,0.0,6015.384615384616,5360.000000000001,5491.794871794872,5667.6923076923085,5352.820512820514,5401.025641025642,5366.666666666667,5307.179487179488,5307.179487179488,5578.974358974359,5308.717948717949,4823.076923076924,5062.051282051283,5749.743589743591
160.05943,1.0,1.0,0.34240052,0.57964087,0,0.0,0.0,0.0,0.0,1.0,0,0,0.0,0.0,0,0,89.0,0.0,464.0,5901.025641025642,5248.717948717949,5372.820512820514,5524.102564102564,5207.179487179488,5270.256410256411,5252.820512820514,5190.769230769231,5277.948717948719,5473.333333333334,5287.179487179488,4687.179487179488,4948.205128205129,5602.564102564103
160.2158,1.0,1.0,0.3414938,0.57690066,0,0.0,0.0,0.0,0.0,0.0,0,0,0.0,0.0,0,0,109.0,0.0,464.0,5830.769230769231,5188.205128205129,5300.000000000001,5444.615384615386,5130.769230769231,5202.564102564103,5188.205128205129,5129.743589743591,5263.589743589744,5402.564102564103,5113.846153846154,4665.128205128206,4886.666666666667,5559.487179487181
160.2158,1.0,1.0,0.3414938,0.57690066,0,0.0,0.0,0.0,0.0,0.0,0,0,0.0,0.0,0,0,109.0,0.0,464.0,5830.769230769231,5188.205128205129,5300.000000000001,5444.615384615386,5130.769230769231,5202.564102564103,5188.205128205129,5129.743589743591,5263.589743589744,5402.564102564103,5113.846153846154,4665.128205128206,4886.666666666667,5559.487179487181
160.81007,1.0,1.0,0.34066215,0.5744133,0,0.0,0.0,0.0,0.0,0.20484884,0,0,0.0,0.0,0,0,56.0,0.0,0.0,5612.307692307693,4964.615384615386,5140.000000000001,5248.205128205129,4946.153846153847,5073.333333333334,5060.512820512821,5021.025641025642,5224.102564102564,5339.487179487181,4991.794871794872,4589.743589743591,4845.641025641026,5430.256410256411
161.06029,1.0,1.0,0.34066215,0.5744133,0,0.0,0.0,0.0,0.0,0.4106961,0,0,0.0,0.0,0,0,88.0,0.0,416.0,5555.8974358974365,4906.666666666667,5141.025641025642,5225.641025641026,4918.974358974359,5051.282051282052,5050.769230769231,5012.307692307693,5201.025641025642,5325.128205128206,4978.974358974359,4459.48717948718,4815.8974358974365,5357.435897435898
161.3105,1.0,1.0,0.3399122,0.57217276,0,0.0,0.0,0.0,0.0,0.112166315,0,0,0.0,0.0,0,0,120.0,0.0,416.0,5486.666666666667,4829.743589743591,5094.358974358975,5172.820512820514,4857.948717948719,4975.8974358974365,4994.871794871796,4952.820512820514,5180.512820512821,5250.256410256411,4873.333333333334,4301.538461538462,4749.2307692307695,5294.871794871796
161.43561,1.0,1.0,0.3399122,0.57217276,0,0.0,0.0,0.0,0.0,0.0,0,0,0.0,0.0,0,0,7.0,0.0,433.0,5437.435897435898,4785.641025641026,5032.820512820514,5120.512820512821,4818.461538461539,4930.256410256411,4949.743589743591,4903.076923076924,5163.076923076924,5205.641025641026,4836.923076923077,4373.333333333334,4694.871794871796,5257.948717948719
161.68582,1.0,1.0,0.33923596,0.57015455,0,0.0,0.0,0.0,0.0,0.0,0,0,0.0,0.0,0,0,39.0,0.0,0.0,5351.282051282052,4692.820512820514,4955.8974358974365,5063.076923076924,4790.256410256411,4808.205128205129,4856.923076923077,4805.128205128206,5128.717948717949,5093.333333333334,4714.871794871796,4187.6923076923085,4590.256410256411,5156.923076923077
161.68582,1.0,1.0,0.33923596,0.57015455,0,0.0,0.0,0.0,0.0,0.0,0,0,0.0,0.0,0,0,39.0,0.0,0.0,5351.282051282052,4692.820512820514,4955.8974358974365,5063.076923076924,4790.256410256411,4808.205128205129,4856.923076923077,4805.128205128206,5128.717948717949,5093.333333333334,4714.871794871796,4187.6923076923085,4590.256410256411,5156.923076923077
162.31136,1.0,1.0,0.3386277,0.5683387,0,0.0,0.0,0.0,0.0,0.0,0,0,0.0,0.0,0,1,119.0,0.0,372.0,5432.307692307693,4802.564102564103,5455.384615384616,5516.923076923078,5318.461538461539,5212.307692307693,5331.794871794872,5300.512820512821,5196.923076923077,5649.743589743591,5135.8974358974365,4664.615384615386,5077.435897435898,5316.923076923078
162.56158,1.0,1.0,0.3386277,0.5683387,0,0.0,0.0,0.0,0.17347799,0.0,0,0,0.0,0.0,0,1,22.0,0.0,0.0,5501.025641025642,4803.589743589744,5526.153846153847,5521.025641025642,5378.461538461539,5205.128205128206,5336.923076923078,5307.179487179488,5179.487179487181,5643.076923076924,5082.564102564103,3991.7948717948725,5037.948717948719,5283.589743589744
162.8118,1.0,1.0,0.33809212,0.56672055,1,0.0,0.0,0.0,0.16710804,0.0,0,0,0.0,0.0,0,0,54.0,0.0,0.0,5369.743589743591,4683.589743589744,5206.666666666667,5193.846153846154,5255.8974358974365,4923.589743589744,5081.538461538462,5043.076923076924,5082.564102564103,5386.153846153847,4913.333333333334,4690.256410256411,4805.128205128206,5284.102564102564
163.06201,1.0,1.0,0.33809212,0.56672055,0,0.0,0.0,0.0,0.028431674,0.0,0,0,0.0,0.0,0,0,86.0,0.0,502.0,5181.025641025642,4507.6923076923085,4875.8974358974365,4983.076923076924,5041.025641025642,4574.358974358975,4750.769230769231,4699.48717948718,5002.051282051283,5017.948717948719,4617.435897435898,4614.358974358975,4468.717948717949,5123.076923076924
163.31223,0.8715778,1.0,0.33761385,0.5652692,0,0.0,0.0,0.0,0.0,0.0,0,0,0.0,0.0,0,0,118.0,0.0,502.0,5117.435897435898,4435.384615384616,4797.948717948719,4891.794871794872,4912.820512820514,4527.6923076923085,4670.769230769231,4622.051282051282,4973.846153846154,4941.538461538462,4560.000000000001,4652.307692307693,4410.769230769231,5076.923076923077
163.31223,0.8715778,1.0,0.33761385,0.5652692,0,0.0,0.0,0.0,0.0,0.0,0,0,0.0,0.0,0,0,118.0,0.0,502.0,5117.435897435898,4435.384615384616,4797.948717948719,4891.794871794872,4912.820512820514,4527.6923076923085,4670.769230769231,4622.051282051282,4973.846153846154,4941.538461538462,4560.000000000001,4652.307692307693,4410.769230769231,5076.923076923077
163.71883,0.97698843,1.0,0.3371858,0.56396616,0,0.0,0.0,0.0,0.0,0.0,0,0,0.0,0.0,0,0,41.0,0.0,0.0,5049.743589743591,4380.512820512821,4774.871794871796,4812.307692307693,4802.051282051282,4578.974358974359,4656.410256410257,4625.128205128206,4927.6923076923085,4924.102564102564,4534.358974358975,4509.743589743591,4422.564102564103,4974.871794871796
163.71883,0.97698843,1.0,0.3371858,0.56396616,0,0.0,0.0,0.0,0.0,0.0,0,0,0.0,0.0,0,0,41.0,0.0,0.0,5049.743589743591,4380.512820512821,4774.871794871796,4812.307692307693,4802.051282051282,4578.974358974359,4656.410256410257,4625.128205128206,4927.6923076923085,4924.102564102564,4534.358974358975,4509.743589743591,4422.564102564103,4974.871794871796
164.18797,1.0,1.0,0.33679333,0.5627836,0,0.0,0.0,0.0,0.0,0.0,0,0,0.0,0.0,0,0,101.0,0.0,476.0,4941.538461538462,4248.205128205129,4687.6923076923085,4703.076923076924,4624.615384615385,4515.384615384616,4578.461538461539,4548.717948717949,4867.179487179488,4839.48717948718,4469.743589743591,4398.974358974359,4353.846153846154,4870.256410256411
164.18797,1.0,1.0,0.33679333,0.5627836,0,0.0,0.0,0.0,0.0,0.0,0,0,0.0,0.0,0,0,101.0,0.0,476.0,4941.538461538462,4248.205128205129,4687.6923076923085,4703.076923076924,4624.615384615385,4515.384615384616,4578.461538461539,4548.717948717949,4867.179487179488,4839.48717948718,4469.743589743591,4398.974358974359,4353.846153846154,4870.256410256411
164.6884,1.0,1.0,0.3364394,0.56171834,0,0.0,0.0,0.0,0.0,0.0,0,0,0.0,0.0,0,0,36.0,0.0,0.0,4825.641025641026,4138.461538461539,4578.974358974359,4490.256410256411,4487.6923076923085,4448.717948717949,4458.461538461539,4389.743589743591,4803.589743589744,4707.179487179488,4357.435897435898,4153.846153846154,4212.307692307693,4740.000000000001
164.6884,1.0,1.0,0.3364394,0.56171834,0,0.0,0.0,0.0,0.0,0.0,0,0,0.0,0.0,0,0,36.0,0.0,0.0,4825.641025641026,4138.461538461539,4578.974358974359,4490.256410256411,4487.6923076923085,4448.717948717949,4458.461538461539,4389.743589743591,4803.589743589744,4707.179487179488,4357.435897435898,4153.846153846154,4212.307692307693,4740.000000000001
165.18883,1.0,1.0,0.33612028,0.56075877,0,0.0,0.0,0.0,0.0,0.0,0,0,0.0,0.0,0,0,100.0,0.0,438.0,4726.666666666667,4065.1282051282055,4532.307692307693,4456.923076923077,4409.743589743591,4432.307692307693,4422.051282051282,4369.743589743591,4755.384615384616,4662.051282051282,4291.794871794872,4045.6410256410263,4164.615384615385,4663.076923076924
165.56416,1.0,1.0,0.33612028,0.56075877,0,0.0,0.0,0.0,0.0,0.046408877,0,0,0.0,0.0,0,0,19.0,0.0,0.0,4675.384615384616,4028.205128205129,4521.538461538462,4432.307692307693,4386.153846153847,4421.538461538462,4403.589743589744,4383.076923076924,4728.205128205129,4668.205128205129,4284.615384615385,4042.564102564103,4178.974358974359,4626.666666666667
165.81438,0.9431502,1.0,0.33583322,0.5598954,0,0.0,0.0,0.0,0.0,0.0,0,0,0.0,0.0,0,0,51.0,0.0,0.0,4638.461538461539,3997.435897435898,4506.153846153847,4423.076923076924,4366.153846153847,4411.794871794872,4380.512820512821,4386.153846153847,4711.282051282052,4665.641025641026,4286.153846153847,3977.9487179487182,4176.410256410257,4591.794871794872
165.81438,0.9431502,1.0,0.33583322,0.5598954,0,0.0,0.0,0.0,0.0,0.0,0,0,0.0,0.0,0,0,51.0,0.0,0.0,4638.461538461539,3997.435897435898,4506.153846153847,4423.076923076924,4366.153846153847,4411.794871794872,4380.512820512821,4386.153846153847,4711.282051282052,4665.641025641026,4286.153846153847,3977.9487179487182,4176.410256410257,4591.794871794872
166.1897,0.91245383,1.0,0.33557576,0.55911946,0,0.0,0.0,0.0,0.0,0.0,0,0,0.0,0.0,0,0,99.0,0.0,381.0,4598.974358974359,3959.48717948718,4486.666666666667,4408.717948717949,4356.410256410257,4380.512820512821,4357.435897435898,4357.948717948719,4678.461538461539,4640.000000000001,4281.025641025642,3953.8461538461543,4174.358974358975,4464.615384615385
166.1897,0.91245383,1.0,0.33557576,0.55911946,0,0.0,0.0,0.0,0.0,0.0,0,0,0.0,0.0,0,0,99.0,0.0,381.0,4598.974358974359,3959.48717948718,4486.666666666667,4408.717948717949,4356.410256410257,4380.512820512821,4357.435897435898,4357.948717948719,4678.461538461539,4640.000000000001,4281.025641025642,3953.8461538461543,4174.358974358975,4464.615384615385
166.69012,0.90813905,1.0,0.3370955,0.59007674,0,0.0,0.0,0.0,0.0,0.0,0,0,0.0,0.0,0,0,34.0,0.0,0.0,4527.179487179488,3880.512820512821,4425.128205128206,4263.076923076924,4282.564102564103,4337.948717948719,4305.641025641026,4296.410256410257,4638.461538461539,4569.743589743591,4165.128205128206,3686.1538461538466,4100.000000000001,4404.102564102564
166.69012,0.90813905,1.0,0.3370955,0.59007674,0,0.0,0.0,0.0,0.0,0.0,0,0,0.0,0.0,0,0,34.0,0.0,0.0,4527.179487179488,3880.512820512821,4425.128205128206,4263.076923076924,4282.564102564103,4337.948717948719,4305.641025641026,4296.410256410257,4638.461538461539,4569.743589743591,4165.128205128206,3686.1538461538466,4100.000000000001,4404.102564102564
167.19055,0.832684,1.0,0.34011254,0.652322,0,0.0,0.0,0.0,0.0,0.0,0,0,0.0,0.0,0,0,98.0,0.0,517.0,4476.923076923077,3849.2307692307695,4412.307692307693,4103.076923076924,4274.358974358975,4348.717948717949,4303.589743589744,4287.179487179487,4622.051282051282,4565.128205128206,4167.179487179487,3790.2564102564106,4085.6410256410263,4370.769230769231
167.19055,0.832684,1.0,0.34011254,0.652322,0,0.0,0.0,0.0,0.0,0.0,0,0,0.0,0.0,0,0,98.0,0.0,517.0,4476.923076923077,3849.2307692307695,4412.307692307693,4103.076923076924,4274.358974358975,4348.717948717949,4303.589743589744,4287.179487179487,4622.051282051282,4565.128205128206,4167.179487179487,3790.2564102564106,4085.6410256410263,4370.769230769231
167.69098,0.78616816,1.0,0.34282663,0.7142839,0,0.0,0.0,0.0,0.0,0.0,0,0,0.0,0.0,0,0,33.0,0.0,0.0,4477.435897435898,3818.461538461539,4439.48717948718,4153.846153846154,4256.923076923077,4336.923076923077,4322.564102564103,4286.666666666667,4601.025641025642,4551.794871794872,4135.8974358974365,3836.9230769230776,4018.9743589743593,4333.846153846154
167.69098,0.78616816,1.0,0.34282663,0.7142839,0,0.0,0.0,0.0,0.0,0.0,0,0,0.0,0.0,0,0,33.0,0.0,0.0,4477.435897435898,3818.461538461539,4439.48717948718,4153.846153846154,4256.923076923077,4336.923076923077,4322.564102564103,4286.666666666667,4601.025641025642,4551.794871794872,4135.8974358974365,3836.9230769230776,4018.9743589743593,4333.846153846154
168.19142,0.8173447,1.0,0.34526756,0.7816143,0,0.0,0.0,0.0,0.0,0.0,0,0,0.0,0.0,0,0,97.0,0.0,487.0,4457.435897435898,3816.410256410257,4433.846153846154,3973.333333333334,4250.256410256411,4358.461538461539,4335.384615384616,4318.974358974359,4589.2307692307695,4585.641025641026,4176.410256410257,3875.8974358974365,4082.564102564103,4349.743589743591
168.19142,0.8173447,1.0,0.34526756,0.7816143,0,0.0,0.0,0.0,0.0,0.0,0,0,0.0,0.0,0,0,97.0,0.0,487.0,4457.435897435898,3816.410256410257,4433.846153846154,3973.333333333334,4250.256410256411,4358.461538461539,4335.384615384616,4318.974358974359,4589.2307692307695,4585.641025641026,4176.410256410257,3875.8974358974365,4082.564102564103,4349.743589743591
168.69185,0.86193025,1.0,0.34794426,0.8434336,0,0.0,0.0,0.0,0.0,0.0,0,0,0.0,0.0,0,0,32.0,0.0,0.0,4443.589743589744,3797.435897435898,4436.410256410257,4010.7692307692314,4254.358974358975,4333.846153846154,4334.871794871796,4316.923076923077,4570.769230769231,4587.179487179488,4177.948717948719,3888.717948717949,4084.1025641025644,4360.512820512821
168.69185,0.86193025,1.0,0.34794426,0.8434336,0,0.0,0.0,0.0,0.0,0.0,0,0,0.0,0.0,0,0,32.0,0.0,0.0,4443.589743589744,3797.435897435898,4436.410256410257,4010.7692307692314,4254.358974358975,4333.846153846154,4334.871794871796,4316.923076923077,4570.769230769231,4587.179487179488,4177.948717948719,3888.717948717949,4084.1025641025644,4360.512820512821
169.19228,0.9061379,1.0,0.35035056,0.89805675,0,0.0,0.0,0.0,0.0,0.0,0,0,0.0,0.0,0,0,96.0,0.0,447.0,4438.461538461539,3798.9743589743593,4463.076923076924,4134.358974358975,4253.846153846154,4366.153846153847,4367.6923076923085,4344.102564102564,4558.461538461539,4612.307692307693,4203.076923076924,3917.435897435898,4104.102564102564,4372.307692307693
169.19228,0.9061379,1.0,0.35035056,0.89805675,0,0.0,0.0,0.0,0.0,0.0,0,0,0.0,0.0,0,0,96.0,0.0,447.0,4438.461538461539,3798.9743589743593,4463.076923076924,4134.358974358975,4253.846153846154,4366.153846153847,4367.6923076923085,4344.102564102564,4558.461538461539,4612.307692307693,4203.076923076924,3917.435897435898,4104.102564102564,4372.307692307693
169.6927,0.8968106,1.0,0.352513,0.9375657,0,0.0,0.0,0.0,0.0,0.0,0,0,0.0,0.0,0,0,31.0,0.0,0.0,4461.538461538462,3769.7435897435903,4496.923076923077,4214.358974358975,4246.666666666667,4362.051282051282,4368.717948717949,4327.6923076923085,4534.358974358975,4624.102564102564,4223.589743589744,3854.8717948717954,4144.615384615385,4432.820512820514
169.6927,0.8968106,1.0,0.352513,0.9375657,0,0.0,0.0,0.0,0.0,0.0,0,0,0.0,0.0,0,0,31.0,0.0,0.0,4461.538461538462,3769.7435897435903,4496.923076923077,4214.358974358975,4246.666666666667,4362.051282051282,4368.717948717949,4327.6923076923085,4534.358974358975,4624.102564102564,4223.589743589744,3854.8717948717954,4144.615384615385,4432.820512820514
170.19313,0.85262436,1.0,0.35502997,0.96689385,0,0.0,0.0,0.0,0.0,0.0,0,0,0.0,0.0,0,0,95.0,0.0,394.0,4440.512820512821,3785.6410256410263,4489.2307692307695,4262.564102564103,4247.6923076923085,4410.769230769231,4417.435897435898,4362.564102564103,4513.846153846154,4648.205128205129,4212.307692307693,3662.564102564103,4171.282051282052,4415.384615384616
170.19313,0.85262436,1.0,0.35502997,0.96689385,0,0.0,0.0,0.0,0.0,0.0,0,0,0.0,0.0,0,0,95.0,0.0,394.0,4440.512820512821,3785.6410256410263,4489.2307692307695,4262.564102564103,4247.6923076923085,4410.769230769231,4417.435897435898,4362.564102564103,4513.846153846154,4648.205128205129,4212.307692307693,3662.564102564103,4171.282051282052,4415.384615384616
170.72484,0.86976665,1.0,0.3573389,0.9915502,0,0.0,0.0,0.0,0.0,0.0,0,0,0.0,0.0,0,0,34.0,0.0,0.0,4446.666666666667,3805.1282051282055,4520.000000000001,4333.846153846154,4283.589743589744,4428.205128205129,4452.307692307693,4397.948717948719,4498.461538461539,4675.8974358974365,4237.948717948719,3701.538461538462,4182.051282051282,4426.153846153847
170.72484,0.86976665,1.0,0.3573389,0.9915502,0,0.0,0.0,0.0,0.0,0.0,0,0,0.0,0.0,0,0,34.0,0.0,0.0,4446.666666666667,3805.1282051282055,4520.000000000001,4333.846153846154,4283.589743589744,4428.205128205129,4452.307692307693,4397.948717948719,4498.461538461539,4675.8974358974365,4237.948717948719,3701.538461538462,4182.051282051282,4426.153846153847
171.194,0.8483981,1.0,0.35936502,1.0,0,0.0,0.0,0.0,0.0,0.0,0,0,0.0,0.0,0,0,94.0,0.0,519.0,4461.538461538462,3828.205128205129,4551.794871794872,4394.358974358975,4302.051282051282,4429.2307692307695,4464.615384615385,4421.025641025642,4496.923076923077,4717.435897435898,4267.179487179487,3870.7692307692314,4200.512820512821,4454.358974358975
171.194,0.8483981,1.0,0.35936502,1.0,0,0.0,0.0,0.0,0.0,0.0,0,0,0.0,0.0,0,0,94.0,0.0,519.0,4461.538461538462,3828.205128205129,4551.794871794872,4394.358974358975,4302.051282051282,4429.2307692307695,4464.615384615385,4421.025641025642,4496.923076923077,4717.435897435898,4267.179487179487,3870.7692307692314,4200.512820512821,4454.358974358975
171.69443,0.9117287,1.0,0.35894108,0.97889656,0,0.0,0.0,0.0,0.0,0.0,0,0,0.0,0.0,0,0,29.0,0.0,0.0,4489.743589743591,3851.2820512820517,4612.307692307693,4358.974358974359,4354.871794871796,4497.948717948719,4514.358974358975,4488.717948717949,4505.641025641026,4790.769230769231,4350.769230769231,4054.8717948717954,4277.948717948719,4481.025641025642
171.69443,0.9117287,1.0,0.35894108,0.97889656,0,0.0,0.0,0.0,0.0,0.0,0,0,0.0,0.0,0,0,29.0,0.0,0.0,4489.743589743591,3851.2820512820517,4612.307692307693,4358.974358974359,4354.871794871796,4497.948717948719,4514.358974358975,4488.717948717949,4505.641025641026,4790.769230769231,4350.769230769231,4054.8717948717954,4277.948717948719,4481.025641025642
172.19485,0.9624592,1.0,0.3563298,0.93357116,0,0.0,0.0,0.0,0.0,0.0,0,0,0.0,0.0,0,0,93.0,0.0,487.0,4478.461538461539,3849.7435897435903,4573.846153846154,4364.615384615385,4313.846153846154,4472.307692307693,4523.076923076924,4466.153846153847,4490.769230769231,4784.102564102564,4393.846153846154,4141.538461538462,4252.307692307693,4471.282051282052
172.19485,0.9624592,1.0,0.3563298,0.93357116,0,0.0,0.0,0.0,0.0,0.0,0,0,0.0,0.0,0,0,93.0,0.0,487.0,4478.461538461539,3849.7435897435903,4573.846153846154,4364.615384615385,4313.846153846154,4472.307692307693,4523.076923076924,4466.153846153847,4490.769230769231,4784.102564102564,4393.846153846154,4141.538461538462,4252.307692307693,4471.282051282052
172.69528,0.98302066,1.0,0.3539754,0.8933987,0,0.0,0.0,0.0,0.0,0.0,0,0,0.0,0.0,0,0,28.0,0.0,0.0,4463.076923076924,3843.076923076924,4528.205128205129,4353.333333333334,4295.384615384616,4442.051282051282,4464.615384615385,4398.461538461539,4472.820512820514,4649.743589743591,4341.025641025642,4168.205128205129,4188.717948717949,4461.538461538462
172.69528,0.98302066,1.0,0.3539754,0.8933987,0,0.0,0.0,0.0,0.0,0.0,0,0,0.0,0.0,0,0,28.0,0.0,0.0,4463.076923076924,3843.076923076924,4528.205128205129,4353.333333333334,4295.384615384616,4442.051282051282,4464.615384615385,4398.461538461539,4472.820512820514,4649.743589743591,4341.025641025642,4168.205128205129,4188.717948717949,4461.538461538462
173.19571,0.9627406,1.0,0.3518526,0.8576775,0,0.0,0.0,0.0,0.0,0.0,0,0,0.0,0.0,0,0,92.0,0.0,447.0,4474.358974358975,3846.666666666667,4534.871794871796,4391.794871794872,4284.615384615385,4441.025641025642,4440.000000000001,4388.205128205129,4455.8974358974365,4653.846153846154,4317.948717948719,4027.1794871794878,4163.589743589744,4434.358974358975
173.19571,0.9627406,1.0,0.3518526,0.8576775,0,0.0,0.0,0.0,0.0,0.0,0,0,0.0,0.0,0,0,92.0,0.0,447.0,4474.358974358975,3846.666666666667,4534.871794871796,4391.794871794872,4284.615384615385,4441.025641025642,4440.000000000001,4388.205128205129,4455.8974358974365,4653.846153846154,4317.948717948719,4027.1794871794878,4163.589743589744,4434.358974358975
173.69615,0.9101317,1.0,0.35067564,0.8407318,0,0.0,0.0,0.0,0.0,0.0,0,0,0.0,0.0,0,0,27.0,0.0,0.0,4492.307692307693,3850.2564102564106,4574.871794871796,4420.512820512821,4294.358974358975,4445.128205128206,4459.48717948718,4400.000000000001,4448.717948717949,4634.358974358975,4306.666666666667,4103.076923076924,4152.820512820514,4436.410256410257
173.69615,0.9101317,1.0,0.35067564,0.8407318,0,0.0,0.0,0.0,0.0,0.0,0,0,0.0,0.0,0,0,27.0,0.0,0.0,4492.307692307693,3850.2564102564106,4574.871794871796,4420.512820512821,4294.358974358975,4445.128205128206,4459.48717948718,4400.000000000001,4448.717948717949,4634.358974358975,4306.666666666667,4103.076923076924,4152.820512820514,4436.410256410257
174.19658,0.8786329,1.0,0.35308087,0.84302855,0,0.0,0.0,0.0,0.0,0.0,0,0,0.0,0.0,0,0,91.0,0.0,394.0,4481.538461538462,3852.307692307693,4561.025641025642,4435.8974358974365,4302.564102564103,4467.6923076923085,4470.769230769231,4422.051282051282,4456.923076923077,4642.564102564103,4320.512820512821,4194.358974358975,4207.179487179487,4470.256410256411
174.19658,0.8786329,1.0,0.35308087,0.84302855,0,0.0,0.0,0.0,0.0,0.0,0,0,0.0,0.0,0,0,91.0,0.0,394.0,4481.538461538462,3852.307692307693,4561.025641025642,4435.8974358974365,4302.564102564103,4467.6923076923085,4470.769230769231,4422.051282051282,4456.923076923077,4642.564102564103,4320.512820512821,4194.358974358975,4207.179487179487,4470.256410256411
174.697,0.829387,0.9913428,0.3569401,0.8495332,0,0.0,0.0,0.0,0.0,0.0,0,0,0.0,0.0,0,0,26.0,0.0,0.0,4477.435897435898,3839.48717948718,4535.8974358974365,4383.589743589744,4295.384615384616,4454.358974358975,4466.666666666667,4426.153846153847,4458.974358974359,4631.794871794872,4311.282051282052,4221.538461538462,4208.205128205129,4460.000000000001
174.697,0.829387,0.9913428,0.3569401,0.8495332,0,0.0,0.0,0.0,0.0,0.0,0,0,0.0,0.0,0,0,26.0,0.0,0.0,4477.435897435898,3839.48717948718,4535.8974358974365,4383.589743589744,4295.384615384616,4454.358974358975,4466.666666666667,4426.153846153847,4458.974358974359,4631.794871794872,4311.282051282052,4221.538461538462,4208.205128205129,4460.000000000001
175.19743,0.82756746,0.9256574,0.360409,0.86599755,0,0.0,0.0,0.0,0.0,0.0,0,0,0.0,0.0,0,0,90.0,0.0,520.0,4464.102564102564,3767.1794871794878,4506.666666666667,4329.2307692307695,4282.051282051282,4433.333333333334,4448.717948717949,4404.615384615385,4453.846153846154,4622.564102564103,4278.461538461539,4236.923076923077,4174.871794871796,4435.8974358974365
175.19743,0.82756746,0.9256574,0.360409,0.86599755,0,0.0,0.0,0.0,0.0,0.0,0,0,0.0,0.0,0,0,90.0,0.0,520.0,4464.102564102564,3767.1794871794878,4506.666666666667,4329.2307692307695,4282.051282051282,4433.333333333334,4448.717948717949,4404.615384615385,4453.846153846154,4622.564102564103,4278.461538461539,4236.923076923077,4174.871794871796,4435.8974358974365
175.69786,0.7579518,0.8706371,0.363526,0.89284223,0,0.0,0.0,0.0,0.0,0.0,0,0,0.0,0.0,0,0,25.0,0.0,0.0,4473.333333333334,3775.3846153846157,4520.512820512821,4369.2307692307695,4293.333333333334,4446.153846153847,4440.000000000001,4363.589743589744,4459.48717948718,4636.923076923077,4293.846153846154,4141.538461538462,4202.051282051282,4447.6923076923085
175.69786,0.7579518,0.8706371,0.363526,0.89284223,0,0.0,0.0,0.0,0.0,0.0,0,0,0.0,0.0,0,0,25.0,0.0,0.0,4473.333333333334,3775.3846153846157,4520.512820512821,4369.2307692307695,4293.333333333334,4446.153846153847,4440.000000000001,4363.589743589744,4459.48717948718,4636.923076923077,4293.846153846154,4141.538461538462,4202.051282051282,4447.6923076923085
176.1983,0.7309644,0.8178815,0.36606282,0.91634125,0,0.0,0.0,0.0,0.0,0.0,0,0,0.0,0.0,0,0,89.0,0.0,489.0,4476.923076923077,3803.589743589744,4537.948717948719,4412.820512820514,4280.512820512821,4465.128205128206,4446.666666666667,4365.641025641026,4464.102564102564,4659.48717948718,4307.6923076923085,4140.000000000001,4210.769230769231,4438.974358974359
176.1983,0.7309644,0.8178815,0.36606282,0.91634125,0,0.0,0.0,0.0,0.0,0.0,0,0,0.0,0.0,0,0,89.0,0.0,489.0,4476.923076923077,3803.589743589744,4537.948717948719,4412.820512820514,4280.512820512821,4465.128205128206,4446.666666666667,4365.641025641026,4464.102564102564,4659.48717948718,4307.6923076923085,4140.000000000001,4210.769230769231,4438.974358974359
176.69873,0.7040896,0.7672225,0.36826202,0.9367964,0,0.0,0.0,0.0,0.0,0.0,0,0,0.0,0.0,0,0,24.0,0.0,0.0,4482.051282051282,3826.1538461538466,4548.717948717949,4447.179487179487,4313.333333333334,4482.564102564103,4465.128205128206,4401.025641025642,4475.8974358974365,4642.564102564103,4529.2307692307695,4181.025641025642,4206.153846153847,4431.282051282052
176.94894,0.7040896,0.7672225,0.36826202,0.9367964,0,0.0,0.0,0.0,0.0,0.0,0,0,0.0,1.0,0,0,56.0,0.0,0.0,4498.974358974359,3844.1025641025644,4578.974358974359,4435.8974358974365,4265.128205128206,4532.307692307693,4495.8974358974365,4439.48717948718,4482.564102564103,4372.820512820514,4343.589743589744,4196.410256410257,4228.205128205129,4446.153846153847
177.23044,0.67596185,0.72522044,0.36842805,0.9426623,0,0.0,0.0,0.0,0.0,0.0,0,0,0.0,1.0,0,0,92.0,0.0,447.0,4495.8974358974365,3848.717948717949,4579.48717948718,4453.846153846154,4286.153846153847,4534.358974358975,4504.102564102564,4466.153846153847,4488.205128205129,4298.461538461539,4233.333333333334,4210.769230769231,4243.076923076924,4456.410256410257
177.44937,0.67596185,0.72522044,0.36842805,0.9426623,0,0.0,0.0,0.0,0.0,0.0,0,0,0.0,0.0,0,0,120.0,0.0,447.0,4508.717948717949,3858.9743589743593,4584.102564102564,4467.179487179487,4287.179487179487,4517.948717948719,4496.923076923077,4458.974358974359,4486.153846153847,4362.564102564103,4204.102564102564,4142.564102564103,4252.820512820514,4458.974358974359
177.69958,0.6392088,0.6906517,0.3668641,0.9261196,0,0.0,0.0,0.0,0.0,0.0,0,0,0.0,0.0,0,0,23.0,0.0,0.0,4497.435897435898,3847.1794871794878,4558.974358974359,4481.538461538462,4308.717948717949,4478.974358974359,4468.205128205129,4429.2307692307695,4477.435897435898,4373.846153846154,4205.128205128206,4190.256410256411,4207.6923076923085,4445.128205128206
178.0749,0.6392088,0.6906517,0.3668641,0.9261196,0,0.0,0.0,1.0,0.0,0.0,0,0,0.0,0.0,0,0,49.0,0.0,0.0,4504.102564102564,3848.205128205129,4555.384615384616,4482.051282051282,4312.820512820514,4478.974358974359,4467.6923076923085,4443.076923076924,4481.538461538462,4616.410256410257,4251.794871794872,4157.435897435898,4207.6923076923085,4451.282051282052
178.20001,0.60742855,0.6635327,0.36421067,0.89864194,0,0.0,0.0,1.0,0.0,0.0,0,0,0.0,0.0,0,0,87.0,0.0,394.0,4505.128205128206,3829.7435897435903,4545.128205128206,4476.923076923077,4310.256410256411,4426.666666666667,4466.666666666667,4435.384615384616,4473.846153846154,4374.358974358975,4203.589743589744,4226.666666666667,4180.000000000001,4482.564102564103
178.45023,0.60742855,0.6635327,0.36421067,0.89864194,0,0.0,0.0,0.0,0.0,0.0,0,0,0.0,0.0,0,0,119.0,0.0,394.0,4477.948717948719,3802.0512820512827,4513.846153846154,4475.8974358974365,4377.948717948719,4413.333333333334,4449.743589743591,4433.333333333334,4470.769230769231,4391.794871794872,4181.025641025642,4134.871794871796,4147.179487179487,4436.410256410257
178.70044,0.5783029,0.6486421,0.36106464,0.8625005,0,0.0,0.0,0.0,0.0,0.0,0,0,0.0,0.0,0,0,22.0,0.0,0.0,4476.410256410257,3800.512820512821,4511.282051282052,4482.051282051282,4371.794871794872,4375.8974358974365,4438.974358974359,4448.205128205129,4462.051282051282,4562.564102564103,4201.025641025642,4049.7435897435903,4128.205128205129,4407.179487179487
178.70044,0.5783029,0.6486421,0.36106464,0.8625005,0,0.0,0.0,0.0,0.0,0.0,0,0,0.0,0.0,0,0,22.0,0.0,0.0,4476.410256410257,3800.512820512821,4511.282051282052,4482.051282051282,4371.794871794872,4375.8974358974365,4438.974358974359,4448.205128205129,4462.051282051282,4562.564102564103,4201.025641025642,4049.7435897435903,4128.205128205129,4407.179487179487
179.23215,0.56713474,0.63392586,0.3582752,0.8313888,0,0.0,0.0,0.0,0.0,0.0,0,0,0.0,0.0,0,0,90.0,0.0,522.0,4459.48717948718,3785.1282051282055,4478.461538461539,4485.128205128206,4441.538461538462,4351.282051282052,4425.641025641026,4431.794871794872,4454.358974358975,4454.358974358975,4180.512820512821,4032.820512820513,4105.128205128206,4390.769230769231
179.23215,0.56713474,0.63392586,0.3582752,0.8313888,0,0.0,0.0,0.0,0.0,0.0,0,0,0.0,0.0,0,0,90.0,0.0,522.0,4459.48717948718,3785.1282051282055,4478.461538461539,4485.128205128206,4441.538461538462,4351.282051282052,4425.641025641026,4431.794871794872,4454.358974358975,4454.358974358975,4180.512820512821,4032.820512820513,4105.128205128206,4390.769230769231
179.73259,0.57886577,0.6187845,0.3557647,0.80338824,0,0.0,0.0,0.0,0.0,0.0,0,0,0.0,0.0,0,0,25.0,0.0,0.0,4425.641025641026,3762.564102564103,4420.000000000001,4516.410256410257,4641.538461538462,4226.153846153847,4372.820512820514,4362.564102564103,4438.461538461539,4200.000000000001,4098.461538461539,4014.358974358975,4063.589743589744,4367.179487179487
179.73259,0.57886577,0.6187845,0.3557647,0.80338824,0,0.0,0.0,0.0,0.0,0.0,0,0,0.0,0.0,0,0,25.0,0.0,0.0,4425.641025641026,3762.564102564103,4420.000000000001,4516.410256410257,4641.538461538462,4226.153846153847,4372.820512820514,4362.564102564103,4438.461538461539,4200.000000000001,4098.461538461539,4014.358974358975,4063.589743589744,4367.179487179487
180.20174,0.55423313,0.59277993,0.3534785,0.7775908,0,0.0,0.0,0.0,0.0,0.0,0,0,0.0,0.0,0,0,85.0,0.0,490.0,4376.923076923077,3762.0512820512827,4431.282051282052,4494.358974358975,4626.153846153847,4256.923076923077,4376.410256410257,4362.564102564103,4433.846153846154,4371.282051282052,4134.871794871796,4044.615384615385,4079.48717948718,4370.769230769231
180.20174,0.55423313,0.59277993,0.3534785,0.7775908,0,0.0,0.0,0.0,0.0,0.0,0,0,0.0,0.0,0,0,85.0,0.0,490.0,4376.923076923077,3762.0512820512827,4431.282051282052,4494.358974358975,4626.153846153847,4256.923076923077,4376.410256410257,4362.564102564103,4433.846153846154,4371.282051282052,4134.871794871796,4044.615384615385,4079.48717948718,4370.769230769231
180.70216,0.55627096,0.57104963,0.35142258,0.75450855,0,0.0,0.0,0.0,0.0,0.0,0,0,0.0,0.0,0,0,20.0,0.0,0.0,4386.153846153847,3770.7692307692314,4475.384615384616,4506.666666666667,4556.410256410257,4312.307692307693,4394.358974358975,4378.974358974359,4427.179487179487,4463.076923076924,4202.051282051282,4100.000000000001,4122.564102564103,4395.384615384616
180.70216,0.55627096,0.57104963,0.35142258,0.75450855,0,0.0,0.0,0.0,0.0,0.0,0,0,0.0,0.0,0,0,20.0,0.0,0.0,4386.153846153847,3770.7692307692314,4475.384615384616,4506.666666666667,4556.410256410257,4312.307692307693,4394.358974358975,4378.974358974359,4427.179487179487,4463.076923076924,4202.051282051282,4100.000000000001,4122.564102564103,4395.384615384616
181.20259,0.54575145,0.5601365,0.34956908,0.733809,0,0.0,0.0,0.0,0.0,0.0,0,0,0.0,0.0,0,0,84.0,0.0,447.0,4397.948717948719,3787.692307692308,4500.512820512821,4512.820512820514,4488.717948717949,4366.153846153847,4426.666666666667,4414.358974358975,4415.384615384616,4523.589743589744,4203.589743589744,4012.307692307693,4124.615384615385,4382.564102564103
181.20259,0.54575145,0.5601365,0.34956908,0.733809,0,0.0,0.0,0.0,0.0,0.0,0,0,0.0,0.0,0,0,84.0,0.0,447.0,4397.948717948719,3787.692307692308,4500.512820512821,4512.820512820514,4488.717948717949,4366.153846153847,4426.666666666667,4414.358974358975,4415.384615384616,4523.589743589744,4203.589743589744,4012.307692307693,4124.615384615385,4382.564102564103
181.70303,0.5268224,0.5562723,0.34790185,0.71524996,0,0.0,0.0,0.0,0.0,0.0,0,0,0.0,0.0,0,0,19.0,0.0,0.0,4429.743589743591,3799.48717948718,4528.205128205129,4525.641025641026,4448.717948717949,4414.871794871796,4453.846153846154,4434.358974358975,4411.282051282052,4597.435897435898,4243.589743589744,4097.435897435898,4147.6923076923085,4339.48717948718
181.70303,0.5268224,0.5562723,0.34790185,0.71524996,0,0.0,0.0,0.0,0.0,0.0,0,0,0.0,0.0,0,0,19.0,0.0,0.0,4429.743589743591,3799.48717948718,4528.205128205129,4525.641025641026,4448.717948717949,4414.871794871796,4453.846153846154,4434.358974358975,4411.282051282052,4597.435897435898,4243.589743589744,4097.435897435898,4147.6923076923085,4339.48717948718
182.23474,0.51462984,0.5528472,0.34643012,0.6988704,0,0.0,0.0,0.0,0.0,0.0,0,0,0.0,0.0,0,0,87.0,0.0,398.0,4448.205128205129,3801.0256410256416,4529.743589743591,4523.076923076924,4409.2307692307695,4421.538461538462,4467.179487179487,4454.358974358975,4373.333333333334,4729.2307692307695,4278.974358974359,4173.846153846154,4131.282051282052,4369.743589743591
182.23474,0.51462984,0.5528472,0.34643012,0.6988704,0,0.0,0.0,0.0,0.0,0.0,0,0,0.0,0.0,0,0,87.0,0.0,398.0,4448.205128205129,3801.0256410256416,4529.743589743591,4523.076923076924,4409.2307692307695,4421.538461538462,4467.179487179487,4454.358974358975,4373.333333333334,4729.2307692307695,4278.974358974359,4173.846153846154,4131.282051282052,4369.743589743591
182.73517,0.48848656,0.5446541,0.34511468,0.6841769,0,0.0,0.0,0.0,0.0,0.0,0,0,0.0,0.0,0,0,22.0,0.0,0.0,4438.974358974359,3786.666666666667,4472.820512820514,4461.025641025642,4374.871794871796,4427.6923076923085,4378.461538461539,4470.769230769231,4347.6923076923085,4667.179487179488,4292.820512820514,4193.846153846154,4096.410256410257,4384.615384615385
182.73517,0.48848656,0.5446541,0.34511468,0.6841769,0,0.0,0.0,0.0,0.0,0.0,0,0,0.0,0.0,0,0,22.0,0.0,0.0,4438.974358974359,3786.666666666667,4472.820512820514,4461.025641025642,4374.871794871796,4427.6923076923085,4378.461538461539,4470.769230769231,4347.6923076923085,4667.179487179488,4292.820512820514,4193.846153846154,4096.410256410257,4384.615384615385
183.20432,0.4481001,0.53427637,0.34391704,0.6708135,0,0.0,0.0,0.0,0.0,0.0,0,0,0.0,0.0,0,0,82.0,0.0,522.0,4450.769230769231,3799.48717948718,4481.538461538462,4398.974358974359,4376.410256410257,4450.769230769231,4388.205128205129,4433.333333333334,4347.179487179487,4661.025641025642,4271.794871794872,4220.000000000001,4100.512820512821,4387.6923076923085
183.20432,0.4481001,0.53427637,0.34391704,0.6708135,0,0.0,0.0,0.0,0.0,0.0,0,0,0.0,0.0,0,0,82.0,0.0,522.0,4450.769230769231,3799.48717948718,4481.538461538462,4398.974358974359,4376.410256410257,4450.769230769231,4388.205128205129,4433.333333333334,4347.179487179487,4661.025641025642,4271.794871794872,4220.000000000001,4100.512820512821,4387.6923076923085
183.70474,0.42755705,0.5194427,0.34283727,0.6587944,0,0.0,0.0,0.0,0.0,0.0,0,0,0.0,0.0,0,0,17.0,0.0,0.0,4457.948717948719,3814.358974358975,4509.2307692307695,4447.6923076923085,4377.435897435898,4470.769230769231,4424.102564102564,4445.641025641026,4350.769230769231,4710.256410256411,4309.2307692307695,4322.051282051282,4148.205128205129,4411.794871794872
183.70474,0.42755705,0.5194427,0.34283727,0.6587944,0,0.0,0.0,0.0,0.0,0.0,0,0,0.0,0.0,0,0,17.0,0.0,0.0,4457.948717948719,3814.358974358975,4509.2307692307695,4447.6923076923085,4377.435897435898,4470.769230769231,4424.102564102564,4445.641025641026,4350.769230769231,4710.256410256411,4309.2307692307695,4322.051282051282,4148.205128205129,4411.794871794872
184.20517,0.43131846,0.5053766,0.34186578,0.6479917,0,0.0,0.0,0.0,0.0,0.0,0,0,0.0,0.0,0,0,81.0,0.0,490.0,4445.641025641026,3815.3846153846157,4494.358974358975,4454.871794871796,4352.820512820514,4513.846153846154,4420.000000000001,4425.128205128206,4323.589743589744,4723.589743589744,4290.256410256411,4184.615384615385,4167.6923076923085,4402.051282051282
184.20517,0.43131846,0.5053766,0.34186578,0.6479917,0,0.0,0.0,0.0,0.0,0.0,0,0,0.0,0.0,0,0,81.0,0.0,490.0,4445.641025641026,3815.3846153846157,4494.358974358975,4454.871794871796,4352.820512820514,4513.846153846154,4420.000000000001,4425.128205128206,4323.589743589744,4723.589743589744,4290.256410256411,4184.615384615385,4167.6923076923085,4402.051282051282
184.70561,0.4270046,0.49764994,0.34098995,0.6382707,0,0.0,0.0,0.0,0.0,0.0,0,0,0.0,0.0,0,0,16.0,0.0,0.0,4452.307692307693,3815.8974358974365,4496.410256410257,4464.102564102564,4339.48717948718,4495.8974358974365,4437.435897435898,4425.128205128206,4332.307692307693,4693.846153846154,4255.8974358974365,4223.076923076924,4152.307692307693,4389.743589743591
184.70561,0.4270046,0.49764994,0.34098995,0.6382707,0,0.0,0.0,0.0,0.0,0.0,0,0,0.0,0.0,0,0,16.0,0.0,0.0,4452.307692307693,3815.8974358974365,4496.410256410257,4464.102564102564,4339.48717948718,4495.8974358974365,4437.435897435898,4425.128205128206,4332.307692307693,4693.846153846154,4255.8974358974365,4223.076923076924,4152.307692307693,4389.743589743591
185.20604,0.4302452,0.49680805,0.3402041,0.62954104,0,0.0,0.0,0.0,0.0,0.0,0,0,0.0,0.0,0,0,80.0,0.0,447.0,4446.153846153847,3816.410256410257,4496.923076923077,4443.076923076924,4314.358974358975,4471.282051282052,4445.641025641026,4428.205128205129,4354.358974358975,4632.307692307693,4280.000000000001,4253.846153846154,4166.153846153847,4401.538461538462
185.20604,0.4302452,0.49680805,0.3402041,0.62954104,0,0.0,0.0,0.0,0.0,0.0,0,0,0.0,0.0,0,0,80.0,0.0,447.0,4446.153846153847,3816.410256410257,4496.923076923077,4443.076923076924,4314.358974358975,4471.282051282052,4445.641025641026,4428.205128205129,4354.358974358975,4632.307692307693,4280.000000000001,4253.846153846154,4166.153846153847,4401.538461538462
185.73775,0.41626686,0.5098578,0.3395128,0.6217882,0,0.0,0.0,0.0,0.0,0.0,0,0,0.0,0.0,0,0,19.0,0.0,0.0,4468.717948717949,3833.333333333334,4513.333333333334,4448.205128205129,4321.538461538462,4482.051282051282,4443.076923076924,4426.666666666667,4374.358974358975,4681.025641025642,4321.538461538462,4287.6923076923085,4208.717948717949,4417.948717948719
185.73775,0.41626686,0.5098578,0.3395128,0.6217882,0,0.0,0.0,0.0,0.0,0.0,0,0,0.0,0.0,0,0,19.0,0.0,0.0,4468.717948717949,3833.333333333334,4513.333333333334,4448.205128205129,4321.538461538462,4482.051282051282,4443.076923076924,4426.666666666667,4374.358974358975,4681.025641025642,4321.538461538462,4287.6923076923085,4208.717948717949,4417.948717948719
186.2069,0.40743783,0.5235002,0.3388848,0.61476946,0,0.0,0.0,0.0,0.0,0.0,0,0,0.0,0.0,0,0,79.0,0.0,398.0,4474.358974358975,3849.2307692307695,4503.076923076924,4440.000000000001,4314.871794871796,4472.307692307693,4422.564102564103,4404.615384615385,4383.589743589744,4668.717948717949,4304.102564102564,4265.128205128206,4175.384615384616,4409.743589743591
186.2069,0.40743783,0.5235002,0.3388848,0.61476946,0,0.0,0.0,0.0,0.0,0.0,0,0,0.0,0.0,0,0,79.0,0.0,398.0,4474.358974358975,3849.2307692307695,4503.076923076924,4440.000000000001,4314.871794871796,4472.307692307693,4422.564102564103,4404.615384615385,4383.589743589744,4668.717948717949,4304.102564102564,4265.128205128206,4175.384615384616,4409.743589743591
186.70732,0.3935447,0.53504896,0.33831963,0.6084553,0,0.0,0.0,0.0,0.0,0.0,0,0,0.0,0.0,0,0,14.0,0.0,522.0,4476.410256410257,3845.6410256410263,4503.589743589744,4430.256410256411,4301.538461538462,4452.820512820514,4414.358974358975,4394.871794871796,4384.615384615385,4683.076923076924,4304.615384615385,4297.435897435898,4190.256410256411,4416.923076923077
186.70732,0.3935447,0.53504896,0.33831963,0.6084553,0,0.0,0.0,0.0,0.0,0.0,0,0,0.0,0.0,0,0,14.0,0.0,522.0,4476.410256410257,3845.6410256410263,4503.589743589744,4430.256410256411,4301.538461538462,4452.820512820514,4414.358974358975,4394.871794871796,4384.615384615385,4683.076923076924,4304.615384615385,4297.435897435898,4190.256410256411,4416.923076923077
187.20776,0.4026418,0.5449036,0.33781207,0.60278004,0,0.0,0.0,0.0,0.0,0.0,0,0,0.0,0.0,0,0,78.0,0.0,522.0,4489.2307692307695,3845.6410256410263,4512.820512820514,4443.076923076924,4295.8974358974365,4472.820512820514,4429.743589743591,4408.205128205129,4387.6923076923085,4700.512820512821,4314.358974358975,4188.205128205129,4208.205128205129,4412.820512820514
187.20776,0.4026418,0.5449036,0.33781207,0.60278004,0,0.0,0.0,0.0,0.0,0.0,0,0,0.0,0.0,0,0,78.0,0.0,522.0,4489.2307692307695,3845.6410256410263,4512.820512820514,4443.076923076924,4295.8974358974365,4472.820512820514,4429.743589743591,4408.205128205129,4387.6923076923085,4700.512820512821,4314.358974358975,4188.205128205129,4208.205128205129,4412.820512820514
187.70819,0.3944926,0.5395317,0.33735445,0.5976694,0,0.0,0.0,0.0,0.0,0.0,0,0,0.0,0.0,0,0,13.0,0.0,490.0,4488.717948717949,3858.9743589743593,4522.051282051282,4451.794871794872,4312.307692307693,4480.512820512821,4434.871794871796,4386.153846153847,4378.974358974359,4695.384615384616,4314.871794871796,4220.000000000001,4202.051282051282,4430.769230769231
187.70819,0.3944926,0.5395317,0.33735445,0.5976694,0,0.0,0.0,0.0,0.0,0.0,0,0,0.0,0.0,0,0,13.0,0.0,490.0,4488.717948717949,3858.9743589743593,4522.051282051282,4451.794871794872,4312.307692307693,4480.512820512821,4434.871794871796,4386.153846153847,4378.974358974359,4695.384615384616,4314.871794871796,4220.000000000001,4202.051282051282,4430.769230769231
188.20862,0.35530594,0.5296453,0.33694193,0.593067,0,0.0,0.0,0.0,0.0,0.0,0,0,0.0,0.0,0,0,77.0,0.0,490.0,4500.000000000001,3863.589743589744,4519.48717948718,4452.307692307693,4319.48717948718,4484.615384615385,4445.128205128206,4398.974358974359,4390.256410256411,4727.179487179488,4347.6923076923085,4245.128205128206,4207.6923076923085,4425.128205128206
188.20862,0.35530594,0.5296453,0.33694193,0.593067,0,0.0,0.0,0.0,0.0,0.0,0,0,0.0,0.0,0,0,77.0,0.0,490.0,4500.000000000001,3863.589743589744,4519.48717948718,4452.307692307693,4319.48717948718,4484.615384615385,4445.128205128206,4398.974358974359,4390.256410256411,4727.179487179488,4347.6923076923085,4245.128205128206,4207.6923076923085,4425.128205128206
188.70905,0.33999544,0.5163014,0.33657005,0.60915655,0,0.0,0.0,0.0,0.0,0.0,0,0,0.0,0.0,0,0,12.0,0.0,447.0,4491.794871794872,3861.538461538462,4514.871794871796,4446.153846153847,4315.8974358974365,4462.051282051282,4441.025641025642,4362.051282051282,4377.435897435898,4712.307692307693,4325.128205128206,4247.179487179487,4210.256410256411,4429.743589743591
188.70905,0.33999544,0.5163014,0.33657005,0.60915655,0,0.0,0.0,0.0,0.0,0.0,0,0,0.0,0.0,0,0,12.0,0.0,447.0,4491.794871794872,3861.538461538462,4514.871794871796,4446.153846153847,4315.8974358974365,4462.051282051282,4441.025641025642,4362.051282051282,4377.435897435898,4712.307692307693,4325.128205128206,4247.179487179487,4210.256410256411,4429.743589743591
189.20947,0.32231447,0.50310904,0.33679217,0.65195125,0,0.0,0.0,0.0,0.0,0.0,0,0,0.0,0.0,0,0,76.0,0.0,447.0,4507.179487179488,3862.0512820512827,4519.48717948718,4458.974358974359,4317.435897435898,4468.717948717949,4437.435897435898,4377.435897435898,4369.743589743591,4700.000000000001,4316.410256410257,4286.153846153847,4191.282051282052,4423.589743589744
189.20947,0.32231447,0.50310904,0.33679217,0.65195125,0,0.0,0.0,0.0,0.0,0.0,0,0,0.0,0.0,0,0,76.0,0.0,447.0,4507.179487179488,3862.0512820512827,4519.48717948718,4458.974358974359,4317.435897435898,4468.717948717949,4437.435897435898,4377.435897435898,4369.743589743591,4700.000000000001,4316.410256410257,4286.153846153847,4191.282051282052,4423.589743589744
189.70992,0.29299837,0.49069852,0.3369915,0.7034004,0,0.0,0.0,0.0,0.0,0.0,0,0,0.0,0.0,0,0,11.0,0.0,398.0,4493.333333333334,3862.564102564103,4516.923076923077,4515.8974358974365,4312.307692307693,4467.6923076923085,4441.538461538462,4395.8974358974365,4362.564102564103,4700.512820512821,4330.256410256411,4161.538461538462,4204.615384615385,4427.6923076923085
189.70992,0.29299837,0.49069852,0.3369915,0.7034004,0,0.0,0.0,0.0,0.0,0.0,0,0,0.0,0.0,0,0,11.0,0.0,398.0,4493.333333333334,3862.564102564103,4516.923076923077,4515.8974358974365,4312.307692307693,4467.6923076923085,4441.538461538462,4395.8974358974365,4362.564102564103,4700.512820512821,4330.256410256411,4161.538461538462,4204.615384615385,4427.6923076923085
190.21034,0.2606909,0.48345494,0.3371341,0.75499505,0,0.0,0.0,0.0,0.0,0.0,0,0,0.0,0.0,0,0,75.0,0.0,398.0,4505.128205128206,3860.512820512821,4522.564102564103,4506.153846153847,4308.205128205129,4478.974358974359,4441.025641025642,4399.48717948718,4365.128205128206,4676.410256410257,4280.512820512821,4175.384615384616,4201.025641025642,4430.769230769231
190.21034,0.2606909,0.48345494,0.3371341,0.75499505,0,0.0,0.0,0.0,0.0,0.0,0,0,0.0,0.0,0,0,75.0,0.0,398.0,4505.128205128206,3860.512820512821,4522.564102564103,4506.153846153847,4308.205128205129,4478.974358974359,4441.025641025642,4399.48717948718,4365.128205128206,4676.410256410257,4280.512820512821,4175.384615384616,4201.025641025642,4430.769230769231
190.71077,0.27239844,0.47583887,0.33666044,0.80109775,0,0.0,0.0,0.0,0.0,0.0,0,0,0.0,0.0,0,0,10.0,0.0,523.0,4525.641025641026,3877.9487179487182,4565.641025641026,4531.794871794872,4366.666666666667,4514.358974358975,4487.6923076923085,4452.820512820514,4359.48717948718,4734.871794871796,4328.205128205129,4252.820512820514,4253.333333333334,4473.333333333334
190.71077,0.27239844,0.47583887,0.33666044,0.80109775,0,0.0,0.0,0.0,0.0,0.0,0,0,0.0,0.0,0,0,10.0,0.0,523.0,4525.641025641026,3877.9487179487182,4565.641025641026,4531.794871794872,4366.666666666667,4514.358974358975,4487.6923076923085,4452.820512820514,4359.48717948718,4734.871794871796,4328.205128205129,4252.820512820514,4253.333333333334,4473.333333333334
191.24248,0.29465273,0.47119966,0.33623868,0.8432532,0,0.0,0.0,0.0,0.0,0.0,0,0,0.0,0.0,0,0,78.0,0.0,523.0,4530.769230769231,3881.0256410256416,4558.974358974359,4533.333333333334,4366.666666666667,4502.051282051282,4484.615384615385,4453.846153846154,4362.564102564103,4733.333333333334,4334.358974358975,4226.153846153847,4223.589743589744,4460.000000000001
191.24248,0.29465273,0.47119966,0.33623868,0.8432532,0,0.0,0.0,0.0,0.0,0.0,0,0,0.0,0.0,0,0,78.0,0.0,523.0,4530.769230769231,3881.0256410256416,4558.974358974359,4533.333333333334,4366.666666666667,4502.051282051282,4484.615384615385,4453.846153846154,4362.564102564103,4733.333333333334,4334.358974358975,4226.153846153847,4223.589743589744,4460.000000000001
191.71162,0.3181333,0.47255033,0.33589634,0.87896854,0,0.0,0.0,0.0,0.0,0.0,0,0,0.0,0.0,0,0,9.0,0.0,457.0,4539.48717948718,3897.9487179487182,4577.948717948719,4545.641025641026,4395.384615384616,4527.6923076923085,4513.333333333334,4479.48717948718,4381.538461538462,4771.282051282052,4363.076923076924,4272.820512820514,4269.74358974359,4488.205128205129
191.71162,0.3181333,0.47255033,0.33589634,0.87896854,0,0.0,0.0,0.0,0.0,0.0,0,0,0.0,0.0,0,0,9.0,0.0,457.0,4539.48717948718,3897.9487179487182,4577.948717948719,4545.641025641026,4395.384615384616,4527.6923076923085,4513.333333333334,4479.48717948718,4381.538461538462,4771.282051282052,4363.076923076924,4272.820512820514,4269.74358974359,4488.205128205129
192.24333,0.34476474,0.46693635,0.3355917,0.87941384,0,0.0,0.0,0.0,0.0,0.0,0,0,0.0,0.0,0,0,77.0,0.0,490.0,4526.666666666667,3881.538461538462,4549.2307692307695,4540.512820512821,4356.410256410257,4490.769230769231,4500.512820512821,4478.461538461539,4386.666666666667,4770.769230769231,4447.179487179487,4318.974358974359,4234.871794871796,4482.051282051282
192.24333,0.34476474,0.46693635,0.3355917,0.87941384,0,0.0,0.0,0.0,0.0,0.0,0,0,0.0,0.0,0,0,77.0,0.0,490.0,4526.666666666667,3881.538461538462,4549.2307692307695,4540.512820512821,4356.410256410257,4490.769230769231,4500.512820512821,4478.461538461539,4386.666666666667,4770.769230769231,4447.179487179487,4318.974358974359,4234.871794871796,4482.051282051282
192.74376,0.3421661,0.45605195,0.33536497,0.8466963,0,0.0,0.0,0.0,0.0,0.0,0,0,0.0,0.0,0,0,12.0,0.0,446.0,4535.384615384616,3877.9487179487182,4543.076923076924,4523.076923076924,4349.743589743591,4493.846153846154,4496.923076923077,4469.2307692307695,4386.666666666667,4757.435897435898,4353.333333333334,4273.333333333334,4235.384615384616,4494.358974358975
192.74376,0.3421661,0.45605195,0.33536497,0.8466963,0,0.0,0.0,0.0,0.0,0.0,0,0,0.0,0.0,0,0,12.0,0.0,446.0,4535.384615384616,3877.9487179487182,4543.076923076924,4523.076923076924,4349.743589743591,4493.846153846154,4496.923076923077,4469.2307692307695,4386.666666666667,4757.435897435898,4353.333333333334,4273.333333333334,4235.384615384616,4494.358974358975
193.2442,0.3211216,0.44311765,0.33516136,0.8172506,0,0.0,0.0,0.0,0.0,0.0,0,0,0.0,0.0,0,0,76.0,0.0,445.0,4535.384615384616,3872.307692307693,4540.000000000001,4492.820512820514,4370.256410256411,4510.256410256411,4501.025641025642,4476.410256410257,4389.2307692307695,4771.282051282052,4364.615384615385,4301.538461538462,4228.205128205129,4490.769230769231
193.2442,0.3211216,0.44311765,0.33516136,0.8172506,0,0.0,0.0,0.0,0.0,0.0,0,0,0.0,0.0,0,0,76.0,0.0,445.0,4535.384615384616,3872.307692307693,4540.000000000001,4492.820512820514,4370.256410256411,4510.256410256411,4501.025641025642,4476.410256410257,4389.2307692307695,4771.282051282052,4364.615384615385,4301.538461538462,4228.205128205129,4490.769230769231
193.71335,0.32514086,0.43136898,0.3349757,0.7900289,0,0.0,0.0,0.0,0.0,0.0,0,0,0.0,0.0,0,0,7.0,0.0,458.0,4550.256410256411,3882.0512820512827,4550.256410256411,4470.256410256411,4351.282051282052,4500.000000000001,4423.076923076924,4466.153846153847,4377.948717948719,4738.461538461539,4330.256410256411,4286.666666666667,4179.48717948718,4467.179487179487
193.96356,0.32514086,0.43136898,0.3349757,0.7900289,0,0.0,0.0,0.0,0.0,0.0,0,0,0.0,0.28052142,0,0,39.0,0.0,0.0,4561.025641025642,3898.461538461539,4560.512820512821,4494.358974358975,4396.410256410257,4498.974358974359,4432.307692307693,4454.871794871796,4380.000000000001,4740.000000000001,4336.410256410257,4350.256410256411,4182.051282051282,4462.051282051282
194.24506,0.30502266,0.43639025,0.33481088,0.76620936,0,0.0,0.0,0.0,0.0,0.0,0,0,0.0,0.0,0,0,75.0,0.0,398.0,4554.358974358975,3896.410256410257,4555.384615384616,4482.051282051282,4372.820512820514,4485.128205128206,4416.923076923077,4415.8974358974365,4371.794871794872,4730.256410256411,4323.589743589744,4281.538461538462,4180.000000000001,4449.2307692307695
194.24506,0.30502266,0.43639025,0.33481088,0.76620936,0,0.0,0.0,0.0,0.0,0.0,0,0,0.0,0.0,0,0,75.0,0.0,398.0,4554.358974358975,3896.410256410257,4555.384615384616,4482.051282051282,4372.820512820514,4485.128205128206,4416.923076923077,4415.8974358974365,4371.794871794872,4730.256410256411,4323.589743589744,4281.538461538462,4180.000000000001,4449.2307692307695
194.74548,0.27825418,0.4446753,0.33466256,0.7447717,0,0.0,0.0,0.0,0.0,0.0,0,0,0.0,0.0,0,0,10.0,0.0,523.0,4536.923076923077,3878.461538461539,4539.48717948718,4475.384615384616,4329.2307692307695,4475.8974358974365,4422.051282051282,4414.871794871796,4367.6923076923085,4724.615384615386,4316.923076923077,4237.948717948719,4189.2307692307695,4437.435897435898
194.96442,0.27825418,0.4446753,0.33466256,0.7447717,0,0.0,0.0,0.0,0.0,0.0,0,0,0.0,0.35361454,0,0,38.0,0.0,0.0,4550.769230769231,3882.0512820512827,4541.538461538462,4480.000000000001,4325.641025641026,4478.461538461539,4438.974358974359,4435.8974358974365,4370.256410256411,4742.051282051282,4336.410256410257,4210.769230769231,4220.512820512821,4457.435897435898
195.24591,0.26995787,0.4523376,0.33452934,0.72549814,0,0.0,0.0,0.0,0.0,0.0,0,0,0.0,0.0,0,0,74.0,0.0,523.0,4554.871794871796,3880.512820512821,4546.666666666667,4483.589743589744,4308.717948717949,4477.435897435898,4438.461538461539,4433.333333333334,4367.6923076923085,4738.461538461539,4340.512820512821,4287.6923076923085,4208.717948717949,4448.717948717949
195.24591,0.26995787,0.4523376,0.33452934,0.72549814,0,0.0,0.0,0.0,0.0,0.0,0,0,0.0,0.0,0,0,74.0,0.0,523.0,4554.871794871796,3880.512820512821,4546.666666666667,4483.589743589744,4308.717948717949,4477.435897435898,4438.461538461539,4433.333333333334,4367.6923076923085,4738.461538461539,4340.512820512821,4287.6923076923085,4208.717948717949,4448.717948717949
195.74634,0.24436104,0.45857054,0.33440974,0.7081722,0,0.0,0.0,0.0,0.0,0.0,0,0,0.0,0.0,0,0,9.0,0.0,455.0,4534.358974358975,3867.692307692308,4542.564102564103,3565.6410256410263,4325.128205128206,4493.333333333334,4450.256410256411,4436.410256410257,4362.051282051282,4732.820512820514,4342.051282051282,4303.076923076924,4220.512820512821,4446.666666666667
195.96529,0.24436104,0.45857054,0.33440974,0.7081722,0,0.0,0.24152473,0.0,0.0,0.0,0,0,0.0,0.0,0,0,37.0,0.0,0.0,4523.076923076924,3872.307692307693,4548.717948717949,3705.6410256410263,4320.000000000001,4495.384615384616,4454.871794871796,4435.8974358974365,4365.641025641026,4738.461538461539,4340.000000000001,4288.717948717949,4221.025641025642,4430.769230769231
196.24678,0.22097374,0.46245193,0.3343021,0.69257885,0,0.0,0.78924733,0.0,0.0,0.0,0,0,0.0,0.0,0,0,73.0,0.0,455.0,4522.564102564103,3864.615384615385,4524.102564102564,3853.333333333334,4311.794871794872,4494.871794871796,4460.512820512821,4445.641025641026,4368.717948717949,4752.820512820514,4354.358974358975,4275.384615384616,4245.641025641026,4450.256410256411
196.46571,0.22097374,0.46245193,0.3343021,0.69257885,0,0.0,0.23402892,0.0,0.0,0.0,0,0,0.0,0.0,0,0,101.0,0.0,490.0,4535.384615384616,3879.48717948718,4540.512820512821,3973.333333333334,4330.769230769231,4509.743589743591,4463.589743589744,4446.153846153847,4364.102564102564,4758.461538461539,4368.717948717949,4316.923076923077,4239.48717948718,4455.384615384616
196.71593,0.209626,0.47461548,0.33420372,0.6783607,0,0.0,0.0,0.0,0.0,0.0,0,0,0.0,0.0,0,0,4.0,0.0,457.0,4536.410256410257,3864.615384615385,4539.48717948718,4078.461538461539,4198.461538461539,4503.589743589744,4464.615384615385,4434.358974358975,4368.717948717949,4764.102564102564,4369.743589743591,4268.205128205129,4242.564102564103,4464.615384615385
196.71593,0.209626,0.47461548,0.33420372,0.6783607,0,0.0,0.0,0.0,0.0,0.0,0,0,0.0,0.0,0,0,4.0,0.0,457.0,4536.410256410257,3864.615384615385,4539.48717948718,4078.461538461539,4198.461538461539,4503.589743589744,4464.615384615385,4434.358974358975,4368.717948717949,4764.102564102564,4369.743589743591,4268.205128205129,4242.564102564103,4464.615384615385
197.21635,0.19195147,0.5002756,0.33411503,0.6655751,0,0.0,0.0,0.0,0.0,0.0,0,0,0.0,0.0,0,0,68.0,0.0,457.0,4550.769230769231,3879.48717948718,4538.974358974359,4246.153846153847,4374.358974358975,4479.48717948718,4465.128205128206,4427.6923076923085,4358.974358974359,4737.435897435898,4325.641025641026,4218.974358974359,4201.025641025642,4428.717948717949
197.21635,0.19195147,0.5002756,0.33411503,0.6655751,0,0.0,0.0,0.0,0.0,0.0,0,0,0.0,0.0,0,0,68.0,0.0,457.0,4550.769230769231,3879.48717948718,4538.974358974359,4246.153846153847,4374.358974358975,4479.48717948718,4465.128205128206,4427.6923076923085,4358.974358974359,4737.435897435898,4325.641025641026,4218.974358974359,4201.025641025642,4428.717948717949
197.74806,0.19553961,0.52518576,0.3340363,0.6542007,0,0.0,0.0,0.0,0.0,0.0,0,0,0.0,0.0,0,0,7.0,0.0,458.0,4565.128205128206,3882.564102564103,4559.48717948718,4347.179487179487,4270.256410256411,4497.435897435898,4477.435897435898,4441.025641025642,4356.923076923077,4740.000000000001,4320.000000000001,4238.974358974359,4190.256410256411,4442.051282051282
197.96701,0.19553961,0.52518576,0.3340363,0.6542007,0,0.0,0.0,0.0,0.0,0.0,0,0,0.0,0.15317766,0,0,35.0,0.0,0.0,4552.307692307693,3864.1025641025644,4518.974358974359,4353.846153846154,4255.8974358974365,4470.256410256411,4454.871794871796,4421.025641025642,4351.794871794872,4715.384615384616,4300.512820512821,4138.461538461539,4158.974358974359,4423.076923076924
198.24849,0.20374343,0.5397407,0.33396557,0.6439745,0,0.0,0.0,0.0,0.0,0.0,0,0,0.0,0.0,0,0,71.0,0.0,458.0,4545.128205128206,3851.7948717948725,4492.307692307693,4349.743589743591,4247.179487179487,4463.076923076924,4443.589743589744,4412.307692307693,4345.128205128206,4701.538461538462,4281.538461538462,4191.282051282052,4155.384615384616,4424.615384615385
198.24849,0.20374343,0.5397407,0.33396557,0.6439745,0,0.0,0.0,0.0,0.0,0.0,0,0,0.0,0.0,0,0,71.0,0.0,458.0,4545.128205128206,3851.7948717948725,4492.307692307693,4349.743589743591,4247.179487179487,4463.076923076924,4443.589743589744,4412.307692307693,4345.128205128206,4701.538461538462,4281.538461538462,4191.282051282052,4155.384615384616,4424.615384615385
198.71765,0.2064421,0.55025506,0.33390123,0.6347,0,0.0,0.0,0.0,0.0,0.0,0,0,0.0,0.0,0,0,2.0,0.0,258.0,4535.8974358974365,3845.1282051282055,4483.589743589744,4363.589743589744,4242.051282051282,4470.256410256411,4456.923076923077,4431.794871794872,4322.051282051282,4723.589743589744,4362.051282051282,4317.948717948719,4182.564102564103,4435.384615384616
198.71765,0.2064421,0.55025506,0.33390123,0.6347,0,0.0,0.0,0.0,0.0,0.0,0,0,0.0,0.0,0,0,2.0,0.0,258.0,4535.8974358974365,3845.1282051282055,4483.589743589744,4363.589743589744,4242.051282051282,4470.256410256411,4456.923076923077,4431.794871794872,4322.051282051282,4723.589743589744,4362.051282051282,4317.948717948719,4182.564102564103,4435.384615384616
199.24936,0.19184321,0.5457174,0.33384424,0.62643987,0,0.0,0.0,0.0,0.0,0.0,0,0,0.0,0.0,0,0,70.0,0.0,529.0,4543.589743589744,3861.538461538462,4515.384615384616,4419.48717948718,4258.461538461539,4485.128205128206,4461.538461538462,4432.820512820514,4334.358974358975,4737.435897435898,4339.48717948718,4334.871794871796,4200.000000000001,4444.102564102564
199.24936,0.19184321,0.5457174,0.33384424,0.62643987,0,0.0,0.0,0.0,0.0,0.0,0,0,0.0,0.0,0,0,70.0,0.0,529.0,4543.589743589744,3861.538461538462,4515.384615384616,4419.48717948718,4258.461538461539,4485.128205128206,4461.538461538462,4432.820512820514,4334.358974358975,4737.435897435898,4339.48717948718,4334.871794871796,4200.000000000001,4444.102564102564
199.7185,0.19154471,0.5393543,0.33379215,0.618938,0,0.0,0.0,0.0,0.0,0.0,0,0,0.0,0.0,0,0,1.0,0.0,394.0,4568.717948717949,3890.2564102564106,4562.564102564103,4476.410256410257,4301.538461538462,4521.538461538462,4493.846153846154,4454.871794871796,4346.666666666667,4763.076923076924,4356.923076923077,4248.717948717949,4231.794871794872,4457.435897435898
199.7185,0.19154471,0.5393543,0.33379215,0.618938,0,0.0,0.0,0.0,0.0,0.0,0,0,0.0,0.0,0,0,1.0,0.0,394.0,4568.717948717949,3890.2564102564106,4562.564102564103,4476.410256410257,4301.538461538462,4521.538461538462,4493.846153846154,4454.871794871796,4346.666666666667,4763.076923076924,4356.923076923077,4248.717948717949,4231.794871794872,4457.435897435898
200.21893,0.18078887,0.5522641,0.33374533,0.61219096,0,0.0,0.0,0.0,0.0,0.0,0,0,0.0,0.0,0,0,65.0,0.0,394.0,4567.179487179488,3881.538461538462,4557.948717948719,4490.256410256411,4319.48717948718,4527.6923076923085,4486.666666666667,4454.871794871796,4347.6923076923085,4770.769230769231,4377.435897435898,4226.666666666667,4245.128205128206,4470.769230769231
200.21893,0.18078887,0.5522641,0.33374533,0.61219096,0,0.0,0.0,0.0,0.0,0.0,0,0,0.0,0.0,0,0,65.0,0.0,394.0,4567.179487179488,3881.538461538462,4557.948717948719,4490.256410256411,4319.48717948718,4527.6923076923085,4486.666666666667,4454.871794871796,4347.6923076923085,4770.769230769231,4377.435897435898,4226.666666666667,4245.128205128206,4470.769230769231
200.75064,0.17193733,0.5511438,0.33370382,0.6061743,0,0.0,0.0,0.0,0.0,0.0,0,0,0.0,0.29649198,0,0,4.0,0.0,459.0,4554.358974358975,3874.8717948717954,4536.923076923077,4479.48717948718,4332.820512820514,4503.589743589744,4467.6923076923085,4428.205128205129,4343.076923076924,4726.666666666667,4326.666666666667,4152.307692307693,4198.974358974359,4435.8974358974365
200.96959,0.17193733,0.5511438,0.33370382,0.6061743,0,0.0,0.0,0.0,0.0,0.0,0,0,0.0,0.0,0,0,32.0,0.0,0.0,4551.794871794872,3870.2564102564106,4510.769230769231,4472.307692307693,4343.589743589744,4502.051282051282,4457.435897435898,4423.076923076924,4348.205128205129,4730.769230769231,4338.974358974359,4219.48717948718,4207.6923076923085,4465.128205128206
201.2198,0.17585771,0.54734534,0.333666,0.60071975,0,0.0,0.0,0.0,0.0,0.0,0,0,0.0,0.0,0,0,64.0,0.0,496.0,4541.538461538462,3861.0256410256416,4513.846153846154,4470.256410256411,4321.538461538462,4481.025641025642,4440.512820512821,4406.666666666667,4340.512820512821,4711.794871794872,4316.923076923077,4180.512820512821,4197.435897435898,4453.846153846154
201.2198,0.17585771,0.54734534,0.333666,0.60071975,0,0.0,0.0,0.0,0.0,0.0,0,0,0.0,0.0,0,0,64.0,0.0,496.0,4541.538461538462,3861.0256410256416,4513.846153846154,4470.256410256411,4321.538461538462,4481.025641025642,4440.512820512821,4406.666666666667,4340.512820512821,4711.794871794872,4316.923076923077,4180.512820512821,4197.435897435898,4453.846153846154
201.72023,0.20432177,0.5410543,0.33363202,0.5958186,0,0.0,0.0,0.0,0.0,0.0,0,0,0.0,0.0,0,0,128.0,0.0,444.0,4527.6923076923085,3835.8974358974365,4482.564102564103,4431.794871794872,4271.282051282052,4470.769230769231,4426.153846153847,4397.948717948719,4339.48717948718,4694.358974358975,4296.923076923077,4181.538461538462,4189.2307692307695,4458.461538461539
201.72023,0.20432177,0.5410543,0.33363202,0.5958186,0,0.0,0.0,0.0,0.0,0.0,0,0,0.0,0.0,0,0,128.0,0.0,444.0,4527.6923076923085,3835.8974358974365,4482.564102564103,4431.794871794872,4271.282051282052,4470.769230769231,4426.153846153847,4397.948717948719,4339.48717948718,4694.358974358975,4296.923076923077,4181.538461538462,4189.2307692307695,4458.461538461539
202.22066,0.24632087,0.5215199,0.33360147,0.5914099,0,0.0,0.0,0.0,0.0,0.0,0,0,0.0,0.0,0,0,63.0,0.0,0.0,4511.794871794872,3820.0000000000005,4466.153846153847,4397.435897435898,4238.974358974359,4432.307692307693,4406.666666666667,4381.538461538462,4330.769230769231,4675.384615384616,4273.846153846154,4209.74358974359,4161.538461538462,4427.6923076923085
202.22066,0.24632087,0.5215199,0.33360147,0.5914099,0,0.0,0.0,0.0,0.0,0.0,0,0,0.0,0.0,0,0,63.0,0.0,0.0,4511.794871794872,3820.0000000000005,4466.153846153847,4397.435897435898,4238.974358974359,4432.307692307693,4406.666666666667,4381.538461538462,4330.769230769231,4675.384615384616,4273.846153846154,4209.74358974359,4161.538461538462,4427.6923076923085
202.75237,0.26035714,0.52140534,0.3335744,0.58747476,0,0.0,0.0,0.0,0.0,0.0,0,0,0.0,0.0,0,0,2.0,0.0,259.0,4506.666666666667,3813.8461538461543,4475.8974358974365,4407.179487179487,4244.615384615385,4442.051282051282,4418.974358974359,4385.128205128206,4322.564102564103,4681.538461538462,4267.179487179487,4246.153846153847,4164.615384615385,4430.769230769231
202.75237,0.26035714,0.52140534,0.3335744,0.58747476,0,0.0,0.0,0.0,0.0,0.0,0,0,0.0,0.0,0,0,2.0,0.0,259.0,4506.666666666667,3813.8461538461543,4475.8974358974365,4407.179487179487,4244.615384615385,4442.051282051282,4418.974358974359,4385.128205128206,4322.564102564103,4681.538461538462,4267.179487179487,4246.153846153847,4164.615384615385,4430.769230769231
203.22151,0.2796079,0.5325294,0.3335498,0.5839131,0,0.0,0.0,0.0,0.0,0.0,0,0,0.0,0.0,0,0,62.0,0.0,0.0,4528.205128205129,3817.9487179487182,4501.025641025642,4431.282051282052,4269.2307692307695,4454.358974358975,4426.153846153847,4398.974358974359,4322.564102564103,4701.025641025642,4274.871794871796,4152.820512820514,4196.923076923077,4409.2307692307695
203.22151,0.2796079,0.5325294,0.3335498,0.5839131,0,0.0,0.0,0.0,0.0,0.0,0,0,0.0,0.0,0,0,62.0,0.0,0.0,4528.205128205129,3817.9487179487182,4501.025641025642,4431.282051282052,4269.2307692307695,4454.358974358975,4426.153846153847,4398.974358974359,4322.564102564103,4701.025641025642,4274.871794871796,4152.820512820514,4196.923076923077,4409.2307692307695
203.72195,0.28747717,0.5382661,0.3335277,0.5807123,0,0.0,0.0,0.0,0.0,0.0,0,0,0.0,0.0,0,0,126.0,0.0,523.0,4519.48717948718,3792.307692307693,4495.384615384616,4425.641025641026,4249.2307692307695,4445.128205128206,4426.153846153847,4399.48717948718,4261.538461538462,4686.153846153847,4270.256410256411,4153.846153846154,4172.307692307693,4406.666666666667
203.72195,0.28747717,0.5382661,0.3335277,0.5807123,0,0.0,0.0,0.0,0.0,0.0,0,0,0.0,0.0,0,0,126.0,0.0,523.0,4519.48717948718,3792.307692307693,4495.384615384616,4425.641025641026,4249.2307692307695,4445.128205128206,4426.153846153847,4399.48717948718,4261.538461538462,4686.153846153847,4270.256410256411,4153.846153846154,4172.307692307693,4406.666666666667
204.22238,0.28349337,0.5416184,0.33350784,0.5778329,0,0.0,0.0,0.0,0.0,0.0,0,0,0.0,0.0,0,0,61.0,0.0,0.0,4530.769230769231,3811.7948717948725,4518.974358974359,4445.641025641026,4269.2307692307695,4477.948717948719,4443.589743589744,4407.179487179487,4241.025641025642,4690.769230769231,4273.333333333334,4161.025641025642,4161.538461538462,4407.179487179487
204.22238,0.28349337,0.5416184,0.33350784,0.5778329,0,0.0,0.0,0.0,0.0,0.0,0,0,0.0,0.0,0,0,61.0,0.0,0.0,4530.769230769231,3811.7948717948725,4518.974358974359,4445.641025641026,4269.2307692307695,4477.948717948719,4443.589743589744,4407.179487179487,4241.025641025642,4690.769230769231,4273.333333333334,4161.025641025642,4161.538461538462,4407.179487179487
204.72281,0.26955938,0.54383427,0.33348995,0.5752421,0,0.0,0.0,0.0,0.0,0.0,0,0,0.0,0.0,0,0,125.0,0.0,490.0,4555.384615384616,3833.8461538461543,4554.358974358975,4464.102564102564,4273.333333333334,4480.512820512821,4447.179487179487,4400.512820512821,4238.974358974359,4723.076923076924,4324.615384615385,4252.307692307693,4214.871794871796,4475.8974358974365
204.72281,0.26955938,0.54383427,0.33348995,0.5752421,0,0.0,0.0,0.0,0.0,0.0,0,0,0.0,0.0,0,0,125.0,0.0,490.0,4555.384615384616,3833.8461538461543,4554.358974358975,4464.102564102564,4273.333333333334,4480.512820512821,4447.179487179487,4400.512820512821,4238.974358974359,4723.076923076924,4324.615384615385,4252.307692307693,4214.871794871796,4475.8974358974365
205.22324,0.23240204,0.5425383,0.33347386,0.57291365,0,0.0,0.0,0.0,0.0,0.0,0,0,0.0,0.0,0,0,60.0,0.0,0.0,4522.564102564103,3850.2564102564106,4518.461538461539,4445.128205128206,4291.794871794872,4494.358974358975,4453.846153846154,4409.743589743591,4236.923076923077,4707.6923076923085,4293.333333333334,4198.974358974359,4158.461538461539,4415.384615384616
205.22324,0.23240204,0.5425383,0.33347386,0.57291365,0,0.0,0.0,0.0,0.0,0.0,0,0,0.0,0.0,0,0,60.0,0.0,0.0,4522.564102564103,3850.2564102564106,4518.461538461539,4445.128205128206,4291.794871794872,4494.358974358975,4453.846153846154,4409.743589743591,4236.923076923077,4707.6923076923085,4293.333333333334,4198.974358974359,4158.461538461539,4415.384615384616
205.72366,0.20579346,0.5399122,0.3334594,0.604887,0,0.0,0.0,0.0,0.0,0.0,0,0,0.0,0.0,0,0,124.0,0.0,444.0,4508.717948717949,3833.8461538461543,4508.205128205129,4424.615384615385,4251.794871794872,4459.48717948718,4451.794871794872,4408.717948717949,4228.205128205129,4711.282051282052,4293.333333333334,4215.8974358974365,4178.461538461539,4439.48717948718
205.72366,0.20579346,0.5399122,0.3334594,0.604887,0,0.0,0.0,0.0,0.0,0.0,0,0,0.0,0.0,0,0,124.0,0.0,444.0,4508.717948717949,3833.8461538461543,4508.205128205129,4424.615384615385,4251.794871794872,4459.48717948718,4451.794871794872,4408.717948717949,4228.205128205129,4711.282051282052,4293.333333333334,4215.8974358974365,4178.461538461539,4439.48717948718
206.2241,0.18847767,0.5508006,0.3335663,0.6700725,0,0.0,0.0,0.0,0.0,0.0,0,0,0.0,0.0,0,0,59.0,0.0,0.0,4519.48717948718,3833.333333333334,4509.743589743591,4419.48717948718,4252.820512820514,4441.025641025642,4451.282051282052,4411.794871794872,4219.48717948718,4695.384615384616,4272.307692307693,4241.538461538462,4148.205128205129,4438.974358974359
206.47432,0.18847767,0.5508006,0.3335663,0.6700725,1,0.0,0.0,0.0,0.0,0.0,0,0,0.0,0.0,0,0,91.0,0.0,398.0,4583.589743589744,3893.8461538461543,4623.589743589744,4405.641025641026,4001.0256410256416,4038.461538461539,4559.48717948718,4518.974358974359,4248.205128205129,4821.025641025642,4400.512820512821,4364.102564102564,4300.000000000001,4506.666666666667
206.75581,0.24042077,0.5757061,0.3336632,0.728901,0,0.0,0.0,0.0,0.0,0.0,0,0,0.0,0.0,0,0,127.0,0.0,398.0,4570.256410256411,3884.615384615385,4595.8974358974365,4406.666666666667,4055.8974358974365,4132.307692307693,4528.205128205129,4494.871794871796,4244.102564102564,4809.2307692307695,4360.512820512821,4265.641025641026,4271.794871794872,4471.282051282052
206.75581,0.24042077,0.5757061,0.3336632,0.728901,0,0.0,0.0,0.0,0.0,0.0,0,0,0.0,0.0,0,0,127.0,0.0,398.0,4570.256410256411,3884.615384615385,4595.8974358974365,4406.666666666667,4055.8974358974365,4132.307692307693,4528.205128205129,4494.871794871796,4244.102564102564,4809.2307692307695,4360.512820512821,4265.641025641026,4271.794871794872,4471.282051282052
207.22496,0.2878733,0.60840905,0.33374968,0.7812069,0,0.0,0.0,0.0,0.0,0.0,0,0,0.0,0.0,0,0,58.0,0.0,0.0,4556.410256410257,3877.435897435898,4545.128205128206,4399.48717948718,4137.435897435898,4254.871794871796,4467.6923076923085,4437.435897435898,4231.794871794872,4768.717948717949,4335.384615384616,4244.615384615385,4243.076923076924,4473.333333333334
207.22496,0.2878733,0.60840905,0.33374968,0.7812069,0,0.0,0.0,0.0,0.0,0.0,0,0,0.0,0.0,0,0,58.0,0.0,0.0,4556.410256410257,3877.435897435898,4545.128205128206,4399.48717948718,4137.435897435898,4254.871794871796,4467.6923076923085,4437.435897435898,4231.794871794872,4768.717948717949,4335.384615384616,4244.615384615385,4243.076923076924,4473.333333333334
207.72539,0.28800666,0.64050144,0.33370736,0.7940153,0,0.0,0.0,0.0,0.0,0.0,0,0,0.0,0.0,0,0,122.0,0.0,523.0,4538.974358974359,3863.589743589744,4515.384615384616,4391.794871794872,4184.615384615385,4329.743589743591,4438.461538461539,4409.2307692307695,4228.205128205129,4709.2307692307695,4307.179487179487,4282.564102564103,4214.358974358975,4459.48717948718
207.72539,0.28800666,0.64050144,0.33370736,0.7940153,0,0.0,0.0,0.0,0.0,0.0,0,0,0.0,0.0,0,0,122.0,0.0,523.0,4538.974358974359,3863.589743589744,4515.384615384616,4391.794871794872,4184.615384615385,4329.743589743591,4438.461538461539,4409.2307692307695,4228.205128205129,4709.2307692307695,4307.179487179487,4282.564102564103,4214.358974358975,4459.48717948718
208.22581,0.28122354,0.6288113,0.33366933,0.7692566,0,0.0,0.0,0.0,0.0,0.0,0,0,0.0,0.0,0,0,57.0,0.0,0.0,4538.461538461539,3849.2307692307695,4504.615384615385,4389.743589743591,4210.769230769231,4363.589743589744,4418.974358974359,4402.564102564103,4220.000000000001,4685.641025641026,4303.589743589744,4297.948717948719,4196.410256410257,4464.102564102564
208.22581,0.28122354,0.6288113,0.33366933,0.7692566,0,0.0,0.0,0.0,0.0,0.0,0,0,0.0,0.0,0,0,57.0,0.0,0.0,4538.461538461539,3849.2307692307695,4504.615384615385,4389.743589743591,4210.769230769231,4363.589743589744,4418.974358974359,4402.564102564103,4220.000000000001,4685.641025641026,4303.589743589744,4297.948717948719,4196.410256410257,4464.102564102564
208.72626,0.2711981,0.5927132,0.3336351,0.74706256,0,0.0,0.0,0.0,0.0,0.0,0,0,0.0,0.0,0,0,121.0,0.0,490.0,4525.128205128206,3845.6410256410263,4487.179487179488,4386.153846153847,4221.538461538462,4395.384615384616,4405.641025641026,4382.051282051282,4215.8974358974365,4669.743589743591,4274.358974358975,4262.564102564103,4160.000000000001,4437.948717948719
208.72626,0.2711981,0.5927132,0.3336351,0.74706256,0,0.0,0.0,0.0,0.0,0.0,0,0,0.0,0.0,0,0,121.0,0.0,490.0,4525.128205128206,3845.6410256410263,4487.179487179488,4386.153846153847,4221.538461538462,4395.384615384616,4405.641025641026,4382.051282051282,4215.8974358974365,4669.743589743591,4274.358974358975,4262.564102564103,4160.000000000001,4437.948717948719
209.21886,0.28389537,0.5730933,0.3336042,0.727149,0,0.0,0.0,0.0,0.0,0.0,0,0,0.0,0.0,0,0,56.0,0.0,0.0,4504.102564102564,3814.8717948717954,4413.333333333334,4361.025641025642,4216.923076923077,4400.000000000001,4428.717948717949,4423.076923076924,4219.48717948718,4690.769230769231,4278.461538461539,4322.051282051282,4148.717948717949,4462.564102564103
209.21886,0.28389537,0.5730933,0.3336042,0.727149,0,0.0,0.0,0.0,0.0,0.0,0,0,0.0,0.0,0,0,56.0,0.0,0.0,4504.102564102564,3814.8717948717954,4413.333333333334,4361.025641025642,4216.923076923077,4400.000000000001,4428.717948717949,4423.076923076924,4219.48717948718,4690.769230769231,4278.461538461539,4322.051282051282,4148.717948717949,4462.564102564103
209.71928,0.27885848,0.5550794,0.33357635,0.7342439,0,0.0,0.0,0.0,0.0,0.0,0,0,0.0,0.0,0,0,120.0,0.0,444.0,4515.384615384616,3828.717948717949,4441.538461538462,4375.384615384616,4234.358974358975,4421.538461538462,4482.051282051282,4471.282051282052,4224.615384615385,4729.743589743591,4286.153846153847,4219.48717948718,4157.435897435898,4464.102564102564
209.71928,0.27885848,0.5550794,0.33357635,0.7342439,0,0.0,0.0,0.0,0.0,0.0,0,0,0.0,0.0,0,0,120.0,0.0,444.0,4515.384615384616,3828.717948717949,4441.538461538462,4375.384615384616,4234.358974358975,4421.538461538462,4482.051282051282,4471.282051282052,4224.615384615385,4729.743589743591,4286.153846153847,4219.48717948718,4157.435897435898,4464.102564102564
210.21973,0.27075127,0.5459231,0.33355126,0.78327173,0,0.0,0.0,0.0,0.0,0.0,0,0,0.0,0.0,0,0,55.0,0.0,0.0,4545.641025641026,3862.0512820512827,4514.871794871796,4411.282051282052,4273.333333333334,4471.282051282052,4436.410256410257,4510.256410256411,4235.8974358974365,4763.076923076924,4318.974358974359,4228.205128205129,4141.025641025642,4469.743589743591
210.21973,0.27075127,0.5459231,0.33355126,0.78327173,0,0.0,0.0,0.0,0.0,0.0,0,0,0.0,0.0,0,0,55.0,0.0,0.0,4545.641025641026,3862.0512820512827,4514.871794871796,4411.282051282052,4273.333333333334,4471.282051282052,4436.410256410257,4510.256410256411,4235.8974358974365,4763.076923076924,4318.974358974359,4228.205128205129,4141.025641025642,4469.743589743591
210.72015,0.28645107,0.5418166,0.3347409,0.8269723,0,0.0,0.0,0.0,0.0,0.0,0,0,0.0,0.0,0,0,119.0,0.0,398.0,4544.102564102564,3865.6410256410263,4519.48717948718,4407.6923076923085,4301.025641025642,4472.307692307693,4449.2307692307695,4504.102564102564,4233.333333333334,4769.2307692307695,4327.6923076923085,4170.769230769231,4191.282051282052,4496.923076923077
210.72015,0.28645107,0.5418166,0.3347409,0.8269723,0,0.0,0.0,0.0,0.0,0.0,0,0,0.0,0.0,0,0,119.0,0.0,398.0,4544.102564102564,3865.6410256410263,4519.48717948718,4407.6923076923085,4301.025641025642,4472.307692307693,4449.2307692307695,4504.102564102564,4233.333333333334,4769.2307692307695,4327.6923076923085,4170.769230769231,4191.282051282052,4496.923076923077
211.22058,0.31877992,0.53375226,0.33719596,0.8657196,0,0.0,0.0,0.0,0.0,0.0,0,0,0.0,0.0,0,0,54.0,0.0,0.0,4555.384615384616,3878.461538461539,4556.410256410257,4429.743589743591,4314.358974358975,4497.948717948719,4473.846153846154,4516.410256410257,4234.871794871796,4787.6923076923085,4365.641025641026,4207.179487179487,4208.717948717949,4503.076923076924
211.22058,0.31877992,0.53375226,0.33719596,0.8657196,0,0.0,0.0,0.0,0.0,0.0,0,0,0.0,0.0,0,0,54.0,0.0,0.0,4555.384615384616,3878.461538461539,4556.410256410257,4429.743589743591,4314.358974358975,4497.948717948719,4473.846153846154,4516.410256410257,4234.871794871796,4787.6923076923085,4365.641025641026,4207.179487179487,4208.717948717949,4503.076923076924
211.72101,0.3389915,0.52344066,0.33806533,0.92131925,0,0.0,0.0,0.0,0.0,0.0,0,0,0.0,0.0,0,0,118.0,0.0,523.0,4552.820512820514,3867.1794871794878,4545.128205128206,4462.564102564103,4280.000000000001,4489.743589743591,4462.051282051282,4484.615384615385,4231.794871794872,4781.025641025642,4383.589743589744,4230.769230769231,4216.410256410257,4492.820512820514
211.72101,0.3389915,0.52344066,0.33806533,0.92131925,0,0.0,0.0,0.0,0.0,0.0,0,0,0.0,0.0,0,0,118.0,0.0,523.0,4552.820512820514,3867.1794871794878,4545.128205128206,4462.564102564103,4280.000000000001,4489.743589743591,4462.051282051282,4484.615384615385,4231.794871794872,4781.025641025642,4383.589743589744,4230.769230769231,4216.410256410257,4492.820512820514
212.22144,0.32309344,0.5038875,0.3378368,0.96413416,0,0.0,0.0,0.0,0.0,0.0,0,0,0.0,0.0,0,0,53.0,0.0,0.0,4550.256410256411,3873.8461538461543,4547.179487179488,4463.076923076924,4295.384615384616,4466.153846153847,4445.128205128206,4452.307692307693,4214.871794871796,4752.820512820514,4349.2307692307695,4217.948717948719,4193.846153846154,4454.358974358975
212.22144,0.32309344,0.5038875,0.3378368,0.96413416,0,0.0,0.0,0.0,0.0,0.0,0,0,0.0,0.0,0,0,53.0,0.0,0.0,4550.256410256411,3873.8461538461543,4547.179487179488,4463.076923076924,4295.384615384616,4466.153846153847,4445.128205128206,4452.307692307693,4214.871794871796,4752.820512820514,4349.2307692307695,4217.948717948719,4193.846153846154,4454.358974358975
212.72188,0.32362318,0.48859355,0.33763358,0.98699504,0,0.0,0.0,0.0,0.0,0.0,0,0,0.0,0.0,0,0,117.0,0.0,490.0,4543.076923076924,3876.410256410257,4541.025641025642,4410.769230769231,4296.923076923077,4462.051282051282,4432.820512820514,4435.384615384616,4206.666666666667,4721.538461538462,4298.974358974359,4065.6410256410263,4177.435897435898,4415.384615384616
213.00336,0.32362318,0.48859355,0.33763358,0.98699504,0,0.0,0.0,0.0,0.0,0.0,0,0,0.0,0.0,0,1,24.0,0.0,0.0,4541.538461538462,3864.1025641025644,4542.051282051282,4425.641025641026,4297.948717948719,4452.307692307693,4428.717948717949,4436.923076923077,4217.948717948719,4752.820512820514,4350.256410256411,4217.435897435898,4233.333333333334,4491.794871794872
213.2223,0.30021042,0.4838831,0.33745003,0.9934342,0,0.0,0.0,0.0,0.0,0.0,0,0,0.0,0.0,0,1,52.0,0.0,0.0,4518.974358974359,3850.7692307692314,4493.333333333334,4408.717948717949,4265.641025641026,4449.743589743591,4431.282051282052,4408.717948717949,4209.2307692307695,4711.282051282052,4300.000000000001,4118.461538461539,4179.48717948718,4438.461538461539
213.34741,0.30021042,0.4838831,0.33745003,0.9934342,0,0.0,0.0,0.0,0.0,0.0,0,0,0.0,0.0,0,0,68.0,0.0,461.0,4515.384615384616,3849.2307692307695,4498.461538461539,4423.076923076924,4270.769230769231,4457.948717948719,4436.923076923077,4401.538461538462,4208.717948717949,4717.435897435898,4310.256410256411,4096.923076923077,4189.2307692307695,4435.8974358974365
213.72273,0.30107635,0.49701113,0.3372842,1.0,0,0.0,0.0,0.0,0.0,0.0,0,0,0.0,0.0,0,0,116.0,0.0,444.0,4514.871794871796,3847.1794871794878,4502.564102564103,4438.461538461539,4266.153846153847,4451.282051282052,4429.743589743591,4397.435897435898,4203.076923076924,4709.2307692307695,4285.128205128206,4176.923076923077,4169.74358974359,4432.307692307693
213.72273,0.30107635,0.49701113,0.3372842,1.0,0,0.0,0.0,0.0,0.0,0.0,0,0,0.0,0.0,0,0,116.0,0.0,444.0,4514.871794871796,3847.1794871794878,4502.564102564103,4438.461538461539,4266.153846153847,4451.282051282052,4429.743589743591,4397.435897435898,4203.076923076924,4709.2307692307695,4285.128205128206,4176.923076923077,4169.74358974359,4432.307692307693
214.22316,0.29155323,0.48603752,0.33713436,1.0,0,0.0,0.0,0.0,0.0,0.0,0,0,0.0,0.0,0,0,51.0,0.0,0.0,4508.205128205129,3850.2564102564106,4498.974358974359,4432.307692307693,4269.2307692307695,4478.974358974359,4445.641025641026,4346.666666666667,4212.307692307693,4706.153846153847,4171.794871794872,4222.051282051282,4210.256410256411,4444.615384615385
214.47337,0.29155323,0.48603752,0.33713436,1.0,0,0.0,0.0,0.0,0.0,1.9082497E-4,0,0,0.0,0.0,0,0,83.0,0.0,398.0,4487.179487179488,3844.615384615385,4482.051282051282,4423.589743589744,4257.948717948719,4473.333333333334,4442.051282051282,4350.769230769231,4207.6923076923085,4698.461538461539,4180.512820512821,4171.282051282052,4205.128205128206,4436.410256410257
214.72359,0.28519952,0.4839874,0.33749676,1.0,0,0.0,0.0,0.0,0.0,0.022096492,0,0,0.0,0.0,0,0,115.0,0.0,398.0,4492.307692307693,3844.1025641025644,4478.974358974359,4415.384615384616,4226.153846153847,4465.641025641026,4427.179487179487,4359.48717948718,4204.615384615385,4694.871794871796,4203.076923076924,4266.666666666667,4191.794871794872,4428.205128205129
214.8487,0.28519952,0.4839874,0.33749676,1.0,0,0.0,0.0,0.0,0.0,0.0,0,0,0.0,0.0,0,0,2.0,0.0,264.0,4510.256410256411,3859.48717948718,4500.000000000001,4422.564102564103,4231.282051282052,4461.538461538462,4428.205128205129,4360.000000000001,4200.512820512821,4683.076923076924,4199.48717948718,4209.2307692307695,4169.2307692307695,4413.846153846154
215.22401,0.252464,0.496235,0.33884713,1.0,0,0.0,0.0,0.0,0.0,0.0,0,0,0.0,0.0,0,0,50.0,0.0,0.0,4518.974358974359,3849.7435897435903,4500.512820512821,4421.025641025642,4234.871794871796,4474.358974358975,4421.025641025642,4374.871794871796,4202.564102564103,4673.846153846154,4203.589743589744,4174.871794871796,4160.512820512821,4407.179487179487
215.22401,0.252464,0.496235,0.33884713,1.0,0,0.0,0.0,0.0,0.0,0.0,0,0,0.0,0.0,0,0,50.0,0.0,0.0,4518.974358974359,3849.7435897435903,4500.512820512821,4421.025641025642,4234.871794871796,4474.358974358975,4421.025641025642,4374.871794871796,4202.564102564103,4673.846153846154,4203.589743589744,4174.871794871796,4160.512820512821,4407.179487179487
215.72446,0.24565786,0.5109226,0.3413124,1.0,0,0.0,0.0,0.0,0.0,0.0,0,0,0.0,0.0,0,0,114.0,0.0,523.0,4521.025641025642,3865.1282051282055,4531.282051282052,4448.717948717949,4250.769230769231,4477.948717948719,4437.435897435898,4350.256410256411,4204.615384615385,4694.871794871796,4249.2307692307695,4220.512820512821,4181.025641025642,4404.102564102564
215.72446,0.24565786,0.5109226,0.3413124,1.0,0,0.0,0.0,0.0,0.0,0.0,0,0,0.0,0.0,0,0,114.0,0.0,523.0,4521.025641025642,3865.1282051282055,4531.282051282052,4448.717948717949,4250.769230769231,4477.948717948719,4437.435897435898,4350.256410256411,4204.615384615385,4694.871794871796,4249.2307692307695,4220.512820512821,4181.025641025642,4404.102564102564
216.22488,0.23650235,0.5191467,0.34507892,0.995823,0,0.0,0.0,0.0,0.0,0.0,0,0,0.0,0.0,0,0,49.0,0.0,0.0,4524.615384615385,3840.512820512821,4526.666666666667,4441.538461538462,4249.2307692307695,4483.076923076924,4441.025641025642,4363.076923076924,4205.641025641026,4712.820512820514,4286.666666666667,4266.153846153847,4208.205128205129,4417.435897435898
216.22488,0.23650235,0.5191467,0.34507892,0.995823,0,0.0,0.0,0.0,0.0,0.0,0,0,0.0,0.0,0,0,49.0,0.0,0.0,4524.615384615385,3840.512820512821,4526.666666666667,4441.538461538462,4249.2307692307695,4483.076923076924,4441.025641025642,4363.076923076924,4205.641025641026,4712.820512820514,4286.666666666667,4266.153846153847,4208.205128205129,4417.435897435898
216.72531,0.22097436,0.5094363,0.34853625,0.9592965,0,0.0,0.0,0.0,0.0,0.0,0,0,0.0,0.0,0,0,113.0,0.0,490.0,4506.153846153847,3821.0256410256416,4501.025641025642,4437.435897435898,4249.74358974359,4478.974358974359,4436.410256410257,4380.000000000001,4213.846153846154,4703.076923076924,4231.282051282052,4296.410256410257,4196.923076923077,4422.564102564103
216.72531,0.22097436,0.5094363,0.34853625,0.9592965,0,0.0,0.0,0.0,0.0,0.0,0,0,0.0,0.0,0,0,113.0,0.0,490.0,4506.153846153847,3821.0256410256416,4501.025641025642,4437.435897435898,4249.74358974359,4478.974358974359,4436.410256410257,4380.000000000001,4213.846153846154,4703.076923076924,4231.282051282052,4296.410256410257,4196.923076923077,4422.564102564103
217.22574,0.18908651,0.4887866,0.3517811,0.92687756,0,0.0,0.0,0.0,0.0,0.0,0,0,0.0,0.0,0,0,48.0,0.0,0.0,4512.307692307693,3813.333333333334,4483.589743589744,4422.051282051282,4231.794871794872,4456.923076923077,4441.538461538462,4388.717948717949,4207.6923076923085,4684.615384615386,4237.435897435898,4272.307692307693,4143.589743589744,4418.974358974359
217.22574,0.18908651,0.4887866,0.3517811,0.92687756,0,0.0,0.0,0.0,0.0,0.0,0,0,0.0,0.0,0,0,48.0,0.0,0.0,4512.307692307693,3813.333333333334,4483.589743589744,4422.051282051282,4231.794871794872,4456.923076923077,4441.538461538462,4388.717948717949,4207.6923076923085,4684.615384615386,4237.435897435898,4272.307692307693,4143.589743589744,4418.974358974359
217.72617,0.18761405,0.47741506,0.35469875,0.8980324,0,0.0,0.0,0.0,0.0,0.0,0,0,0.0,0.0,0,0,112.0,0.0,444.0,4518.974358974359,3829.7435897435903,4493.333333333334,4428.717948717949,4254.358974358975,4455.8974358974365,4447.6923076923085,4418.461538461539,4205.128205128206,4614.358974358975,4255.384615384616,4303.589743589744,4157.948717948719,4431.794871794872
217.72617,0.18761405,0.47741506,0.35469875,0.8980324,0,0.0,0.0,0.0,0.0,0.0,0,0,0.0,0.0,0,0,112.0,0.0,444.0,4518.974358974359,3829.7435897435903,4493.333333333334,4428.717948717949,4254.358974358975,4455.8974358974365,4447.6923076923085,4418.461538461539,4205.128205128206,4614.358974358975,4255.384615384616,4303.589743589744,4157.948717948719,4431.794871794872
218.22661,0.18209437,0.46458843,0.3573214,0.8730605,0,0.0,0.0,0.0,0.0,0.0,0,0,0.0,0.0,0,0,47.0,0.0,0.0,4519.48717948718,3834.358974358975,4500.000000000001,4438.974358974359,4267.6923076923085,4468.205128205129,4467.6923076923085,4436.923076923077,4206.666666666667,4662.564102564103,4276.410256410257,4205.641025641026,4169.74358974359,4418.461538461539
218.22661,0.18209437,0.46458843,0.3573214,0.8730605,0,0.0,0.0,0.0,0.0,0.0,0,0,0.0,0.0,0,0,47.0,0.0,0.0,4519.48717948718,3834.358974358975,4500.000000000001,4438.974358974359,4267.6923076923085,4468.205128205129,4467.6923076923085,4436.923076923077,4206.666666666667,4662.564102564103,4276.410256410257,4205.641025641026,4169.74358974359,4418.461538461539
218.72704,0.18133332,0.44602677,0.3583137,0.8657656,0,0.0,0.0,0.0,0.0,0.0,0,0,0.0,0.0,0,0,111.0,0.0,398.0,4522.051282051282,3836.9230769230776,4489.743589743591,4433.846153846154,4266.153846153847,4467.6923076923085,4453.846153846154,4439.48717948718,4214.358974358975,4682.051282051282,4277.948717948719,4193.846153846154,4156.410256410257,4414.358974358975
219.00853,0.18133332,0.44602677,0.3583137,0.8657656,1,0.0,0.0,0.0,0.0,0.0,0,0,0.0,0.0,0,0,18.0,0.0,0.0,4627.6923076923085,3936.9230769230776,4679.48717948718,4583.076923076924,4426.666666666667,4635.384615384616,4658.974358974359,4636.923076923077,4270.256410256411,4882.564102564103,4465.641025641026,4444.102564102564,4332.820512820514,4482.051282051282
219.25874,0.28232956,0.42903674,0.35763937,0.86044383,0,0.0,0.0,0.0,0.0,0.24685146,0,0,0.0,0.0,0,0,50.0,0.0,0.0,4673.333333333334,3989.23076923077,4740.512820512821,4652.307692307693,4491.282051282052,4699.48717948718,4734.358974358975,4731.794871794872,4295.8974358974365,4980.000000000001,4543.076923076924,4455.8974358974365,4421.538461538462,4536.923076923077
219.47768,0.28232956,0.42903674,0.35763937,0.86044383,0,0.0,0.0,0.0,0.0,0.44282344,0,0,0.0,0.0,0,0,78.0,0.0,522.0,4656.923076923077,3968.205128205129,4698.461538461539,4614.871794871796,4425.641025641026,4633.333333333334,4673.846153846154,4667.179487179488,4280.000000000001,4908.205128205129,4477.948717948719,4375.8974358974365,4342.564102564103,4521.538461538462
219.72789,0.41666988,0.4137457,0.3554388,0.85441685,0,0.0,0.0,0.0,0.0,0.0,0,0,0.0,0.0,0,0,110.0,0.0,522.0,4631.282051282052,3942.0512820512827,4639.48717948718,4587.6923076923085,4401.538461538462,4589.2307692307695,4619.48717948718,4593.846153846154,4268.717948717949,4857.948717948719,4435.8974358974365,4287.6923076923085,4286.153846153847,4507.179487179488
219.72789,0.41666988,0.4137457,0.3554388,0.85441685,0,0.0,0.0,0.0,0.0,0.0,0,0,0.0,0.0,0,0,110.0,0.0,522.0,4631.282051282052,3942.0512820512827,4639.48717948718,4587.6923076923085,4401.538461538462,4589.2307692307695,4619.48717948718,4593.846153846154,4268.717948717949,4857.948717948719,4435.8974358974365,4287.6923076923085,4286.153846153847,4507.179487179488
220.22832,0.4585096,0.39998376,0.3531945,0.84168786,0,0.0,0.0,0.0,0.0,0.0,0,0,0.0,0.0,0,0,45.0,0.0,0.0,4603.076923076924,3914.8717948717954,4588.205128205129,4537.948717948719,4360.000000000001,4528.205128205129,4543.076923076924,4526.153846153847,4263.076923076924,4780.512820512821,4357.435897435898,4233.333333333334,4220.512820512821,4463.589743589744
220.22832,0.4585096,0.39998376,0.3531945,0.84168786,0,0.0,0.0,0.0,0.0,0.0,0,0,0.0,0.0,0,0,45.0,0.0,0.0,4603.076923076924,3914.8717948717954,4588.205128205129,4537.948717948719,4360.000000000001,4528.205128205129,4543.076923076924,4526.153846153847,4263.076923076924,4780.512820512821,4357.435897435898,4233.333333333334,4220.512820512821,4463.589743589744
220.72876,0.4237106,0.387598,0.35117817,0.81188416,0,0.0,0.0,0.0,0.0,0.0,0,0,0.0,0.0,0,0,109.0,0.0,490.0,4584.102564102564,3898.461538461539,4564.615384615385,4521.025641025642,4318.974358974359,4514.871794871796,4494.358974358975,4488.717948717949,4258.974358974359,4760.000000000001,4349.2307692307695,4134.871794871796,4215.8974358974365,4456.923076923077
220.72876,0.4237106,0.387598,0.35117817,0.81188416,0,0.0,0.0,0.0,0.0,0.0,0,0,0.0,0.0,0,0,109.0,0.0,490.0,4584.102564102564,3898.461538461539,4564.615384615385,4521.025641025642,4318.974358974359,4514.871794871796,4494.358974358975,4488.717948717949,4258.974358974359,4760.000000000001,4349.2307692307695,4134.871794871796,4215.8974358974365,4456.923076923077
221.22919,0.38920128,0.37645087,0.34936088,0.7852168,0,0.0,0.0,0.0,0.0,0.0,0,0,0.0,0.0,0,0,44.0,0.0,0.0,4563.076923076924,3895.8974358974365,4541.538461538462,4498.974358974359,4316.923076923077,4508.205128205129,4472.307692307693,4464.615384615385,4254.871794871796,4752.820512820514,4331.282051282052,4165.641025641026,4211.282051282052,4470.256410256411
221.22919,0.38920128,0.37645087,0.34936088,0.7852168,0,0.0,0.0,0.0,0.0,0.0,0,0,0.0,0.0,0,0,44.0,0.0,0.0,4563.076923076924,3895.8974358974365,4541.538461538462,4498.974358974359,4316.923076923077,4508.205128205129,4472.307692307693,4464.615384615385,4254.871794871796,4752.820512820514,4331.282051282052,4165.641025641026,4211.282051282052,4470.256410256411
221.72961,0.38088685,0.35931858,0.347723,0.7613248,0,0.0,0.0,0.0,0.0,0.0,0,0,0.0,0.0,0,0,108.0,0.0,439.0,4551.282051282052,3891.7948717948725,4546.666666666667,4492.820512820514,4304.615384615385,4495.8974358974365,4454.358974358975,4456.923076923077,4253.333333333334,4736.923076923077,4321.538461538462,4192.820512820514,4190.769230769231,4467.179487179487
221.72961,0.38088685,0.35931858,0.347723,0.7613248,0,0.0,0.0,0.0,0.0,0.0,0,0,0.0,0.0,0,0,108.0,0.0,439.0,4551.282051282052,3891.7948717948725,4546.666666666667,4492.820512820514,4304.615384615385,4495.8974358974365,4454.358974358975,4456.923076923077,4253.333333333334,4736.923076923077,4321.538461538462,4192.820512820514,4190.769230769231,4467.179487179487
222.23004,0.38562346,0.34732804,0.34629342,0.7708491,0,0.0,0.0,0.0,0.0,0.0,0,0,0.0,0.0,0,0,43.0,0.0,0.0,4538.461538461539,3880.512820512821,4542.051282051282,4475.8974358974365,4280.000000000001,4466.153846153847,4431.282051282052,4434.358974358975,4246.666666666667,4720.000000000001,4327.179487179487,4257.948717948719,4185.641025641026,4487.179487179488
222.23004,0.38562346,0.34732804,0.34629342,0.7708491,0,0.0,0.0,0.0,0.0,0.0,0,0,0.0,0.0,0,0,43.0,0.0,0.0,4538.461538461539,3880.512820512821,4542.051282051282,4475.8974358974365,4280.000000000001,4466.153846153847,4431.282051282052,4434.358974358975,4246.666666666667,4720.000000000001,4327.179487179487,4257.948717948719,4185.641025641026,4487.179487179488
222.73047,0.41797826,0.35404745,0.3466752,0.80235136,0,0.0,0.0,0.0,0.0,0.0,0,0,0.0,0.0,0,0,107.0,0.0,398.0,4493.333333333334,3848.205128205129,4489.743589743591,4429.743589743591,4262.564102564103,4456.923076923077,4416.923076923077,4413.333333333334,4241.025641025642,4696.923076923077,4282.564102564103,4114.358974358975,4168.205128205129,4433.333333333334
222.73047,0.41797826,0.35404745,0.3466752,0.80235136,0,0.0,0.0,0.0,0.0,0.0,0,0,0.0,0.0,0,0,107.0,0.0,398.0,4493.333333333334,3848.205128205129,4489.743589743591,4429.743589743591,4262.564102564103,4456.923076923077,4416.923076923077,4413.333333333334,4241.025641025642,4696.923076923077,4282.564102564103,4114.358974358975,4168.205128205129,4433.333333333334
223.2309,0.4466434,0.36761656,0.3488735,0.83035535,0,0.0,0.0,0.0,0.0,0.0,0,0,0.0,0.0,0,0,42.0,0.0,0.0,4505.641025641026,3864.1025641025644,4517.435897435898,4442.564102564103,4285.128205128206,4478.974358974359,4436.410256410257,4415.8974358974365,4233.846153846154,4679.48717948718,4301.025641025642,4169.74358974359,4194.358974358975,4446.666666666667
223.2309,0.4466434,0.36761656,0.3488735,0.83035535,0,0.0,0.0,0.0,0.0,0.0,0,0,0.0,0.0,0,0,42.0,0.0,0.0,4505.641025641026,3864.1025641025644,4517.435897435898,4442.564102564103,4285.128205128206,4478.974358974359,4436.410256410257,4415.8974358974365,4233.846153846154,4679.48717948718,4301.025641025642,4169.74358974359,4194.358974358975,4446.666666666667
223.73134,0.44685596,0.39142656,0.35084975,0.86301744,0,0.0,0.0,0.0,0.0,0.0,0,0,0.0,0.0,0,0,106.0,0.0,523.0,4521.538461538462,3882.0512820512827,4532.307692307693,4465.641025641026,4332.307692307693,4508.205128205129,4465.128205128206,4457.435897435898,4239.48717948718,4717.948717948719,4336.923076923077,4238.974358974359,4216.923076923077,4449.743589743591
223.73134,0.44685596,0.39142656,0.35084975,0.86301744,0,0.0,0.0,0.0,0.0,0.0,0,0,0.0,0.0,0,0,106.0,0.0,523.0,4521.538461538462,3882.0512820512827,4532.307692307693,4465.641025641026,4332.307692307693,4508.205128205129,4465.128205128206,4457.435897435898,4239.48717948718,4717.948717948719,4336.923076923077,4238.974358974359,4216.923076923077,4449.743589743591
224.23177,0.4119418,0.37450427,0.35262588,0.8911183,0,0.0,0.0,0.0,0.0,0.0,0,0,0.0,0.0,0,0,41.0,0.0,0.0,4537.948717948719,3865.1282051282055,4533.846153846154,4475.8974358974365,4324.615384615385,4513.333333333334,4486.153846153847,4475.384615384616,4248.717948717949,4744.615384615386,4345.641025641026,4260.000000000001,4228.717948717949,4471.282051282052
224.23177,0.4119418,0.37450427,0.35262588,0.8911183,0,0.0,0.0,0.0,0.0,0.0,0,0,0.0,0.0,0,0,41.0,0.0,0.0,4537.948717948719,3865.1282051282055,4533.846153846154,4475.8974358974365,4324.615384615385,4513.333333333334,4486.153846153847,4475.384615384616,4248.717948717949,4744.615384615386,4345.641025641026,4260.000000000001,4228.717948717949,4471.282051282052
224.7322,0.3712454,0.36753044,0.3522215,0.9154753,0,0.0,0.0,0.0,0.0,0.0,0,0,0.0,0.0,0,0,105.0,0.0,490.0,4540.000000000001,3873.8461538461543,4529.2307692307695,4477.435897435898,4295.8974358974365,4507.179487179488,4466.153846153847,4457.948717948719,4248.205128205129,4726.153846153847,4334.871794871796,4271.282051282052,4206.153846153847,4488.205128205129
224.7322,0.3712454,0.36753044,0.3522215,0.9154753,0,0.0,0.0,0.0,0.0,0.0,0,0,0.0,0.0,0,0,105.0,0.0,490.0,4540.000000000001,3873.8461538461543,4529.2307692307695,4477.435897435898,4295.8974358974365,4507.179487179488,4466.153846153847,4457.948717948719,4248.205128205129,4726.153846153847,4334.871794871796,4271.282051282052,4206.153846153847,4488.205128205129
225.23262,0.33827633,0.3664329,0.35032535,0.9325583,0,0.0,0.0,0.0,0.0,0.0,0,0,0.0,0.0,0,0,40.0,0.0,0.0,4551.282051282052,3880.0000000000005,4532.820512820514,4474.871794871796,4301.025641025642,4530.256410256411,4486.153846153847,4484.615384615385,4256.923076923077,4744.102564102564,4329.2307692307695,4209.2307692307695,4227.6923076923085,4485.641025641026
225.23262,0.33827633,0.3664329,0.35032535,0.9325583,0,0.0,0.0,0.0,0.0,0.0,0,0,0.0,0.0,0,0,40.0,0.0,0.0,4551.282051282052,3880.0000000000005,4532.820512820514,4474.871794871796,4301.025641025642,4530.256410256411,4486.153846153847,4484.615384615385,4256.923076923077,4744.102564102564,4329.2307692307695,4209.2307692307695,4227.6923076923085,4485.641025641026
225.73305,0.32358378,0.35584915,0.34861642,0.9492927,0,0.0,0.0,0.0,0.0,0.0,0,0,0.0,0.0,0,0,104.0,0.0,440.0,4550.256410256411,3880.512820512821,4545.641025641026,4489.743589743591,4310.256410256411,4522.564102564103,4475.8974358974365,4458.461538461539,4259.48717948718,4764.102564102564,4366.666666666667,4245.641025641026,4237.435897435898,4498.461538461539
225.73305,0.32358378,0.35584915,0.34861642,0.9492927,0,0.0,0.0,0.0,0.0,0.0,0,0,0.0,0.0,0,0,104.0,0.0,440.0,4550.256410256411,3880.512820512821,4545.641025641026,4489.743589743591,4310.256410256411,4522.564102564103,4475.8974358974365,4458.461538461539,4259.48717948718,4764.102564102564,4366.666666666667,4245.641025641026,4237.435897435898,4498.461538461539
226.23349,0.30147356,0.33459526,0.34707624,0.9637563,0,0.0,0.0,0.0,0.0,0.0,0,0,0.0,0.0,0,0,39.0,0.0,0.0,4551.282051282052,3892.307692307693,4537.948717948719,4491.794871794872,4307.6923076923085,4528.205128205129,4482.051282051282,4460.000000000001,4261.538461538462,4762.564102564103,4370.256410256411,4285.641025641026,4212.820512820514,4498.461538461539
226.23349,0.30147356,0.33459526,0.34707624,0.9637563,0,0.0,0.0,0.0,0.0,0.0,0,0,0.0,0.0,0,0,39.0,0.0,0.0,4551.282051282052,3892.307692307693,4537.948717948719,4491.794871794872,4307.6923076923085,4528.205128205129,4482.051282051282,4460.000000000001,4261.538461538462,4762.564102564103,4370.256410256411,4285.641025641026,4212.820512820514,4498.461538461539
226.73392,0.28649104,0.31358027,0.34595594,0.9723213,0,0.0,0.0,0.0,0.0,0.0,0,0,0.0,0.0,0,0,103.0,0.0,398.0,4578.461538461539,3908.717948717949,4562.051282051282,4507.179487179488,4321.025641025642,4523.076923076924,4471.282051282052,4461.538461538462,4263.589743589744,4772.820512820514,4379.48717948718,4307.179487179487,4250.256410256411,4516.923076923077
226.73392,0.28649104,0.31358027,0.34595594,0.9723213,0,0.0,0.0,0.0,0.0,0.0,0,0,0.0,0.0,0,0,103.0,0.0,398.0,4578.461538461539,3908.717948717949,4562.051282051282,4507.179487179488,4321.025641025642,4523.076923076924,4471.282051282052,4461.538461538462,4263.589743589744,4772.820512820514,4379.48717948718,4307.179487179487,4250.256410256411,4516.923076923077
227.23434,0.26563874,0.29122296,0.34516382,0.97309095,0,0.0,0.0,0.0,0.0,0.0,0,0,0.0,0.0,0,0,38.0,0.0,0.0,4571.282051282052,3907.692307692308,4557.948717948719,4505.641025641026,4348.717948717949,4528.717948717949,4485.128205128206,4468.205128205129,4275.8974358974365,4760.000000000001,4398.974358974359,4308.205128205129,4222.564102564103,4526.153846153847
227.23434,0.26563874,0.29122296,0.34516382,0.97309095,0,0.0,0.0,0.0,0.0,0.0,0,0,0.0,0.0,0,0,38.0,0.0,0.0,4571.282051282052,3907.692307692308,4557.948717948719,4505.641025641026,4348.717948717949,4528.717948717949,4485.128205128206,4468.205128205129,4275.8974358974365,4760.000000000001,4398.974358974359,4308.205128205129,4222.564102564103,4526.153846153847
227.73477,0.2583798,0.27209002,0.34499466,0.9734658,0,0.0,0.0,0.0,0.0,0.0,0,0,0.0,0.0,0,0,102.0,0.0,523.0,4575.384615384616,3896.9230769230776,4550.769230769231,4492.307692307693,4331.794871794872,4501.538461538462,4456.410256410257,4446.153846153847,4263.076923076924,4730.769230769231,4335.8974358974365,4175.8974358974365,4199.48717948718,4483.076923076924
227.73477,0.2583798,0.27209002,0.34499466,0.9734658,0,0.0,0.0,0.0,0.0,0.0,0,0,0.0,0.0,0,0,102.0,0.0,523.0,4575.384615384616,3896.9230769230776,4550.769230769231,4492.307692307693,4331.794871794872,4501.538461538462,4456.410256410257,4446.153846153847,4263.076923076924,4730.769230769231,4335.8974358974365,4175.8974358974365,4199.48717948718,4483.076923076924
228.2352,0.25896823,0.2676979,0.34491146,0.9753479,0,0.0,0.0,0.0,0.0,0.0,0,0,0.0,0.0,0,0,37.0,0.0,0.0,4546.153846153847,3878.9743589743593,4512.307692307693,4473.333333333334,4344.615384615385,4503.076923076924,4448.205128205129,4434.358974358975,4257.435897435898,4718.461538461539,4330.769230769231,4194.358974358975,4188.205128205129,4460.512820512821
228.2352,0.25896823,0.2676979,0.34491146,0.9753479,0,0.0,0.0,0.0,0.0,0.0,0,0,0.0,0.0,0,0,37.0,0.0,0.0,4546.153846153847,3878.9743589743593,4512.307692307693,4473.333333333334,4344.615384615385,4503.076923076924,4448.205128205129,4434.358974358975,4257.435897435898,4718.461538461539,4330.769230769231,4194.358974358975,4188.205128205129,4460.512820512821
228.73563,0.270472,0.28671798,0.34483495,0.9700336,0,0.0,0.0,0.0,0.0,0.0,0,0,0.0,0.0,0,0,101.0,0.0,490.0,4535.384615384616,3874.358974358975,4507.6923076923085,4473.333333333334,4326.666666666667,4490.769230769231,4440.512820512821,4432.307692307693,4245.641025641026,4712.820512820514,4316.923076923077,4254.358974358975,4180.000000000001,4456.410256410257
228.73563,0.270472,0.28671798,0.34483495,0.9700336,0,0.0,0.0,0.0,0.0,0.0,0,0,0.0,0.0,0,0,101.0,0.0,490.0,4535.384615384616,3874.358974358975,4507.6923076923085,4473.333333333334,4326.666666666667,4490.769230769231,4440.512820512821,4432.307692307693,4245.641025641026,4712.820512820514,4316.923076923077,4254.358974358975,4180.000000000001,4456.410256410257
229.23607,0.27119133,0.31585306,0.34476453,0.96331733,0,0.0,0.0,0.0,0.0,0.0,0,0,0.0,0.0,0,0,36.0,0.0,0.0,4540.512820512821,3890.7692307692314,4542.051282051282,4490.769230769231,4344.615384615385,4524.102564102564,4471.794871794872,4468.717948717949,4260.000000000001,4752.307692307693,4346.153846153847,4320.512820512821,4225.641025641026,4488.205128205129
229.23607,0.27119133,0.31585306,0.34476453,0.96331733,0,0.0,0.0,0.0,0.0,0.0,0,0,0.0,0.0,0,0,36.0,0.0,0.0,4540.512820512821,3890.7692307692314,4542.051282051282,4490.769230769231,4344.615384615385,4524.102564102564,4471.794871794872,4468.717948717949,4260.000000000001,4752.307692307693,4346.153846153847,4320.512820512821,4225.641025641026,4488.205128205129
229.7365,0.24859925,0.35216427,0.34473222,0.9618636,0,0.0,0.0,0.0,0.0,0.0,0,0,0.0,0.0,0,0,100.0,0.0,440.0,4553.333333333334,3893.333333333334,4543.076923076924,4475.384615384616,4330.256410256411,4504.615384615385,4461.538461538462,4431.794871794872,4255.384615384616,4723.076923076924,4310.256410256411,4182.051282051282,4175.8974358974365,4455.384615384616
229.7365,0.24859925,0.35216427,0.34473222,0.9618636,0,0.0,0.0,0.0,0.0,0.0,0,0,0.0,0.0,0,0,100.0,0.0,440.0,4553.333333333334,3893.333333333334,4543.076923076924,4475.384615384616,4330.256410256411,4504.615384615385,4461.538461538462,4431.794871794872,4255.384615384616,4723.076923076924,4310.256410256411,4182.051282051282,4175.8974358974365,4455.384615384616
230.23692,0.23987688,0.37977803,0.3452745,0.9670433,0,0.0,0.0,0.0,0.0,0.0,0,0,0.0,0.0,0,0,35.0,0.0,0.0,4537.435897435898,3875.8974358974365,4519.48717948718,4455.384615384616,4328.205128205129,4493.333333333334,4450.769230769231,4423.589743589744,4255.8974358974365,4725.641025641026,4343.589743589744,4245.128205128206,4198.461538461539,4460.000000000001
230.23692,0.23987688,0.37977803,0.3452745,0.9670433,0,0.0,0.0,0.0,0.0,0.0,0,0,0.0,0.0,0,0,35.0,0.0,0.0,4537.435897435898,3875.8974358974365,4519.48717948718,4455.384615384616,4328.205128205129,4493.333333333334,4450.769230769231,4423.589743589744,4255.8974358974365,4725.641025641026,4343.589743589744,4245.128205128206,4198.461538461539,4460.000000000001
230.73735,0.24076888,0.3974103,0.34716773,0.9713077,0,0.0,0.0,0.0,0.0,0.0,0,0,0.0,0.0,0,0,99.0,0.0,398.0,4536.410256410257,3865.1282051282055,4514.871794871796,4442.051282051282,4316.410256410257,4480.000000000001,4435.384615384616,4420.512820512821,4249.2307692307695,4711.794871794872,4336.923076923077,4253.333333333334,4182.051282051282,4455.384615384616
230.73735,0.24076888,0.3974103,0.34716773,0.9713077,0,0.0,0.0,0.0,0.0,0.0,0,0,0.0,0.0,0,0,99.0,0.0,398.0,4536.410256410257,3865.1282051282055,4514.871794871796,4442.051282051282,4316.410256410257,4480.000000000001,4435.384615384616,4420.512820512821,4249.2307692307695,4711.794871794872,4336.923076923077,4253.333333333334,4182.051282051282,4455.384615384616
231.23778,0.26586172,0.40810823,0.3488697,0.97475845,0,0.0,0.0,0.0,0.0,0.0,0,0,0.0,0.0,0,0,34.0,0.0,0.0,4514.871794871796,3848.717948717949,4482.564102564103,4395.8974358974365,4296.923076923077,4453.846153846154,4411.794871794872,4388.205128205129,4231.282051282052,4681.025641025642,4304.102564102564,4132.307692307693,4148.717948717949,4435.384615384616
231.23778,0.26586172,0.40810823,0.3488697,0.97475845,0,0.0,0.0,0.0,0.0,0.0,0,0,0.0,0.0,0,0,34.0,0.0,0.0,4514.871794871796,3848.717948717949,4482.564102564103,4395.8974358974365,4296.923076923077,4453.846153846154,4411.794871794872,4388.205128205129,4231.282051282052,4681.025641025642,4304.102564102564,4132.307692307693,4148.717948717949,4435.384615384616
231.73822,0.2780006,0.37872222,0.34982395,0.9844498,0,0.0,0.0,0.0,0.0,0.0,0,0,0.0,0.0,0,0,98.0,0.0,523.0,4506.153846153847,3845.6410256410263,4470.256410256411,4378.974358974359,4287.179487179487,4455.384615384616,4406.153846153847,4399.48717948718,4232.307692307693,4672.307692307693,4309.743589743591,4189.74358974359,4172.820512820514,4442.564102564103
231.73822,0.2780006,0.37872222,0.34982395,0.9844498,0,0.0,0.0,0.0,0.0,0.0,0,0,0.0,0.0,0,0,98.0,0.0,523.0,4506.153846153847,3845.6410256410263,4470.256410256411,4378.974358974359,4287.179487179487,4455.384615384616,4406.153846153847,4399.48717948718,4232.307692307693,4672.307692307693,4309.743589743591,4189.74358974359,4172.820512820514,4442.564102564103
232.23865,0.287546,0.36203924,0.34813088,0.99786836,0,0.0,0.0,0.0,0.0,0.0,0,0,0.0,0.0,0,0,33.0,0.0,0.0,4522.051282051282,3861.0256410256416,4485.128205128206,4383.076923076924,4303.589743589744,4471.282051282052,4404.102564102564,4400.512820512821,4232.307692307693,4666.153846153847,4289.2307692307695,4196.923076923077,4136.410256410257,4440.512820512821
232.23865,0.287546,0.36203924,0.34813088,0.99786836,0,0.0,0.0,0.0,0.0,0.0,0,0,0.0,0.0,0,0,33.0,0.0,0.0,4522.051282051282,3861.0256410256416,4485.128205128206,4383.076923076924,4303.589743589744,4471.282051282052,4404.102564102564,4400.512820512821,4232.307692307693,4666.153846153847,4289.2307692307695,4196.923076923077,4136.410256410257,4440.512820512821
232.73907,0.29610744,0.37827203,0.3469125,1.0,0,0.0,0.0,0.0,0.0,0.0,0,0,0.0,0.0,0,0,97.0,0.0,490.0,4525.128205128206,3864.1025641025644,4494.358974358975,4409.2307692307695,4294.871794871796,4475.8974358974365,4425.641025641026,4433.846153846154,4235.384615384616,4691.282051282052,4335.8974358974365,4240.512820512821,4174.871794871796,4465.641025641026
232.73907,0.29610744,0.37827203,0.3469125,1.0,0,0.0,0.0,0.0,0.0,0.0,0,0,0.0,0.0,0,0,97.0,0.0,490.0,4525.128205128206,3864.1025641025644,4494.358974358975,4409.2307692307695,4294.871794871796,4475.8974358974365,4425.641025641026,4433.846153846154,4235.384615384616,4691.282051282052,4335.8974358974365,4240.512820512821,4174.871794871796,4465.641025641026
233.2395,0.27033535,0.40399018,0.3458141,1.0,0,0.0,0.0,0.0,0.0,0.0,0,0,0.0,0.0,0,0,32.0,0.0,0.0,4524.102564102564,3861.538461538462,4497.948717948719,4407.179487179487,4290.256410256411,4467.6923076923085,4423.589743589744,4418.974358974359,4238.974358974359,4685.128205128206,4311.794871794872,4142.564102564103,4182.564102564103,4451.282051282052
233.2395,0.27033535,0.40399018,0.3458141,1.0,0,0.0,0.0,0.0,0.0,0.0,0,0,0.0,0.0,0,0,32.0,0.0,0.0,4524.102564102564,3861.538461538462,4497.948717948719,4407.179487179487,4290.256410256411,4467.6923076923085,4423.589743589744,4418.974358974359,4238.974358974359,4685.128205128206,4311.794871794872,4142.564102564103,4182.564102564103,4451.282051282052
233.73993,0.25115567,0.43384078,0.34482384,1.0,0,0.0,0.0,0.0,0.0,0.0,0,0,0.0,0.0,0,0,96.0,0.0,440.0,4537.435897435898,3866.666666666667,4507.6923076923085,4422.051282051282,4313.333333333334,4469.743589743591,4434.871794871796,4441.025641025642,4238.974358974359,4698.974358974359,4321.538461538462,4186.153846153847,4191.282051282052,4468.717948717949
233.73993,0.25115567,0.43384078,0.34482384,1.0,0,0.0,0.0,0.0,0.0,0.0,0,0,0.0,0.0,0,0,96.0,0.0,440.0,4537.435897435898,3866.666666666667,4507.6923076923085,4422.051282051282,4313.333333333334,4469.743589743591,4434.871794871796,4441.025641025642,4238.974358974359,4698.974358974359,4321.538461538462,4186.153846153847,4191.282051282052,4468.717948717949
234.24036,0.23977007,0.44684824,0.34504372,1.0,0,0.0,0.0,0.0,0.0,0.0,0,0,0.0,0.0,0,0,31.0,0.0,0.0,4504.615384615385,3843.076923076924,4478.461538461539,4395.8974358974365,4271.282051282052,4452.820512820514,4421.538461538462,4411.282051282052,4231.794871794872,4665.128205128206,4277.435897435898,4182.564102564103,4151.282051282052,4444.615384615385
234.24036,0.23977007,0.44684824,0.34504372,1.0,0,0.0,0.0,0.0,0.0,0.0,0,0,0.0,0.0,0,0,31.0,0.0,0.0,4504.615384615385,3843.076923076924,4478.461538461539,4395.8974358974365,4271.282051282052,4452.820512820514,4421.538461538462,4411.282051282052,4231.794871794872,4665.128205128206,4277.435897435898,4182.564102564103,4151.282051282052,4444.615384615385
234.7408,0.24996494,0.43266526,0.34524,1.0,0,0.0,0.0,0.0,0.0,0.0,0,0,0.0,0.0,0,0,95.0,0.0,398.0,4522.051282051282,3843.076923076924,4480.000000000001,4401.025641025642,4261.025641025642,4451.282051282052,4414.358974358975,4409.2307692307695,4233.846153846154,4680.000000000001,4295.8974358974365,4227.179487179487,4166.153846153847,4467.6923076923085
234.7408,0.24996494,0.43266526,0.34524,1.0,0,0.0,0.0,0.0,0.0,0.0,0,0,0.0,0.0,0,0,95.0,0.0,398.0,4522.051282051282,3843.076923076924,4480.000000000001,4401.025641025642,4261.025641025642,4451.282051282052,4414.358974358975,4409.2307692307695,4233.846153846154,4680.000000000001,4295.8974358974365,4227.179487179487,4166.153846153847,4467.6923076923085
235.24904,0.24297865,0.4314925,0.3454151,1.0,0,0.0,0.0,0.0,0.0,0.0,0,0,0.0,0.0,0,0,30.0,0.0,0.0,4521.025641025642,3833.333333333334,4483.076923076924,4412.820512820514,4264.615384615385,4451.794871794872,4420.000000000001,4426.666666666667,4231.794871794872,4677.435897435898,4280.000000000001,4145.641025641026,4157.435897435898,4459.48717948718
235.24904,0.24297865,0.4314925,0.3454151,1.0,0,0.0,0.0,0.0,0.0,0.0,0,0,0.0,0.0,0,0,30.0,0.0,0.0,4521.025641025642,3833.333333333334,4483.076923076924,4412.820512820514,4264.615384615385,4451.794871794872,4420.000000000001,4426.666666666667,4231.794871794872,4677.435897435898,4280.000000000001,4145.641025641026,4157.435897435898,4459.48717948718
235.74947,0.23888509,0.41466597,0.344188,1.0,0,0.0,0.0,0.0,0.0,0.0,0,0,0.0,0.0,0,0,94.0,0.0,523.0,4506.666666666667,3821.0256410256416,4467.6923076923085,4416.410256410257,4257.435897435898,4449.2307692307695,4408.205128205129,4423.589743589744,4224.615384615385,4656.410256410257,4257.948717948719,4127.6923076923085,4123.589743589744,4424.102564102564
235.74947,0.23888509,0.41466597,0.344188,1.0,0,0.0,0.0,0.0,0.0,0.0,0,0,0.0,0.0,0,0,94.0,0.0,523.0,4506.666666666667,3821.0256410256416,4467.6923076923085,4416.410256410257,4257.435897435898,4449.2307692307695,4408.205128205129,4423.589743589744,4224.615384615385,4656.410256410257,4257.948717948719,4127.6923076923085,4123.589743589744,4424.102564102564
236.24991,0.23234634,0.42098513,0.34162113,1.0,0,0.0,0.0,0.0,0.0,0.0,0,0,0.0,0.0,0,0,29.0,0.0,0.0,4491.282051282052,3814.358974358975,4440.512820512821,4398.461538461539,4231.282051282052,4424.615384615385,4392.307692307693,4397.435897435898,4217.948717948719,4654.871794871796,4256.923076923077,4176.923076923077,4133.333333333334,4429.743589743591
236.24991,0.23234634,0.42098513,0.34162113,1.0,0,0.0,0.0,0.0,0.0,0.0,0,0,0.0,0.0,0,0,29.0,0.0,0.0,4491.282051282052,3814.358974358975,4440.512820512821,4398.461538461539,4231.282051282052,4424.615384615385,4392.307692307693,4397.435897435898,4217.948717948719,4654.871794871796,4256.923076923077,4176.923076923077,4133.333333333334,4429.743589743591
236.75034,0.22862908,0.43535563,0.3393098,1.0,0,0.0,0.0,0.0,0.0,0.0,0,0,0.0,0.0,0,0,93.0,0.0,490.0,4490.256410256411,3832.307692307693,4472.307692307693,4426.666666666667,4267.179487179487,4466.153846153847,4422.564102564103,4420.512820512821,4230.256410256411,4692.307692307693,4287.6923076923085,4244.615384615385,4171.282051282052,4457.435897435898
236.75034,0.22862908,0.43535563,0.3393098,1.0,0,0.0,0.0,0.0,0.0,0.0,0,0,0.0,0.0,0,0,93.0,0.0,490.0,4490.256410256411,3832.307692307693,4472.307692307693,4426.666666666667,4267.179487179487,4466.153846153847,4422.564102564103,4420.512820512821,4230.256410256411,4692.307692307693,4287.6923076923085,4244.615384615385,4171.282051282052,4457.435897435898
237.25076,0.23150012,0.4673786,0.3372288,1.0,0,0.0,0.0,0.0,0.0,0.0,0,0,0.0,0.0,0,0,28.0,0.0,0.0,4518.461538461539,3846.1538461538466,4506.666666666667,4457.948717948719,4289.2307692307695,4481.025641025642,4446.153846153847,4424.102564102564,4231.794871794872,4696.410256410257,4312.820512820514,4193.846153846154,4163.076923076924,4460.512820512821
237.25076,0.23150012,0.4673786,0.3372288,1.0,0,0.0,0.0,0.0,0.0,0.0,0,0,0.0,0.0,0,0,28.0,0.0,0.0,4518.461538461539,3846.1538461538466,4506.666666666667,4457.948717948719,4289.2307692307695,4481.025641025642,4446.153846153847,4424.102564102564,4231.794871794872,4696.410256410257,4312.820512820514,4193.846153846154,4163.076923076924,4460.512820512821
237.75119,0.23896815,0.5323977,0.33806327,1.0,1,0.0,0.0,0.0,0.0,0.0,0,0,0.0,0.0,0,0,92.0,0.0,440.0,4540.512820512821,3848.205128205129,4528.717948717949,4474.358974358975,4280.000000000001,4479.48717948718,4433.846153846154,4418.461538461539,4231.794871794872,4697.948717948719,4335.384615384616,4234.871794871796,4163.076923076924,4484.102564102564
237.8763,0.23896815,0.5323977,0.33806327,1.0,0,0.0,0.0,0.0,0.0,0.0,0,0,0.0,0.0,0,0,108.0,0.0,440.0,4518.974358974359,3847.1794871794878,4503.589743589744,4454.358974358975,4268.205128205129,4478.974358974359,4437.948717948719,4407.179487179487,4231.282051282052,4685.641025641026,4312.820512820514,4175.384615384616,4141.538461538462,4461.538461538462
238.25162,0.24415979,0.59512675,0.3405996,1.0,0,0.0,0.0,0.0,0.0,0.0,0,0,0.0,0.0,0,0,27.0,0.0,0.0,4494.358974358975,3832.820512820513,4477.435897435898,4504.615384615385,4245.128205128206,4461.025641025642,4411.282051282052,4389.2307692307695,4229.74358974359,4678.974358974359,4309.743589743591,4224.102564102564,4140.512820512821,4475.8974358974365
238.25162,0.24415979,0.59512675,0.3405996,1.0,0,0.0,0.0,0.0,0.0,0.0,0,0,0.0,0.0,0,0,27.0,0.0,0.0,4494.358974358975,3832.820512820513,4477.435897435898,4504.615384615385,4245.128205128206,4461.025641025642,4411.282051282052,4389.2307692307695,4229.74358974359,4678.974358974359,4309.743589743591,4224.102564102564,4140.512820512821,4475.8974358974365
238.75206,0.21693517,0.64149994,0.34288135,1.0,0,0.0,0.0,0.0,0.0,0.0,0,0,0.0,0.0,0,0,91.0,0.0,398.0,4475.384615384616,3817.435897435898,4449.2307692307695,4464.102564102564,4234.871794871796,4435.384615384616,4393.333333333334,4376.410256410257,4223.076923076924,4677.948717948719,4331.282051282052,4234.358974358975,4152.307692307693,4481.025641025642
238.75206,0.21693517,0.64149994,0.34288135,1.0,0,0.0,0.0,0.0,0.0,0.0,0,0,0.0,0.0,0,0,91.0,0.0,398.0,4475.384615384616,3817.435897435898,4449.2307692307695,4464.102564102564,4234.871794871796,4435.384615384616,4393.333333333334,4376.410256410257,4223.076923076924,4677.948717948719,4331.282051282052,4234.358974358975,4152.307692307693,4481.025641025642
239.25249,0.2022621,0.64797705,0.34599495,1.0,0,0.0,0.0,0.0,0.0,0.0,0,0,0.0,0.0,0,0,26.0,0.0,0.0,4491.282051282052,3820.0000000000005,4464.102564102564,4460.512820512821,4241.538461538462,4449.2307692307695,4408.205128205129,4391.794871794872,4227.6923076923085,4679.48717948718,4300.512820512821,4144.615384615385,4147.6923076923085,4460.000000000001
239.25249,0.2022621,0.64797705,0.34599495,1.0,0,0.0,0.0,0.0,0.0,0.0,0,0,0.0,0.0,0,0,26.0,0.0,0.0,4491.282051282052,3820.0000000000005,4464.102564102564,4460.512820512821,4241.538461538462,4449.2307692307695,4408.205128205129,4391.794871794872,4227.6923076923085,4679.48717948718,4300.512820512821,4144.615384615385,4147.6923076923085,4460.000000000001
239.75291,0.18331628,0.6226546,0.34805822,1.0,0,0.0,0.0,0.0,0.0,0.0,0,0,0.0,0.0,0,0,90.0,0.0,523.0,4491.794871794872,3804.615384615385,4456.923076923077,4441.025641025642,4263.589743589744,4440.512820512821,4406.666666666667,4397.435897435898,4226.666666666667,4678.461538461539,4294.358974358975,4165.641025641026,4129.74358974359,4465.128205128206
239.75291,0.18331628,0.6226546,0.34805822,1.0,0,0.0,0.0,0.0,0.0,0.0,0,0,0.0,0.0,0,0,90.0,0.0,523.0,4491.794871794872,3804.615384615385,4456.923076923077,4441.025641025642,4263.589743589744,4440.512820512821,4406.666666666667,4397.435897435898,4226.666666666667,4678.461538461539,4294.358974358975,4165.641025641026,4129.74358974359,4465.128205128206
240.25334,0.15909033,0.61880314,0.3488179,1.0,0,0.0,0.0,0.0,0.0,0.0,0,0,0.0,0.3923281,0,0,25.0,0.0,0.0,4524.102564102564,3821.538461538462,4471.794871794872,4433.333333333334,4267.179487179487,4444.615384615385,4426.666666666667,4410.769230769231,4230.769230769231,4694.358974358975,4449.2307692307695,4195.8974358974365,4122.564102564103,4471.282051282052
240.50356,0.15909033,0.61880314,0.3488179,1.0,0,0.0,0.0,0.0,0.0,0.0,0,0,0.0,0.11366675,0,0,57.0,0.0,0.0,4520.000000000001,3830.2564102564106,4466.153846153847,4428.205128205129,4266.153846153847,4446.666666666667,4418.461538461539,4409.2307692307695,4229.74358974359,4690.769230769231,4409.2307692307695,4143.589743589744,4122.051282051282,4453.846153846154
240.75377,0.15221715,0.61691004,0.34894767,1.0,0,0.0,0.0,0.0,0.0,0.0,0,0,0.0,0.0,0,0,89.0,0.0,490.0,4539.48717948718,3848.717948717949,4499.48717948718,4442.051282051282,4270.769230769231,4464.102564102564,4411.794871794872,4413.846153846154,4234.358974358975,4711.282051282052,4410.256410256411,4264.102564102564,4151.794871794872,4437.948717948719
240.75377,0.15221715,0.61691004,0.34894767,1.0,0,0.0,0.0,0.0,0.0,0.0,0,0,0.0,0.0,0,0,89.0,0.0,490.0,4539.48717948718,3848.717948717949,4499.48717948718,4442.051282051282,4270.769230769231,4464.102564102564,4411.794871794872,4413.846153846154,4234.358974358975,4711.282051282052,4410.256410256411,4264.102564102564,4151.794871794872,4437.948717948719
241.25421,0.15666579,0.62409097,0.34906244,1.0,0,0.0,0.0,0.0,0.0,0.0,0,0,0.0,0.0,0,0,24.0,0.0,0.0,4493.846153846154,3823.076923076924,4457.435897435898,4405.641025641026,4236.923076923077,4437.948717948719,4421.538461538462,4424.102564102564,4234.871794871796,4707.179487179488,4374.871794871796,4184.102564102564,4178.461538461539,4451.794871794872
241.25421,0.15666579,0.62409097,0.34906244,1.0,0,0.0,0.0,0.0,0.0,0.0,0,0,0.0,0.0,0,0,24.0,0.0,0.0,4493.846153846154,3823.076923076924,4457.435897435898,4405.641025641026,4236.923076923077,4437.948717948719,4421.538461538462,4424.102564102564,4234.871794871796,4707.179487179488,4374.871794871796,4184.102564102564,4178.461538461539,4451.794871794872
241.75464,0.17346406,0.64095914,0.35087827,1.0,0,0.0,0.0,0.0,0.0,0.0,0,0,0.0,0.0,0,0,88.0,0.0,440.0,4509.743589743591,3830.2564102564106,4481.025641025642,4410.769230769231,4234.871794871796,4433.333333333334,4404.615384615385,4412.307692307693,4221.025641025642,4670.256410256411,4324.102564102564,4190.256410256411,4132.307692307693,4417.948717948719
241.75464,0.17346406,0.64095914,0.35087827,1.0,0,0.0,0.0,0.0,0.0,0.0,0,0,0.0,0.0,0,0,88.0,0.0,440.0,4509.743589743591,3830.2564102564106,4481.025641025642,4410.769230769231,4234.871794871796,4433.333333333334,4404.615384615385,4412.307692307693,4221.025641025642,4670.256410256411,4324.102564102564,4190.256410256411,4132.307692307693,4417.948717948719
242.25507,0.18298577,0.6355201,0.35251027,1.0,0,0.0,0.0,0.0,0.0,0.0,0,0,0.0,0.0,0,0,23.0,0.0,0.0,4518.974358974359,3831.2820512820517,4486.666666666667,4420.512820512821,4233.333333333334,4435.8974358974365,4405.128205128206,4418.974358974359,4218.974358974359,4664.615384615386,4305.641025641026,4214.358974358975,4120.512820512821,4429.2307692307695
242.25507,0.18298577,0.6355201,0.35251027,1.0,0,0.0,0.0,0.0,0.0,0.0,0,0,0.0,0.0,0,0,23.0,0.0,0.0,4518.974358974359,3831.2820512820517,4486.666666666667,4420.512820512821,4233.333333333334,4435.8974358974365,4405.128205128206,4418.974358974359,4218.974358974359,4664.615384615386,4305.641025641026,4214.358974358975,4120.512820512821,4429.2307692307695
242.7555,0.19047245,0.63273674,0.3536596,1.0,0,0.0,0.0,0.0,0.0,0.0,0,0,0.0,0.0,0,0,87.0,0.0,399.0,4512.307692307693,3818.9743589743593,4478.461538461539,4411.282051282052,4231.794871794872,4442.564102564103,4407.6923076923085,4433.846153846154,4225.128205128206,4674.871794871796,4304.615384615385,4144.615384615385,4150.256410256411,4419.48717948718
242.7555,0.19047245,0.63273674,0.3536596,1.0,0,0.0,0.0,0.0,0.0,0.0,0,0,0.0,0.0,0,0,87.0,0.0,399.0,4512.307692307693,3818.9743589743593,4478.461538461539,4411.282051282052,4231.794871794872,4442.564102564103,4407.6923076923085,4433.846153846154,4225.128205128206,4674.871794871796,4304.615384615385,4144.615384615385,4150.256410256411,4419.48717948718
243.25592,0.20039256,0.62795573,0.35649943,1.0,0,0.0,0.0,0.0,0.0,0.0,0,0,0.0,0.0,0,0,22.0,0.0,0.0,4521.538461538462,3832.820512820513,4482.051282051282,4423.076923076924,4294.358974358975,4446.666666666667,4421.538461538462,4421.025641025642,4227.6923076923085,4682.051282051282,4300.000000000001,4189.74358974359,4135.384615384616,4417.435897435898
