timestamp,excitement,frustration,meditation,engagementBoredom,blink,clench,laugh,smile,eyebrow,furrowBrow,lookLeft,lookRight,smirkLeft,smirkRight,winkLeft,winkRight,eeg0,eeg1,eeg2,eeg3,eeg4,eeg5,eeg6,eeg7,eeg8,eeg9,eeg10,eeg11,eeg12,eeg13,eeg14,eeg15,eeg16
1904.0739,1.0,0.29429424,0.33448547,0.55251396,0,0.0,0.0,0.0,0.0,0.253418,0,0,0.0,0.0,0,0,121.0,0.0,494.0,4957.435897435898,4315.8974358974365,4938.461538461539,4711.282051282052,4204.615384615385,4561.538461538462,4788.717948717949,4882.051282051283,4817.435897435898,5100.512820512821,4757.435897435898,4389.2307692307695,4603.589743589744,4397.948717948719
1904.3241,1.0,0.29229638,0.33437008,0.5524864,0,0.0,0.0,0.0,0.0,0.0,0,0,0.0,0.0,0,0,24.0,0.0,0.0,4928.205128205129,4268.205128205129,4827.6923076923085,4648.717948717949,4209.74358974359,4551.282051282052,4735.384615384616,4856.923076923077,4793.846153846154,5049.2307692307695,4721.025641025642,4249.2307692307695,4578.974358974359,4333.846153846154
1904.3241,1.0,0.29229638,0.33437008,0.5524864,0,0.0,0.0,0.0,0.0,0.0,0,0,0.0,0.0,0,0,24.0,0.0,0.0,4928.205128205129,4268.205128205129,4827.6923076923085,4648.717948717949,4209.74358974359,4551.282051282052,4735.384615384616,4856.923076923077,4793.846153846154,5049.2307692307695,4721.025641025642,4249.2307692307695,4578.974358974359,4333.846153846154
1904.6993,1.0,0.29049832,0.33426622,0.5524616,0,0.0,0.0,0.0,0.0,0.0,0,0,0.0,0.0,0,0,72.0,0.0,376.0,4823.076923076924,4203.589743589744,4657.948717948719,4544.102564102564,4241.025641025642,4574.358974358975,4619.48717948718,4800.000000000001,4750.769230769231,4939.48717948718,4623.589743589744,4226.153846153847,4415.384615384616,4253.333333333334
1904.6993,1.0,0.29049832,0.33426622,0.5524616,0,0.0,0.0,0.0,0.0,0.0,0,0,0.0,0.0,0,0,72.0,0.0,376.0,4823.076923076924,4203.589743589744,4657.948717948719,4544.102564102564,4241.025641025642,4574.358974358975,4619.48717948718,4800.000000000001,4750.769230769231,4939.48717948718,4623.589743589744,4226.153846153847,4415.384615384616,4253.333333333334
1905.1998,1.0,0.28888005,0.3341728,0.5524393,0,0.0,0.0,0.0,0.0,0.0,0,0,0.0,0.0,0,0,7.0,0.0,465.0,4742.564102564103,4187.6923076923085,4731.794871794872,4620.000000000001,4302.564102564103,4629.2307692307695,4590.256410256411,4752.820512820514,4735.384615384616,4914.871794871796,4610.256410256411,4401.538461538462,4424.102564102564,4196.410256410257
1905.5751,1.0,0.28888005,0.3341728,0.5524393,0,0.0,0.0,0.0,0.0,0.028771693,0,0,0.0,0.0,0,0,55.0,0.0,0.0,4718.461538461539,4180.000000000001,4788.717948717949,4636.923076923077,4310.256410256411,4629.2307692307695,4558.461538461539,4709.743589743591,4745.128205128206,4958.974358974359,4644.615384615385,4638.974358974359,4514.358974358975,4194.871794871796
1905.8253,0.9783862,0.2874236,0.33408862,0.5524192,0,0.0,0.0,0.0,0.0,0.06778753,0,0,0.0,0.0,0,0,87.0,0.0,420.0,4755.8974358974365,4163.076923076924,4821.025641025642,4642.564102564103,4305.128205128206,4625.641025641026,4536.923076923077,4673.846153846154,4734.871794871796,4940.000000000001,4631.794871794872,4682.051282051282,4523.589743589744,4178.461538461539
1906.0756,0.9783862,0.2874236,0.33408862,0.5524192,0,0.0,0.0,0.0,0.0,0.15099381,0,0,0.0,0.0,0,0,119.0,0.0,420.0,4730.769230769231,4135.8974358974365,4774.871794871796,4618.974358974359,4317.435897435898,4635.384615384616,4546.153846153847,4668.205128205129,4730.256410256411,4932.820512820514,4582.564102564103,4558.461538461539,4525.128205128206,4097.435897435898
1906.2007,1.0,0.28611282,0.33401293,0.553739,0,0.0,0.0,0.0,0.0,0.0,0,0,0.0,0.0,0,0,6.0,0.0,549.0,4723.076923076924,4130.769230769231,4763.076923076924,4609.2307692307695,4313.333333333334,4627.6923076923085,4542.051282051282,4654.871794871796,4728.205128205129,4917.435897435898,4576.410256410257,4542.051282051282,4514.358974358975,4107.179487179487
1906.2007,1.0,0.28611282,0.33401293,0.553739,0,0.0,0.0,0.0,0.0,0.0,0,0,0.0,0.0,0,0,6.0,0.0,549.0,4723.076923076924,4130.769230769231,4763.076923076924,4609.2307692307695,4313.333333333334,4627.6923076923085,4542.051282051282,4654.871794871796,4728.205128205129,4917.435897435898,4576.410256410257,4542.051282051282,4514.358974358975,4107.179487179487
1906.701,0.94619983,0.286782,0.33497226,0.5549268,0,0.0,0.0,0.0,0.0,0.0,0,0,0.0,0.0,0,0,70.0,0.0,550.0,4699.48717948718,4140.512820512821,4774.871794871796,4633.333333333334,4295.384615384616,4609.743589743591,4561.025641025642,4685.128205128206,4734.358974358975,4913.846153846154,4587.179487179488,4587.6923076923085,4563.589743589744,4160.000000000001
1906.701,0.94619983,0.286782,0.33497226,0.5549268,0,0.0,0.0,0.0,0.0,0.0,0,0,0.0,0.0,0,0,70.0,0.0,550.0,4699.48717948718,4140.512820512821,4774.871794871796,4633.333333333334,4295.384615384616,4609.743589743591,4561.025641025642,4685.128205128206,4734.358974358975,4913.846153846154,4587.179487179488,4587.6923076923085,4563.589743589744,4160.000000000001
1907.2015,0.91823816,0.28874707,0.33995914,0.5559958,0,0.0,0.0,0.0,0.0,0.0,0,0,0.0,0.0,0,0,5.0,0.0,517.0,4711.282051282052,4199.48717948718,4825.128205128206,4675.384615384616,4241.538461538462,4540.000000000001,4627.179487179488,4758.461538461539,4764.102564102564,5009.743589743591,4671.794871794872,4558.974358974359,4621.025641025642,4226.666666666667
1907.2015,0.91823816,0.28874707,0.33995914,0.5559958,0,0.0,0.0,0.0,0.0,0.0,0,0,0.0,0.0,0,0,5.0,0.0,517.0,4711.282051282052,4199.48717948718,4825.128205128206,4675.384615384616,4241.538461538462,4540.000000000001,4627.179487179488,4758.461538461539,4764.102564102564,5009.743589743591,4671.794871794872,4558.974358974359,4621.025641025642,4226.666666666667
1907.7019,0.94365066,0.30524254,0.34599343,0.55332816,0,0.0,0.0,0.0,0.0,0.0,0,0,0.0,0.0,0,0,69.0,0.0,517.0,4599.48717948718,4131.282051282052,4618.974358974359,4574.358974358975,4255.384615384616,4547.179487179488,4592.307692307693,4717.435897435898,4666.666666666667,4863.589743589744,4563.076923076924,4459.48717948718,4390.256410256411,4167.6923076923085
1907.7019,0.94365066,0.30524254,0.34599343,0.55332816,0,0.0,0.0,0.0,0.0,0.0,0,0,0.0,0.0,0,0,69.0,0.0,517.0,4599.48717948718,4131.282051282052,4618.974358974359,4574.358974358975,4255.384615384616,4547.179487179488,4592.307692307693,4717.435897435898,4666.666666666667,4863.589743589744,4563.076923076924,4459.48717948718,4390.256410256411,4167.6923076923085
1908.2024,1.0,0.32003927,0.3564258,0.5476449,0,0.0,0.0,0.0,0.0,0.0,0,0,0.0,0.0,0,0,4.0,0.0,503.0,4509.2307692307695,4031.2820512820517,4335.384615384616,4377.948717948719,4300.512820512821,4612.307692307693,4475.384615384616,4613.846153846154,4575.8974358974365,4664.102564102564,4426.153846153847,4249.74358974359,4048.205128205129,4113.333333333334
1908.5776,1.0,0.32003927,0.3564258,0.5476449,0,0.0,0.0,0.0,0.036805525,0.0,0,0,0.0,0.0,0,0,52.0,0.0,0.0,4478.974358974359,4025.1282051282055,4433.846153846154,4390.769230769231,4344.102564102564,4657.435897435898,4405.128205128206,4547.179487179488,4601.025641025642,4704.615384615386,4449.2307692307695,4295.8974358974365,4178.974358974359,4060.5128205128212
1908.8279,0.89575654,0.33335635,0.36581457,0.54253,0,0.0,0.0,0.0,0.0,0.04249992,0,0,0.0,0.0,0,0,84.0,0.0,463.0,4498.974358974359,3993.333333333334,4462.564102564103,4398.974358974359,4367.179487179487,4679.48717948718,4374.871794871796,4492.820512820514,4611.794871794872,4715.384615384616,4447.6923076923085,4078.9743589743593,4240.512820512821,4022.564102564103
1909.0781,0.89575654,0.33335635,0.36581457,0.54253,0,0.0,0.0,0.0,0.0,0.0329293,0,0,0.0,0.0,0,0,116.0,0.0,463.0,4540.000000000001,3978.461538461539,4514.358974358975,4421.025641025642,4376.923076923077,4692.307692307693,4372.307692307693,4430.256410256411,4604.102564102564,4709.2307692307695,4434.358974358975,4013.333333333334,4275.384615384616,4059.48717948718
1909.3284,0.9649819,0.3453417,0.3727132,0.53792673,0,0.0,0.0,0.0,0.0,0.0,0,0,0.0,0.0,0,0,19.0,0.0,0.0,4564.615384615385,4005.1282051282055,4613.333333333334,4469.2307692307695,4346.666666666667,4664.102564102564,4367.6923076923085,4420.000000000001,4604.615384615385,4740.000000000001,4463.589743589744,4052.820512820513,4323.076923076924,4118.461538461539
1909.3284,0.9649819,0.3453417,0.3727132,0.53792673,0,0.0,0.0,0.0,0.0,0.0,0,0,0.0,0.0,0,0,19.0,0.0,0.0,4564.615384615385,4005.1282051282055,4613.333333333334,4469.2307692307695,4346.666666666667,4664.102564102564,4367.6923076923085,4420.000000000001,4604.615384615385,4740.000000000001,4463.589743589744,4052.820512820513,4323.076923076924,4118.461538461539
1909.7036,1.0,0.35612854,0.37892133,0.53878343,0,0.0,0.0,0.0,0.0,0.0,0,0,0.0,0.0,0,0,67.0,0.0,436.0,4472.307692307693,3998.461538461539,4627.6923076923085,4463.589743589744,4346.666666666667,4652.307692307693,4399.48717948718,4431.794871794872,4611.794871794872,4763.076923076924,4451.282051282052,4042.564102564103,4349.2307692307695,4115.8974358974365
1909.7036,1.0,0.35612854,0.37892133,0.53878343,0,0.0,0.0,0.0,0.0,0.0,0,0,0.0,0.0,0,0,67.0,0.0,436.0,4472.307692307693,3998.461538461539,4627.6923076923085,4463.589743589744,4346.666666666667,4652.307692307693,4399.48717948718,4431.794871794872,4611.794871794872,4763.076923076924,4451.282051282052,4042.564102564103,4349.2307692307695,4115.8974358974365
1910.2041,1.0,0.3658367,0.38450795,0.53955454,0,0.0,0.0,0.0,0.0,0.0,0,0,0.0,0.0,0,0,2.0,0.0,359.0,4597.435897435898,3996.9230769230776,4692.820512820514,4563.076923076924,4351.282051282052,4667.6923076923085,4449.743589743591,4482.051282051282,4602.051282051282,4777.435897435898,4475.8974358974365,4264.615384615385,4302.564102564103,4087.1794871794878
1910.2041,1.0,0.3658367,0.38450795,0.53955454,0,0.0,0.0,0.0,0.0,0.0,0,0,0.0,0.0,0,0,2.0,0.0,359.0,4597.435897435898,3996.9230769230776,4692.820512820514,4563.076923076924,4351.282051282052,4667.6923076923085,4449.743589743591,4482.051282051282,4602.051282051282,4777.435897435898,4475.8974358974365,4264.615384615385,4302.564102564103,4087.1794871794878
1910.7045,0.9758356,0.37457404,0.39511687,0.54024875,0,0.0,0.0,0.0,0.0,0.0,0,0,0.0,0.0,0,0,66.0,0.0,359.0,4552.307692307693,3976.410256410257,4605.128205128206,4498.461538461539,4295.8974358974365,4617.435897435898,4469.2307692307695,4518.974358974359,4567.6923076923085,4755.8974358974365,4457.948717948719,4076.410256410257,4262.564102564103,4074.358974358975
1910.7045,0.9758356,0.37457404,0.39511687,0.54024875,0,0.0,0.0,0.0,0.0,0.0,0,0,0.0,0.0,0,0,66.0,0.0,359.0,4552.307692307693,3976.410256410257,4605.128205128206,4498.461538461539,4295.8974358974365,4617.435897435898,4469.2307692307695,4518.974358974359,4567.6923076923085,4755.8974358974365,4457.948717948719,4076.410256410257,4262.564102564103,4074.358974358975
1911.205,0.93829614,0.46499655,0.40769628,0.5448568,0,0.0,0.0,0.0,0.0,0.0,0,0,0.0,0.0,0,0,1.0,0.0,407.0,4536.410256410257,3953.8461538461543,4466.153846153847,4405.128205128206,4310.769230769231,4627.179487179488,4441.025641025642,4478.461538461539,4519.48717948718,4664.615384615386,4377.435897435898,3883.076923076924,4195.8974358974365,3986.666666666667
1911.205,0.93829614,0.46499655,0.40769628,0.5448568,0,0.0,0.0,0.0,0.0,0.0,0,0,0.0,0.0,0,0,1.0,0.0,407.0,4536.410256410257,3953.8461538461543,4466.153846153847,4405.128205128206,4310.769230769231,4627.179487179488,4441.025641025642,4478.461538461539,4519.48717948718,4664.615384615386,4377.435897435898,3883.076923076924,4195.8974358974365,3986.666666666667
1911.7053,0.94749415,0.5263575,0.42343998,0.5504116,0,0.0,0.0,0.0,0.0,0.0,0,0,0.0,0.0,0,0,65.0,0.0,407.0,4583.076923076924,3948.205128205129,4542.564102564103,4454.358974358975,4295.8974358974365,4611.794871794872,4451.282051282052,4484.102564102564,4548.717948717949,4752.820512820514,4418.974358974359,3806.1538461538466,4359.48717948718,4037.435897435898
1911.7053,0.94749415,0.5263575,0.42343998,0.5504116,0,0.0,0.0,0.0,0.0,0.0,0,0,0.0,0.0,0,0,65.0,0.0,407.0,4583.076923076924,3948.205128205129,4542.564102564103,4454.358974358975,4295.8974358974365,4611.794871794872,4451.282051282052,4484.102564102564,4548.717948717949,4752.820512820514,4418.974358974359,3806.1538461538466,4359.48717948718,4037.435897435898
1912.2058,0.9585655,0.5618036,0.43760726,0.55541086,0,0.0,0.0,0.0,0.0,0.0,0,0,0.0,0.0,0,0,0.0,0.0,519.0,4616.410256410257,3967.692307692308,4596.410256410257,4514.358974358975,4310.256410256411,4628.205128205129,4518.974358974359,4544.615384615385,4569.743589743591,4850.769230769231,4519.48717948718,3856.410256410257,4412.820512820514,4060.0000000000005
1912.2058,0.9585655,0.5618036,0.43760726,0.55541086,0,0.0,0.0,0.0,0.0,0.0,0,0,0.0,0.0,0,0,0.0,0.0,519.0,4616.410256410257,3967.692307692308,4596.410256410257,4514.358974358975,4310.256410256411,4628.205128205129,4518.974358974359,4544.615384615385,4569.743589743591,4850.769230769231,4519.48717948718,3856.410256410257,4412.820512820514,4060.0000000000005
1912.7063,0.9205796,0.55674875,0.4478987,0.55991024,0,0.0,0.0,0.0,0.0,0.0,0,0,0.0,0.0,0,0,64.0,0.0,519.0,4546.153846153847,3984.1025641025644,4664.615384615386,4551.794871794872,4269.2307692307695,4578.461538461539,4483.076923076924,4506.153846153847,4555.8974358974365,4818.461538461539,4458.974358974359,4020.0000000000005,4378.974358974359,4061.0256410256416
1912.7063,0.9205796,0.55674875,0.4478987,0.55991024,0,0.0,0.0,0.0,0.0,0.0,0,0,0.0,0.0,0,0,64.0,0.0,519.0,4546.153846153847,3984.1025641025644,4664.615384615386,4551.794871794872,4269.2307692307695,4578.461538461539,4483.076923076924,4506.153846153847,4555.8974358974365,4818.461538461539,4458.974358974359,4020.0000000000005,4378.974358974359,4061.0256410256416
1913.2067,0.83374673,0.56904435,0.4522636,0.5698731,0,0.0,0.0,0.0,0.0,0.0,0,0,0.0,0.0,0,0,128.0,0.0,466.0,4625.128205128206,4002.0512820512827,4740.000000000001,4597.948717948719,4230.769230769231,4533.333333333334,4513.333333333334,4497.948717948719,4557.948717948719,4820.512820512821,4466.666666666667,4092.820512820513,4367.6923076923085,4111.282051282052
1913.2067,0.83374673,0.56904435,0.4522636,0.5698731,0,0.0,0.0,0.0,0.0,0.0,0,0,0.0,0.0,0,0,128.0,0.0,466.0,4625.128205128206,4002.0512820512827,4740.000000000001,4597.948717948719,4230.769230769231,4533.333333333334,4513.333333333334,4497.948717948719,4557.948717948719,4820.512820512821,4466.666666666667,4092.820512820513,4367.6923076923085,4111.282051282052
1913.7072,0.8445099,0.56456274,0.4512658,0.58829236,0,0.0,0.0,0.0,0.0,0.0,0,0,0.0,0.0,0,0,63.0,0.0,0.0,4583.076923076924,3994.358974358975,4745.128205128206,4597.948717948719,4204.615384615385,4500.000000000001,4501.538461538462,4460.000000000001,4553.846153846154,4813.333333333334,4470.256410256411,3986.666666666667,4336.410256410257,4188.717948717949
1913.7072,0.8445099,0.56456274,0.4512658,0.58829236,0,0.0,0.0,0.0,0.0,0.0,0,0,0.0,0.0,0,0,63.0,0.0,0.0,4583.076923076924,3994.358974358975,4745.128205128206,4597.948717948719,4204.615384615385,4500.000000000001,4501.538461538462,4460.000000000001,4553.846153846154,4813.333333333334,4470.256410256411,3986.666666666667,4336.410256410257,4188.717948717949
1914.2075,0.81237906,0.53374773,0.44449773,0.6101749,0,0.0,0.0,0.0,0.0,0.0,0,0,0.0,0.0,0,0,127.0,0.0,420.0,4537.435897435898,3939.48717948718,4453.846153846154,4424.615384615385,4213.846153846154,4508.717948717949,4446.153846153847,4368.205128205129,4484.615384615385,4680.512820512821,4394.358974358975,3751.2820512820517,4142.564102564103,4138.461538461539
1914.2075,0.81237906,0.53374773,0.44449773,0.6101749,0,0.0,0.0,0.0,0.0,0.0,0,0,0.0,0.0,0,0,127.0,0.0,420.0,4537.435897435898,3939.48717948718,4453.846153846154,4424.615384615385,4213.846153846154,4508.717948717949,4446.153846153847,4368.205128205129,4484.615384615385,4680.512820512821,4394.358974358975,3751.2820512820517,4142.564102564103,4138.461538461539
1914.708,0.8856449,0.50601494,0.43595982,0.62986636,0,0.0,0.0,0.0,0.0,0.0,0,0,0.0,0.0,0,0,62.0,0.0,0.0,4390.769230769231,3890.2564102564106,4304.615384615385,4318.974358974359,4221.538461538462,4532.820512820514,4337.435897435898,4319.48717948718,4397.435897435898,4438.461538461539,4233.333333333334,3821.0256410256416,3902.0512820512827,4029.23076923077
1914.708,0.8856449,0.50601494,0.43595982,0.62986636,0,0.0,0.0,0.0,0.0,0.0,0,0,0.0,0.0,0,0,62.0,0.0,0.0,4390.769230769231,3890.2564102564106,4304.615384615385,4318.974358974359,4221.538461538462,4532.820512820514,4337.435897435898,4319.48717948718,4397.435897435898,4438.461538461539,4233.333333333334,3821.0256410256416,3902.0512820512827,4029.23076923077
1915.2084,0.9332006,0.48105544,0.4307201,0.6475843,0,0.0,0.0,0.0,0.0,0.0,0,0,0.0,0.0,0,0,126.0,0.0,545.0,4376.410256410257,3879.48717948718,4472.820512820514,4394.358974358975,4263.589743589744,4578.974358974359,4304.615384615385,4303.076923076924,4428.205128205129,4535.8974358974365,4271.794871794872,3797.435897435898,4141.025641025642,4059.48717948718
1915.2084,0.9332006,0.48105544,0.4307201,0.6475843,0,0.0,0.0,0.0,0.0,0.0,0,0,0.0,0.0,0,0,126.0,0.0,545.0,4376.410256410257,3879.48717948718,4472.820512820514,4394.358974358975,4263.589743589744,4578.974358974359,4304.615384615385,4303.076923076924,4428.205128205129,4535.8974358974365,4271.794871794872,3797.435897435898,4141.025641025642,4059.48717948718
1915.7089,0.9549559,0.45859185,0.43045977,0.6525313,0,0.0,0.0,0.0,0.0,0.0,0,0,0.0,0.0,0,0,61.0,0.0,0.0,4443.589743589744,3952.820512820513,4650.256410256411,4503.589743589744,4245.128205128206,4540.512820512821,4390.256410256411,4352.820512820514,4479.48717948718,4672.307692307693,4363.589743589744,3986.666666666667,4319.48717948718,4127.179487179487
1915.7089,0.9549559,0.45859185,0.43045977,0.6525313,0,0.0,0.0,0.0,0.0,0.0,0,0,0.0,0.0,0,0,61.0,0.0,0.0,4443.589743589744,3952.820512820513,4650.256410256411,4503.589743589744,4245.128205128206,4540.512820512821,4390.256410256411,4352.820512820514,4479.48717948718,4672.307692307693,4363.589743589744,3986.666666666667,4319.48717948718,4127.179487179487
1916.2092,0.98757976,0.43837464,0.42887074,0.64495313,0,0.0,0.0,0.0,0.0,0.0,0,0,0.0,0.0,0,0,125.0,0.0,507.0,4600.000000000001,3992.820512820513,4742.564102564103,4578.461538461539,4258.461538461539,4549.743589743591,4494.358974358975,4492.307692307693,4536.410256410257,4804.102564102564,4458.461538461539,4196.923076923077,4517.435897435898,4197.435897435898
1916.2092,0.98757976,0.43837464,0.42887074,0.64495313,0,0.0,0.0,0.0,0.0,0.0,0,0,0.0,0.0,0,0,125.0,0.0,507.0,4600.000000000001,3992.820512820513,4742.564102564103,4578.461538461539,4258.461538461539,4549.743589743591,4494.358974358975,4492.307692307693,4536.410256410257,4804.102564102564,4458.461538461539,4196.923076923077,4517.435897435898,4197.435897435898
1916.7097,1.0,0.42017913,0.42727467,0.6363163,0,0.0,0.0,0.0,0.0,0.0,0,0,0.0,0.0,0,0,60.0,0.0,0.0,4688.717948717949,4033.333333333334,4794.871794871796,4631.282051282052,4254.871794871796,4545.128205128206,4563.076923076924,4571.282051282052,4570.769230769231,4857.948717948719,4529.2307692307695,4423.589743589744,4557.435897435898,4252.307692307693
1916.7097,1.0,0.42017913,0.42727467,0.6363163,0,0.0,0.0,0.0,0.0,0.0,0,0,0.0,0.0,0,0,60.0,0.0,0.0,4688.717948717949,4033.333333333334,4794.871794871796,4631.282051282052,4254.871794871796,4545.128205128206,4563.076923076924,4571.282051282052,4570.769230769231,4857.948717948719,4529.2307692307695,4423.589743589744,4557.435897435898,4252.307692307693
1917.2101,0.9616568,0.4038032,0.4266496,0.6285429,0,0.0,0.0,0.0,0.0,0.0,0,0,0.0,0.0,0,0,124.0,0.0,473.0,4649.2307692307695,4051.2820512820517,4768.717948717949,4631.282051282052,4230.769230769231,4520.512820512821,4605.641025641026,4607.179487179488,4595.8974358974365,4913.846153846154,4590.769230769231,4553.333333333334,4578.461538461539,4246.666666666667
1917.2101,0.9616568,0.4038032,0.4266496,0.6285429,0,0.0,0.0,0.0,0.0,0.0,0,0,0.0,0.0,0,0,124.0,0.0,473.0,4649.2307692307695,4051.2820512820517,4768.717948717949,4631.282051282052,4230.769230769231,4520.512820512821,4605.641025641026,4607.179487179488,4595.8974358974365,4913.846153846154,4590.769230769231,4553.333333333334,4578.461538461539,4246.666666666667
1917.7106,1.0,0.38906485,0.4260856,0.62154645,0,0.0,0.0,0.0,0.0,0.0,0,0,0.0,0.0,0,0,59.0,0.0,0.0,4653.333333333334,4055.8974358974365,4734.871794871796,4609.2307692307695,4230.256410256411,4515.384615384616,4610.769230769231,4622.051282051282,4600.512820512821,4932.820512820514,4609.2307692307695,4480.000000000001,4528.717948717949,4273.333333333334
1917.7106,1.0,0.38906485,0.4260856,0.62154645,0,0.0,0.0,0.0,0.0,0.0,0,0,0.0,0.0,0,0,59.0,0.0,0.0,4653.333333333334,4055.8974358974365,4734.871794871796,4609.2307692307695,4230.256410256411,4515.384615384616,4610.769230769231,4622.051282051282,4600.512820512821,4932.820512820514,4609.2307692307695,4480.000000000001,4528.717948717949,4273.333333333334
1918.2109,0.9667242,0.37580034,0.42089155,0.62036055,0,0.0,0.0,0.0,0.0,0.0,0,0,0.0,0.0,0,0,123.0,0.0,421.0,4682.051282051282,4091.2820512820517,4675.8974358974365,4595.384615384616,4250.769230769231,4540.512820512821,4611.282051282052,4623.076923076924,4544.615384615385,4818.461538461539,4544.102564102564,4418.461538461539,4315.8974358974365,4290.256410256411
1918.2109,0.9667242,0.37580034,0.42089155,0.62036055,0,0.0,0.0,0.0,0.0,0.0,0,0,0.0,0.0,0,0,123.0,0.0,421.0,4682.051282051282,4091.2820512820517,4675.8974358974365,4595.384615384616,4250.769230769231,4540.512820512821,4611.282051282052,4623.076923076924,4544.615384615385,4818.461538461539,4544.102564102564,4418.461538461539,4315.8974358974365,4290.256410256411
1918.7114,1.0,0.36386228,0.41548708,0.61929226,0,0.0,0.0,0.0,0.0,0.0,0,0,0.0,0.0,0,0,58.0,0.0,0.0,4588.205128205129,4071.7948717948725,4511.282051282052,4512.307692307693,4244.615384615385,4533.846153846154,4595.384615384616,4589.2307692307695,4498.461538461539,4727.179487179488,4485.128205128206,4318.461538461539,4189.2307692307695,4263.076923076924
1918.7114,1.0,0.36386228,0.41548708,0.61929226,0,0.0,0.0,0.0,0.0,0.0,0,0,0.0,0.0,0,0,58.0,0.0,0.0,4588.205128205129,4071.7948717948725,4511.282051282052,4512.307692307693,4244.615384615385,4533.846153846154,4595.384615384616,4589.2307692307695,4498.461538461539,4727.179487179488,4485.128205128206,4318.461538461539,4189.2307692307695,4263.076923076924
1919.2118,0.8812815,0.3694354,0.41062197,0.6183298,0,0.0,0.0,0.0,0.0,0.0,0,0,0.0,0.0,0,0,122.0,0.0,546.0,4601.538461538462,4097.435897435898,4581.025641025642,4534.358974358975,4232.307692307693,4524.615384615385,4533.333333333334,4546.666666666667,4546.666666666667,4824.615384615386,4558.974358974359,4324.102564102564,4348.717948717949,4250.256410256411
1919.5872,0.8812815,0.3694354,0.41062197,0.6183298,0,0.0,0.0,0.0,0.0,0.053321164,0,0,0.0,0.0,0,0,41.0,0.0,0.0,4567.6923076923085,4056.9230769230776,4648.205128205129,4554.871794871796,4232.820512820514,4518.461538461539,4510.769230769231,4532.820512820514,4581.538461538462,4901.538461538462,4604.615384615385,4424.102564102564,4523.589743589744,4255.384615384616
1919.8374,0.7476383,0.38650322,0.40705565,0.6134816,0,0.0,0.0,0.0,0.0,0.112536386,0,0,0.0,0.0,0,0,73.0,0.0,517.0,4582.051282051282,4049.23076923077,4708.205128205129,4602.564102564103,4253.333333333334,4541.538461538462,4520.000000000001,4554.358974358975,4603.589743589744,4950.769230769231,4631.794871794872,4407.179487179487,4608.717948717949,4280.000000000001
1919.9625,0.7476383,0.38650322,0.40705565,0.6134816,0,0.0,0.0,0.0,0.0,0.0,0,0,0.0,0.0,0,0,89.0,0.0,504.0,4623.589743589744,4047.692307692308,4727.179487179488,4615.384615384616,4243.589743589744,4531.794871794872,4516.410256410257,4538.461538461539,4598.461538461539,4934.358974358975,4618.974358974359,4361.538461538462,4580.512820512821,4281.538461538462
1920.3378,0.67585135,0.4254668,0.40634567,0.60395133,0,0.0,0.0,0.0,0.0,0.50814134,0,0,0.0,0.0,0,0,8.0,0.0,386.0,4652.820512820514,4025.1282051282055,4735.384615384616,4634.871794871796,4250.256410256411,4535.8974358974365,4505.641025641026,4550.769230769231,4610.256410256411,4958.461538461539,4627.179487179488,4465.641025641026,4592.820512820514,4357.948717948719
1920.588,0.67585135,0.4254668,0.40634567,0.60395133,0,0.0,0.0,0.0,0.0,0.34480023,0,0,0.0,0.0,0,0,40.0,0.0,0.0,4649.743589743591,4041.0256410256416,4754.358974358975,4647.6923076923085,4232.820512820514,4522.051282051282,4509.743589743591,4541.025641025642,4600.512820512821,4931.282051282052,4632.820512820514,4471.794871794872,4536.410256410257,4324.102564102564
1920.7131,0.676182,0.44695154,0.40570563,0.5953738,0,0.0,0.0,0.0,0.0,0.0,0,0,0.0,0.0,0,0,56.0,0.0,0.0,4629.743589743591,4038.9743589743593,4727.179487179488,4634.358974358975,4251.794871794872,4535.384615384616,4513.333333333334,4534.871794871796,4596.410256410257,4908.205128205129,4628.205128205129,4491.794871794872,4510.769230769231,4326.666666666667
1920.7131,0.676182,0.44695154,0.40570563,0.5953738,0,0.0,0.0,0.0,0.0,0.0,0,0,0.0,0.0,0,0,56.0,0.0,0.0,4629.743589743591,4038.9743589743593,4727.179487179488,4634.358974358975,4251.794871794872,4535.384615384616,4513.333333333334,4534.871794871796,4596.410256410257,4908.205128205129,4628.205128205129,4491.794871794872,4510.769230769231,4326.666666666667
1921.2135,0.757968,0.47120354,0.40512854,0.5876537,0,0.0,0.0,0.0,0.0,0.0,0,0,0.0,0.0,0,0,120.0,0.0,466.0,4726.666666666667,4063.076923076924,4758.461538461539,4668.717948717949,4280.512820512821,4566.666666666667,4587.179487179488,4588.717948717949,4606.666666666667,4973.846153846154,4681.025641025642,4585.128205128206,4532.820512820514,4389.743589743591
1921.2135,0.757968,0.47120354,0.40512854,0.5876537,0,0.0,0.0,0.0,0.0,0.0,0,0,0.0,0.0,0,0,120.0,0.0,466.0,4726.666666666667,4063.076923076924,4758.461538461539,4668.717948717949,4280.512820512821,4566.666666666667,4587.179487179488,4588.717948717949,4606.666666666667,4973.846153846154,4681.025641025642,4585.128205128206,4532.820512820514,4389.743589743591
1921.714,0.77035546,0.5023596,0.40788442,0.5868369,0,0.0,0.0,0.0,0.0,0.0,0,0,0.0,0.0,0,0,55.0,0.0,0.0,4747.179487179488,4075.3846153846157,4755.384615384616,4678.461538461539,4303.589743589744,4592.307692307693,4596.923076923077,4613.846153846154,4606.153846153847,4968.717948717949,4653.333333333334,4578.461538461539,4500.000000000001,4397.948717948719
1921.714,0.77035546,0.5023596,0.40788442,0.5868369,0,0.0,0.0,0.0,0.0,0.0,0,0,0.0,0.0,0,0,55.0,0.0,0.0,4747.179487179488,4075.3846153846157,4755.384615384616,4678.461538461539,4303.589743589744,4592.307692307693,4596.923076923077,4613.846153846154,4606.153846153847,4968.717948717949,4653.333333333334,4578.461538461539,4500.000000000001,4397.948717948719
1922.2144,0.8173741,0.5240089,0.40696284,0.5945804,0,0.0,0.0,0.0,0.0,0.0,0,0,0.0,0.0,0,0,119.0,0.0,421.0,4718.974358974359,4058.9743589743593,4688.717948717949,4625.641025641026,4268.717948717949,4555.384615384616,4547.179487179488,4561.025641025642,4572.307692307693,4903.589743589744,4608.205128205129,4530.256410256411,4414.358974358975,4388.717948717949
1922.5897,0.8173741,0.5240089,0.40696284,0.5945804,0,0.0,0.0,0.0,0.0,0.090908125,0,0,0.0,0.0,0,0,38.0,0.0,0.0,4666.153846153847,4034.358974358975,4617.948717948719,4587.6923076923085,4272.307692307693,4554.358974358975,4547.6923076923085,4552.820512820514,4546.666666666667,4870.256410256411,4601.025641025642,4499.48717948718,4358.461538461539,4364.102564102564
1922.7148,0.77415836,0.54029924,0.4013819,0.6108975,0,0.0,0.0,0.0,0.0,0.0,0,0,0.0,0.0,0,0,54.0,0.0,0.0,4632.820512820514,4005.1282051282055,4517.435897435898,4531.794871794872,4261.025641025642,4546.153846153847,4543.076923076924,4549.2307692307695,4521.025641025642,4804.102564102564,4550.256410256411,4430.256410256411,4261.025641025642,4331.794871794872
1923.0902,0.77415836,0.54029924,0.4013819,0.6108975,0,0.0,0.0,0.0,0.0,0.0,0,0,0.0,0.16795705,0,0,102.0,0.0,548.0,4567.179487179488,3939.48717948718,4301.538461538462,4423.076923076924,4259.48717948718,4563.589743589744,4507.179487179488,4545.641025641026,4428.205128205129,4620.512820512821,4440.512820512821,4124.615384615385,4051.2820512820517,4292.820512820514
1923.2153,0.86426556,0.50693023,0.39500245,0.6255805,0,0.0,0.0,0.0,0.0,0.0,0,0,0.0,0.0,0,0,118.0,0.0,548.0,4493.846153846154,3935.8974358974365,4287.179487179487,4417.435897435898,4267.179487179487,4575.384615384616,4471.794871794872,4528.205128205129,4414.871794871796,4574.871794871796,4405.641025641026,3983.076923076924,4042.0512820512827,4239.48717948718
1923.2153,0.86426556,0.50693023,0.39500245,0.6255805,0,0.0,0.0,0.0,0.0,0.0,0,0,0.0,0.0,0,0,118.0,0.0,548.0,4493.846153846154,3935.8974358974365,4287.179487179487,4417.435897435898,4267.179487179487,4575.384615384616,4471.794871794872,4528.205128205129,4414.871794871796,4574.871794871796,4405.641025641026,3983.076923076924,4042.0512820512827,4239.48717948718
1923.8408,0.7385666,0.4768939,0.3845242,0.62948644,0,0.0,0.0,0.0,0.0,0.006826457,0,0,0.0,0.0,0,0,69.0,0.0,516.0,4412.307692307693,3926.1538461538466,4504.102564102564,4493.333333333334,4296.923076923077,4616.410256410257,4283.076923076924,4313.846153846154,4448.717948717949,4632.820512820514,4373.333333333334,3917.9487179487182,4344.102564102564,4178.974358974359
1924.0911,0.7385666,0.4768939,0.3845242,0.62948644,0,0.0,0.0,0.0,0.0,0.010015462,0,0,0.0,0.0,0,0,101.0,0.0,510.0,4428.717948717949,3951.7948717948725,4596.923076923077,4530.769230769231,4294.871794871796,4602.564102564103,4255.384615384616,4294.358974358975,4469.743589743591,4700.512820512821,4421.538461538462,3957.435897435898,4433.333333333334,4175.384615384616
1924.3412,0.7220993,0.44986123,0.36973625,0.6269668,0,0.0,0.0,0.0,0.0,0.0,0,0,0.0,0.0,0,0,4.0,0.0,504.0,4423.589743589744,3938.9743589743593,4625.641025641026,4542.564102564103,4281.025641025642,4581.538461538462,4207.6923076923085,4248.717948717949,4458.461538461539,4685.128205128206,4404.615384615385,3956.410256410257,4395.384615384616,4129.74358974359
1924.3412,0.7220993,0.44986123,0.36973625,0.6269668,0,0.0,0.0,0.0,0.0,0.0,0,0,0.0,0.0,0,0,4.0,0.0,504.0,4423.589743589744,3938.9743589743593,4625.641025641026,4542.564102564103,4281.025641025642,4581.538461538462,4207.6923076923085,4248.717948717949,4458.461538461539,4685.128205128206,4404.615384615385,3956.410256410257,4395.384615384616,4129.74358974359
1924.7166,0.7269459,0.4255318,0.35481033,0.6207921,0,0.0,0.0,0.0,0.0,0.0,0,0,0.0,0.0,0,0,52.0,0.0,0.0,4434.358974358975,4002.564102564103,4688.717948717949,4560.000000000001,4281.025641025642,4582.564102564103,4285.641025641026,4301.025641025642,4481.538461538462,4734.358974358975,4436.923076923077,4085.1282051282055,4418.461538461539,4172.307692307693
1924.7166,0.7269459,0.4255318,0.35481033,0.6207921,0,0.0,0.0,0.0,0.0,0.0,0,0,0.0,0.0,0,0,52.0,0.0,0.0,4434.358974358975,4002.564102564103,4688.717948717949,4560.000000000001,4281.025641025642,4582.564102564103,4285.641025641026,4301.025641025642,4481.538461538462,4734.358974358975,4436.923076923077,4085.1282051282055,4418.461538461539,4172.307692307693
1925.217,0.7956112,0.40363532,0.33946702,0.6112181,0,0.0,0.0,0.0,0.0,0.0,0,0,0.0,0.0,0,0,116.0,0.0,471.0,4525.641025641026,4118.461538461539,4838.461538461539,4676.410256410257,4295.384615384616,4586.153846153847,4493.333333333334,4486.153846153847,4555.8974358974365,4906.153846153847,4573.846153846154,4349.743589743591,4540.512820512821,4340.512820512821
1925.217,0.7956112,0.40363532,0.33946702,0.6112181,0,0.0,0.0,0.0,0.0,0.0,0,0,0.0,0.0,0,0,116.0,0.0,471.0,4525.641025641026,4118.461538461539,4838.461538461539,4676.410256410257,4295.384615384616,4586.153846153847,4493.333333333334,4486.153846153847,4555.8974358974365,4906.153846153847,4573.846153846154,4349.743589743591,4540.512820512821,4340.512820512821
1925.7174,0.9101378,0.38392848,0.32419714,0.6021088,0,0.0,0.0,0.0,0.0,0.0,0,0,0.0,0.0,0,0,51.0,0.0,0.0,4528.717948717949,4138.461538461539,4822.564102564103,4696.923076923077,4350.769230769231,4638.461538461539,4593.333333333334,4577.435897435898,4589.743589743591,5025.128205128206,4693.333333333334,4443.076923076924,4661.025641025642,4436.923076923077
1925.7174,0.9101378,0.38392848,0.32419714,0.6021088,0,0.0,0.0,0.0,0.0,0.0,0,0,0.0,0.0,0,0,51.0,0.0,0.0,4528.717948717949,4138.461538461539,4822.564102564103,4696.923076923077,4350.769230769231,4638.461538461539,4593.333333333334,4577.435897435898,4589.743589743591,5025.128205128206,4693.333333333334,4443.076923076924,4661.025641025642,4436.923076923077
1926.2179,1.0,0.3661923,0.31045437,0.5939101,0,0.0,0.0,0.0,0.0,0.0,0,0,0.0,0.0,0,0,115.0,0.0,421.0,4560.000000000001,4159.48717948718,4807.179487179488,4699.48717948718,4369.743589743591,4653.333333333334,4644.102564102564,4606.153846153847,4606.153846153847,5046.666666666667,4732.307692307693,4449.743589743591,4626.666666666667,4440.512820512821
1926.2179,1.0,0.3661923,0.31045437,0.5939101,0,0.0,0.0,0.0,0.0,0.0,0,0,0.0,0.0,0,0,115.0,0.0,421.0,4560.000000000001,4159.48717948718,4807.179487179488,4699.48717948718,4369.743589743591,4653.333333333334,4644.102564102564,4606.153846153847,4606.153846153847,5046.666666666667,4732.307692307693,4449.743589743591,4626.666666666667,4440.512820512821
1926.7183,0.93512094,0.35022977,0.3004926,0.5865962,0,0.0,0.0,0.0,0.0,0.0,0,0,0.0,0.0,0,0,50.0,0.0,0.0,4591.282051282052,4193.333333333334,4720.512820512821,4663.589743589744,4207.179487179487,4594.871794871796,4806.153846153847,4797.948717948719,4653.333333333334,5165.641025641026,4838.461538461539,4544.102564102564,4641.025641025642,4470.769230769231
1926.7183,0.93512094,0.35022977,0.3004926,0.5865962,0,0.0,0.0,0.0,0.0,0.0,0,0,0.0,0.0,0,0,50.0,0.0,0.0,4591.282051282052,4193.333333333334,4720.512820512821,4663.589743589744,4207.179487179487,4594.871794871796,4806.153846153847,4797.948717948719,4653.333333333334,5165.641025641026,4838.461538461539,4544.102564102564,4641.025641025642,4470.769230769231
1927.2188,1.0,0.3358635,0.2947907,0.58001333,0,0.0,0.0,0.0,0.0,0.0,0,0,0.0,0.0,0,0,114.0,0.0,534.0,4534.358974358975,4117.948717948719,4521.538461538462,4552.820512820514,4312.307692307693,4658.974358974359,4703.076923076924,4740.000000000001,4594.358974358975,5001.025641025642,4717.435897435898,4402.564102564103,4450.256410256411,4443.076923076924
1927.2188,1.0,0.3358635,0.2947907,0.58001333,0,0.0,0.0,0.0,0.0,0.0,0,0,0.0,0.0,0,0,114.0,0.0,534.0,4534.358974358975,4117.948717948719,4521.538461538462,4552.820512820514,4312.307692307693,4658.974358974359,4703.076923076924,4740.000000000001,4594.358974358975,5001.025641025642,4717.435897435898,4402.564102564103,4450.256410256411,4443.076923076924
1927.8442,0.9125097,0.32293385,0.29764193,0.5726067,0,0.0,0.0,0.0,0.0,0.018801743,0,0,0.0,0.0,0,0,65.0,0.0,409.0,4633.333333333334,4180.512820512821,4730.769230769231,4647.6923076923085,4366.153846153847,4671.282051282052,4638.461538461539,4648.717948717949,4593.846153846154,4997.948717948719,4695.384615384616,4481.025641025642,4521.538461538462,4434.358974358975
1928.0945,0.9125097,0.32293385,0.29764193,0.5726067,0,0.0,0.0,0.0,0.0,0.022707572,0,0,0.0,0.0,0,0,97.0,0.0,506.0,4609.2307692307695,4173.333333333334,4809.2307692307695,4684.615384615386,4363.076923076924,4667.6923076923085,4635.384615384616,4623.589743589744,4591.794871794872,4994.871794871796,4680.512820512821,4501.025641025642,4542.051282051282,4446.666666666667
1928.3447,0.87924033,0.31129715,0.3054891,0.56385094,0,0.0,0.0,0.0,0.0,0.0389218,0,0,0.0,0.0,0,0,0.0,0.0,517.0,4667.6923076923085,4180.000000000001,4882.564102564103,4745.641025641026,4373.846153846154,4668.717948717949,4646.153846153847,4614.871794871796,4606.666666666667,5029.743589743591,4676.923076923077,4595.8974358974365,4587.179487179488,4450.769230769231
1928.5948,0.87924033,0.31129715,0.3054891,0.56385094,0,0.0,0.0,0.0,0.0,0.21510895,0,0,0.0,0.0,0,0,32.0,0.0,0.0,4689.743589743591,4190.256410256411,4881.025641025642,4758.974358974359,4363.589743589744,4656.923076923077,4640.512820512821,4609.2307692307695,4603.076923076924,5011.794871794872,4651.282051282052,4638.461538461539,4536.923076923077,4437.948717948719
1928.8451,0.77216786,0.30082414,0.3125519,0.5592593,0,0.0,0.0,0.0,0.0,0.009718372,0,0,0.0,0.0,0,0,64.0,0.0,516.0,4685.641025641026,4192.820512820514,4866.666666666667,4767.6923076923085,4386.153846153847,4672.307692307693,4590.256410256411,4616.410256410257,4588.205128205129,4979.48717948718,4628.717948717949,4665.128205128206,4475.8974358974365,4424.615384615385
1928.9702,0.77216786,0.30082414,0.3125519,0.5592593,0,0.0,0.0,0.0,0.0,0.0,0,0,0.0,0.0,0,0,80.0,0.0,465.0,4682.564102564103,4188.717948717949,4864.102564102564,4769.743589743591,4387.179487179487,4674.358974358975,4620.512820512821,4628.717948717949,4598.974358974359,4990.256410256411,4644.102564102564,4685.128205128206,4485.128205128206,4447.6923076923085
1929.2205,0.7803385,0.32777837,0.3189087,0.55568177,0,0.0,0.0,0.0,0.0,0.0,0,0,0.0,0.0,0,0,112.0,0.0,465.0,4661.538461538462,4173.846153846154,4808.205128205129,4733.333333333334,4386.666666666667,4670.256410256411,4613.846153846154,4594.871794871796,4577.948717948719,4930.769230769231,4592.307692307693,4645.128205128206,4411.282051282052,4425.641025641026
1929.2205,0.7803385,0.32777837,0.3189087,0.55568177,0,0.0,0.0,0.0,0.0,0.0,0,0,0.0,0.0,0,0,112.0,0.0,465.0,4661.538461538462,4173.846153846154,4808.205128205129,4733.333333333334,4386.666666666667,4670.256410256411,4613.846153846154,4594.871794871796,4577.948717948719,4930.769230769231,4592.307692307693,4645.128205128206,4411.282051282052,4425.641025641026
1929.7208,0.692012,0.334857,0.32214087,0.55261683,0,0.0,0.0,0.0,0.0,0.0,0,0,0.0,0.0,0,0,47.0,0.0,0.0,4621.025641025642,4194.871794871796,4784.615384615386,4694.871794871796,4380.000000000001,4658.974358974359,4625.641025641026,4609.743589743591,4596.410256410257,4974.358974358975,4652.820512820514,4749.743589743591,4481.025641025642,4445.641025641026
1929.7208,0.692012,0.334857,0.32214087,0.55261683,0,0.0,0.0,0.0,0.0,0.0,0,0,0.0,0.0,0,0,47.0,0.0,0.0,4621.025641025642,4194.871794871796,4784.615384615386,4694.871794871796,4380.000000000001,4658.974358974359,4625.641025641026,4609.743589743591,4596.410256410257,4974.358974358975,4652.820512820514,4749.743589743591,4481.025641025642,4445.641025641026
1930.3464,0.63283867,0.34171638,0.32987148,0.55505127,0,0.0,0.0,0.0,0.0,0.038010493,0,0,0.0,0.0,0,0,127.0,0.0,421.0,4564.102564102564,4208.205128205129,4629.2307692307695,4631.282051282052,4389.743589743591,4672.820512820514,4644.615384615385,4635.8974358974365,4567.6923076923085,4949.2307692307695,4642.564102564103,4658.974358974359,4344.615384615385,4431.282051282052
1930.5966,0.63283867,0.34171638,0.32987148,0.55505127,0,0.0,0.0,0.0,0.0,0.028009817,0,0,0.0,0.0,0,0,30.0,0.0,0.0,4552.307692307693,4157.435897435898,4457.435897435898,4521.025641025642,4375.8974358974365,4662.051282051282,4629.743589743591,4640.512820512821,4523.076923076924,4819.48717948718,4564.615384615385,4454.358974358975,4188.205128205129,4417.948717948719
1930.8468,0.6658656,0.32565162,0.32792103,0.5572422,0,0.0,0.0,0.0,0.0,0.14803559,0,0,0.0,0.0,0,0,62.0,0.0,0.0,4544.615384615385,4119.48717948718,4423.076923076924,4487.179487179488,4382.564102564103,4670.256410256411,4533.333333333334,4614.871794871796,4503.076923076924,4779.48717948718,4547.179487179488,4368.717948717949,4189.74358974359,4417.435897435898
1931.097,0.6658656,0.32565162,0.32792103,0.5572422,0,0.0,0.0,0.0,0.0,0.0069266227,0,0,0.0,0.0,0,0,94.0,0.0,545.0,4552.820512820514,4109.2307692307695,4502.051282051282,4497.435897435898,4387.179487179487,4674.871794871796,4479.48717948718,4580.512820512821,4512.820512820514,4831.282051282052,4607.6923076923085,4271.282051282052,4325.128205128206,4440.512820512821
1931.3473,0.6340771,0.31890446,0.32031134,0.5622622,0,0.0,0.0,0.0,0.0,0.0023479452,0,0,0.0,0.0,0,0,126.0,0.0,545.0,4535.384615384616,4079.48717948718,4608.205128205129,4539.48717948718,4398.461538461539,4684.615384615386,4450.769230769231,4522.051282051282,4540.000000000001,4888.717948717949,4659.48717948718,4145.128205128206,4441.025641025642,4430.769230769231
1931.5975,0.6340771,0.31890446,0.32031134,0.5622622,0,0.0,0.0,0.0,0.0,0.049912494,0,0,0.0,0.0,0,0,29.0,0.0,0.0,4504.615384615385,4057.9487179487182,4695.384615384616,4592.307692307693,4396.923076923077,4680.000000000001,4432.820512820514,4508.205128205129,4561.538461538462,4951.282051282052,4651.794871794872,4113.333333333334,4531.794871794872,4449.2307692307695
1931.8477,0.613143,0.31068933,0.3101215,0.5740566,0,0.0,0.0,0.0,0.0,0.08938957,0,0,0.0,0.0,0,0,61.0,0.0,0.0,4535.384615384616,4091.2820512820517,4790.256410256411,4652.307692307693,4395.8974358974365,4680.000000000001,4457.435897435898,4521.025641025642,4587.6923076923085,4989.2307692307695,4668.205128205129,4184.615384615385,4601.538461538462,4456.410256410257
1931.9728,0.613143,0.31068933,0.3101215,0.5740566,0,0.0,0.0,0.0,0.0,0.0,0,0,0.0,0.0,0,0,77.0,0.0,508.0,4569.2307692307695,4114.358974358975,4816.923076923077,4673.846153846154,4376.410256410257,4660.512820512821,4464.102564102564,4503.076923076924,4578.974358974359,4995.8974358974365,4662.564102564103,4220.000000000001,4607.179487179488,4467.6923076923085
1932.223,0.66808975,0.33812386,0.2977895,0.58509046,0,0.0,0.0,0.0,0.0,0.0,0,0,0.0,0.0,0,0,109.0,0.0,508.0,4613.333333333334,4144.102564102564,4850.769230769231,4688.717948717949,4375.384615384616,4649.743589743591,4499.48717948718,4516.410256410257,4601.538461538462,5036.410256410257,4695.384615384616,4381.538461538462,4651.282051282052,4483.076923076924
1932.223,0.66808975,0.33812386,0.2977895,0.58509046,0,0.0,0.0,0.0,0.0,0.0,0,0,0.0,0.0,0,0,109.0,0.0,508.0,4613.333333333334,4144.102564102564,4850.769230769231,4688.717948717949,4375.384615384616,4649.743589743591,4499.48717948718,4516.410256410257,4601.538461538462,5036.410256410257,4695.384615384616,4381.538461538462,4651.282051282052,4483.076923076924
1932.7234,0.62233394,0.3627809,0.28333107,0.58732253,0,0.0,0.0,0.0,0.0,0.0,0,0,0.0,0.0,0,0,44.0,0.0,0.0,4699.48717948718,4180.512820512821,4920.512820512821,4748.717948717949,4380.512820512821,4656.410256410257,4625.128205128206,4572.820512820514,4626.666666666667,5063.076923076924,4709.743589743591,4551.794871794872,4545.641025641026,4517.435897435898
1932.7234,0.62233394,0.3627809,0.28333107,0.58732253,0,0.0,0.0,0.0,0.0,0.0,0,0,0.0,0.0,0,0,44.0,0.0,0.0,4699.48717948718,4180.512820512821,4920.512820512821,4748.717948717949,4380.512820512821,4656.410256410257,4625.128205128206,4572.820512820514,4626.666666666667,5063.076923076924,4709.743589743591,4551.794871794872,4545.641025641026,4517.435897435898
1933.2239,0.60058904,0.38497224,0.27031937,0.5917059,0,0.0,0.0,0.0,0.0,0.0,0,0,0.0,0.0,0,0,108.0,0.0,465.0,4665.641025641026,4120.512820512821,4796.923076923077,4684.102564102564,4357.948717948719,4630.769230769231,4617.435897435898,4564.102564102564,4603.076923076924,5034.871794871796,4658.974358974359,4515.8974358974365,4418.974358974359,4484.102564102564
1933.2239,0.60058904,0.38497224,0.27031937,0.5917059,0,0.0,0.0,0.0,0.0,0.0,0,0,0.0,0.0,0,0,108.0,0.0,465.0,4665.641025641026,4120.512820512821,4796.923076923077,4684.102564102564,4357.948717948719,4630.769230769231,4617.435897435898,4564.102564102564,4603.076923076924,5034.871794871796,4658.974358974359,4515.8974358974365,4418.974358974359,4484.102564102564
1933.8494,0.6305377,0.40494445,0.25861004,0.5956503,0,0.0,0.0,0.0,0.0,0.18512662,0,0,0.0,0.0,0,0,59.0,0.0,0.0,5182.051282051283,4660.512820512821,5288.205128205129,5157.948717948719,4980.512820512821,5274.358974358975,5374.871794871796,5362.051282051283,4889.743589743591,5695.384615384616,5286.153846153847,5175.384615384616,4934.358974358975,4739.48717948718
1934.0996,0.6305377,0.40494445,0.25861004,0.5956503,0,0.0,0.0,0.0,0.1618365,0.0,0,0,0.0,0.0,0,0,91.0,0.0,416.0,5032.820512820514,4490.769230769231,4937.435897435898,4910.256410256411,4812.307692307693,5103.076923076924,5115.384615384616,5144.615384615386,4777.948717948719,5400.000000000001,5050.256410256411,4872.820512820514,4672.820512820514,4597.435897435898
1934.3499,0.7648732,0.42291945,0.2577514,0.59586245,0,0.0,0.0,0.0,0.0,0.44630563,0,0,0.0,0.0,0,0,123.0,0.0,416.0,4957.435897435898,4378.461538461539,4807.6923076923085,4794.871794871796,4669.2307692307695,4958.461538461539,4927.6923076923085,4969.743589743591,4709.2307692307695,5204.102564102564,4881.538461538462,4632.820512820514,4528.205128205129,4569.743589743591
1934.6001,0.7648732,0.42291945,0.2577514,0.59586245,0,0.0,0.0,0.0,0.0,0.1802906,0,0,0.0,0.0,0,0,26.0,0.0,0.0,4844.615384615386,4271.282051282052,4736.923076923077,4728.717948717949,4565.641025641026,4852.307692307693,4773.846153846154,4800.512820512821,4652.307692307693,5046.666666666667,4755.384615384616,4441.538461538462,4422.051282051282,4545.641025641026
1934.8502,0.8830884,0.43909693,0.2653196,0.5923906,0,0.0,0.0,0.0,0.0,0.064883314,0,0,0.0,0.0,0,0,58.0,0.0,0.0,4860.512820512821,4200.512820512821,4701.025641025642,4684.615384615386,4477.948717948719,4763.589743589744,4654.871794871796,4694.358974358975,4618.974358974359,4944.102564102564,4663.589743589744,4477.435897435898,4348.205128205129,4511.282051282052
1935.1005,0.8830884,0.43909693,0.2653196,0.5923906,0,0.0,0.0,0.0,0.0,0.07386596,0,0,0.0,0.0,0,0,90.0,0.0,533.0,4781.538461538462,4134.871794871796,4677.948717948719,4654.358974358975,4426.153846153847,4712.307692307693,4551.794871794872,4605.641025641026,4591.794871794872,4888.717948717949,4599.48717948718,4314.358974358975,4389.2307692307695,4515.384615384616
1935.3507,0.94027203,0.45365667,0.27213177,0.5883699,0,0.0,0.0,0.0,0.0,0.0,0,0,0.0,0.0,0,0,122.0,0.0,533.0,4694.358974358975,4096.410256410257,4682.051282051282,4635.8974358974365,4377.948717948719,4664.615384615386,4445.641025641026,4507.179487179488,4573.846153846154,4865.641025641026,4535.8974358974365,3965.6410256410263,4432.820512820514,4497.435897435898
1935.3507,0.94027203,0.45365667,0.27213177,0.5883699,0,0.0,0.0,0.0,0.0,0.0,0,0,0.0,0.0,0,0,122.0,0.0,533.0,4694.358974358975,4096.410256410257,4682.051282051282,4635.8974358974365,4377.948717948719,4664.615384615386,4445.641025641026,4507.179487179488,4573.846153846154,4865.641025641026,4535.8974358974365,3965.6410256410263,4432.820512820514,4497.435897435898
1935.7261,0.9451944,0.46676043,0.2782635,0.5847509,0,0.0,0.0,0.0,0.0,0.0,0,0,0.0,0.0,0,0,41.0,0.0,0.0,4602.051282051282,4027.1794871794878,4664.102564102564,4598.974358974359,4315.384615384616,4600.512820512821,4394.358974358975,4439.48717948718,4571.794871794872,4898.974358974359,4544.615384615385,3972.820512820513,4541.025641025642,4510.256410256411
1935.7261,0.9451944,0.46676043,0.2782635,0.5847509,0,0.0,0.0,0.0,0.0,0.0,0,0,0.0,0.0,0,0,41.0,0.0,0.0,4602.051282051282,4027.1794871794878,4664.102564102564,4598.974358974359,4315.384615384616,4600.512820512821,4394.358974358975,4439.48717948718,4571.794871794872,4898.974358974359,4544.615384615385,3972.820512820513,4541.025641025642,4510.256410256411
1936.2264,1.0,0.47855383,0.2837828,0.58149344,0,0.0,0.0,0.0,0.0,0.0,0,0,0.0,0.0,0,0,105.0,0.0,505.0,4538.461538461539,3942.564102564103,4605.128205128206,4552.307692307693,4279.48717948718,4557.948717948719,4395.8974358974365,4400.000000000001,4527.6923076923085,4813.846153846154,4465.128205128206,3957.435897435898,4407.179487179487,4444.615384615385
1936.2264,1.0,0.47855383,0.2837828,0.58149344,0,0.0,0.0,0.0,0.0,0.0,0,0,0.0,0.0,0,0,105.0,0.0,505.0,4538.461538461539,3942.564102564103,4605.128205128206,4552.307692307693,4279.48717948718,4557.948717948719,4395.8974358974365,4400.000000000001,4527.6923076923085,4813.846153846154,4465.128205128206,3957.435897435898,4407.179487179487,4444.615384615385
1936.7269,1.0,0.48916787,0.28875083,0.5785623,0,0.0,0.0,0.0,0.0,0.0,0,0,0.0,0.0,0,0,40.0,0.0,0.0,4531.282051282052,3932.820512820513,4690.769230769231,4620.000000000001,4305.128205128206,4588.205128205129,4417.948717948719,4434.358974358975,4544.102564102564,4893.846153846154,4515.8974358974365,4132.307692307693,4465.128205128206,4511.282051282052
1936.7269,1.0,0.48916787,0.28875083,0.5785623,0,0.0,0.0,0.0,0.0,0.0,0,0,0.0,0.0,0,0,40.0,0.0,0.0,4531.282051282052,3932.820512820513,4690.769230769231,4620.000000000001,4305.128205128206,4588.205128205129,4417.948717948719,4434.358974358975,4544.102564102564,4893.846153846154,4515.8974358974365,4132.307692307693,4465.128205128206,4511.282051282052
1937.2351,0.9712979,0.49872053,0.2958948,0.57650477,0,0.0,0.0,0.0,0.0,0.0,0,0,0.0,0.0,0,0,104.0,0.0,465.0,4557.435897435898,3921.0256410256416,4698.974358974359,4623.589743589744,4314.358974358975,4607.179487179488,4439.48717948718,4381.025641025642,4531.794871794872,4878.974358974359,4505.641025641026,4040.5128205128212,4365.641025641026,4508.717948717949
1937.2351,0.9712979,0.49872053,0.2958948,0.57650477,0,0.0,0.0,0.0,0.0,0.0,0,0,0.0,0.0,0,0,104.0,0.0,465.0,4557.435897435898,3921.0256410256416,4698.974358974359,4623.589743589744,4314.358974358975,4607.179487179488,4439.48717948718,4381.025641025642,4531.794871794872,4878.974358974359,4505.641025641026,4040.5128205128212,4365.641025641026,4508.717948717949
1937.7668,1.0,0.5073179,0.30231953,0.574657,0,0.0,0.0,0.0,0.0,0.0,0,0,0.0,0.0,0,0,43.0,0.0,0.0,4445.128205128206,3878.9743589743593,4509.743589743591,4567.6923076923085,4444.102564102564,4765.128205128206,4334.871794871796,4301.538461538462,4443.076923076924,4735.384615384616,4401.538461538462,3840.512820512821,4199.48717948718,4476.923076923077
1937.7668,1.0,0.5073179,0.30231953,0.574657,0,0.0,0.0,0.0,0.0,0.0,0,0,0.0,0.0,0,0,43.0,0.0,0.0,4445.128205128206,3878.9743589743593,4509.743589743591,4567.6923076923085,4444.102564102564,4765.128205128206,4334.871794871796,4301.538461538462,4443.076923076924,4735.384615384616,4401.538461538462,3840.512820512821,4199.48717948718,4476.923076923077
1938.236,1.0,0.51505554,0.3081045,0.5729914,0,0.0,0.0,0.0,0.0,0.0,0,0,0.0,0.0,0,0,103.0,0.0,414.0,4560.512820512821,3942.0512820512827,4630.256410256411,4627.6923076923085,4401.538461538462,4706.666666666667,4401.538461538462,4344.102564102564,4481.538461538462,4841.538461538462,4495.384615384616,4006.666666666667,4313.846153846154,4546.153846153847
1938.236,1.0,0.51505554,0.3081045,0.5729914,0,0.0,0.0,0.0,0.0,0.0,0,0,0.0,0.0,0,0,103.0,0.0,414.0,4560.512820512821,3942.0512820512827,4630.256410256411,4627.6923076923085,4401.538461538462,4706.666666666667,4401.538461538462,4344.102564102564,4481.538461538462,4841.538461538462,4495.384615384616,4006.666666666667,4313.846153846154,4546.153846153847
1938.7365,1.0,0.52201945,0.31330866,0.57149225,0,0.0,0.0,0.0,0.0,0.0,0,0,0.0,0.0,0,0,38.0,0.0,0.0,4555.8974358974365,3974.358974358975,4687.6923076923085,4630.769230769231,4401.538461538462,4701.025641025642,4450.769230769231,4385.641025641026,4501.538461538462,4878.461538461539,4473.333333333334,4260.000000000001,4302.564102564103,4502.051282051282
1938.7365,1.0,0.52201945,0.31330866,0.57149225,0,0.0,0.0,0.0,0.0,0.0,0,0,0.0,0.0,0,0,38.0,0.0,0.0,4555.8974358974365,3974.358974358975,4687.6923076923085,4630.769230769231,4401.538461538462,4701.025641025642,4450.769230769231,4385.641025641026,4501.538461538462,4878.461538461539,4473.333333333334,4260.000000000001,4302.564102564103,4502.051282051282
1939.2368,0.8928362,0.52828693,0.31531495,0.5695644,0,0.0,0.0,0.0,0.0,0.0,0,0,0.0,0.0,0,0,102.0,0.0,543.0,4561.538461538462,3976.9230769230776,4666.666666666667,4619.48717948718,4362.051282051282,4655.384615384616,4500.512820512821,4409.743589743591,4496.923076923077,4841.538461538462,4462.564102564103,4387.179487179487,4335.384615384616,4450.769230769231
1939.6122,0.8928362,0.52828693,0.31531495,0.5695644,0,0.0,0.0,0.0,0.0,0.03383461,0,0,0.0,0.0,0,0,21.0,0.0,0.0,4490.256410256411,3959.48717948718,4410.256410256411,4457.435897435898,4334.358974358975,4628.717948717949,4536.923076923077,4489.2307692307695,4458.974358974359,4777.948717948719,4443.076923076924,4387.179487179487,4212.307692307693,4473.846153846154
1939.8624,0.820331,0.5339277,0.31712085,0.5678291,0,0.0,0.0,0.0,0.0,0.033552,0,0,0.0,0.0,0,0,53.0,0.0,0.0,4552.307692307693,4008.205128205129,4411.794871794872,4442.051282051282,4321.025641025642,4632.307692307693,4521.025641025642,4486.666666666667,4428.205128205129,4706.666666666667,4389.2307692307695,4182.564102564103,4101.538461538462,4409.2307692307695
1940.1125,0.820331,0.5339277,0.31712085,0.5678291,0,0.0,0.0,0.0,0.0,0.60173994,0,0,0.0,0.0,0,0,85.0,0.0,507.0,4556.410256410257,3989.23076923077,4433.846153846154,4434.871794871796,4322.051282051282,4632.307692307693,4472.307692307693,4430.256410256411,4404.615384615385,4673.846153846154,4358.974358974359,4083.589743589744,4107.179487179487,4419.48717948718
1940.3628,0.8166423,0.5390043,0.3187464,0.56626713,0,0.0,0.0,0.0,0.0,0.0011404816,0,0,0.0,0.0,0,0,117.0,0.0,507.0,4585.641025641026,3971.7948717948725,4518.974358974359,4463.589743589744,4333.846153846154,4639.48717948718,4382.564102564103,4403.589743589744,4420.000000000001,4717.948717948719,4397.948717948719,4108.205128205129,4175.384615384616,4433.333333333334
1940.613,0.8166423,0.5390043,0.3187464,0.56626713,0,0.0,0.0,0.0,0.0,0.002713271,0,0,0.0,0.0,0,0,20.0,0.0,0.0,4614.871794871796,3942.564102564103,4612.820512820514,4523.589743589744,4322.051282051282,4623.589743589744,4385.128205128206,4367.179487179487,4427.179487179487,4767.179487179488,4425.641025641026,4132.820512820514,4234.871794871796,4441.538461538462
1940.8633,0.7589215,0.5435733,0.3267073,0.56740415,0,0.0,0.0,0.0,0.0,0.020050516,0,0,0.0,0.0,0,0,52.0,0.0,0.0,4585.641025641026,3919.48717948718,4626.153846153847,4538.974358974359,4303.076923076924,4601.538461538462,4392.307692307693,4348.205128205129,4431.282051282052,4721.538461538462,4416.923076923077,4125.128205128206,4257.435897435898,4446.666666666667
1940.9884,0.7589215,0.5435733,0.3267073,0.56740415,0,0.0,0.0,0.0,0.0,0.0,0,0,0.0,0.0,0,0,68.0,0.0,498.0,4588.205128205129,3911.2820512820517,4627.179487179488,4537.435897435898,4293.333333333334,4581.538461538462,4380.000000000001,4325.641025641026,4427.6923076923085,4721.538461538462,4423.076923076924,4154.358974358975,4257.435897435898,4438.461538461539
1941.2385,0.6734663,0.54768544,0.3444165,0.56842726,0,0.0,0.0,0.0,0.0,0.0,0,0,0.0,0.0,0,0,100.0,0.0,473.0,4585.128205128206,3895.3846153846157,4638.461538461539,4538.974358974359,4272.820512820514,4565.128205128206,4412.307692307693,4378.974358974359,4449.2307692307695,4796.923076923077,4469.743589743591,4257.435897435898,4334.871794871796,4437.435897435898
1941.2385,0.6734663,0.54768544,0.3444165,0.56842726,0,0.0,0.0,0.0,0.0,0.0,0,0,0.0,0.0,0,0,100.0,0.0,473.0,4585.128205128206,3895.3846153846157,4638.461538461539,4538.974358974359,4272.820512820514,4565.128205128206,4412.307692307693,4378.974358974359,4449.2307692307695,4796.923076923077,4469.743589743591,4257.435897435898,4334.871794871796,4437.435897435898
1941.739,0.68016475,0.5513863,0.36035463,0.56934786,0,0.0,0.0,0.0,0.0,0.0,0,0,0.0,0.0,0,0,35.0,0.0,0.0,4619.48717948718,3939.48717948718,4644.615384615385,4543.076923076924,4271.282051282052,4563.589743589744,4490.769230769231,4425.128205128206,4465.641025641026,4837.435897435898,4494.358974358975,4320.512820512821,4334.358974358975,4411.794871794872
1941.739,0.68016475,0.5513863,0.36035463,0.56934786,0,0.0,0.0,0.0,0.0,0.0,0,0,0.0,0.0,0,0,35.0,0.0,0.0,4619.48717948718,3939.48717948718,4644.615384615385,4543.076923076924,4271.282051282052,4563.589743589744,4490.769230769231,4425.128205128206,4465.641025641026,4837.435897435898,4494.358974358975,4320.512820512821,4334.358974358975,4411.794871794872
1942.2394,0.7227719,0.60701203,0.37886044,0.5687885,0,0.0,0.0,0.0,0.0,0.0,0,0,0.0,0.0,0,0,99.0,0.0,414.0,4491.282051282052,3865.6410256410263,4326.666666666667,4386.153846153847,4217.948717948719,4511.282051282052,4460.512820512821,4447.6923076923085,4364.102564102564,4626.153846153847,4324.102564102564,4065.1282051282055,3998.461538461539,4346.666666666667
1942.6147,0.7227719,0.60701203,0.37886044,0.5687885,0,0.0,0.0,0.0,0.0,0.009181634,0,0,0.0,0.0,0,0,18.0,0.0,0.0,4364.615384615385,3769.2307692307695,4305.641025641026,4378.974358974359,4369.743589743591,4690.256410256411,4238.974358974359,4249.2307692307695,4293.846153846154,4455.384615384616,4173.846153846154,3932.820512820513,3948.717948717949,4263.076923076924
1942.865,0.8460393,0.65710247,0.39551482,0.5693754,0,0.0,0.0,0.0,0.0,0.012850131,0,0,0.0,0.0,0,0,50.0,0.0,0.0,4485.641025641026,3867.692307692308,4533.846153846154,4518.974358974359,4443.589743589744,4757.948717948719,4271.794871794872,4301.538461538462,4354.358974358975,4635.8974358974365,4292.307692307693,4064.615384615385,4154.871794871796,4307.179487179487
1942.9901,0.8460393,0.65710247,0.39551482,0.5693754,0,0.0,0.0,0.0,0.0,0.044202227,0,0,0.0,0.0,0,1,66.0,0.0,370.0,4500.512820512821,3886.1538461538466,4562.051282051282,4535.384615384616,4437.435897435898,4745.128205128206,4228.205128205129,4269.2307692307695,4347.179487179487,4635.8974358974365,4264.102564102564,3904.1025641025644,4178.461538461539,4284.102564102564
1943.381,0.92462516,0.7021839,0.4105025,0.5622465,0,0.0,0.0,0.0,0.0,0.0,0,0,0.0,0.0,0,0,107.0,0.0,420.0,4552.820512820514,3921.538461538462,4648.717948717949,4575.8974358974365,4424.615384615385,4730.769230769231,4236.410256410257,4240.000000000001,4353.846153846154,4694.358974358975,4297.435897435898,3956.9230769230776,4237.948717948719,4268.205128205129
1943.381,0.92462516,0.7021839,0.4105025,0.5622465,0,0.0,0.0,0.0,0.0,0.0,0,0,0.0,0.0,0,0,114.0,0.0,546.0,4536.410256410257,3908.717948717949,4634.871794871796,4569.2307692307695,4418.461538461539,4720.000000000001,4230.256410256411,4220.000000000001,4344.615384615385,4685.641025641026,4295.384615384616,3858.461538461539,4228.717948717949,4277.435897435898
1943.7563,0.91846865,0.7427572,0.42398983,0.552128,0,0.0,0.0,0.0,0.0,0.0,0,0,0.0,0.0,0,0,33.0,0.0,0.0,4551.794871794872,3889.7435897435903,4646.153846153847,4575.384615384616,4371.282051282052,4672.307692307693,4323.589743589744,4283.076923076924,4376.923076923077,4804.615384615386,4388.717948717949,4043.076923076924,4323.076923076924,4378.974358974359
1943.7563,0.91846865,0.7427572,0.42398983,0.552128,0,0.0,0.0,0.0,0.0,0.0,0,0,0.0,0.0,0,0,33.0,0.0,0.0,4551.794871794872,3889.7435897435903,4646.153846153847,4575.384615384616,4371.282051282052,4672.307692307693,4323.589743589744,4283.076923076924,4376.923076923077,4804.615384615386,4388.717948717949,4043.076923076924,4323.076923076924,4378.974358974359
1944.2568,0.9029967,0.77927315,0.4429939,0.5398497,0,0.0,0.0,0.0,0.0,0.0,0,0,0.0,0.0,0,0,97.0,0.0,508.0,4597.435897435898,3870.7692307692314,4633.333333333334,4575.8974358974365,4394.871794871796,4703.589743589744,4394.871794871796,4348.205128205129,4416.410256410257,4838.974358974359,4474.871794871796,4329.743589743591,4354.871794871796,4423.076923076924
1944.2568,0.9029967,0.77927315,0.4429939,0.5398497,0,0.0,0.0,0.0,0.0,0.0,0,0,0.0,0.0,0,0,97.0,0.0,508.0,4597.435897435898,3870.7692307692314,4633.333333333334,4575.8974358974365,4394.871794871796,4703.589743589744,4394.871794871796,4348.205128205129,4416.410256410257,4838.974358974359,4474.871794871796,4329.743589743591,4354.871794871796,4423.076923076924
1944.7572,0.859167,0.81213754,0.4642935,0.5293552,0,0.0,0.0,0.0,0.0,0.0,0,0,0.0,0.0,0,0,32.0,0.0,0.0,4706.666666666667,3921.0256410256416,4642.564102564103,4580.512820512821,4355.384615384616,4651.794871794872,4483.076923076924,4442.564102564103,4450.256410256411,4893.846153846154,4527.179487179488,4324.102564102564,4388.717948717949,4411.794871794872
1944.7572,0.859167,0.81213754,0.4642935,0.5293552,0,0.0,0.0,0.0,0.0,0.0,0,0,0.0,0.0,0,0,32.0,0.0,0.0,4706.666666666667,3921.0256410256416,4642.564102564103,4580.512820512821,4355.384615384616,4651.794871794872,4483.076923076924,4442.564102564103,4450.256410256411,4893.846153846154,4527.179487179488,4324.102564102564,4388.717948717949,4411.794871794872
1945.3828,0.96606696,0.84171546,0.48960245,0.5119869,0,0.0,0.0,0.0,0.006858266,0.0,0,0,0.0,0.0,0,0,112.0,0.0,475.0,4749.743589743591,3991.2820512820517,4612.307692307693,4607.179487179488,4362.051282051282,4658.461538461539,4649.743589743591,4617.948717948719,4456.410256410257,4879.48717948718,4545.641025641026,4349.743589743591,4257.435897435898,4410.256410256411
1945.6329,0.96606696,0.84171546,0.48960245,0.5119869,0,0.0,0.0,0.0,0.0,0.12439921,0,0,0.0,0.0,0,0,15.0,0.0,420.0,4769.743589743591,3975.8974358974365,4559.48717948718,4566.153846153847,4333.846153846154,4630.256410256411,4609.2307692307695,4593.333333333334,4395.8974358974365,4821.538461538462,4509.743589743591,4317.948717948719,4221.538461538462,4394.871794871796
1945.8832,1.0,0.8683356,0.51237476,0.4917042,0,0.0,0.0,0.0,0.0,0.16659334,0,0,0.0,0.0,0,0,47.0,0.0,0.0,4747.6923076923085,3981.538461538462,4521.538461538462,4537.435897435898,4305.128205128206,4595.8974358974365,4531.282051282052,4543.589743589744,4377.948717948719,4772.820512820514,4467.179487179487,4304.102564102564,4183.589743589744,4382.051282051282
1946.1334,1.0,0.8683356,0.51237476,0.4917042,0,0.0,0.0,0.0,0.0,0.0,0,0,0.0,0.0,0,0,79.0,0.0,420.0,4703.076923076924,3957.9487179487182,4472.307692307693,4497.948717948719,4285.128205128206,4578.461538461539,4541.538461538462,4512.820512820514,4401.538461538462,4742.564102564103,4433.333333333334,4272.307692307693,4151.282051282052,4375.8974358974365
1946.2585,1.0,0.8922937,0.5267188,0.4734526,0,0.0,0.0,0.0,0.0,0.0,0,0,0.0,0.0,0,0,95.0,0.0,420.0,4707.179487179488,3969.2307692307695,4498.974358974359,4504.102564102564,4284.102564102564,4581.538461538462,4531.282051282052,4517.948717948719,4418.974358974359,4769.2307692307695,4448.717948717949,4286.153846153847,4173.333333333334,4360.512820512821
1946.2585,1.0,0.8922937,0.5267188,0.4734526,0,0.0,0.0,0.0,0.0,0.0,0,0,0.0,0.0,0,0,95.0,0.0,420.0,4707.179487179488,3969.2307692307695,4498.974358974359,4504.102564102564,4284.102564102564,4581.538461538462,4531.282051282052,4517.948717948719,4418.974358974359,4769.2307692307695,4448.717948717949,4286.153846153847,4173.333333333334,4360.512820512821
1946.7589,0.9734358,0.913856,0.525399,0.46340707,0,0.0,0.0,0.0,0.0,0.0,0,0,0.0,0.0,0,0,30.0,0.0,0.0,4698.974358974359,3934.8717948717954,4515.8974358974365,4512.307692307693,4384.615384615385,4700.512820512821,4452.307692307693,4437.435897435898,4435.8974358974365,4802.051282051282,4442.051282051282,4312.820512820514,4269.74358974359,4392.820512820514
1946.7589,0.9734358,0.913856,0.525399,0.46340707,0,0.0,0.0,0.0,0.0,0.0,0,0,0.0,0.0,0,0,30.0,0.0,0.0,4698.974358974359,3934.8717948717954,4515.8974358974365,4512.307692307693,4384.615384615385,4700.512820512821,4452.307692307693,4437.435897435898,4435.8974358974365,4802.051282051282,4442.051282051282,4312.820512820514,4269.74358974359,4392.820512820514
1947.3845,0.8713621,0.9796396,0.51539433,0.4568167,0,0.0,0.0,0.0,0.0,0.3858705,0,0,0.0,0.0,0,0,107.0,0.0,420.0,4734.358974358975,3909.2307692307695,4541.025641025642,4498.461538461539,4306.666666666667,4599.48717948718,4456.923076923077,4434.871794871796,4445.128205128206,4739.48717948718,4428.717948717949,4330.769230769231,4307.6923076923085,4351.282051282052
1947.6346,0.8713621,0.9796396,0.51539433,0.4568167,0,0.0,0.0,0.0,0.0,0.12519641,0,0,0.0,0.0,0,0,13.0,0.0,508.0,4700.512820512821,3912.820512820513,4559.48717948718,4506.666666666667,4280.000000000001,4575.384615384616,4503.589743589744,4444.615384615385,4442.564102564103,4752.820512820514,4430.769230769231,4374.358974358975,4291.794871794872,4360.512820512821
1947.7598,0.7684631,1.0,0.50638825,0.45143506,0,0.0,0.0,0.0,0.0,0.0,0,0,0.0,0.0,0,0,29.0,0.0,0.0,4676.923076923077,3892.307692307693,4533.333333333334,4485.641025641026,4281.025641025642,4575.8974358974365,4472.820512820514,4415.384615384616,4428.717948717949,4715.384615384616,4362.051282051282,4384.615384615385,4264.615384615385,4332.820512820514
1947.7598,0.7684631,1.0,0.50638825,0.45143506,0,0.0,0.0,0.0,0.0,0.0,0,0,0.0,0.0,0,0,29.0,0.0,0.0,4676.923076923077,3892.307692307693,4533.333333333334,4485.641025641026,4281.025641025642,4575.8974358974365,4472.820512820514,4415.384615384616,4428.717948717949,4715.384615384616,4362.051282051282,4384.615384615385,4264.615384615385,4332.820512820514
1948.2524,0.67962635,1.0,0.49745697,0.44824865,0,0.0,0.0,0.0,0.0,0.0,0,0,0.0,0.0,0,0,93.0,0.0,508.0,4678.974358974359,3918.9743589743593,4550.769230769231,4466.153846153847,4233.333333333334,4529.743589743591,4474.358974358975,4472.307692307693,4443.589743589744,4730.769230769231,4391.282051282052,4400.512820512821,4298.974358974359,4312.820512820514
1948.6277,0.67962635,1.0,0.49745697,0.44824865,0,0.0,0.0,0.0,0.0,0.22235422,0,0,0.0,0.0,0,0,12.0,0.0,475.0,4691.282051282052,3949.7435897435903,4582.051282051282,4464.615384615385,4220.000000000001,4508.717948717949,4485.128205128206,4480.512820512821,4449.2307692307695,4747.6923076923085,4392.820512820514,4395.384615384616,4267.6923076923085,4301.538461538462
1948.8779,0.621061,1.0,0.49133536,0.44715744,0,0.0,0.0,0.0,0.0,0.4979736,0,0,0.0,0.0,0,0,44.0,0.0,0.0,4719.48717948718,3972.820512820513,4577.948717948719,4461.538461538462,4230.769230769231,4523.076923076924,4504.102564102564,4503.589743589744,4467.6923076923085,4773.333333333334,4423.076923076924,4408.717948717949,4291.794871794872,4340.000000000001
1949.1282,0.621061,1.0,0.49133536,0.44715744,0,0.0,0.0,0.0,0.0,0.24055462,0,0,0.0,0.0,0,0,76.0,0.0,475.0,4710.256410256411,3966.666666666667,4508.205128205129,4445.128205128206,4233.846153846154,4525.128205128206,4534.358974358975,4531.794871794872,4436.410256410257,4741.538461538462,4418.974358974359,4402.051282051282,4196.923076923077,4386.666666666667
1949.3784,0.6224759,0.99619263,0.48676264,0.44617763,0,0.0,0.0,0.0,0.0,0.024077766,0,0,0.0,0.0,0,0,108.0,0.0,475.0,4633.333333333334,3951.2820512820517,4280.512820512821,4375.8974358974365,4215.384615384616,4520.000000000001,4531.282051282052,4558.974358974359,4363.076923076924,4604.102564102564,4327.6923076923085,4224.102564102564,4010.2564102564106,4364.102564102564
1949.6285,0.6224759,0.99619263,0.48676264,0.44617763,0,0.0,0.0,0.0,0.0,0.011416667,0,0,0.0,0.0,0,0,11.0,0.0,420.0,4591.282051282052,3972.307692307693,4308.205128205129,4360.512820512821,4257.948717948719,4565.128205128206,4476.923076923077,4531.794871794872,4324.615384615385,4529.2307692307695,4269.74358974359,4068.717948717949,3987.692307692308,4343.076923076924
1949.8788,0.6562298,0.9492886,0.48452055,0.44352403,0,0.0,0.0,0.0,0.0,0.0,0,0,0.0,0.0,0,0,43.0,0.0,0.0,4567.6923076923085,3946.666666666667,4452.820512820514,4414.358974358975,4310.769230769231,4623.076923076924,4380.000000000001,4434.871794871796,4323.076923076924,4545.128205128206,4234.871794871796,4012.820512820513,4087.692307692308,4323.076923076924
1949.8788,0.6562298,0.9492886,0.48452055,0.44352403,0,0.0,0.0,0.0,0.0,0.0,0,0,0.0,0.0,0,0,43.0,0.0,0.0,4567.6923076923085,3946.666666666667,4452.820512820514,4414.358974358975,4310.769230769231,4623.076923076924,4380.000000000001,4434.871794871796,4323.076923076924,4545.128205128206,4234.871794871796,4012.820512820513,4087.692307692308,4323.076923076924
1950.3793,0.56195486,0.90707505,0.4826767,0.4448953,0,0.0,0.0,0.0,0.036711473,0.0,0,0,0.0,0.0,0,0,107.0,0.0,420.0,4490.256410256411,3879.48717948718,4643.076923076924,4512.820512820514,4400.512820512821,4712.820512820514,4292.307692307693,4269.2307692307695,4370.769230769231,4747.179487179488,4347.179487179487,4392.307692307693,4428.205128205129,4280.512820512821
1950.6295,0.56195486,0.90707505,0.4826767,0.4448953,0,0.0,0.0,0.0,0.0,0.16391225,0,0,0.0,0.0,0,0,10.0,0.0,546.0,4453.846153846154,3904.1025641025644,4639.48717948718,4523.589743589744,4381.538461538462,4690.769230769231,4302.051282051282,4238.461538461539,4369.743589743591,4767.179487179488,4349.2307692307695,4390.769230769231,4396.410256410257,4247.179487179487
1950.8796,0.6157931,0.86908287,0.48101494,0.45047826,0,0.0,0.0,0.0,0.0,0.08233061,0,0,0.0,0.0,0,0,42.0,0.0,0.0,4455.8974358974365,3941.538461538462,4593.333333333334,4505.128205128206,4381.538461538462,4686.153846153847,4304.615384615385,4242.051282051282,4376.923076923077,4765.128205128206,4363.589743589744,4360.000000000001,4376.923076923077,4245.641025641026
1951.0048,0.6157931,0.86908287,0.48101494,0.45047826,0,0.0,0.0,0.0,0.0,0.0,0,0,0.0,0.0,0,0,58.0,0.0,0.0,4486.153846153847,3973.8461538461543,4601.025641025642,4509.2307692307695,4374.871794871796,4685.128205128206,4346.666666666667,4278.461538461539,4396.410256410257,4791.794871794872,4395.8974358974365,4380.000000000001,4378.974358974359,4286.666666666667
1951.255,0.67902976,0.8348898,0.48072264,0.45553082,0,0.0,0.0,0.0,0.0,0.0,0,0,0.0,0.0,0,0,90.0,0.0,546.0,4644.615384615385,4080.0000000000005,4680.512820512821,4550.256410256411,4323.076923076924,4640.000000000001,4406.153846153847,4327.6923076923085,4414.358974358975,4823.589743589744,4409.2307692307695,4380.512820512821,4307.179487179487,4322.564102564103
1951.255,0.67902976,0.8348898,0.48072264,0.45553082,0,0.0,0.0,0.0,0.0,0.0,0,0,0.0,0.0,0,0,90.0,0.0,546.0,4644.615384615385,4080.0000000000005,4680.512820512821,4550.256410256411,4323.076923076924,4640.000000000001,4406.153846153847,4327.6923076923085,4414.358974358975,4823.589743589744,4409.2307692307695,4380.512820512821,4307.179487179487,4322.564102564103
1951.7554,0.77755535,0.80411613,0.4813826,0.46007898,0,0.0,0.0,0.0,0.0,0.0,0,0,0.0,0.0,0,0,25.0,0.0,0.0,4876.410256410257,4133.333333333334,4781.025641025642,4617.948717948719,4330.769230769231,4636.410256410257,4594.871794871796,4498.974358974359,4489.743589743591,4961.025641025642,4551.794871794872,4525.128205128206,4438.974358974359,4467.6923076923085
1952.1307,0.77755535,0.80411613,0.4813826,0.46007898,0,0.0,0.0,0.0,0.0,0.03986293,0,0,0.0,0.0,0,0,73.0,0.0,515.0,4827.179487179488,4055.8974358974365,4640.512820512821,4524.615384615385,4346.666666666667,4663.076923076924,4678.461538461539,4634.358974358975,4475.8974358974365,4926.666666666667,4553.333333333334,4520.512820512821,4380.000000000001,4531.794871794872
1952.381,0.7192524,0.7764198,0.4810485,0.46583632,0,0.0,0.0,0.0,0.0,0.04630161,0,0,0.0,0.0,0,0,105.0,0.0,506.0,4729.743589743591,4033.333333333334,4547.6923076923085,4444.615384615385,4361.538461538462,4681.538461538462,4658.461538461539,4627.6923076923085,4476.410256410257,4892.820512820514,4540.512820512821,4439.48717948718,4318.461538461539,4549.2307692307695
1952.6312,0.7192524,0.7764198,0.4810485,0.46583632,0,0.0,0.0,0.0,0.0,0.26444948,0,0,0.0,0.0,0,0,8.0,0.0,389.0,4714.871794871796,4049.7435897435903,4578.461538461539,4471.282051282052,4372.307692307693,4687.179487179488,4616.410256410257,4600.000000000001,4495.8974358974365,4940.000000000001,4564.102564102564,4448.205128205129,4365.128205128206,4600.000000000001
1952.8813,0.7393673,0.7514931,0.47987893,0.47499815,0,0.0,0.0,0.0,0.0,0.009101995,0,0,0.0,0.0,0,0,40.0,0.0,0.0,4746.666666666667,4048.717948717949,4638.461538461539,4505.128205128206,4356.410256410257,4668.717948717949,4603.076923076924,4559.48717948718,4514.871794871796,4976.923076923077,4587.6923076923085,4514.871794871796,4401.538461538462,4626.666666666667
1953.1316,0.7393673,0.7514931,0.47987893,0.47499815,0,0.0,0.0,0.0,0.0,0.06387301,0,0,0.0,0.0,0,0,72.0,0.0,389.0,4827.179487179488,4081.0256410256416,4634.871794871796,4528.205128205129,4359.48717948718,4666.153846153847,4591.794871794872,4561.538461538462,4535.384615384616,5011.794871794872,4653.846153846154,4562.564102564103,4404.615384615385,4605.128205128206
1953.3818,0.705055,0.7290591,0.4806163,0.4888195,0,0.0,0.0,0.0,0.0,0.4845098,0,0,0.0,0.0,0,0,104.0,0.0,473.0,4828.205128205129,4094.8717948717954,4587.179487179488,4514.358974358975,4347.179487179487,4655.384615384616,4607.179487179488,4543.076923076924,4510.769230769231,4926.666666666667,4574.871794871796,4466.153846153847,4286.666666666667,4539.48717948718
1953.6321,0.705055,0.7290591,0.4806163,0.4888195,0,0.0,0.0,0.0,0.0,0.04099501,0,0,0.0,0.0,0,0,7.0,0.0,484.0,4848.717948717949,4101.025641025642,4529.2307692307695,4491.282051282052,4348.205128205129,4654.358974358975,4594.871794871796,4558.461538461539,4503.589743589744,4855.384615384616,4488.205128205129,4395.8974358974365,4196.410256410257,4529.743589743591
1953.8822,0.70108616,0.7088685,0.47948492,0.5059511,0,0.0,0.0,0.0,0.0,0.34628025,0,0,0.0,0.0,0,0,39.0,0.0,0.0,4871.794871794872,4114.358974358975,4556.923076923077,4506.666666666667,4325.128205128206,4638.461538461539,4547.6923076923085,4511.794871794872,4496.410256410257,4818.461538461539,4475.8974358974365,4334.358974358975,4214.871794871796,4509.743589743591
1954.1324,0.70108616,0.7088685,0.47948492,0.5059511,0,0.0,0.0,0.0,0.0,0.0020213525,0,0,0.0,0.0,0,0,71.0,0.0,484.0,4864.102564102564,4115.8974358974365,4596.923076923077,4540.000000000001,4340.512820512821,4657.435897435898,4530.256410256411,4456.923076923077,4501.538461538462,4841.025641025642,4471.794871794872,4360.512820512821,4260.512820512821,4526.153846153847
1954.3827,0.6499617,0.71319115,0.4750701,0.52602327,0,0.0,0.0,0.0,0.0,0.05339273,0,0,0.0,0.0,0,0,103.0,0.0,413.0,4890.256410256411,4105.641025641026,4634.871794871796,4550.769230769231,4350.256410256411,4664.615384615386,4540.512820512821,4482.051282051282,4515.384615384616,4913.333333333334,4559.48717948718,4386.666666666667,4368.205128205129,4573.333333333334
1954.6329,0.6499617,0.71319115,0.4750701,0.52602327,0,0.0,0.0,0.0,0.0,0.88401604,0,0,0.0,0.0,0,0,6.0,0.0,556.0,4873.846153846154,4122.051282051282,4682.051282051282,4567.179487179488,4345.641025641026,4651.282051282052,4526.666666666667,4468.717948717949,4511.794871794872,4878.461538461539,4552.820512820514,4373.333333333334,4318.461538461539,4535.384615384616
1954.883,0.61017954,0.74305516,0.47109482,0.5461751,0,0.0,0.0,0.0,0.0,0.0,0,0,0.0,0.0,0,0,38.0,0.0,0.0,4795.8974358974365,4124.615384615385,4652.307692307693,4543.589743589744,4330.256410256411,4636.410256410257,4541.025641025642,4470.769230769231,4503.076923076924,4858.461538461539,4526.666666666667,4414.871794871796,4303.076923076924,4556.923076923077
1955.1333,0.61017954,0.74305516,0.47109482,0.5461751,0,0.0,0.0,0.0,0.0,0.33598295,0,0,0.0,0.0,0,0,70.0,0.0,556.0,4731.794871794872,4136.410256410257,4620.512820512821,4524.102564102564,4337.948717948719,4643.076923076924,4575.8974358974365,4511.282051282052,4505.641025641026,4869.2307692307695,4536.410256410257,4435.8974358974365,4294.358974358975,4549.743589743591
1955.3835,0.5424386,0.7439465,0.47245514,0.5643119,0,0.0,0.0,0.0,0.0,0.16875847,0,0,0.0,0.0,0,0,102.0,0.0,546.0,4761.025641025642,4249.2307692307695,4749.743589743591,4630.769230769231,4434.358974358975,4743.589743589744,4737.435897435898,4705.641025641026,4589.2307692307695,5060.000000000001,4688.205128205129,4573.333333333334,4465.128205128206,4593.333333333334
1955.6338,0.5424386,0.7439465,0.47245514,0.5643119,0,0.0,0.0,0.0,0.0,0.23015921,0,0,0.0,0.0,0,0,5.0,0.0,511.0,4732.820512820514,4207.6923076923085,4742.051282051282,4636.923076923077,4415.384615384616,4725.128205128206,4722.051282051282,4675.8974358974365,4569.2307692307695,5016.410256410257,4647.179487179488,4547.179487179488,4400.512820512821,4567.6923076923085
1955.8839,0.67799103,0.7448242,0.4793294,0.5790773,0,0.0,0.0,0.0,0.0,0.12409916,0,0,0.0,0.0,0,0,37.0,0.0,0.0,4797.435897435898,4207.179487179487,4729.2307692307695,4621.025641025642,4415.8974358974365,4717.435897435898,4774.358974358975,4712.307692307693,4597.948717948719,5061.025641025642,4670.256410256411,4572.820512820514,4422.564102564103,4603.589743589744
1956.1342,0.67799103,0.7448242,0.4793294,0.5790773,0,0.0,0.0,0.0,0.0,0.0,0,0,0.0,0.0,0,0,69.0,0.0,511.0,4751.282051282052,4169.2307692307695,4689.2307692307695,4584.102564102564,4375.384615384616,4672.307692307693,4746.666666666667,4680.000000000001,4575.8974358974365,5005.128205128206,4613.846153846154,4478.974358974359,4330.769230769231,4566.666666666667
1956.2593,0.7904088,0.74561405,0.47776896,0.5852538,0,0.0,0.0,0.0,0.0,0.0,0,0,0.0,0.0,0,0,85.0,0.0,503.0,4804.615384615386,4208.205128205129,4782.564102564103,4656.410256410257,4434.871794871796,4730.256410256411,4815.8974358974365,4740.000000000001,4611.794871794872,5046.666666666667,4655.384615384616,4560.512820512821,4367.6923076923085,4635.384615384616
1956.2593,0.7904088,0.74561405,0.47776896,0.5852538,0,0.0,0.0,0.0,0.0,0.0,0,0,0.0,0.0,0,0,85.0,0.0,503.0,4804.615384615386,4208.205128205129,4782.564102564103,4656.410256410257,4434.871794871796,4730.256410256411,4815.8974358974365,4740.000000000001,4611.794871794872,5046.666666666667,4655.384615384616,4560.512820512821,4367.6923076923085,4635.384615384616
1956.7598,0.8436008,0.746325,0.47636235,0.59044504,0,0.0,0.0,0.0,0.0,0.0,0,0,0.0,0.0,0,0,20.0,0.0,0.0,4637.435897435898,4046.1538461538466,4595.384615384616,4553.846153846154,4464.615384615385,4770.769230769231,4667.179487179488,4624.615384615385,4517.435897435898,4838.974358974359,4492.820512820514,4450.769230769231,4174.358974358975,4528.205128205129
1956.7598,0.8436008,0.746325,0.47636235,0.59044504,0,0.0,0.0,0.0,0.0,0.0,0,0,0.0,0.0,0,0,20.0,0.0,0.0,4637.435897435898,4046.1538461538466,4595.384615384616,4553.846153846154,4464.615384615385,4770.769230769231,4667.179487179488,4624.615384615385,4517.435897435898,4838.974358974359,4492.820512820514,4450.769230769231,4174.358974358975,4528.205128205129
1957.2601,0.7938578,0.7469649,0.47595423,0.58854675,0,0.0,0.0,0.0,0.0,0.0,0,0,0.0,0.0,0,0,84.0,0.0,469.0,4764.102564102564,4123.589743589744,4713.333333333334,4641.025641025642,4427.179487179487,4731.794871794872,4666.153846153847,4609.2307692307695,4553.333333333334,4930.256410256411,4551.282051282052,4511.794871794872,4288.205128205129,4593.333333333334
1957.2601,0.7938578,0.7469649,0.47595423,0.58854675,0,0.0,0.0,0.0,0.0,0.0,0,0,0.0,0.0,0,0,84.0,0.0,469.0,4764.102564102564,4123.589743589744,4713.333333333334,4641.025641025642,4427.179487179487,4731.794871794872,4666.153846153847,4609.2307692307695,4553.333333333334,4930.256410256411,4551.282051282052,4511.794871794872,4288.205128205129,4593.333333333334
1957.8857,0.74623907,0.7475407,0.47558463,0.5836609,0,0.0,0.0,0.0,0.0,0.084826574,0,0,0.0,0.0,0,0,35.0,0.0,0.0,4845.128205128206,4083.076923076924,4815.384615384616,4723.589743589744,4424.102564102564,4715.8974358974365,4752.820512820514,4666.153846153847,4596.923076923077,5052.307692307693,4650.769230769231,4557.948717948719,4430.256410256411,4618.974358974359
1958.1359,0.74623907,0.7475407,0.47558463,0.5836609,0,0.0,0.0,0.0,0.0,0.13632014,0,0,0.0,0.0,0,0,67.0,0.0,438.0,4826.153846153847,4077.435897435898,4816.923076923077,4751.794871794872,4451.282051282052,4740.512820512821,4791.794871794872,4701.538461538462,4602.564102564103,5068.717948717949,4683.076923076924,4519.48717948718,4444.102564102564,4604.615384615385
1958.261,0.7366652,0.748059,0.4752497,0.5792632,0,0.0,0.0,0.0,0.0,0.11763931,0,0,0.0,0.0,0,0,83.0,0.0,413.0,4864.102564102564,4057.9487179487182,4756.410256410257,4728.717948717949,4437.435897435898,4725.128205128206,4778.974358974359,4695.8974358974365,4588.717948717949,5029.2307692307695,4657.948717948719,4451.794871794872,4388.205128205129,4614.871794871796
1958.3861,0.7366652,0.748059,0.4752497,0.5792632,0,0.0,0.0,0.0,0.0,0.0,0,0,0.0,0.0,0,0,99.0,0.0,413.0,4908.717948717949,4022.0512820512827,4694.358974358975,4689.743589743591,4427.179487179487,4716.923076923077,4773.333333333334,4702.051282051282,4570.256410256411,4986.666666666667,4631.282051282052,4400.512820512821,4325.128205128206,4611.282051282052
1958.7615,0.7275295,0.8625306,0.4761664,0.57530504,0,0.0,0.0,0.0,0.0,0.11974859,0,0,0.0,0.0,0,0,18.0,0.0,0.0,4874.358974358975,4028.205128205129,4615.384615384616,4663.589743589744,4432.820512820514,4732.820512820514,4735.384615384616,4708.205128205129,4536.410256410257,4906.153846153847,4591.282051282052,4292.820512820514,4243.076923076924,4604.102564102564
1959.0117,0.7275295,0.8625306,0.4761664,0.57530504,0,0.0,0.0,0.0,0.0,0.0,0,0,0.0,0.0,0,0,50.0,0.0,0.0,4843.589743589744,4010.2564102564106,4603.076923076924,4644.102564102564,4425.128205128206,4724.102564102564,4612.820512820514,4615.384615384616,4505.128205128206,4838.461538461539,4529.743589743591,4356.923076923077,4218.461538461539,4597.948717948719
1959.387,0.76847386,0.9501652,0.47923625,0.57530236,0,0.0,0.0,0.0,0.0,0.031045157,0,0,0.0,0.0,0,0,93.0,0.0,469.0,4752.820512820514,4012.307692307693,4628.205128205129,4624.615384615385,4405.641025641026,4704.102564102564,4524.102564102564,4512.307692307693,4493.333333333334,4830.256410256411,4506.666666666667,4229.2307692307695,4226.666666666667,4604.615384615385
1959.5121,0.76847386,0.9501652,0.47923625,0.57530236,0,0.0,0.0,0.0,0.0,0.10684602,0,0,0.0,0.0,0,0,114.0,0.0,546.0,4694.871794871796,4007.692307692308,4661.538461538462,4645.641025641026,4409.2307692307695,4713.333333333334,4508.717948717949,4486.666666666667,4494.358974358975,4849.743589743591,4520.000000000001,4203.076923076924,4256.923076923077,4602.051282051282
1959.7623,0.71667206,0.953711,0.4819964,0.57529956,0,0.0,0.0,0.0,0.0,0.29747146,0,0,0.0,0.0,0,0,17.0,0.0,0.0,4674.358974358975,3995.8974358974365,4721.025641025642,4671.282051282052,4404.615384615385,4705.128205128206,4517.948717948719,4481.538461538462,4509.743589743591,4899.48717948718,4562.051282051282,4218.974358974359,4364.615384615385,4633.333333333334
1960.0126,0.71667206,0.953711,0.4819964,0.57529956,0,0.0,0.0,0.0,0.0,0.39003375,0,0,0.0,0.0,0,0,49.0,0.0,0.0,4660.000000000001,4023.076923076924,4711.282051282052,4681.538461538462,4398.461538461539,4693.846153846154,4528.717948717949,4490.256410256411,4507.179487179488,4914.358974358975,4571.282051282052,4226.153846153847,4360.000000000001,4602.051282051282
1960.2627,0.6820214,0.93181074,0.4844778,0.579871,0,0.0,0.0,0.0,0.0,0.008478005,0,0,0.0,0.0,0,0,81.0,0.0,509.0,4617.948717948719,3996.9230769230776,4566.666666666667,4591.282051282052,4366.153846153847,4666.666666666667,4543.076923076924,4498.974358974359,4467.179487179487,4819.48717948718,4509.2307692307695,4171.282051282052,4251.794871794872,4570.769230769231
1960.6068,0.6820214,0.93181074,0.4844778,0.579871,0,0.0,0.0,0.0,0.0,0.016035842,0,0,0.0,0.0,0,0,125.0,0.0,509.0,4685.641025641026,4102.564102564103,4653.333333333334,4644.102564102564,4507.179487179488,4813.846153846154,4689.743589743591,4654.358974358975,4511.282051282052,4902.564102564103,4598.461538461539,4221.025641025642,4307.179487179487,4623.076923076924
1960.7944,0.741195,0.9123799,0.4758598,0.58398914,0,0.0,0.0,0.0,0.0,0.0,0,0,0.0,0.0,0,0,20.0,0.0,0.0,4669.2307692307695,4088.205128205129,4655.384615384616,4632.820512820514,4504.102564102564,4813.846153846154,4632.820512820514,4630.256410256411,4514.871794871796,4903.589743589744,4595.8974358974365,4227.6923076923085,4310.256410256411,4616.410256410257
1960.7944,0.741195,0.9123799,0.4758598,0.58398914,0,0.0,0.0,0.0,0.0,0.0,0,0,0.0,0.0,0,0,20.0,0.0,0.0,4669.2307692307695,4088.205128205129,4655.384615384616,4632.820512820514,4504.102564102564,4813.846153846154,4632.820512820514,4630.256410256411,4514.871794871796,4903.589743589744,4595.8974358974365,4227.6923076923085,4310.256410256411,4616.410256410257
1961.2635,0.72603345,0.89489216,0.46158668,0.5876906,0,0.0,0.0,0.0,0.0,0.0,0,0,0.0,0.0,0,0,80.0,0.0,469.0,4673.333333333334,4040.5128205128212,4680.512820512821,4653.846153846154,4463.589743589744,4771.794871794872,4477.435897435898,4510.256410256411,4517.948717948719,4940.000000000001,4592.307692307693,4305.128205128206,4395.384615384616,4606.153846153847
1961.2635,0.72603345,0.89489216,0.46158668,0.5876906,0,0.0,0.0,0.0,0.0,0.0,0,0,0.0,0.0,0,0,80.0,0.0,469.0,4673.333333333334,4040.5128205128212,4680.512820512821,4653.846153846154,4463.589743589744,4771.794871794872,4477.435897435898,4510.256410256411,4517.948717948719,4940.000000000001,4592.307692307693,4305.128205128206,4395.384615384616,4606.153846153847
1961.7953,0.7369379,0.8791532,0.4487578,0.5887263,0,0.0,0.0,0.0,0.0,0.0,0,0,0.0,0.0,0,0,19.0,0.0,0.0,4636.410256410257,3950.7692307692314,4636.923076923077,4665.128205128206,4486.153846153847,4797.435897435898,4470.769230769231,4437.948717948719,4508.205128205129,4955.8974358974365,4598.461538461539,4302.051282051282,4402.051282051282,4606.666666666667
1961.7953,0.7369379,0.8791532,0.4487578,0.5887263,0,0.0,0.0,0.0,0.0,0.0,0,0,0.0,0.0,0,0,19.0,0.0,0.0,4636.410256410257,3950.7692307692314,4636.923076923077,4665.128205128206,4486.153846153847,4797.435897435898,4470.769230769231,4437.948717948719,4508.205128205129,4955.8974358974365,4598.461538461539,4302.051282051282,4402.051282051282,4606.666666666667
1962.2958,0.70782006,0.86498815,0.43721178,0.5850775,0,0.0,0.0,0.0,0.0,0.0,0,0,0.0,0.0,0,0,83.0,0.0,411.0,4596.410256410257,3987.692307692308,4401.538461538462,4531.282051282052,4457.948717948719,4783.589743589744,4532.820512820514,4501.025641025642,4426.666666666667,4742.051282051282,4447.6923076923085,4132.307692307693,4050.2564102564106,4472.307692307693
1962.5146,0.70782006,0.86498815,0.43721178,0.5850775,0,0.0,0.0,0.0,0.0,0.03362383,0,0,0.0,0.0,0,0,111.0,0.0,411.0,4653.333333333334,4003.076923076924,4506.666666666667,4597.435897435898,4515.8974358974365,4836.410256410257,4512.820512820514,4518.461538461539,4445.128205128206,4787.179487179488,4472.307692307693,4264.615384615385,4133.846153846154,4573.333333333334
1962.7649,0.7725828,0.85223955,0.42680815,0.58178973,0,0.0,0.0,0.0,0.0,0.01869548,0,0,0.0,0.0,0,0,14.0,0.0,546.0,4814.871794871796,4001.538461538462,4705.641025641026,4717.948717948719,4592.820512820514,4916.923076923077,4475.8974358974365,4467.6923076923085,4474.358974358975,4898.461538461539,4541.538461538462,4349.2307692307695,4283.076923076924,4655.384615384616
1963.0151,0.7725828,0.85223955,0.42680815,0.58178973,0,0.0,0.0,0.0,0.0,0.00819435,0,0,0.0,0.0,0,0,46.0,0.0,0.0,4839.48717948718,3988.205128205129,4795.8974358974365,4757.435897435898,4655.8974358974365,4973.846153846154,4427.6923076923085,4437.948717948719,4509.2307692307695,5008.205128205129,4606.666666666667,4376.410256410257,4445.128205128206,4633.846153846154
1963.2966,0.7235165,0.84076583,0.41744566,0.57883036,0,0.0,0.0,0.0,0.0,0.12797736,0,0,0.0,0.0,0,1,82.0,0.0,543.0,4786.153846153847,3957.435897435898,4845.641025641026,4781.538461538462,4671.794871794872,4984.615384615386,4468.205128205129,4438.461538461539,4534.358974358975,5106.153846153847,4695.8974358974365,4513.333333333334,4580.512820512821,4688.717948717949
1963.5155,0.7235165,0.84076583,0.41744566,0.57883036,0,0.0,0.0,0.0,0.0,0.44573292,0,0,0.0,0.0,0,1,110.0,0.0,543.0,4701.025641025642,3888.205128205129,4757.948717948719,4706.666666666667,4535.8974358974365,4834.871794871796,4403.076923076924,4334.871794871796,4506.153846153847,5004.102564102564,4617.948717948719,4530.256410256411,4505.641025641026,4679.48717948718
1963.7657,0.8466945,0.8304395,0.40901843,0.5761666,0,0.0,0.0,0.0,0.0,0.0,0,0,0.0,0.0,0,0,13.0,0.0,508.0,4666.666666666667,3880.0000000000005,4690.256410256411,4658.461538461539,4448.205128205129,4740.512820512821,4421.025641025642,4347.6923076923085,4491.282051282052,4966.666666666667,4623.076923076924,4531.282051282052,4476.923076923077,4678.974358974359
1963.7657,0.8466945,0.8304395,0.40901843,0.5761666,0,0.0,0.0,0.0,0.0,0.0,0,0,0.0,0.0,0,0,13.0,0.0,508.0,4666.666666666667,3880.0000000000005,4690.256410256411,4658.461538461539,4448.205128205129,4740.512820512821,4421.025641025642,4347.6923076923085,4491.282051282052,4966.666666666667,4623.076923076924,4531.282051282052,4476.923076923077,4678.974358974359
1964.2662,0.79132706,0.82114583,0.40143433,0.573769,0,0.0,0.0,0.0,0.0,0.0,0,0,0.0,0.0,0,0,77.0,0.0,507.0,4643.076923076924,3911.2820512820517,4651.282051282052,4617.435897435898,4315.8974358974365,4601.538461538462,4482.051282051282,4434.871794871796,4480.000000000001,4853.333333333334,4373.846153846154,4463.076923076924,4371.794871794872,4599.48717948718
1964.5164,0.79132706,0.82114583,0.40143433,0.573769,0,0.0,0.0,0.0,0.0,0.0,0,0,0.0,0.018337445,0,0,109.0,0.0,507.0,4686.666666666667,3964.1025641025644,4684.102564102564,4674.871794871796,4361.538461538462,4652.820512820514,4556.923076923077,4551.794871794872,4511.794871794872,4924.102564102564,4504.615384615385,4513.333333333334,4406.666666666667,4652.820512820514
1964.7979,0.83550835,0.81278145,0.39461908,0.5716137,0,0.0,0.0,0.0,0.0,0.0390016,0,0,0.0,0.0,0,0,16.0,0.0,0.0,4673.333333333334,4018.461538461539,4687.6923076923085,4693.846153846154,4379.48717948718,4676.410256410257,4605.641025641026,4616.923076923077,4505.128205128206,4910.769230769231,4553.846153846154,4496.923076923077,4353.333333333334,4632.820512820514
1965.0168,0.83550835,0.81278145,0.39461908,0.5716137,0,0.0,0.0,0.0,0.0,0.054712065,0,0,0.0,0.0,0,0,44.0,0.0,0.0,4631.794871794872,3993.8461538461543,4661.538461538462,4678.461538461539,4347.179487179487,4651.282051282052,4585.641025641026,4562.564102564103,4489.2307692307695,4863.589743589744,4539.48717948718,4409.2307692307695,4298.974358974359,4614.871794871796
1965.2671,0.8502211,0.80525357,0.38848063,0.5696724,0,0.0,0.0,0.0,0.0,0.18383096,0,0,0.0,0.0,0,0,76.0,0.0,470.0,4650.769230769231,3972.307692307693,4720.000000000001,4716.410256410257,4355.384615384616,4655.8974358974365,4592.820512820514,4556.410256410257,4507.6923076923085,4901.538461538462,4588.205128205129,4439.48717948718,4327.6923076923085,4684.615384615386
1965.5172,0.8502211,0.80525357,0.38848063,0.5696724,0,0.0,0.0,0.0,0.0,0.04280989,0,0,0.0,0.0,0,0,108.0,0.0,470.0,4674.358974358975,3947.692307692308,4720.512820512821,4722.051282051282,4341.538461538462,4640.000000000001,4600.512820512821,4534.871794871796,4522.564102564103,4934.871794871796,4613.846153846154,4500.512820512821,4350.769230769231,4693.846153846154
1965.7675,0.76610965,0.8121703,0.38295734,0.567926,0,0.0,0.0,0.0,0.0,0.10837874,0,0,0.0,0.0,0,0,11.0,0.0,411.0,4709.743589743591,4029.7435897435903,4725.128205128206,4721.538461538462,4317.435897435898,4615.8974358974365,4587.6923076923085,4526.666666666667,4533.333333333334,4898.974358974359,4625.641025641026,4576.410256410257,4352.307692307693,4733.333333333334
1965.8926,0.76610965,0.8121703,0.38295734,0.567926,0,0.0,0.0,0.0,0.0,0.0,0,0,0.0,0.0,0,0,27.0,0.0,0.0,4733.333333333334,4073.333333333334,4757.948717948719,4734.358974358975,4328.717948717949,4616.410256410257,4611.794871794872,4553.333333333334,4551.282051282052,4957.948717948719,4675.8974358974365,4637.948717948719,4402.051282051282,4743.076923076924
1966.268,0.7481318,0.825849,0.3779865,0.56635463,0,0.0,0.0,0.0,0.0,0.0,0,0,0.0,0.0,0,0,75.0,0.0,411.0,4684.615384615386,4029.7435897435903,4661.025641025642,4646.153846153847,4292.820512820514,4578.461538461539,4606.666666666667,4568.205128205129,4556.410256410257,4954.871794871796,4640.000000000001,4540.512820512821,4380.512820512821,4711.794871794872
1966.268,0.7481318,0.825849,0.3779865,0.56635463,0,0.0,0.0,0.0,0.0,0.0,0,0,0.0,0.0,0,0,75.0,0.0,411.0,4684.615384615386,4029.7435897435903,4661.025641025642,4646.153846153847,4292.820512820514,4578.461538461539,4606.666666666667,4568.205128205129,4556.410256410257,4954.871794871796,4640.000000000001,4540.512820512821,4380.512820512821,4711.794871794872
1966.7683,0.6567482,0.8296655,0.37351358,0.5649404,0,0.0,0.0,0.0,0.0,0.11656984,0,0,0.0,0.0,0,0,10.0,0.0,542.0,4764.615384615386,4089.7435897435903,4593.333333333334,4601.025641025642,4271.282051282052,4560.512820512821,4646.153846153847,4565.128205128206,4519.48717948718,4861.025641025642,4576.410256410257,4355.384615384616,4248.205128205129,4649.2307692307695
1967.0186,0.6567482,0.8296655,0.37351358,0.5649404,0,0.0,0.0,0.0,0.0,0.07744706,0,0,0.0,0.0,0,0,42.0,0.0,0.0,4768.717948717949,4101.025641025642,4526.153846153847,4554.871794871796,4301.538461538462,4598.974358974359,4560.512820512821,4519.48717948718,4504.615384615385,4807.6923076923085,4520.000000000001,4242.051282051282,4193.846153846154,4602.051282051282
1967.2688,0.6806481,0.84408706,0.36948743,0.5636679,0,0.0,0.0,0.0,0.0,0.0,0,0,0.0,0.0,0,0,74.0,0.0,542.0,4764.615384615386,4121.538461538462,4538.461538461539,4540.000000000001,4283.589743589744,4583.589743589744,4536.410256410257,4512.820512820514,4506.666666666667,4816.923076923077,4480.512820512821,3853.8461538461543,4213.333333333334,4578.461538461539
1967.2688,0.6806481,0.84408706,0.36948743,0.5636679,0,0.0,0.0,0.0,0.0,0.0,0,0,0.0,0.0,0,0,74.0,0.0,542.0,4764.615384615386,4121.538461538462,4538.461538461539,4540.000000000001,4283.589743589744,4583.589743589744,4536.410256410257,4512.820512820514,4506.666666666667,4816.923076923077,4480.512820512821,3853.8461538461543,4213.333333333334,4578.461538461539
1967.8004,0.7072066,0.83420706,0.36587033,0.5625245,0,0.0,0.0,0.0,0.0,0.0,0,0,0.0,0.0,0,0,13.0,0.0,508.0,4718.974358974359,4049.23076923077,4481.538461538462,4523.589743589744,4262.564102564103,4557.435897435898,4509.743589743591,4509.2307692307695,4480.512820512821,4795.8974358974365,4473.846153846154,4014.8717948717954,4140.000000000001,4504.615384615385
1967.8004,0.7072066,0.83420706,0.36587033,0.5625245,0,0.0,0.0,0.0,0.0,0.0,0,0,0.0,0.0,0,0,13.0,0.0,508.0,4718.974358974359,4049.23076923077,4481.538461538462,4523.589743589744,4262.564102564103,4557.435897435898,4509.743589743591,4509.2307692307695,4480.512820512821,4795.8974358974365,4473.846153846154,4014.8717948717954,4140.000000000001,4504.615384615385
1968.2697,0.6571009,0.81332487,0.36261255,0.5614947,0,0.0,0.0,0.0,0.0,0.0,0,0,0.0,0.0,0,0,73.0,0.0,512.0,4658.974358974359,4028.205128205129,4447.179487179487,4510.769230769231,4270.769230769231,4567.179487179488,4465.128205128206,4489.2307692307695,4444.615384615385,4746.153846153847,4370.769230769231,4056.9230769230776,4109.2307692307695,4498.461538461539
1968.2697,0.6571009,0.81332487,0.36261255,0.5614947,0,0.0,0.0,0.0,0.0,0.0,0,0,0.0,0.0,0,0,73.0,0.0,512.0,4658.974358974359,4028.205128205129,4447.179487179487,4510.769230769231,4270.769230769231,4567.179487179488,4465.128205128206,4489.2307692307695,4444.615384615385,4746.153846153847,4370.769230769231,4056.9230769230776,4109.2307692307695,4498.461538461539
1968.77,0.665185,0.77676374,0.35968053,0.5605679,0,0.0,0.0,0.0,0.0,0.0042274497,0,0,0.0,0.0,0,0,8.0,0.0,388.0,4693.846153846154,3991.7948717948725,4627.179487179488,4619.48717948718,4325.128205128206,4613.846153846154,4473.333333333334,4458.974358974359,4477.948717948719,4863.076923076924,4447.179487179487,4257.435897435898,4279.48717948718,4544.615384615385
1969.0203,0.665185,0.77676374,0.35968053,0.5605679,0,0.0,0.0,0.0,0.0,0.077702,0,0,0.0,0.0,0,0,40.0,0.0,0.0,4688.205128205129,3931.2820512820517,4591.794871794872,4585.641025641026,4291.282051282052,4583.589743589744,4447.6923076923085,4413.846153846154,4475.384615384616,4849.743589743591,4423.076923076924,4250.769230769231,4267.6923076923085,4477.948717948719
1969.2705,0.6304202,0.76587796,0.35704213,0.5597339,0,0.0,0.0,0.0,0.0,0.5095201,0,0,0.0,0.0,0,0,72.0,0.0,388.0,4682.051282051282,3922.0512820512827,4597.948717948719,4597.948717948719,4323.589743589744,4613.846153846154,4472.820512820514,4425.641025641026,4475.384615384616,4885.641025641026,4473.333333333334,4304.102564102564,4316.410256410257,4485.641025641026
1969.5208,0.6304202,0.76587796,0.35704213,0.5597339,0,0.0,0.0,0.0,0.0,0.010557419,0,0,0.0,0.0,0,0,104.0,0.0,474.0,4650.256410256411,3908.205128205129,4506.153846153847,4555.8974358974365,4316.410256410257,4617.435897435898,4482.051282051282,4457.948717948719,4442.564102564103,4802.051282051282,4438.461538461539,4232.820512820514,4201.538461538462,4447.179487179487
1969.7709,0.56730264,0.7561705,0.35466725,0.55898327,0,0.0,0.0,0.0,0.0,0.005963829,0,0,0.0,0.0,0,0,7.0,0.0,485.0,4598.461538461539,3878.9743589743593,4407.179487179487,4531.282051282052,4463.076923076924,4795.384615384616,4360.512820512821,4382.564102564103,4393.846153846154,4641.538461538462,4337.948717948719,4145.641025641026,4053.333333333334,4397.948717948719
1969.896,0.56730264,0.7561705,0.35466725,0.55898327,0,0.0,0.0,0.0,0.0,0.0,0,0,0.0,0.0,0,0,23.0,0.0,0.0,4619.48717948718,3908.205128205129,4468.205128205129,4553.846153846154,4450.256410256411,4777.435897435898,4366.666666666667,4396.410256410257,4407.6923076923085,4666.153846153847,4345.641025641026,4184.615384615385,4089.7435897435903,4422.051282051282
1970.2714,0.5936052,0.7474338,0.3525288,0.55830735,0,0.0,0.0,0.0,0.0,0.0,0,0,0.0,0.0,0,0,71.0,0.0,485.0,4474.358974358975,3854.8717948717954,4441.025641025642,4523.076923076924,4473.333333333334,4795.8974358974365,4259.48717948718,4244.102564102564,4395.8974358974365,4678.974358974359,4312.307692307693,4164.102564102564,4114.358974358975,4395.8974358974365
1970.2714,0.5936052,0.7474338,0.3525288,0.55830735,0,0.0,0.0,0.0,0.0,0.0,0,0,0.0,0.0,0,0,71.0,0.0,485.0,4474.358974358975,3854.8717948717954,4441.025641025642,4523.076923076924,4473.333333333334,4795.8974358974365,4259.48717948718,4244.102564102564,4395.8974358974365,4678.974358974359,4312.307692307693,4164.102564102564,4114.358974358975,4395.8974358974365
1970.7717,0.73237264,0.73957074,0.3506047,0.55769897,0,0.0,0.0,0.0,0.0,0.0,0,0,0.0,0.0,0,0,6.0,0.0,559.0,4350.769230769231,3695.3846153846157,4305.641025641026,4455.8974358974365,4521.025641025642,4849.743589743591,4221.538461538462,4142.564102564103,4322.051282051282,4504.102564102564,3734.8717948717954,4036.9230769230776,3952.820512820513,4306.153846153847
1971.022,0.73237264,0.73957074,0.3506047,0.55769897,0,0.0,0.0,0.0,0.0,0.0,0,0,0.0,0.3152874,0,0,38.0,0.0,0.0,4335.8974358974365,3609.7435897435903,4273.846153846154,4450.769230769231,4486.153846153847,4828.717948717949,4151.282051282052,4072.820512820513,4289.2307692307695,4434.871794871796,3395.8974358974365,4042.564102564103,3850.7692307692314,4312.820512820514
1971.3035,0.8544879,0.732494,0.34887642,0.55715215,0,0.0,0.0,0.0,0.0,0.0,0,0,0.0,1.599068E-4,0,0,74.0,0.0,543.0,4422.051282051282,3547.1794871794878,4332.307692307693,4493.846153846154,4492.820512820514,4798.461538461539,4020.5128205128212,3892.820512820513,4264.615384615385,4492.307692307693,3545.1282051282055,4370.769230769231,3875.3846153846157,4327.179487179487
1971.5225,0.8544879,0.732494,0.34887642,0.55715215,0,0.0,0.0,0.0,0.0,0.010770735,0,0,0.0,0.0,0,0,102.0,0.0,543.0,4427.6923076923085,3529.7435897435903,4356.923076923077,4448.717948717949,4389.2307692307695,4690.256410256411,3959.48717948718,3798.461538461539,4263.589743589744,4558.461538461539,3706.1538461538466,4386.153846153847,3888.717948717949,4412.307692307693
1971.7726,0.8725733,0.72612494,0.34732017,0.55665994,0,0.0,0.0,0.0,0.0,0.0,0,0,0.0,0.0,0,0,5.0,0.0,504.0,4409.743589743591,3619.48717948718,4514.358974358975,4520.512820512821,4329.743589743591,4636.410256410257,4032.307692307693,3904.1025641025644,4302.564102564103,4717.435897435898,3979.48717948718,4355.384615384616,4023.589743589744,4380.000000000001
1971.7726,0.8725733,0.72612494,0.34732017,0.55665994,0,0.0,0.0,0.0,0.0,0.0,0,0,0.0,0.0,0,0,5.0,0.0,504.0,4409.743589743591,3619.48717948718,4514.358974358975,4520.512820512821,4329.743589743591,4636.410256410257,4032.307692307693,3904.1025641025644,4302.564102564103,4717.435897435898,3979.48717948718,4355.384615384616,4023.589743589744,4380.000000000001
1972.2731,0.9778645,0.72039276,0.34591955,0.5562172,0,0.0,0.0,0.0,0.0,0.0,0,0,0.0,0.0,0,0,69.0,0.0,504.0,4533.846153846154,3701.0256410256416,4584.615384615385,4619.48717948718,4443.589743589744,4652.820512820514,4224.102564102564,4114.871794871796,4335.8974358974365,4799.48717948718,4124.615384615385,4273.333333333334,4185.641025641026,4445.128205128206
1972.2731,0.9778645,0.72039276,0.34591955,0.5562172,0,0.0,0.0,0.0,0.0,0.0,0,0,0.0,0.0,0,0,69.0,0.0,504.0,4533.846153846154,3701.0256410256416,4584.615384615385,4619.48717948718,4443.589743589744,4652.820512820514,4224.102564102564,4114.871794871796,4335.8974358974365,4799.48717948718,4124.615384615385,4273.333333333334,4185.641025641026,4445.128205128206
1972.7734,0.9624822,0.7152338,0.34465882,0.5558187,0,0.0,0.0,0.0,0.0,0.0,0,0,0.0,0.0,0,0,4.0,0.0,497.0,4470.256410256411,3976.9230769230776,4519.48717948718,4549.2307692307695,4275.384615384616,4519.48717948718,4374.871794871796,4329.2307692307695,4395.8974358974365,5085.128205128206,4013.333333333334,4857.435897435898,4611.282051282052,4495.384615384616
1973.0237,0.9624822,0.7152338,0.34465882,0.5558187,0,0.0,0.0,0.0,0.0,0.0,0,0,0.0,0.4163795,0,0,36.0,0.0,0.0,4554.358974358975,4054.8717948717954,4565.641025641026,4536.410256410257,4180.512820512821,4459.48717948718,4545.641025641026,4529.743589743591,4427.6923076923085,5058.461538461539,4033.333333333334,4500.512820512821,4546.153846153847,4543.076923076924
1973.3052,1.0,0.7105908,0.34352577,0.55546045,0,0.0,0.0,0.0,0.0,0.0,0,0,0.0,0.105364226,0,0,72.0,0.0,390.0,4682.564102564103,4010.2564102564106,4623.076923076924,4538.974358974359,4170.256410256411,4489.743589743591,4619.48717948718,4637.435897435898,4440.512820512821,4966.666666666667,4662.051282051282,4203.076923076924,4242.564102564103,4581.538461538462
1973.5242,1.0,0.7105908,0.34352577,0.55546045,0,0.0,0.0,0.0,0.0,0.0,0,0,0.0,1.0,0,0,100.0,0.0,468.0,4726.666666666667,3971.2820512820517,4673.333333333334,4538.974358974359,4196.923076923077,4514.358974358975,4635.384615384616,4598.974358974359,4451.794871794872,4929.743589743591,4830.769230769231,4182.051282051282,4221.025641025642,4596.410256410257
1973.8057,1.0,0.706412,0.34250605,0.5551381,0,0.0,0.0,0.0,0.0,0.0,0,0,0.0,0.055909898,0,0,7.0,0.0,484.0,4606.153846153847,3978.9743589743593,4764.102564102564,4571.282051282052,4167.179487179487,4507.179487179488,4685.641025641026,4573.846153846154,4505.128205128206,5029.2307692307695,5100.000000000001,4389.743589743591,4271.794871794872,4568.717948717949
1974.0245,1.0,0.706412,0.34250605,0.5551381,0,0.0,0.0,0.0,0.0,0.45893687,0,0,0.0,0.0,0,0,35.0,0.0,0.0,4955.8974358974365,4347.179487179487,5241.538461538462,4944.102564102564,4505.641025641026,4844.102564102564,5116.923076923077,4991.794871794872,4739.48717948718,5483.076923076924,5438.974358974359,4748.717948717949,4742.051282051282,4787.6923076923085
1974.306,1.0,0.70265114,0.34158862,0.55484813,0,0.0,0.0,0.0,0.0,0.53741395,0,0,0.0,0.0,0,0,71.0,0.0,473.0,4922.051282051283,4377.948717948719,5217.435897435898,4964.615384615386,4538.461538461539,4863.076923076924,5115.8974358974365,5005.128205128206,4735.8974358974365,5463.076923076924,5373.846153846154,4664.102564102564,4702.564102564103,4709.743589743591
1974.525,1.0,0.70265114,0.34158862,0.55484813,0,0.0,0.0,0.0,0.0,0.12012349,0,0,0.0,0.0,0,0,99.0,0.0,413.0,4950.256410256411,4457.435897435898,5224.615384615386,5003.076923076924,4528.205128205129,4851.282051282052,5114.871794871796,5037.435897435898,4753.333333333334,5442.051282051283,5366.666666666667,4558.461538461539,4698.974358974359,4755.8974358974365
1974.7751,1.0,0.6992664,0.34076205,0.55458695,0,0.0,0.0,0.0,0.0,0.6835468,0,0,0.0,0.0,0,0,2.0,0.0,373.0,4988.717948717949,4488.717948717949,5182.051282051283,4989.2307692307695,4485.128205128206,4793.846153846154,5118.461538461539,5057.435897435898,4758.974358974359,5392.307692307693,5294.358974358975,4500.512820512821,4670.256410256411,4785.128205128206
1974.9003,1.0,0.6992664,0.34076205,0.55458695,0,0.0,0.0,0.0,0.0,0.0,0,0,0.0,0.0,0,0,18.0,0.0,0.0,4984.615384615386,4483.589743589744,5125.128205128206,4970.769230769231,4481.538461538462,4788.205128205129,5107.179487179488,5048.205128205129,4753.846153846154,5349.743589743591,5228.717948717949,4504.102564102564,4642.051282051282,4754.358974358975
1975.2756,1.0,0.69622004,0.34001803,0.5543518,0,0.0,0.0,0.0,0.0,0.0,0,0,0.0,0.0,0,0,66.0,0.0,373.0,4917.948717948719,4506.666666666667,5023.589743589744,4922.051282051283,4427.179487179487,4733.333333333334,5029.2307692307695,4984.102564102564,4738.974358974359,5245.641025641026,5085.128205128206,4441.538461538462,4568.717948717949,4710.256410256411
1975.5259,1.0,0.69622004,0.34001803,0.5543518,0,0.0,0.0,0.0,0.0,0.284556,0,0,0.0,0.0,0,0,98.0,0.0,534.0,4908.205128205129,4505.641025641026,4927.6923076923085,4874.358974358975,4388.717948717949,4690.256410256411,4968.205128205129,4940.000000000001,4725.128205128206,5180.512820512821,4992.820512820514,4418.974358974359,4491.794871794872,4674.871794871796
1975.7761,1.0,0.6934784,0.33934835,0.55414015,0,0.0,0.0,0.0,0.0,1.0,0,0,0.0,0.0,0,0,1.0,0.0,404.0,4890.769230769231,4484.102564102564,4837.435897435898,4811.794871794872,4336.923076923077,4634.871794871796,4914.871794871796,4883.076923076924,4697.435897435898,5088.205128205129,4851.282051282052,4397.948717948719,4391.282051282052,4650.256410256411
1975.7761,1.0,0.6934784,0.33934835,0.55414015,0,0.0,0.0,0.0,0.0,1.0,0,0,0.0,0.0,0,0,1.0,0.0,404.0,4890.769230769231,4484.102564102564,4837.435897435898,4811.794871794872,4336.923076923077,4634.871794871796,4914.871794871796,4883.076923076924,4697.435897435898,5088.205128205129,4851.282051282052,4397.948717948719,4391.282051282052,4650.256410256411
1976.2765,1.0,0.6910109,0.33874562,0.55394965,0,0.0,0.0,0.0,0.0,1.0,0,0,0.0,0.0,0,0,65.0,0.0,404.0,4870.769230769231,4368.717948717949,4616.923076923077,4677.435897435898,4305.641025641026,4607.179487179488,4765.128205128206,4741.538461538462,4602.051282051282,4849.2307692307695,4610.769230769231,4138.974358974359,4142.051282051282,4535.384615384616
1976.5267,1.0,0.6910109,0.33874562,0.55394965,0,0.0,0.0,0.0,0.0,0.48838887,0,0,0.0,0.0,0,0,97.0,0.0,511.0,4857.435897435898,4332.820512820514,4554.871794871796,4633.333333333334,4295.384615384616,4612.307692307693,4750.769230769231,4715.8974358974365,4551.282051282052,4725.128205128206,4484.102564102564,4009.7435897435903,4024.615384615385,4501.025641025642
1976.777,1.0,0.68879014,0.33820313,0.55377823,0,0.0,0.0,0.0,0.0,0.0,0,0,0.0,0.0,0,0,0.0,0.0,515.0,4842.051282051283,4330.256410256411,4545.128205128206,4632.820512820514,4315.384615384616,4629.2307692307695,4715.384615384616,4680.000000000001,4541.538461538462,4704.102564102564,4450.769230769231,4002.564102564103,4063.589743589744,4514.358974358975
1976.777,1.0,0.68879014,0.33820313,0.55377823,0,0.0,0.0,0.0,0.0,0.0,0,0,0.0,0.0,0,0,0.0,0.0,515.0,4842.051282051283,4330.256410256411,4545.128205128206,4632.820512820514,4315.384615384616,4629.2307692307695,4715.384615384616,4680.000000000001,4541.538461538462,4704.102564102564,4450.769230769231,4002.564102564103,4063.589743589744,4514.358974358975
1977.2773,1.0,0.6867914,0.337715,0.5552563,0,0.0,0.0,0.0,0.0,0.0,0,0,0.0,0.0,0,0,64.0,0.0,515.0,4857.435897435898,4370.769230769231,4706.666666666667,4762.564102564103,4340.512820512821,4642.564102564103,4698.974358974359,4678.974358974359,4608.717948717949,4936.410256410257,4635.384615384616,4246.153846153847,4381.538461538462,4543.589743589744
1977.5276,1.0,0.6867914,0.337715,0.5552563,0,0.0,0.0,0.0,0.0,0.025420478,0,0,0.0,0.0,0,0,96.0,0.0,467.0,4834.358974358975,4338.461538461539,4720.512820512821,4733.333333333334,4294.871794871796,4584.102564102564,4645.641025641026,4628.717948717949,4614.358974358975,4964.615384615386,4668.717948717949,4270.769230769231,4414.871794871796,4504.615384615385
1977.7778,0.9635725,0.6849926,0.33839116,0.5603847,0,0.0,0.0,0.0,0.0,0.0,0,0,0.0,0.0,0,0,128.0,0.0,467.0,4828.205128205129,4327.6923076923085,4730.256410256411,4723.076923076924,4277.948717948719,4569.2307692307695,4643.076923076924,4624.615384615385,4630.769230769231,5013.333333333334,4733.846153846154,4375.384615384616,4474.871794871796,4500.512820512821
1977.7778,0.9635725,0.6849926,0.33839116,0.5603847,0,0.0,0.0,0.0,0.0,0.0,0,0,0.0,0.0,0,0,128.0,0.0,467.0,4828.205128205129,4327.6923076923085,4730.256410256411,4723.076923076924,4277.948717948719,4569.2307692307695,4643.076923076924,4624.615384615385,4630.769230769231,5013.333333333334,4733.846153846154,4375.384615384616,4474.871794871796,4500.512820512821
1978.2782,0.8730633,0.6833737,0.34345973,0.5650002,0,0.0,0.0,0.0,0.0,0.0,0,0,0.0,0.0,0,0,63.0,0.0,0.0,4773.333333333334,4286.666666666667,4641.538461538462,4671.282051282052,4344.102564102564,4646.666666666667,4645.128205128206,4664.615384615386,4610.769230769231,4976.410256410257,4664.102564102564,4413.846153846154,4447.6923076923085,4476.923076923077
1978.2782,0.8730633,0.6833737,0.34345973,0.5650002,0,0.0,0.0,0.0,0.0,0.0,0,0,0.0,0.0,0,0,63.0,0.0,0.0,4773.333333333334,4286.666666666667,4641.538461538462,4671.282051282052,4344.102564102564,4646.666666666667,4645.128205128206,4664.615384615386,4610.769230769231,4976.410256410257,4664.102564102564,4413.846153846154,4447.6923076923085,4476.923076923077
1978.7787,0.9088348,0.68191665,0.34826887,0.5691539,0,0.0,0.0,0.0,0.0,0.0,0,0,0.0,0.0,0,0,127.0,0.0,413.0,4641.025641025642,4108.205128205129,4587.6923076923085,4588.205128205129,4368.717948717949,4667.179487179488,4492.820512820514,4501.538461538462,4557.948717948719,4852.307692307693,4529.2307692307695,4336.410256410257,4322.564102564103,4443.076923076924
1979.0288,0.9088348,0.68191665,0.34826887,0.5691539,0,0.0,0.0,0.0,0.0,1.0,0,0,0.0,0.0,0,0,30.0,0.0,0.0,5051.282051282052,3895.8974358974365,4664.615384615386,4638.461538461539,4347.179487179487,4647.6923076923085,4375.8974358974365,4376.410256410257,4514.871794871796,4707.6923076923085,4217.948717948719,4416.410256410257,4230.256410256411,4854.358974358975
1979.3103,1.0,0.68060535,0.35259956,0.56909513,0,0.0,0.0,0.0,0.0,1.0,0,0,0.0,0.0,0,0,66.0,0.0,369.0,5071.282051282052,3829.2307692307695,4602.051282051282,4595.384615384616,4309.743589743591,4605.641025641026,4308.205128205129,4291.794871794872,4469.743589743591,4657.948717948719,4266.666666666667,4360.000000000001,4235.8974358974365,4685.128205128206
1979.5293,1.0,0.68060535,0.35259956,0.56909513,0,0.0,0.0,0.0,0.73424214,0.0,0,0,0.0,0.0,0,0,94.0,0.0,543.0,4970.256410256411,3831.7948717948725,4573.846153846154,4562.051282051282,4293.846153846154,4588.717948717949,4330.769230769231,4290.769230769231,4570.256410256411,4666.666666666667,4271.794871794872,4156.923076923077,4237.948717948719,4636.410256410257
1979.8108,1.0,0.6794251,0.3564972,0.5674095,0,0.0,0.0,0.0,0.23825571,0.0,0,0,0.0,0.0,0,0,1.0,0.0,408.0,4890.769230769231,3890.7692307692314,4563.589743589744,4544.615384615385,4260.512820512821,4551.794871794872,4411.282051282052,4363.076923076924,4534.358974358975,4732.820512820514,4427.179487179487,4225.128205128206,4338.974358974359,4433.333333333334
1980.0297,1.0,0.6794251,0.3564972,0.5674095,0,0.0,0.0,0.0,0.70416766,0.0,0,0,0.0,0.0,0,0,29.0,0.0,0.0,4568.717948717949,3816.9230769230776,4416.923076923077,4422.564102564103,4152.307692307693,4439.48717948718,4359.48717948718,4291.282051282052,4485.128205128206,4640.512820512821,4391.282051282052,4267.179487179487,4231.282051282052,4390.769230769231
1980.3112,1.0,0.67836297,0.35554385,0.56589246,0,0.0,0.0,0.0,0.0,1.0,0,0,0.0,0.0,0,0,65.0,0.0,409.0,4367.179487179487,3814.8717948717954,4410.256410256411,4426.153846153847,4165.641025641026,4455.8974358974365,4417.435897435898,4362.051282051282,4476.410256410257,4682.564102564103,4444.615384615385,4245.641025641026,4213.333333333334,4553.333333333334
1980.5302,1.0,0.67836297,0.35554385,0.56589246,0,0.0,0.0,0.0,0.0,0.22234218,0,0,0.0,0.0,0,0,93.0,0.0,512.0,4488.205128205129,3832.820512820513,4406.153846153847,4436.923076923077,4203.076923076924,4500.512820512821,4480.512820512821,4448.717948717949,4487.179487179488,4697.435897435898,4446.153846153847,4268.205128205129,4180.512820512821,4457.435897435898
1980.8116,1.0,0.67740697,0.3533228,0.5645271,0,0.0,0.0,0.0,0.0,0.19952941,0,0,0.0,0.0,0,0,0.0,0.0,521.0,4493.846153846154,3796.9230769230776,4417.948717948719,4457.948717948719,4248.205128205129,4561.025641025642,4484.102564102564,4499.48717948718,4469.743589743591,4675.384615384616,4409.743589743591,4255.8974358974365,4128.205128205129,4384.102564102564
1981.0306,1.0,0.67740697,0.3533228,0.5645271,0,0.0,0.0,0.0,0.0,0.23334758,0,0,0.0,0.0,0,0,28.0,0.0,0.0,4458.974358974359,3768.205128205129,4456.923076923077,4480.000000000001,4261.025641025642,4568.717948717949,4426.666666666667,4441.538461538462,4458.461538461539,4663.589743589744,4403.589743589744,4121.025641025642,4122.564102564103,4306.666666666667
1981.2808,1.0,0.67654663,0.35132137,0.56329685,0,0.0,0.0,0.0,0.0,0.0,0,0,0.0,0.0,0,0,60.0,0.0,0.0,4432.820512820514,3725.6410256410263,4468.205128205129,4479.48717948718,4250.256410256411,4552.820512820514,4376.410256410257,4349.2307692307695,4444.102564102564,4650.769230769231,4403.076923076924,4002.0512820512827,4140.512820512821,4298.461538461539
1981.2808,1.0,0.67654663,0.35132137,0.56329685,0,0.0,0.0,0.0,0.0,0.0,0,0,0.0,0.0,0,0,60.0,0.0,0.0,4432.820512820514,3725.6410256410263,4468.205128205129,4479.48717948718,4250.256410256411,4552.820512820514,4376.410256410257,4349.2307692307695,4444.102564102564,4650.769230769231,4403.076923076924,4002.0512820512827,4140.512820512821,4298.461538461539
1981.7812,1.0,0.6757723,0.3495198,0.56218946,0,0.0,0.0,0.0,0.0,0.0,0,0,0.0,0.0,0,1,124.0,0.0,473.0,4603.076923076924,3947.1794871794878,4715.8974358974365,4649.2307692307695,4333.846153846154,4633.333333333334,4510.256410256411,4480.512820512821,4557.435897435898,4870.256410256411,4597.435897435898,4281.025641025642,4368.717948717949,4389.743589743591
1982.0627,1.0,0.6757723,0.3495198,0.56218946,0,0.0,0.0,0.0,0.0,0.0,0,0,0.0,0.0,0,0,31.0,0.0,0.0,4621.538461538462,3976.410256410257,4739.48717948718,4660.000000000001,4307.179487179487,4602.564102564103,4572.307692307693,4514.358974358975,4577.948717948719,4908.205128205129,4631.282051282052,4348.205128205129,4403.589743589744,4329.2307692307695
1982.313,0.96121037,0.6750754,0.3479002,0.5611939,0,0.0,0.0,0.0,0.0,0.0,0,0,0.0,0.0,0,0,63.0,0.0,0.0,4592.820512820514,3963.076923076924,4681.025641025642,4616.923076923077,4249.2307692307695,4553.846153846154,4554.871794871796,4504.615384615385,4552.820512820514,4856.410256410257,4582.051282051282,4257.948717948719,4335.8974358974365,4331.282051282052
1982.313,0.96121037,0.6750754,0.3479002,0.5611939,0,0.0,0.0,0.0,0.0,0.0,0,0,0.0,0.0,0,0,63.0,0.0,0.0,4592.820512820514,3963.076923076924,4681.025641025642,4616.923076923077,4249.2307692307695,4553.846153846154,4554.871794871796,4504.615384615385,4552.820512820514,4856.410256410257,4582.051282051282,4257.948717948719,4335.8974358974365,4331.282051282052
1982.7821,0.9439173,0.6744482,0.346441,0.56029695,0,0.0,0.0,0.0,0.0,0.16062641,0,0,0.0,0.0,0,0,123.0,0.0,418.0,4677.435897435898,4069.23076923077,4635.384615384616,4610.769230769231,4313.846153846154,4627.179487179488,4598.974358974359,4575.8974358974365,4568.205128205129,4903.076923076924,4592.307692307693,4380.512820512821,4315.384615384616,4355.8974358974365
1982.9072,0.9439173,0.6744482,0.346441,0.56029695,0,0.0,0.0,0.0,0.0,0.0,0,0,0.0,0.0,0,0,10.0,0.0,543.0,4664.102564102564,4084.615384615385,4653.846153846154,4611.794871794872,4315.384615384616,4629.2307692307695,4620.000000000001,4585.641025641026,4599.48717948718,4923.589743589744,4593.333333333334,4393.846153846154,4334.871794871796,4350.256410256411
1983.2825,0.903874,0.6738837,0.345128,0.55948985,0,0.0,0.0,0.0,0.0,0.0,0,0,0.0,0.0,0,0,58.0,0.0,0.0,4689.2307692307695,4086.1538461538466,4711.282051282052,4583.589743589744,4324.615384615385,4627.6923076923085,4612.307692307693,4592.307692307693,4673.333333333334,4986.666666666667,4626.153846153847,4430.769230769231,4434.871794871796,4366.666666666667
1983.2825,0.903874,0.6738837,0.345128,0.55948985,0,0.0,0.0,0.0,0.0,0.0,0,0,0.0,0.0,0,0,58.0,0.0,0.0,4689.2307692307695,4086.1538461538466,4711.282051282052,4583.589743589744,4324.615384615385,4627.6923076923085,4612.307692307693,4592.307692307693,4673.333333333334,4986.666666666667,4626.153846153847,4430.769230769231,4434.871794871796,4366.666666666667
1983.8142,1.0,0.67337567,0.34394783,0.5587644,0,0.0,0.0,0.0,0.0,0.5559166,0,0,0.0,0.0,0,0,126.0,0.0,537.0,5110.769230769231,4488.717948717949,5203.076923076924,5018.974358974359,4717.435897435898,5025.641025641026,5093.846153846154,5037.948717948719,5027.179487179488,5502.051282051283,5111.282051282052,4902.051282051283,4867.179487179488,4660.000000000001
1984.0332,1.0,0.67337567,0.34394783,0.5587644,0,0.0,0.0,0.0,0.0,1.0,0,0,0.0,0.0,0,0,25.0,0.0,0.0,5071.794871794872,4396.923076923077,4941.538461538462,4886.153846153847,4652.307692307693,4965.128205128206,4976.410256410257,4966.153846153847,4938.974358974359,5269.743589743591,4920.000000000001,4698.461538461539,4627.6923076923085,4589.743589743591
1984.2833,1.0,0.67291844,0.34288454,0.5581108,0,0.0,0.0,0.0,0.0,0.5161404,0,0,0.0,0.0,0,0,57.0,0.0,0.0,5020.000000000001,4270.256410256411,4794.871794871796,4784.615384615386,4618.974358974359,4940.512820512821,4855.8974358974365,4880.000000000001,4847.6923076923085,5020.512820512821,4495.384615384616,4527.6923076923085,4436.923076923077,4553.846153846154
1984.5336,1.0,0.67291844,0.34288454,0.5581108,0,0.0,0.0,0.0,0.0,0.2316334,0,0,0.0,0.0,0,0,89.0,0.0,495.0,4891.794871794872,4150.769230769231,4766.153846153847,4750.256410256411,4598.974358974359,4904.615384615386,4699.48717948718,4720.000000000001,4811.282051282052,4934.358974358975,4474.358974358975,4409.743589743591,4409.2307692307695,4523.589743589744
1984.8151,1.0,0.6725069,0.341929,0.5575233,0,0.0,0.0,0.0,0.0,0.0,0,0,0.0,0.0025751265,0,0,125.0,0.0,495.0,4819.48717948718,3976.9230769230776,4680.000000000001,4668.205128205129,4519.48717948718,4822.564102564103,4482.564102564103,4467.179487179487,4747.6923076923085,4871.282051282052,4436.410256410257,4314.358974358975,4330.769230769231,4487.179487179488
1985.034,1.0,0.6725069,0.341929,0.5575233,0,0.0,0.0,0.0,0.0,0.01794218,0,0,0.0,0.0,0,0,24.0,0.0,0.0,4750.769230769231,3875.3846153846157,4586.666666666667,4554.871794871796,4384.615384615385,4684.615384615386,4335.384615384616,4292.820512820514,4688.717948717949,4792.820512820514,4380.512820512821,4304.102564102564,4257.948717948719,4421.538461538462
1985.3156,1.0,0.67213655,0.34106916,0.55699474,1,0.0,0.0,0.0,0.0,0.043758437,0,0,0.0,0.0,0,0,60.0,0.0,0.0,4811.794871794872,3928.205128205129,4635.8974358974365,4573.333333333334,4378.974358974359,4672.820512820514,4394.871794871796,4307.179487179487,4707.179487179488,4872.820512820514,4451.282051282052,4412.820512820514,4326.153846153847,4451.794871794872
1985.5344,1.0,0.67213655,0.34106916,0.55699474,0,0.0,0.0,0.0,0.0,0.0,0,0,0.0,0.0,0,0,88.0,0.0,474.0,4752.307692307693,3910.2564102564106,4636.410256410257,4532.307692307693,4293.846153846154,4584.102564102564,4416.923076923077,4307.179487179487,4644.615384615385,4858.461538461539,4440.000000000001,4450.769230769231,4307.179487179487,4427.6923076923085
1985.8159,1.0,0.67180324,0.34029546,0.5565191,0,0.0,0.0,0.0,0.0,0.0,0,0,0.0,0.0,0,0,124.0,0.0,474.0,4751.794871794872,3906.666666666667,4657.948717948719,4523.076923076924,4227.179487179487,4501.538461538462,4485.128205128206,4375.8974358974365,4631.794871794872,4851.282051282052,4452.307692307693,4496.923076923077,4310.769230769231,4407.179487179487
1985.8159,1.0,0.67180324,0.34029546,0.5565191,0,0.0,0.0,0.0,0.0,0.0,0,0,0.0,0.0,0,0,124.0,0.0,474.0,4751.794871794872,3906.666666666667,4657.948717948719,4523.076923076924,4227.179487179487,4501.538461538462,4485.128205128206,4375.8974358974365,4631.794871794872,4851.282051282052,4452.307692307693,4496.923076923077,4310.769230769231,4407.179487179487
1986.2852,0.93546283,0.67150325,0.33959836,0.55609053,0,0.0,0.0,0.0,0.0,0.05831667,0,0,0.0,0.0,0,0,55.0,0.0,0.0,4762.051282051282,4051.7948717948725,4612.820512820514,4493.846153846154,4169.74358974359,4445.128205128206,4589.743589743591,4509.2307692307695,4664.102564102564,4817.948717948719,4491.282051282052,4452.307692307693,4296.923076923077,4288.205128205129
1986.5353,0.93546283,0.67150325,0.33959836,0.55609053,0,0.0,0.0,0.0,0.0,0.004364069,0,0,0.0,0.0,0,0,87.0,0.0,416.0,4754.871794871796,4110.769230769231,4563.076923076924,4471.794871794872,4226.153846153847,4506.153846153847,4639.48717948718,4564.102564102564,4613.846153846154,4757.948717948719,4462.564102564103,4358.461538461539,4191.794871794872,4335.384615384616
1986.7855,0.9283909,0.67123324,0.3389709,0.55570483,0,0.0,0.0,0.0,0.0,0.057341024,0,0,0.0,0.0,0,0,119.0,0.0,416.0,4742.564102564103,4085.6410256410263,4409.2307692307695,4399.48717948718,4249.2307692307695,4553.846153846154,4617.948717948719,4553.333333333334,4553.846153846154,4584.102564102564,4324.102564102564,4171.794871794872,3965.6410256410263,4292.307692307693
1987.0358,0.9283909,0.67123324,0.3389709,0.55570483,0,0.0,0.0,0.0,0.0,0.13710293,0,0,0.0,0.0,0,0,22.0,0.0,0.0,4802.051282051282,4097.435897435898,4458.461538461539,4436.410256410257,4294.358974358975,4602.051282051282,4600.000000000001,4590.769230769231,4571.282051282052,4627.179487179488,4346.153846153847,4228.205128205129,4047.692307692308,4311.282051282052
1987.286,0.93567073,0.6709902,0.33840612,0.55535764,0,0.0,0.0,0.0,0.0,0.06622874,0,0,0.0,0.0,0,0,54.0,0.0,0.0,4728.205128205129,4046.666666666667,4541.025641025642,4481.538461538462,4314.871794871796,4622.564102564103,4537.948717948719,4568.717948717949,4603.076923076924,4741.538461538462,4433.846153846154,4347.179487179487,4204.615384615385,4368.205128205129
