timestamp,excitement,frustration,meditation,engagementBoredom,blink,clench,laugh,smile,eyebrow,furrowBrow,lookLeft,lookRight,smirkLeft,smirkRight,winkLeft,winkRight,eeg0,eeg1,eeg2,eeg3,eeg4,eeg5,eeg6,eeg7,eeg8,eeg9,eeg10,eeg11,eeg12,eeg13,eeg14,eeg15,eeg16
713.1832,0.58558387,0.69789195,0.3262821,0.64607644,0,0.0,0.0,0.0,0.0,0.0,0,0,0.0,0.0,0,0,37.0,0.0,0.0,4723.076923076924,4045.6410256410263,4662.564102564103,4610.256410256411,4378.974358974359,4644.102564102564,4559.48717948718,4520.000000000001,4533.846153846154,4853.333333333334,4482.051282051282,4287.6923076923085,4302.564102564103,4490.769230769231
713.1832,0.58558387,0.69789195,0.3262821,0.64607644,0,0.0,0.0,0.0,0.0,0.0,0,0,0.0,0.0,0,0,37.0,0.0,0.0,4723.076923076924,4045.6410256410263,4662.564102564103,4610.256410256411,4378.974358974359,4644.102564102564,4559.48717948718,4520.000000000001,4533.846153846154,4853.333333333334,4482.051282051282,4287.6923076923085,4302.564102564103,4490.769230769231
713.68365,0.6000129,0.66868573,0.33086282,0.6598836,0,0.0,0.0,0.0,0.0,0.0,0,0,0.0,0.0,0,0,101.0,0.0,491.0,4746.153846153847,4033.333333333334,4656.410256410257,4593.333333333334,4346.666666666667,4610.769230769231,4547.6923076923085,4513.846153846154,4525.128205128206,4853.333333333334,4492.307692307693,4312.307692307693,4313.846153846154,4509.2307692307695
713.68365,0.6000129,0.66868573,0.33086282,0.6598836,0,0.0,0.0,0.0,0.0,0.0,0,0,0.0,0.0,0,0,101.0,0.0,491.0,4746.153846153847,4033.333333333334,4656.410256410257,4593.333333333334,4346.666666666667,4610.769230769231,4547.6923076923085,4513.846153846154,4525.128205128206,4853.333333333334,4492.307692307693,4312.307692307693,4313.846153846154,4509.2307692307695
714.1841,0.5591941,0.65952533,0.3361941,0.66868216,0,0.0,0.0,0.0,0.0,0.0,0,0,0.0,0.0,0,0,36.0,0.0,0.0,4741.538461538462,4031.2820512820517,4625.641025641026,4593.846153846154,4343.076923076924,4600.000000000001,4527.179487179488,4510.769230769231,4520.000000000001,4855.8974358974365,4503.076923076924,4336.410256410257,4304.102564102564,4524.102564102564
714.1841,0.5591941,0.65952533,0.3361941,0.66868216,0,0.0,0.0,0.0,0.0,0.0,0,0,0.0,0.0,0,0,36.0,0.0,0.0,4741.538461538462,4031.2820512820517,4625.641025641026,4593.846153846154,4343.076923076924,4600.000000000001,4527.179487179488,4510.769230769231,4520.000000000001,4855.8974358974365,4503.076923076924,4336.410256410257,4304.102564102564,4524.102564102564
714.80963,0.5287102,0.6588971,0.33811,0.6717752,0,0.0,0.0,0.0,0.0,0.45679438,0,0,0.0,0.0,0,0,116.0,0.0,447.0,4747.179487179488,4030.7692307692314,4597.435897435898,4577.435897435898,4314.871794871796,4568.205128205129,4513.846153846154,4494.358974358975,4502.051282051282,4816.923076923077,4456.923076923077,4277.435897435898,4253.846153846154,4492.307692307693
715.0598,0.5287102,0.6588971,0.33811,0.6717752,0,0.0,0.0,0.0,0.0,0.0,0,0,0.0,0.0,0,0,19.0,0.0,0.0,4716.410256410257,3992.820512820513,4544.615384615385,4537.948717948719,4277.948717948719,4525.128205128206,4490.256410256411,4481.538461538462,4488.717948717949,4785.641025641026,4433.333333333334,4230.769230769231,4211.282051282052,4502.564102564103
715.18494,0.54019916,0.6457371,0.33601192,0.6712732,0,0.0,0.0,0.0,0.0,0.0,0,0,0.0,0.0,0,0,35.0,0.0,0.0,4690.769230769231,3970.7692307692314,4488.717948717949,4507.6923076923085,4252.307692307693,4493.333333333334,4494.871794871796,4486.666666666667,4481.025641025642,4765.128205128206,4409.743589743591,4189.74358974359,4177.435897435898,4507.6923076923085
715.18494,0.54019916,0.6457371,0.33601192,0.6712732,0,0.0,0.0,0.0,0.0,0.0,0,0,0.0,0.0,0,0,35.0,0.0,0.0,4690.769230769231,3970.7692307692314,4488.717948717949,4507.6923076923085,4252.307692307693,4493.333333333334,4494.871794871796,4486.666666666667,4481.025641025642,4765.128205128206,4409.743589743591,4189.74358974359,4177.435897435898,4507.6923076923085
715.68536,0.6012423,0.6428911,0.33322394,0.6692167,0,0.0,0.0,0.0,0.0,0.0,0,0,0.0,0.0,0,0,99.0,0.0,409.0,4647.6923076923085,3907.1794871794878,4375.384615384616,4441.538461538462,4183.076923076924,4419.48717948718,4453.846153846154,4450.769230769231,4455.8974358974365,4678.974358974359,4311.282051282052,4118.461538461539,4054.8717948717954,4474.358974358975
715.68536,0.6012423,0.6428911,0.33322394,0.6692167,0,0.0,0.0,0.0,0.0,0.0,0,0,0.0,0.0,0,0,99.0,0.0,409.0,4647.6923076923085,3907.1794871794878,4375.384615384616,4441.538461538462,4183.076923076924,4419.48717948718,4453.846153846154,4450.769230769231,4455.8974358974365,4678.974358974359,4311.282051282052,4118.461538461539,4054.8717948717954,4474.358974358975
716.3109,0.5930445,0.6404173,0.33185983,0.6670973,0,0.0,0.0,0.0,0.0,0.057242934,0,0,0.0,0.0,0,0,50.0,0.0,0.0,4585.641025641026,3894.358974358975,4420.512820512821,4415.384615384616,4216.410256410257,4445.128205128206,4399.48717948718,4387.6923076923085,4433.333333333334,4669.743589743591,4287.6923076923085,4088.205128205129,4105.128205128206,4471.282051282052
716.5611,0.5930445,0.6404173,0.33185983,0.6670973,0,0.0,0.0,0.0,0.0,0.08333192,0,0,0.0,0.0,0,0,82.0,0.0,523.0,4581.025641025642,3893.333333333334,4451.282051282052,4421.025641025642,4235.8974358974365,4463.076923076924,4392.820512820514,4376.410256410257,4427.6923076923085,4671.794871794872,4300.512820512821,4087.1794871794878,4132.820512820514,4476.923076923077
716.81134,0.5519735,0.63819087,0.33063218,0.6654493,0,0.0,0.0,0.0,0.0,0.0046310485,0,0,0.0,0.0,0,0,114.0,0.0,523.0,4597.948717948719,3900.0000000000005,4490.256410256411,4442.051282051282,4247.179487179487,4474.358974358975,4349.743589743591,4361.025641025642,4413.846153846154,4676.410256410257,4309.743589743591,4111.794871794872,4156.410256410257,4472.820512820514
717.0615,0.5519735,0.63819087,0.33063218,0.6654493,0,0.0,0.0,0.0,0.0,0.0,0,0,0.0,0.0,0,0,17.0,0.0,0.0,4605.128205128206,3900.0000000000005,4488.205128205129,4440.512820512821,4260.000000000001,4481.538461538462,4377.435897435898,4360.512820512821,4363.076923076924,4669.2307692307695,4309.2307692307695,4152.307692307693,4128.717948717949,4445.641025641026
717.18665,0.5781849,0.6361871,0.3295274,0.6639615,0,0.0,0.0,0.0,0.0,0.0,0,0,0.0,0.0,0,0,33.0,0.0,0.0,4601.538461538462,3893.8461538461543,4480.512820512821,4437.435897435898,4238.974358974359,4466.153846153847,4368.717948717949,4340.512820512821,4352.307692307693,4647.179487179488,4286.153846153847,4118.974358974359,4104.102564102564,4424.102564102564
717.18665,0.5781849,0.6361871,0.3295274,0.6639615,0,0.0,0.0,0.0,0.0,0.0,0,0,0.0,0.0,0,0,33.0,0.0,0.0,4601.538461538462,3893.8461538461543,4480.512820512821,4437.435897435898,4238.974358974359,4466.153846153847,4368.717948717949,4340.512820512821,4352.307692307693,4647.179487179488,4286.153846153847,4118.974358974359,4104.102564102564,4424.102564102564
717.6871,0.60341215,0.6343836,0.3300155,0.663135,0,0.0,0.0,0.0,0.0,0.0,0,0,0.0,0.0,0,0,97.0,0.0,491.0,4560.512820512821,3892.820512820513,4462.051282051282,4414.358974358975,4215.8974358974365,4457.948717948719,4368.717948717949,4336.923076923077,4341.538461538462,4640.000000000001,4288.717948717949,4115.8974358974365,4116.923076923077,4282.051282051282
717.9373,0.60341215,0.6343836,0.3300155,0.663135,0,0.0,0.0,0.0,0.0,1.0,0,0,0.0,0.0,0,0,0.0,0.0,500.0,4566.666666666667,3893.333333333334,4470.256410256411,4412.307692307693,4175.8974358974365,4436.923076923077,4371.282051282052,4331.794871794872,4335.8974358974365,4634.871794871796,4281.538461538462,4136.410256410257,4095.3846153846157,4374.871794871796
718.3126,0.59554833,0.6080375,0.33045492,0.6625299,0,0.0,0.0,0.0,0.0,0.0,0,0,0.0,0.0,0,0,48.0,0.0,0.0,4530.769230769231,3836.410256410257,4361.025641025642,4329.743589743591,4086.666666666667,4345.641025641026,4301.538461538462,4273.333333333334,4313.846153846154,4576.923076923077,4221.025641025642,4077.435897435898,4052.820512820513,4367.6923076923085
718.3126,0.59554833,0.6080375,0.33045492,0.6625299,0,0.0,0.0,0.0,0.0,0.0,0,0,0.0,0.0,0,0,48.0,0.0,0.0,4530.769230769231,3836.410256410257,4361.025641025642,4329.743589743591,4086.666666666667,4345.641025641026,4301.538461538462,4273.333333333334,4313.846153846154,4576.923076923077,4221.025641025642,4077.435897435898,4052.820512820513,4367.6923076923085
718.6879,0.6977104,0.6035739,0.33085048,0.66198015,0,0.0,0.0,0.0,0.0,0.0,0,0,0.0,0.0,0,0,96.0,0.0,453.0,4520.000000000001,3845.6410256410263,4349.743589743591,4331.794871794872,4105.128205128206,4355.384615384616,4340.512820512821,4311.794871794872,4328.717948717949,4617.435897435898,4234.871794871796,4124.102564102564,4060.0000000000005,4359.48717948718
719.06323,0.6977104,0.6035739,0.33085048,0.66198015,0,0.0,0.0,0.0,0.0,0.14186189,0,0,0.0,0.0,0,0,15.0,0.0,409.0,4537.435897435898,3855.3846153846157,4383.076923076924,4353.333333333334,4140.512820512821,4391.794871794872,4361.538461538462,4336.410256410257,4334.358974358975,4644.102564102564,4241.025641025642,4114.871794871796,4099.48717948718,4362.564102564103
719.3135,0.7589517,0.5841364,0.3313451,0.6614803,0,0.0,0.0,0.0,0.0,0.23354812,0,0,0.0,0.0,0,0,47.0,0.0,0.0,4546.153846153847,3866.1538461538466,4414.871794871796,4378.974358974359,4171.794871794872,4427.6923076923085,4368.717948717949,4342.564102564103,4332.820512820514,4654.871794871796,4258.461538461539,4162.051282051282,4104.615384615385,4364.102564102564
719.4386,0.7589517,0.5841364,0.3313451,0.6614803,0,0.0,0.0,0.0,0.0,0.0,0,0,0.0,0.0,0,0,63.0,0.0,0.0,4536.923076923077,3879.48717948718,4431.794871794872,4387.6923076923085,4176.410256410257,4435.8974358974365,4374.358974358975,4350.256410256411,4331.282051282052,4667.179487179488,4264.615384615385,4157.948717948719,4119.48717948718,4361.538461538462
719.6888,0.7159803,0.56169355,0.329218,0.65952855,0,0.0,0.0,0.0,0.0,0.0,0,0,0.0,0.0,0,0,95.0,0.0,409.0,4526.666666666667,3880.0000000000005,4441.538461538462,4392.820512820514,4188.205128205129,4437.435897435898,4358.461538461539,4332.820512820514,4327.6923076923085,4651.794871794872,4239.48717948718,4135.8974358974365,4105.128205128206,4344.102564102564
719.6888,0.7159803,0.56169355,0.329218,0.65952855,0,0.0,0.0,0.0,0.0,0.0,0,0,0.0,0.0,0,0,95.0,0.0,409.0,4526.666666666667,3880.0000000000005,4441.538461538462,4392.820512820514,4188.205128205129,4437.435897435898,4358.461538461539,4332.820512820514,4327.6923076923085,4651.794871794872,4239.48717948718,4135.8974358974365,4105.128205128206,4344.102564102564
720.1892,0.66823244,0.55216134,0.32587227,0.65721637,0,0.0,0.0,0.0,0.0,0.0,0,0,0.0,0.0,0,0,30.0,0.0,0.0,4586.666666666667,3891.7948717948725,4438.974358974359,4397.435897435898,4194.358974358975,4429.2307692307695,4393.846153846154,4360.512820512821,4314.871794871796,4653.846153846154,4238.974358974359,4138.974358974359,4092.307692307693,4341.538461538462
720.1892,0.66823244,0.55216134,0.32587227,0.65721637,0,0.0,0.0,0.0,0.0,0.0,0,0,0.0,0.0,0,0,30.0,0.0,0.0,4586.666666666667,3891.7948717948725,4438.974358974359,4397.435897435898,4194.358974358975,4429.2307692307695,4393.846153846154,4360.512820512821,4314.871794871796,4653.846153846154,4238.974358974359,4138.974358974359,4092.307692307693,4341.538461538462
720.72095,0.5537385,0.5447973,0.32285726,0.6541793,0,0.0,0.0,0.0,0.0,0.0,0,0,0.0,0.0,0,0,98.0,0.0,523.0,4645.128205128206,3877.9487179487182,4415.384615384616,4376.410256410257,4188.205128205129,4431.282051282052,4420.000000000001,4375.8974358974365,4235.384615384616,4643.076923076924,4232.820512820514,4028.205128205129,4074.8717948717954,4338.974358974359
720.72095,0.5537385,0.5447973,0.32285726,0.6541793,0,0.0,0.0,0.0,0.0,0.0,0,0,0.0,0.0,0,0,98.0,0.0,523.0,4645.128205128206,3877.9487179487182,4415.384615384616,4376.410256410257,4188.205128205129,4431.282051282052,4420.000000000001,4375.8974358974365,4235.384615384616,4643.076923076924,4232.820512820514,4028.205128205129,4074.8717948717954,4338.974358974359
721.3152,0.52224433,0.5460981,0.32158104,0.6474626,0,0.0,0.0,0.0,0.0,0.09427565,0,0,0.0,0.0,0,0,45.0,0.0,0.0,4656.923076923077,3898.461538461539,4481.538461538462,4413.846153846154,4218.461538461539,4466.153846153847,4398.461538461539,4365.128205128206,4264.615384615385,4674.871794871796,4268.717948717949,4074.8717948717954,4113.846153846154,4385.128205128206
721.5654,0.52224433,0.5460981,0.32158104,0.6474626,0,0.0,0.0,0.0,0.0,0.22942463,0,0,0.0,0.0,0,0,77.0,0.0,491.0,4634.358974358975,3913.333333333334,4517.435897435898,4430.256410256411,4230.256410256411,4486.666666666667,4394.871794871796,4363.076923076924,4277.948717948719,4700.512820512821,4320.000000000001,4115.8974358974365,4136.410256410257,4399.48717948718
721.6905,0.48176554,0.5443412,0.3222501,0.6379003,0,0.0,0.0,0.0,0.0,0.0,0,0,0.0,0.0,0,0,93.0,0.0,491.0,4619.48717948718,3906.666666666667,4505.128205128206,4421.538461538462,4240.000000000001,4492.307692307693,4378.461538461539,4335.8974358974365,4275.8974358974365,4684.615384615386,4291.282051282052,4159.48717948718,4124.615384615385,4401.025641025642
721.6905,0.48176554,0.5443412,0.3222501,0.6379003,0,0.0,0.0,0.0,0.0,0.0,0,0,0.0,0.0,0,0,93.0,0.0,491.0,4619.48717948718,3906.666666666667,4505.128205128206,4421.538461538462,4240.000000000001,4492.307692307693,4378.461538461539,4335.8974358974365,4275.8974358974365,4684.615384615386,4291.282051282052,4159.48717948718,4124.615384615385,4401.025641025642
722.191,0.425866,0.53656936,0.32336283,0.6292939,0,0.0,0.0,0.0,0.0,0.0,0,0,0.0,0.0,0,0,28.0,0.0,0.0,4601.538461538462,3902.564102564103,4516.923076923077,4400.512820512821,4241.025641025642,4486.666666666667,4361.538461538462,4305.128205128206,4277.948717948719,4675.8974358974365,4303.589743589744,4162.051282051282,4126.666666666667,4444.102564102564
722.5663,0.425866,0.53656936,0.32336283,0.6292939,0,0.0,0.0,0.0,0.0,0.10848794,0,0,0.0,0.0,0,0,76.0,0.0,453.0,4587.179487179488,3523.0769230769233,4512.820512820514,4384.102564102564,4238.461538461539,4483.076923076924,4370.769230769231,4336.410256410257,4298.461538461539,4705.128205128206,4340.512820512821,4231.794871794872,4187.6923076923085,4484.615384615385
722.81647,0.39973685,0.5581979,0.3243656,0.6215534,0,0.0,0.0,0.0,0.0,0.070220225,0,0,0.0,0.0,0,0,108.0,0.0,453.0,4597.435897435898,3668.717948717949,4507.179487179488,4381.538461538462,4241.538461538462,4487.179487179488,4379.48717948718,4339.48717948718,4302.051282051282,4705.128205128206,4321.025641025642,4222.564102564103,4192.307692307693,4488.717948717949
723.0667,0.39973685,0.5581979,0.3243656,0.6215534,0,0.0,0.0,0.0,0.0,0.09537108,0,0,0.0,0.0,0,0,11.0,0.0,411.0,4614.871794871796,3783.076923076924,4528.205128205129,4380.512820512821,4249.2307692307695,4498.461538461539,4388.205128205129,4355.8974358974365,4310.256410256411,4725.128205128206,4358.461538461539,4227.6923076923085,4225.128205128206,4488.717948717949
723.3169,0.46378654,0.56310385,0.32526886,0.61458606,0,0.0,0.0,0.0,0.0,0.20570433,0,0,0.0,0.0,0,0,43.0,0.0,0.0,4617.948717948719,3872.307692307693,4523.076923076924,4383.589743589744,4265.128205128206,4509.743589743591,4393.333333333334,4382.051282051282,4326.153846153847,4741.538461538462,4370.769230769231,4257.435897435898,4239.48717948718,4498.974358974359
723.56714,0.46378654,0.56310385,0.32526886,0.61458606,0,0.0,0.0,0.0,0.0,0.051751506,0,0,0.0,0.0,0,0,75.0,0.0,411.0,4633.846153846154,3921.0256410256416,4523.589743589744,4383.589743589744,4266.153846153847,4517.435897435898,4396.923076923077,4381.025641025642,4325.128205128206,4743.076923076924,4368.717948717949,4255.8974358974365,4245.641025641026,4519.48717948718
723.8173,0.4568449,0.5749252,0.3347622,0.6083144,0,0.0,0.0,0.0,0.0,0.6347559,0,0,0.0,0.0,0,0,107.0,0.0,411.0,4635.8974358974365,3931.2820512820517,4513.333333333334,4382.564102564103,4269.2307692307695,4517.435897435898,4404.102564102564,4381.025641025642,4326.153846153847,4732.307692307693,4339.48717948718,4225.641025641026,4235.8974358974365,4541.025641025642
724.06757,0.4568449,0.5749252,0.3347622,0.6083144,0,0.0,0.0,0.0,0.0,0.13433412,0,0,0.0,0.0,0,0,10.0,0.0,523.0,4643.589743589744,3966.1538461538466,4513.333333333334,4385.641025641026,4269.2307692307695,4523.589743589744,4429.2307692307695,4399.48717948718,4335.8974358974365,4751.282051282052,4361.025641025642,4269.2307692307695,4218.974358974359,4545.641025641026
724.1927,0.44070342,0.57322973,0.3521141,0.60327107,0,0.0,0.0,0.0,0.0,0.0,0,0,0.0,0.0,0,0,26.0,0.0,0.0,4643.589743589744,3963.076923076924,4484.615384615385,4375.384615384616,4268.205128205129,4518.974358974359,4445.641025641026,4425.128205128206,4343.076923076924,4764.102564102564,4369.743589743591,4267.6923076923085,4211.282051282052,4542.051282051282
724.4429,0.44070342,0.57322973,0.3521141,0.60327107,0,0.0,0.0,0.0,0.0,0.0,0,0,0.0,0.0,0,0,58.0,0.0,0.0,4614.358974358975,3927.1794871794878,4402.564102564103,4330.256410256411,4245.128205128206,4484.102564102564,4483.076923076924,4458.974358974359,4327.6923076923085,4729.743589743591,4321.538461538462,4196.410256410257,4116.923076923077,4518.461538461539
724.8182,0.47055525,0.5630525,0.36772996,0.60004514,0,0.0,0.0,0.0,0.0,0.005016762,0,0,0.0,0.0,0,0,106.0,0.0,523.0,4569.743589743591,3893.8461538461543,4331.794871794872,4286.666666666667,4206.153846153847,4444.102564102564,4507.179487179488,4481.025641025642,4320.000000000001,4667.179487179488,4289.74358974359,4041.0256410256416,4031.2820512820517,4500.000000000001
725.0684,0.47055525,0.5630525,0.36772996,0.60004514,0,0.0,0.0,0.0,0.0,0.09250819,0,0,0.0,0.0,0,0,9.0,0.0,472.0,4530.256410256411,3902.0512820512827,4326.153846153847,4278.461538461539,4195.384615384616,4426.666666666667,4473.846153846154,4457.948717948719,4312.307692307693,4646.666666666667,4263.076923076924,3940.0000000000005,4018.9743589743593,4487.179487179488
725.31866,0.51254004,0.5323049,0.3817826,0.6006105,0,0.0,0.0,0.0,0.0,0.17171252,0,0,0.0,0.0,0,0,41.0,0.0,0.0,4488.205128205129,3894.8717948717954,4356.923076923077,4295.8974358974365,4208.205128205129,4446.666666666667,4467.6923076923085,4462.564102564103,4316.410256410257,4654.358974358975,4271.282051282052,3935.8974358974365,4055.3846153846157,4498.974358974359
725.56885,0.51254004,0.5323049,0.3817826,0.6006105,0,0.0,0.0,0.0,0.0,0.0,0,0,0.0,0.0,0,0,73.0,0.0,472.0,4462.051282051282,3924.1025641025644,4394.871794871796,4325.641025641026,4231.282051282052,4480.000000000001,4442.051282051282,4443.589743589744,4323.076923076924,4661.025641025642,4268.717948717949,3970.2564102564106,4084.1025641025644,4491.794871794872
725.694,0.4723289,0.49281666,0.39061093,0.60453135,0,0.0,0.0,0.0,0.0,0.0,0,0,0.0,0.0,0,0,89.0,0.0,491.0,4470.256410256411,3943.076923076924,4442.051282051282,4354.871794871796,4248.717948717949,4498.461538461539,4431.794871794872,4414.871794871796,4324.102564102564,4670.769230769231,4283.076923076924,4011.2820512820517,4122.051282051282,4510.769230769231
726.0693,0.4723289,0.49281666,0.39061093,0.60453135,0,0.0,0.0,0.0,0.0,0.0039529353,0,0,0.0,0.0,0,0,8.0,0.0,336.0,4480.000000000001,3976.9230769230776,4546.666666666667,4415.384615384616,4294.358974358975,4551.282051282052,4419.48717948718,4393.333333333334,4344.615384615385,4720.512820512821,4319.48717948718,4125.128205128206,4215.8974358974365,4544.615384615385
726.3195,0.47394562,0.4607897,0.39440474,0.60876185,0,0.0,0.0,0.0,0.0,0.026804464,0,0,0.0,0.0,0,0,40.0,0.0,0.0,4531.794871794872,3974.8717948717954,4568.717948717949,4443.589743589744,4317.435897435898,4571.794871794872,4415.384615384616,4385.641025641026,4353.333333333334,4733.846153846154,4327.6923076923085,4210.769230769231,4220.000000000001,4529.2307692307695
726.5697,0.47394562,0.4607897,0.39440474,0.60876185,0,0.0,0.0,0.0,0.0,0.14219683,0,0,0.0,0.0,0,0,72.0,0.0,336.0,4568.717948717949,3989.7435897435903,4560.512820512821,4456.923076923077,4342.564102564103,4582.051282051282,4403.076923076924,4373.846153846154,4361.025641025642,4737.435897435898,4331.282051282052,4190.256410256411,4234.358974358975,4522.051282051282
726.81995,0.47372603,0.4485496,0.39781654,0.61256653,0,0.0,0.0,0.0,0.0,0.0,0,0,0.0,0.0,0,0,104.0,0.0,455.0,4578.974358974359,3992.307692307693,4568.717948717949,4467.6923076923085,4365.641025641026,4583.589743589744,4388.717948717949,4357.948717948719,4362.564102564103,4726.666666666667,4332.820512820514,4206.666666666667,4221.025641025642,4515.384615384616
727.0701,0.47372603,0.4485496,0.39781654,0.61256653,0,0.0,0.0,0.0,0.0,0.58784986,0,0,0.0,0.0,0,0,7.0,0.0,469.0,4615.384615384616,3996.410256410257,4578.461538461539,4478.461538461539,4358.461538461539,4584.102564102564,4397.435897435898,4378.461538461539,4367.6923076923085,4740.000000000001,4349.2307692307695,4228.717948717949,4218.974358974359,4497.435897435898
727.19525,0.46538475,0.45738864,0.39733768,0.61748457,0,0.0,0.0,0.0,0.0,0.0,0,0,0.0,0.0,0,0,23.0,0.0,0.0,4611.794871794872,3990.7692307692314,4566.153846153847,4471.282051282052,4337.435897435898,4573.333333333334,4387.6923076923085,4362.564102564103,4361.538461538462,4727.179487179488,4356.410256410257,4270.256410256411,4203.589743589744,4509.2307692307695
727.19525,0.46538475,0.45738864,0.39733768,0.61748457,0,0.0,0.0,0.0,0.0,0.0,0,0,0.0,0.0,0,0,23.0,0.0,0.0,4611.794871794872,3990.7692307692314,4566.153846153847,4471.282051282052,4337.435897435898,4573.333333333334,4387.6923076923085,4362.564102564103,4361.538461538462,4727.179487179488,4356.410256410257,4270.256410256411,4203.589743589744,4509.2307692307695
727.6957,0.46970266,0.46550792,0.39690417,0.62420976,0,0.0,0.0,0.0,0.0,0.0,0,0,0.0,0.0,0,0,87.0,0.0,409.0,4603.589743589744,3957.435897435898,4529.743589743591,4441.025641025642,4307.179487179487,4532.307692307693,4385.128205128206,4360.000000000001,4354.358974358975,4683.076923076924,4332.307692307693,4189.74358974359,4088.205128205129,4476.923076923077
728.071,0.46970266,0.46550792,0.39690417,0.62420976,0,0.0,0.0,0.0,0.0,0.03228985,0,0,0.0,0.0,0,0,6.0,0.0,539.0,4612.307692307693,4006.666666666667,4516.410256410257,4449.743589743591,4399.48717948718,4614.871794871796,4378.461538461539,4328.205128205129,4362.051282051282,4737.435897435898,4400.512820512821,4248.205128205129,4304.102564102564,4464.102564102564
728.3212,0.41101697,0.46232265,0.390804,0.6302577,0,0.0,0.0,0.0,0.0,0.0,0,0,0.0,0.44023883,0,0,38.0,0.0,0.0,4591.282051282052,4014.8717948717954,4460.000000000001,4415.8974358974365,4330.769230769231,4543.076923076924,4360.512820512821,4318.461538461539,4346.666666666667,4708.205128205129,4238.974358974359,4164.102564102564,4294.871794871796,4412.307692307693
728.5714,0.41101697,0.46232265,0.390804,0.6302577,0,0.0,0.0,0.0,0.0,0.0,0,0,0.0,0.62075686,0,0,70.0,0.0,539.0,4616.923076923077,3999.48717948718,4457.435897435898,4389.2307692307695,4260.000000000001,4480.512820512821,4353.333333333334,4312.820512820514,4340.512820512821,4690.769230769231,4195.8974358974365,4124.102564102564,4271.282051282052,4388.205128205129
728.82166,0.45776948,0.46716598,0.38401154,0.63445526,0,0.0,0.0,0.0,0.0,0.0,0,0,0.0,0.22244093,0,0,102.0,0.0,523.0,4616.410256410257,3968.717948717949,4453.333333333334,4387.6923076923085,4247.179487179487,4473.333333333334,4365.128205128206,4314.871794871796,4331.282051282052,4680.512820512821,4150.256410256411,4136.410256410257,4199.48717948718,4346.666666666667
729.07184,0.45776948,0.46716598,0.38401154,0.63445526,0,0.0,0.0,0.0,0.0,0.0,0,0,0.0,0.0,0,0,5.0,0.0,525.0,4602.051282051282,3962.564102564103,4431.794871794872,4378.461538461539,4225.641025641026,4453.333333333334,4343.076923076924,4313.333333333334,4323.589743589744,4645.128205128206,4158.974358974359,4147.6923076923085,4175.384615384616,4341.538461538462
729.19696,0.4419535,0.4827246,0.37788054,0.6319889,0,0.0,0.0,0.0,0.0,0.0,0,0,0.0,0.0,0,0,21.0,0.0,0.0,4614.358974358975,3945.6410256410263,4447.6923076923085,4385.641025641026,4233.846153846154,4463.076923076924,4356.410256410257,4326.666666666667,4334.358974358975,4651.282051282052,4173.846153846154,4160.512820512821,4177.948717948719,4358.974358974359
729.19696,0.4419535,0.4827246,0.37788054,0.6319889,0,0.0,0.0,0.0,0.0,0.0,0,0,0.0,0.0,0,0,21.0,0.0,0.0,4614.358974358975,3945.6410256410263,4447.6923076923085,4385.641025641026,4233.846153846154,4463.076923076924,4356.410256410257,4326.666666666667,4334.358974358975,4651.282051282052,4173.846153846154,4160.512820512821,4177.948717948719,4358.974358974359
729.6974,0.37884852,0.49517214,0.372361,0.62976927,0,0.0,0.0,0.0,0.0,0.0,0,0,0.0,0.0,0,0,85.0,0.0,491.0,4585.128205128206,3906.1538461538466,4414.358974358975,4350.256410256411,4202.564102564103,4436.410256410257,4380.512820512821,4354.871794871796,4336.923076923077,4668.205128205129,4242.051282051282,4207.179487179487,4135.384615384616,4404.102564102564
730.0727,0.37884852,0.49517214,0.372361,0.62976927,0,0.0,0.0,0.0,0.0,0.02246299,0,0,0.0,0.0,0,0,4.0,0.0,499.0,4556.410256410257,3878.461538461539,4343.589743589744,4304.615384615385,4148.205128205129,4369.2307692307695,4400.000000000001,4369.743589743591,4312.307692307693,4610.769230769231,4249.74358974359,4102.051282051282,3994.358974358975,4362.051282051282
730.32294,0.38552827,0.5128892,0.36843774,0.6219865,0,0.0,0.0,0.0,0.0,0.0058323387,0,0,0.0,0.0,0,0,36.0,0.0,0.0,4534.358974358975,3854.8717948717954,4275.384615384616,4272.820512820514,4109.2307692307695,4325.641025641026,4432.307692307693,4400.512820512821,4293.333333333334,4560.000000000001,4175.8974358974365,3953.8461538461543,3897.9487179487182,4333.846153846154
730.5732,0.38552827,0.5128892,0.36843774,0.6219865,0,0.0,0.0,0.0,0.0,0.026844354,0,0,0.0,0.0,0,0,68.0,0.0,499.0,4478.974358974359,3827.692307692308,4221.025641025642,4264.102564102564,4113.846153846154,4340.512820512821,4417.435897435898,4412.820512820514,4278.974358974359,4547.6923076923085,4191.794871794872,3821.0256410256416,3860.512820512821,4372.820512820514
730.82336,0.40312928,0.52884847,0.3649055,0.6149812,0,0.0,0.0,0.0,0.0,0.35379624,0,0,0.0,0.0,0,0,100.0,0.0,455.0,4416.410256410257,3845.6410256410263,4233.333333333334,4268.717948717949,4129.74358974359,4366.153846153847,4374.871794871796,4369.743589743591,4274.358974358975,4519.48717948718,4164.102564102564,3756.410256410257,3842.0512820512827,4341.538461538462
731.0736,0.40312928,0.52884847,0.3649055,0.6149812,0,0.0,0.0,0.0,0.0,0.07678918,0,0,0.0,0.0,0,0,3.0,0.0,398.0,4395.384615384616,3880.512820512821,4295.384615384616,4310.256410256411,4171.282051282052,4414.871794871796,4369.743589743591,4360.512820512821,4292.307692307693,4574.358974358975,4196.410256410257,3783.076923076924,3951.7948717948725,4351.794871794872
731.3238,0.42213878,0.5432119,0.36172527,0.6086753,0,0.0,0.0,0.0,0.0,0.08105836,0,0,0.0,0.0,0,0,35.0,0.0,0.0,4400.000000000001,3881.0256410256416,4368.717948717949,4349.743589743591,4201.025641025642,4461.538461538462,4361.538461538462,4349.2307692307695,4298.974358974359,4622.564102564103,4219.48717948718,3891.2820512820517,4045.1282051282055,4346.153846153847
731.57404,0.42213878,0.5432119,0.36172527,0.6086753,0,0.0,0.0,0.0,0.0,0.04989847,0,0,0.0,0.0,0,0,67.0,0.0,398.0,4402.564102564103,3887.692307692308,4427.179487179487,4383.589743589744,4221.538461538462,4476.923076923077,4346.153846153847,4340.512820512821,4313.333333333334,4647.179487179488,4221.025641025642,3948.205128205129,4093.333333333334,4331.282051282052
731.8242,0.41598564,0.5561389,0.3575996,0.60880506,0,0.0,0.0,0.0,0.0,0.04622433,0,0,0.0,0.0,0,0,99.0,0.0,410.0,4421.025641025642,3875.3846153846157,4482.564102564103,4412.820512820514,4228.205128205129,4482.564102564103,4346.153846153847,4331.794871794872,4327.179487179487,4692.820512820514,4263.589743589744,4049.23076923077,4180.512820512821,4340.000000000001
732.07446,0.41598564,0.5561389,0.3575996,0.60880506,0,0.0,0.0,0.0,0.0,0.05962425,0,0,0.0,0.0,0,0,2.0,0.0,336.0,4451.282051282052,3902.0512820512827,4509.743589743591,4430.769230769231,4247.179487179487,4495.384615384616,4366.153846153847,4346.666666666667,4332.820512820514,4715.384615384616,4297.435897435898,4168.205128205129,4188.717948717949,4335.384615384616
732.1995,0.44798097,0.5677732,0.35166553,0.6153612,0,0.0,0.0,0.0,0.0,0.0,0,0,0.0,0.0,0,0,18.0,0.0,0.0,4456.923076923077,3901.538461538462,4479.48717948718,4421.538461538462,4238.461538461539,4487.179487179488,4370.256410256411,4352.820512820514,4334.358974358975,4705.641025641026,4284.615384615385,4141.025641025642,4141.025641025642,4311.282051282052
732.5749,0.44798097,0.5677732,0.35166553,0.6153612,0,0.0,0.0,0.0,0.0,0.01675181,0,0,0.0,0.0,0,0,66.0,0.0,336.0,4461.538461538462,3895.8974358974365,4448.717948717949,4407.179487179487,4229.74358974359,4470.769230769231,4418.974358974359,4395.8974358974365,4332.820512820514,4699.48717948718,4279.48717948718,4044.1025641025644,4105.128205128206,4315.384615384616
732.8251,0.3768103,0.53325063,0.3452601,0.62428606,0,0.0,0.0,0.0,0.0,0.030510703,0,0,0.0,0.0,0,0,98.0,0.0,525.0,4440.000000000001,3874.358974358975,4413.846153846154,4377.948717948719,4198.974358974359,4449.2307692307695,4404.615384615385,4377.948717948719,4322.051282051282,4666.153846153847,4255.384615384616,4045.1282051282055,4074.8717948717954,4315.384615384616
732.9502,0.3768103,0.53325063,0.3452601,0.62428606,0,0.0,0.0,0.0,0.0,0.0,0,0,0.0,0.0,0,0,114.0,0.0,525.0,4440.000000000001,3885.6410256410263,4416.923076923077,4370.256410256411,4207.6923076923085,4456.923076923077,4404.615384615385,4382.564102564103,4324.102564102564,4658.461538461539,4248.205128205129,4070.2564102564106,4054.358974358975,4324.615384615385
733.20044,0.33749053,0.50470054,0.3394948,0.6325377,0,0.0,0.0,0.0,0.0,0.0,0,0,0.0,0.0,0,0,17.0,0.0,0.0,4456.410256410257,3889.2307692307695,4421.538461538462,4365.641025641026,4201.538461538462,4445.641025641026,4393.333333333334,4370.769230769231,4326.666666666667,4656.923076923077,4256.410256410257,4073.8461538461543,4063.589743589744,4305.641025641026
733.20044,0.33749053,0.50470054,0.3394948,0.6325377,0,0.0,0.0,0.0,0.0,0.0,0,0,0.0,0.0,0,0,17.0,0.0,0.0,4456.410256410257,3889.2307692307695,4421.538461538462,4365.641025641026,4201.538461538462,4445.641025641026,4393.333333333334,4370.769230769231,4326.666666666667,4656.923076923077,4256.410256410257,4073.8461538461543,4063.589743589744,4305.641025641026
733.70087,0.29606444,0.51411134,0.33430576,0.64181733,0,0.0,0.0,0.0,0.0,0.0,0,0,0.0,0.0,0,0,81.0,0.0,492.0,4478.461538461539,3888.717948717949,4404.102564102564,4389.2307692307695,4166.666666666667,4402.051282051282,4401.538461538462,4400.512820512821,4287.179487179487,4606.153846153847,4249.2307692307695,4034.8717948717954,4003.076923076924,4296.923076923077
734.0762,0.29606444,0.51411134,0.33430576,0.64181733,0,0.0,0.0,0.0,0.0,0.3705436,0,0,0.0,0.0,0,0,0.0,0.0,509.0,4415.384615384616,3878.9743589743593,4381.025641025642,4392.820512820514,4195.384615384616,4448.205128205129,4369.743589743591,4397.435897435898,4296.410256410257,4638.974358974359,4280.512820512821,4029.7435897435903,4081.0256410256416,4353.846153846154
734.32635,0.24562293,0.5058742,0.32821152,0.6518625,0,0.0,0.0,0.0,0.0,0.015891116,0,0,0.0,0.0,0,0,32.0,0.0,0.0,4425.641025641026,3909.2307692307695,4440.512820512821,4424.102564102564,4230.256410256411,4495.384615384616,4342.564102564103,4371.794871794872,4314.358974358975,4708.717948717949,4328.205128205129,4053.333333333334,4162.564102564103,4389.743589743591
734.5766,0.24562293,0.5058742,0.32821152,0.6518625,0,0.0,0.0,0.0,0.0,0.007050829,0,0,0.0,0.0,0,0,64.0,0.0,509.0,4440.512820512821,3816.410256410257,4495.8974358974365,4458.974358974359,4263.589743589744,4526.666666666667,4320.000000000001,4334.358974358975,4317.435897435898,4733.333333333334,4342.564102564103,4068.717948717949,4189.2307692307695,4359.48717948718
734.8268,0.23866796,0.5072759,0.32283738,0.66082585,0,0.0,0.0,0.0,0.0,0.30874854,0,0,0.0,0.0,0,0,96.0,0.0,455.0,4461.025641025642,3845.1282051282055,4553.333333333334,4489.2307692307695,4263.076923076924,4520.512820512821,4323.076923076924,4347.179487179487,4341.025641025642,4783.076923076924,4408.717948717949,4182.564102564103,4267.179487179487,4323.076923076924
735.077,0.23866796,0.5072759,0.32283738,0.66082585,0,0.0,0.0,0.0,0.0,0.09659467,0,0,0.0,0.0,0,0,128.0,0.0,455.0,4476.410256410257,3897.435897435898,4568.717948717949,4507.6923076923085,4286.666666666667,4537.435897435898,4331.794871794872,4335.384615384616,4352.820512820514,4785.128205128206,4392.307692307693,4196.410256410257,4282.564102564103,4353.333333333334
735.3272,0.29843298,0.51934725,0.3199675,0.66970164,0,0.0,0.0,0.0,0.0,0.0,0,0,0.0,0.0,0,0,31.0,0.0,0.0,4489.743589743591,3927.692307692308,4576.410256410257,4505.128205128206,4275.384615384616,4519.48717948718,4376.410256410257,4340.512820512821,4361.025641025642,4770.256410256411,4349.743589743591,4226.153846153847,4271.282051282052,4403.589743589744
735.3272,0.29843298,0.51934725,0.3199675,0.66970164,0,0.0,0.0,0.0,0.0,0.0,0,0,0.0,0.0,0,0,31.0,0.0,0.0,4489.743589743591,3927.692307692308,4576.410256410257,4505.128205128206,4275.384615384616,4519.48717948718,4376.410256410257,4340.512820512821,4361.025641025642,4770.256410256411,4349.743589743591,4226.153846153847,4271.282051282052,4403.589743589744
735.7026,0.31332707,0.51175433,0.31738514,0.6751555,0,0.0,0.0,0.0,0.0,0.0,0,0,0.0,0.0,0,0,79.0,0.0,413.0,4524.102564102564,3956.9230769230776,4571.282051282052,4508.205128205129,4272.307692307693,4513.333333333334,4437.435897435898,4351.794871794872,4368.717948717949,4780.000000000001,4380.000000000001,4314.871794871796,4258.974358974359,4449.743589743591
735.7026,0.31332707,0.51175433,0.31738514,0.6751555,0,0.0,0.0,0.0,0.0,0.0,0,0,0.0,0.0,0,0,79.0,0.0,413.0,4524.102564102564,3956.9230769230776,4571.282051282052,4508.205128205129,4272.307692307693,4513.333333333334,4437.435897435898,4351.794871794872,4368.717948717949,4780.000000000001,4380.000000000001,4314.871794871796,4258.974358974359,4449.743589743591
736.203,0.26196072,0.51610225,0.31431857,0.68005323,0,0.0,0.0,0.0,0.0,0.0,0,0,0.0,0.0,0,0,14.0,0.0,525.0,4567.179487179488,3962.0512820512827,4547.6923076923085,4508.717948717949,4255.8974358974365,4490.256410256411,4476.410256410257,4369.743589743591,4368.205128205129,4737.435897435898,4366.666666666667,4286.666666666667,4169.2307692307695,4415.8974358974365
736.203,0.26196072,0.51610225,0.31431857,0.68005323,0,0.0,0.0,0.0,0.0,0.0,0,0,0.0,0.0,0,0,14.0,0.0,525.0,4567.179487179488,3962.0512820512827,4547.6923076923085,4508.717948717949,4255.8974358974365,4490.256410256411,4476.410256410257,4369.743589743591,4368.205128205129,4737.435897435898,4366.666666666667,4286.666666666667,4169.2307692307695,4415.8974358974365
736.82855,0.2996097,0.52501786,0.31012875,0.68010885,0,0.0,0.0,0.0,0.0,0.05054752,0,0,0.0,0.0,0,0,94.0,0.0,525.0,4607.6923076923085,3933.8461538461543,4451.794871794872,4466.153846153847,4200.512820512821,4433.333333333334,4484.615384615385,4360.512820512821,4324.615384615385,4661.025641025642,4316.923076923077,4132.820512820514,4105.128205128206,4352.820512820514
737.07874,0.2996097,0.52501786,0.31012875,0.68010885,0,0.0,0.0,0.0,0.0,0.16701989,0,0,0.0,0.0,0,0,126.0,0.0,525.0,4602.564102564103,3920.0000000000005,4450.256410256411,4464.615384615385,4195.8974358974365,4429.2307692307695,4478.461538461539,4365.128205128206,4321.538461538462,4663.076923076924,4329.743589743591,4112.307692307693,4111.794871794872,4336.923076923077
737.20386,0.31242028,0.538869,0.30779004,0.6750911,0,0.0,0.0,0.0,0.0,0.0,0,0,0.0,0.0,0,0,13.0,0.0,492.0,4602.051282051282,3929.2307692307695,4451.794871794872,4462.564102564103,4215.8974358974365,4445.641025641026,4466.666666666667,4357.948717948719,4330.769230769231,4667.6923076923085,4333.333333333334,4097.948717948719,4120.000000000001,4356.923076923077
737.20386,0.31242028,0.538869,0.30779004,0.6750911,0,0.0,0.0,0.0,0.0,0.0,0,0,0.0,0.0,0,0,13.0,0.0,492.0,4602.051282051282,3929.2307692307695,4451.794871794872,4462.564102564103,4215.8974358974365,4445.641025641026,4466.666666666667,4357.948717948719,4330.769230769231,4667.6923076923085,4333.333333333334,4097.948717948719,4120.000000000001,4356.923076923077
737.7043,0.27258158,0.5461327,0.30684415,0.6705724,0,0.0,0.0,0.0,0.0,0.0,0,0,0.0,0.0,0,0,77.0,0.0,492.0,4568.717948717949,3926.666666666667,4465.641025641026,4452.820512820514,4219.48717948718,4462.051282051282,4449.2307692307695,4362.051282051282,4343.589743589744,4706.666666666667,4358.461538461539,4163.589743589744,4142.564102564103,4318.461538461539
737.7043,0.27258158,0.5461327,0.30684415,0.6705724,0,0.0,0.0,0.0,0.0,0.0,0,0,0.0,0.0,0,0,77.0,0.0,492.0,4568.717948717949,3926.666666666667,4465.641025641026,4452.820512820514,4219.48717948718,4462.051282051282,4449.2307692307695,4362.051282051282,4343.589743589744,4706.666666666667,4358.461538461539,4163.589743589744,4142.564102564103,4318.461538461539
738.2047,0.3235266,0.57239604,0.30694053,0.6665027,0,0.0,0.0,0.0,0.0,0.0,0,0,0.0,0.0,0,0,12.0,0.0,453.0,4604.102564102564,3972.307692307693,4548.205128205129,4503.589743589744,4269.2307692307695,4512.820512820514,4459.48717948718,4403.076923076924,4371.282051282052,4781.025641025642,4444.102564102564,4338.974358974359,4227.6923076923085,4374.871794871796
738.2047,0.3235266,0.57239604,0.30694053,0.6665027,0,0.0,0.0,0.0,0.0,0.0,0,0,0.0,0.0,0,0,12.0,0.0,453.0,4604.102564102564,3972.307692307693,4548.205128205129,4503.589743589744,4269.2307692307695,4512.820512820514,4459.48717948718,4403.076923076924,4371.282051282052,4781.025641025642,4444.102564102564,4338.974358974359,4227.6923076923085,4374.871794871796
738.70514,0.31983706,0.56152165,0.31111714,0.66384387,0,0.0,0.0,0.0,0.0,0.0,0,0,0.0,0.0,0,0,76.0,0.0,452.0,4631.282051282052,3969.7435897435903,4545.128205128206,4504.102564102564,4275.8974358974365,4516.923076923077,4463.589743589744,4389.743589743591,4376.410256410257,4775.384615384616,4402.564102564103,4344.102564102564,4211.282051282052,4372.820512820514
738.70514,0.31983706,0.56152165,0.31111714,0.66384387,0,0.0,0.0,0.0,0.0,0.0,0,0,0.0,0.0,0,0,76.0,0.0,452.0,4631.282051282052,3969.7435897435903,4545.128205128206,4504.102564102564,4275.8974358974365,4516.923076923077,4463.589743589744,4389.743589743591,4376.410256410257,4775.384615384616,4402.564102564103,4344.102564102564,4211.282051282052,4372.820512820514
739.20557,0.36427286,0.552895,0.31491008,0.6629607,0,0.0,0.0,0.0,0.0,0.0,0,0,0.0,0.0,0,0,11.0,0.0,414.0,4631.794871794872,3956.410256410257,4514.358974358975,4486.666666666667,4262.564102564103,4513.846153846154,4462.564102564103,4393.333333333334,4374.871794871796,4777.435897435898,4424.615384615385,4334.871794871796,4208.205128205129,4390.256410256411
739.20557,0.36427286,0.552895,0.31491008,0.6629607,0,0.0,0.0,0.0,0.0,0.0,0,0,0.0,0.0,0,0,11.0,0.0,414.0,4631.794871794872,3956.410256410257,4514.358974358975,4486.666666666667,4262.564102564103,4513.846153846154,4462.564102564103,4393.333333333334,4374.871794871796,4777.435897435898,4424.615384615385,4334.871794871796,4208.205128205129,4390.256410256411
739.706,0.37877634,0.5554218,0.31832445,0.6646798,0,0.0,0.0,0.0,0.0,0.0,0,0,0.0,0.0,0,0,75.0,0.0,414.0,4652.820512820514,3947.692307692308,4513.846153846154,4471.794871794872,4261.025641025642,4504.615384615385,4455.8974358974365,4380.000000000001,4371.282051282052,4767.6923076923085,4407.6923076923085,4287.179487179487,4209.2307692307695,4426.153846153847
739.706,0.37877634,0.5554218,0.31832445,0.6646798,0,0.0,0.0,0.0,0.0,0.0,0,0,0.0,0.0,0,0,75.0,0.0,414.0,4652.820512820514,3947.692307692308,4513.846153846154,4471.794871794872,4261.025641025642,4504.615384615385,4455.8974358974365,4380.000000000001,4371.282051282052,4767.6923076923085,4407.6923076923085,4287.179487179487,4209.2307692307695,4426.153846153847
740.2064,0.37983286,0.550928,0.3233687,0.66796505,0,0.0,0.0,0.0,0.0,0.0,0,0,0.0,0.0,0,0,10.0,0.0,525.0,4633.333333333334,3942.0512820512827,4475.384615384616,4428.717948717949,4217.948717948719,4473.333333333334,4430.256410256411,4357.435897435898,4365.128205128206,4741.538461538462,4384.102564102564,4261.025641025642,4196.410256410257,4457.435897435898
740.2064,0.37983286,0.550928,0.3233687,0.66796505,0,0.0,0.0,0.0,0.0,0.0,0,0,0.0,0.0,0,0,10.0,0.0,525.0,4633.333333333334,3942.0512820512827,4475.384615384616,4428.717948717949,4217.948717948719,4473.333333333334,4430.256410256411,4357.435897435898,4365.128205128206,4741.538461538462,4384.102564102564,4261.025641025642,4196.410256410257,4457.435897435898
740.70685,0.37007123,0.54182106,0.32633686,0.6709137,0,0.0,0.0,0.0,0.0,0.0,0,0,0.0,0.0,0,0,74.0,0.0,525.0,4608.717948717949,3910.2564102564106,4458.974358974359,4419.48717948718,4215.8974358974365,4463.076923076924,4427.179487179487,4345.641025641026,4358.461538461539,4732.307692307693,4402.564102564103,4267.179487179487,4192.820512820514,4456.923076923077
740.70685,0.37007123,0.54182106,0.32633686,0.6709137,0,0.0,0.0,0.0,0.0,0.0,0,0,0.0,0.0,0,0,74.0,0.0,525.0,4608.717948717949,3910.2564102564106,4458.974358974359,4419.48717948718,4215.8974358974365,4463.076923076924,4427.179487179487,4345.641025641026,4358.461538461539,4732.307692307693,4402.564102564103,4267.179487179487,4192.820512820514,4456.923076923077
741.2073,0.36032212,0.53394896,0.32726082,0.67355925,0,0.0,0.0,0.0,0.0,0.0,0,0,0.0,0.0,0,0,9.0,0.0,472.0,4594.871794871796,3880.512820512821,4455.8974358974365,4418.461538461539,4200.000000000001,4446.666666666667,4423.076923076924,4342.564102564103,4348.205128205129,4695.384615384616,4289.2307692307695,4205.641025641026,4155.384615384616,4413.333333333334
741.2073,0.36032212,0.53394896,0.32726082,0.67355925,0,0.0,0.0,0.0,0.0,0.0,0,0,0.0,0.0,0,0,9.0,0.0,472.0,4594.871794871796,3880.512820512821,4455.8974358974365,4418.461538461539,4200.000000000001,4446.666666666667,4423.076923076924,4342.564102564103,4348.205128205129,4695.384615384616,4289.2307692307695,4205.641025641026,4155.384615384616,4413.333333333334
741.7077,0.350451,0.5253037,0.32579455,0.6750581,0,0.0,0.0,0.0,0.0,0.0,0,0,0.0,0.0,0,0,73.0,0.0,472.0,4601.538461538462,3863.076923076924,4474.358974358975,4432.820512820514,4214.358974358975,4454.871794871796,4433.846153846154,4361.025641025642,4362.051282051282,4723.589743589744,4329.2307692307695,4240.512820512821,4169.2307692307695,4424.615384615385
742.08307,0.350451,0.5253037,0.32579455,0.6750581,0,0.0,0.0,0.0,0.0,0.3584999,0,0,0.0,0.0,0,0,121.0,0.0,492.0,4615.384615384616,3904.615384615385,4480.000000000001,4432.307692307693,4213.333333333334,4456.410256410257,4436.923076923077,4365.641025641026,4362.564102564103,4721.538461538462,4331.282051282052,4212.307692307693,4162.051282051282,4398.461538461539
742.33325,0.3165858,0.52376324,0.32300445,0.6763995,0,0.0,0.0,0.0,0.0,0.3923925,0,0,0.0,0.0,0,0,24.0,0.0,0.0,4601.538461538462,3890.7692307692314,4468.717948717949,4429.2307692307695,4205.128205128206,4460.000000000001,4439.48717948718,4366.153846153847,4354.871794871796,4710.256410256411,4317.948717948719,4225.641025641026,4137.948717948719,4365.128205128206
742.5835,0.3165858,0.52376324,0.32300445,0.6763995,0,0.0,0.0,0.0,0.0,0.10828791,0,0,0.0,0.0,0,0,56.0,0.0,0.0,4602.564102564103,3895.3846153846157,4484.615384615385,4427.179487179487,4195.8974358974365,4446.666666666667,4424.615384615385,4354.871794871796,4353.333333333334,4717.948717948719,4324.102564102564,4212.307692307693,4150.769230769231,4365.641025641026
742.8337,0.27973017,0.52091855,0.3204938,0.67759913,0,0.0,0.0,0.0,0.0,0.0,0,0,0.0,0.0,0,0,88.0,0.0,452.0,4606.153846153847,3914.8717948717954,4489.2307692307695,4432.307692307693,4204.615384615385,4456.923076923077,4436.923076923077,4365.128205128206,4353.846153846154,4720.000000000001,4323.076923076924,4195.384615384616,4162.564102564103,4362.051282051282
742.8337,0.27973017,0.52091855,0.3204938,0.67759913,0,0.0,0.0,0.0,0.0,0.0,0,0,0.0,0.0,0,0,88.0,0.0,452.0,4606.153846153847,3914.8717948717954,4489.2307692307695,4432.307692307693,4204.615384615385,4456.923076923077,4436.923076923077,4365.128205128206,4353.846153846154,4720.000000000001,4323.076923076924,4195.384615384616,4162.564102564103,4362.051282051282
743.209,0.2844342,0.4849898,0.31582657,0.6796133,0,0.0,0.0,0.0,0.0,0.0,0,0,0.0,0.0,0,0,7.0,0.0,469.0,4597.948717948719,3955.3846153846157,4525.641025641026,4471.282051282052,4246.153846153847,4515.8974358974365,4482.564102564103,4421.025641025642,4376.410256410257,4778.461538461539,4383.076923076924,4278.461538461539,4213.333333333334,4409.2307692307695
743.209,0.2844342,0.4849898,0.31582657,0.6796133,0,0.0,0.0,0.0,0.0,0.0,0,0,0.0,0.0,0,0,7.0,0.0,469.0,4597.948717948719,3955.3846153846157,4525.641025641026,4471.282051282052,4246.153846153847,4515.8974358974365,4482.564102564103,4421.025641025642,4376.410256410257,4778.461538461539,4383.076923076924,4278.461538461539,4213.333333333334,4409.2307692307695
743.7094,0.36774635,0.48405105,0.30940127,0.68213737,0,0.0,0.0,0.0,0.0,0.0,0,0,0.0,0.0,0,0,71.0,0.0,469.0,4656.923076923077,4027.1794871794878,4580.000000000001,4512.820512820514,4315.8974358974365,4567.6923076923085,4533.846153846154,4468.717948717949,4393.333333333334,4822.051282051282,4407.6923076923085,4309.2307692307695,4244.615384615385,4472.307692307693
744.0848,0.36774635,0.48405105,0.30940127,0.68213737,0,0.0,0.0,0.0,0.0,0.26252455,0,0,0.0,0.0,0,0,119.0,0.0,414.0,4593.333333333334,4006.1538461538466,4434.871794871796,4453.846153846154,4358.461538461539,4525.641025641026,4430.256410256411,4350.256410256411,4333.846153846154,4675.384615384616,4286.666666666667,4203.589743589744,4020.5128205128212,4421.538461538462
744.33496,0.43256244,0.48319864,0.3036195,0.6843997,0,0.0,0.0,0.0,0.0,0.15862295,0,0,0.0,0.0,0,0,22.0,0.0,0.0,4282.051282051282,3617.9487179487182,3772.307692307693,4041.538461538462,4007.1794871794878,3983.589743589744,3788.205128205129,3676.9230769230776,4097.948717948719,4078.9743589743593,3690.7692307692314,3816.410256410257,3524.1025641025644,4232.820512820514
744.5852,0.43256244,0.48319864,0.3036195,0.6843997,0,0.0,0.0,0.0,0.0,0.14369895,0,0,0.0,0.0,0,0,54.0,0.0,0.0,4297.435897435898,3650.7692307692314,3682.0512820512827,4154.358974358975,4013.333333333334,3957.9487179487182,3703.589743589744,3446.1538461538466,4090.7692307692314,4054.8717948717954,3661.538461538462,4637.435897435898,3604.615384615385,4753.333333333334
744.8354,0.5906549,0.48243147,0.2984171,0.68642646,0,0.0,0.0,0.0,0.15599935,0.0,0,0,0.0,0.0,0,0,86.0,0.0,528.0,4350.256410256411,3764.1025641025644,3816.9230769230776,4293.846153846154,4117.948717948719,4082.564102564103,3839.48717948718,3636.410256410257,4122.564102564103,4305.128205128206,3817.435897435898,4603.589743589744,3751.794871794872,5030.256410256411
745.08563,0.5906549,0.48243147,0.2984171,0.68642646,0,0.0,0.0,0.0,0.0,0.58139116,0,0,0.0,0.0,0,0,118.0,0.0,528.0,4460.512820512821,3871.7948717948725,3982.564102564103,4264.615384615385,4182.564102564103,4195.384615384616,3989.7435897435903,3844.1025641025644,4165.641025641026,4524.615384615385,3989.7435897435903,4741.538461538462,3916.410256410257,5293.846153846154
745.3358,0.73477846,0.481741,0.29373634,0.68474716,0,0.0,0.0,0.0,0.0,1.0,0,0,0.0,0.0,0,0,21.0,0.0,0.0,4562.051282051282,3945.6410256410263,4146.153846153847,4341.538461538462,4244.615384615385,4298.461538461539,4113.333333333334,4011.2820512820517,4191.282051282052,4643.589743589744,4106.153846153847,4862.564102564103,4084.615384615385,5703.076923076924
745.3358,0.73477846,0.481741,0.29373634,0.68474716,0,0.0,0.0,0.0,0.0,1.0,0,0,0.0,0.0,0,0,21.0,0.0,0.0,4562.051282051282,3945.6410256410263,4146.153846153847,4341.538461538462,4244.615384615385,4298.461538461539,4113.333333333334,4011.2820512820517,4191.282051282052,4643.589743589744,4106.153846153847,4862.564102564103,4084.615384615385,5703.076923076924
745.83624,0.856605,0.4811196,0.29054815,0.6746762,0,0.0,0.0,0.0,0.0,0.12739384,0,0,0.0,0.0,0,0,85.0,0.0,473.0,4724.615384615386,4039.48717948718,4321.538461538462,4381.538461538462,4236.923076923077,4400.512820512821,4300.512820512821,4255.384615384616,4247.6923076923085,4854.358974358975,4295.384615384616,4704.102564102564,4267.6923076923085,5884.615384615386
746.0865,0.856605,0.4811196,0.29054815,0.6746762,0,0.0,0.0,0.0,0.0,0.269985,0,0,0.0,0.0,0,0,117.0,0.0,473.0,4700.512820512821,4007.1794871794878,4288.205128205129,4360.000000000001,4192.820512820514,4368.205128205129,4278.461538461539,4282.051282051282,4245.641025641026,4853.846153846154,4273.846153846154,4455.8974358974365,4269.74358974359,5651.794871794873
746.3367,0.88335526,0.48056033,0.29974702,0.6607708,0,0.0,0.0,0.0,0.0,0.18101847,0,0,0.0,0.0,0,0,20.0,0.0,0.0,4717.948717948719,4060.0000000000005,4378.974358974359,4376.410256410257,4206.666666666667,4417.435897435898,4394.871794871796,4404.615384615385,4284.102564102564,4948.205128205129,4439.48717948718,4323.076923076924,4329.2307692307695,5652.820512820514
746.5869,0.88335526,0.48056033,0.29974702,0.6607708,0,0.0,0.0,0.0,0.0,0.29267788,0,0,0.0,0.0,0,0,52.0,0.0,0.0,4685.641025641026,4018.461538461539,4359.48717948718,4354.871794871796,4191.794871794872,4415.8974358974365,4355.8974358974365,4391.282051282052,4280.512820512821,4934.871794871796,4435.8974358974365,4364.102564102564,4317.948717948719,5537.435897435898
746.83716,0.9873526,0.48005697,0.31214225,0.64825827,0,0.0,0.0,0.0,0.0,0.3715319,0,0,0.0,0.0,0,0,84.0,0.0,450.0,4662.564102564103,3994.358974358975,4378.974358974359,4353.846153846154,4169.2307692307695,4415.8974358974365,4332.820512820514,4409.2307692307695,4270.769230769231,4897.435897435898,4331.282051282052,4182.564102564103,4318.974358974359,5688.205128205129
747.08734,0.9873526,0.48005697,0.31214225,0.64825827,0,0.0,0.0,0.0,0.0,1.0,0,0,0.0,0.0,0,0,116.0,0.0,450.0,4635.384615384616,3996.9230769230776,4398.974358974359,4385.641025641026,4178.461538461539,4429.2307692307695,4349.743589743591,4385.641025641026,4274.358974358975,4855.8974358974365,4302.051282051282,4072.820512820513,4322.564102564103,5680.512820512821
747.3376,1.0,0.47960398,0.32329872,0.6369982,0,0.0,0.0,0.0,0.0,0.073627405,0,0,0.0,0.0,0,0,19.0,0.0,0.0,4643.076923076924,4047.1794871794878,4468.717948717949,4427.179487179487,4192.820512820514,4450.256410256411,4436.410256410257,4412.307692307693,4292.820512820514,4865.128205128206,4277.435897435898,4147.6923076923085,4371.282051282052,5669.743589743591
747.58777,1.0,0.47960398,0.32329872,0.6369982,0,0.0,0.0,0.0,0.0,0.69194144,0,0,0.0,0.0,0,0,51.0,0.0,0.0,4634.358974358975,4029.23076923077,4492.307692307693,4425.641025641026,4232.820512820514,4499.48717948718,4471.794871794872,4425.128205128206,4305.641025641026,4845.128205128206,4295.8974358974365,4275.384615384616,4351.282051282052,5515.8974358974365
747.7129,0.9264801,0.47919628,0.33333993,0.63210887,0,0.0,0.0,0.0,0.0,1.0,0,0,0.0,0.0,0,0,67.0,0.0,405.0,4639.48717948718,4034.8717948717954,4504.615384615385,4439.48717948718,4247.179487179487,4507.179487179488,4471.794871794872,4432.820512820514,4311.282051282052,4857.435897435898,4331.794871794872,4278.974358974359,4374.358974358975,5454.3589743589755
748.0882,0.9264801,0.47919628,0.33333993,0.63210887,0,0.0,0.0,0.0,0.0,0.41417155,0,0,0.0,0.0,0,0,115.0,0.0,379.0,4632.307692307693,4020.0000000000005,4514.358974358975,4457.948717948719,4217.948717948719,4478.461538461539,4504.615384615385,4472.307692307693,4317.435897435898,4851.794871794872,4372.820512820514,4227.6923076923085,4350.256410256411,5513.846153846154
748.33844,0.94177645,0.47882932,0.33844656,0.6352372,0,0.0,0.0,0.0,0.0,1.0,0,0,0.0,0.0,0,0,18.0,0.0,0.0,4627.179487179488,3975.8974358974365,4494.871794871796,4418.461538461539,4203.589743589744,4461.025641025642,4484.615384615385,4460.000000000001,4308.205128205129,4787.179487179488,4355.384615384616,4082.0512820512827,4280.512820512821,5633.846153846154
748.33844,0.94177645,0.47882932,0.33844656,0.6352372,0,0.0,0.0,0.0,0.0,1.0,0,0,0.0,0.0,0,0,18.0,0.0,0.0,4627.179487179488,3975.8974358974365,4494.871794871796,4418.461538461539,4203.589743589744,4461.025641025642,4484.615384615385,4460.000000000001,4308.205128205129,4787.179487179488,4355.384615384616,4082.0512820512827,4280.512820512821,5633.846153846154
748.83887,0.96799123,0.47849908,0.3430423,0.6411926,0,0.0,0.0,0.0,0.0,0.24206817,0,0,0.0,0.0,0,0,82.0,0.0,520.0,4616.923076923077,3931.7948717948725,4506.153846153847,4433.846153846154,4203.076923076924,4473.846153846154,4448.717948717949,4397.435897435898,4312.307692307693,4748.717948717949,4369.743589743591,3922.564102564103,4209.74358974359,5682.051282051283
749.08905,0.96799123,0.47849908,0.3430423,0.6411926,0,0.0,0.0,0.0,0.0,0.41193664,0,0,0.0,0.0,0,0,114.0,0.0,520.0,4622.564102564103,3938.9743589743593,4531.282051282052,4452.820512820514,4212.307692307693,4493.333333333334,4447.179487179487,4392.307692307693,4317.435897435898,4731.282051282052,4369.743589743591,3920.0000000000005,4195.384615384616,5580.512820512821
749.2142,0.93642384,0.45333114,0.3455652,0.6478935,0,0.0,0.0,0.0,0.0,1.0,0,0,0.0,0.0,0,0,1.0,0.0,406.0,4643.589743589744,3939.48717948718,4558.974358974359,4463.589743589744,4252.307692307693,4530.769230769231,4462.051282051282,4412.307692307693,4327.179487179487,4757.435897435898,4394.871794871796,3975.3846153846157,4202.564102564103,5458.461538461539
749.2142,0.93642384,0.45333114,0.3455652,0.6478935,0,0.0,0.0,0.0,0.0,1.0,0,0,0.0,0.0,0,0,1.0,0.0,406.0,4643.589743589744,3939.48717948718,4558.974358974359,4463.589743589744,4252.307692307693,4530.769230769231,4462.051282051282,4412.307692307693,4327.179487179487,4757.435897435898,4394.871794871796,3975.3846153846157,4202.564102564103,5458.461538461539
749.7146,0.86238295,0.45535928,0.34691393,0.65391684,0,0.0,0.0,0.0,0.0,1.0,0,0,0.0,0.0,0,0,65.0,0.0,406.0,4688.205128205129,3892.820512820513,4576.410256410257,4521.025641025642,4259.48717948718,4549.743589743591,4506.666666666667,4403.589743589744,4350.256410256411,4784.102564102564,4412.307692307693,4047.1794871794878,4244.102564102564,5150.256410256411
750.0899,0.86238295,0.45535928,0.34691393,0.65391684,0,0.0,0.0,0.0,0.0,0.25315616,0,0,0.0,0.0,0,0,113.0,0.0,492.0,4638.974358974359,3797.9487179487182,4375.384615384616,4422.564102564103,4215.8974358974365,4458.461538461539,4488.717948717949,4407.6923076923085,4293.333333333334,4673.333333333334,4330.256410256411,3889.7435897435903,4051.7948717948725,4884.615384615386
750.34015,0.9437359,0.44144505,0.34812728,0.65932995,0,0.0,0.0,0.0,0.0,0.072611645,0,0,0.0,0.0,0,0,16.0,0.0,0.0,4600.512820512821,3763.589743589744,4254.358974358975,4352.307692307693,4139.48717948718,4385.128205128206,4485.128205128206,4439.48717948718,4266.666666666667,4585.128205128206,4238.974358974359,3776.9230769230776,3891.7948717948725,4631.282051282052
750.59033,0.9437359,0.44144505,0.34812728,0.65932995,0,0.0,0.0,0.0,0.0,0.44382194,0,0,0.0,0.0,0,0,48.0,0.0,0.0,4522.564102564103,3742.564102564103,4249.74358974359,4335.8974358974365,4175.384615384616,4459.48717948718,4420.000000000001,4423.076923076924,4247.6923076923085,4550.256410256411,4213.846153846154,3724.615384615385,3903.076923076924,4484.615384615385
750.8406,1.0,0.42888904,0.3513469,0.6641935,0,0.0,0.0,0.0,0.0,0.68351406,0,0,0.0,0.0,0,0,80.0,0.0,445.0,4472.820512820514,3783.076923076924,4358.974358974359,4372.820512820514,4212.820512820514,4526.153846153847,4389.743589743591,4408.205128205129,4263.589743589744,4546.666666666667,4218.974358974359,3627.692307692308,3970.7692307692314,4374.871794871796
751.09076,1.0,0.42888904,0.3513469,0.6641935,0,0.0,0.0,0.0,0.0,0.17336671,0,0,0.0,0.0,0,0,112.0,0.0,445.0,4474.871794871796,3824.615384615385,4472.307692307693,4423.076923076924,4280.000000000001,4597.948717948719,4382.051282051282,4409.2307692307695,4288.717948717949,4608.205128205129,4279.48717948718,3725.6410256410263,4053.333333333334,4388.717948717949
751.341,1.0,0.41758862,0.3516733,0.67050564,0,0.0,0.0,0.0,0.0,0.007597957,0,0,0.0,0.0,0,0,15.0,0.0,406.0,4512.820512820514,3886.666666666667,4533.333333333334,4449.2307692307695,4332.307692307693,4640.000000000001,4405.641025641026,4408.205128205129,4316.923076923077,4685.128205128206,4344.102564102564,3812.820512820513,4128.717948717949,4424.102564102564
751.5912,1.0,0.41758862,0.3516733,0.67050564,0,0.0,0.0,0.0,0.0,0.31995413,0,0,0.0,0.0,0,0,47.0,0.0,0.0,4463.589743589744,3880.512820512821,4497.435897435898,4420.512820512821,4288.205128205129,4589.2307692307695,4391.794871794872,4393.333333333334,4306.153846153847,4667.6923076923085,4317.435897435898,3698.9743589743593,4073.8461538461543,4294.358974358975
751.84143,1.0,0.40741825,0.34965345,0.6783127,0,0.0,0.0,0.0,0.0,0.56064945,0,0,0.0,0.0,0,0,79.0,0.0,412.0,4414.871794871796,3870.7692307692314,4493.846153846154,4411.282051282052,4248.205128205129,4548.205128205129,4373.846153846154,4376.410256410257,4297.948717948719,4631.282051282052,4317.948717948719,3717.435897435898,4006.1538461538466,4232.820512820514
752.0917,1.0,0.40741825,0.34965345,0.6783127,0,0.0,0.0,0.0,0.0,1.0,0,0,0.0,0.0,0,0,111.0,0.0,412.0,4399.48717948718,3872.820512820513,4535.8974358974365,4413.846153846154,4226.153846153847,4515.8974358974365,4384.102564102564,4372.820512820514,4310.769230769231,4649.2307692307695,4352.307692307693,3842.564102564103,4033.8461538461543,4249.74358974359
752.34186,0.89585847,0.3982649,0.34783494,0.6853259,0,0.0,0.0,0.0,0.0,0.7535488,0,0,0.0,0.0,0,0,14.0,0.0,522.0,4423.076923076924,3913.8461538461543,4589.2307692307695,4428.205128205129,4209.2307692307695,4493.333333333334,4404.615384615385,4375.384615384616,4317.948717948719,4664.615384615386,4348.205128205129,3910.7692307692314,4057.9487179487182,4182.051282051282
752.5921,0.89585847,0.3982649,0.34783494,0.6853259,0,0.0,0.0,0.0,0.0,0.63154274,0,0,0.0,0.0,0,0,46.0,0.0,0.0,4429.2307692307695,3921.538461538462,4626.153846153847,4437.948717948719,4211.794871794872,4493.333333333334,4438.461538461539,4382.564102564103,4347.6923076923085,4676.410256410257,4376.410256410257,3970.2564102564106,4058.461538461539,4189.74358974359
752.8423,0.9360882,0.4181734,0.34832916,0.6905406,0,0.0,0.0,0.0,0.0,0.0,0,0,0.0,0.39993268,0,0,78.0,0.0,523.0,4461.025641025642,3948.205128205129,4666.153846153847,4478.974358974359,4241.025641025642,4524.102564102564,4492.820512820514,4421.538461538462,4371.282051282052,4751.794871794872,4435.384615384616,4081.538461538462,4145.641025641026,4257.948717948719
753.0925,0.9360882,0.4181734,0.34832916,0.6905406,0,0.0,0.0,0.0,0.0,0.0,0,0,0.0,0.2842719,0,0,110.0,0.0,523.0,4487.179487179488,3957.9487179487182,4670.256410256411,4472.820512820514,4205.641025641026,4474.358974358975,4480.000000000001,4385.128205128206,4374.358974358975,4727.179487179488,4398.974358974359,4108.205128205129,4134.358974358975,4202.564102564103
753.3427,0.98188096,0.4529116,0.35396793,0.6989344,0,0.0,0.0,0.0,0.0,0.0,0,0,0.0,0.33026123,0,0,13.0,0.0,490.0,4507.179487179488,3962.564102564103,4655.8974358974365,4474.871794871796,4213.333333333334,4474.871794871796,4495.384615384616,4406.666666666667,4382.564102564103,4732.307692307693,4379.48717948718,4129.74358974359,4117.435897435898,4161.025641025642
753.59296,0.98188096,0.4529116,0.35396793,0.6989344,0,0.0,0.0,0.0,0.0,0.0,0,0,0.0,0.52322805,0,0,45.0,0.0,0.0,4558.974358974359,3972.307692307693,4664.102564102564,4485.641025641026,4222.051282051282,4481.538461538462,4523.076923076924,4430.256410256411,4395.8974358974365,4775.384615384616,4481.025641025642,4374.871794871796,4109.74358974359,4204.615384615385
753.84314,1.0,0.48416921,0.36112303,0.7080433,0,0.0,0.0,0.0,0.0,0.0,0,0,0.0,1.0,0,0,77.0,0.0,499.0,4773.846153846154,3996.9230769230776,4602.564102564103,4470.256410256411,4239.48717948718,4500.000000000001,4495.384615384616,4391.794871794872,4391.282051282052,4617.435897435898,4196.410256410257,4112.307692307693,4087.692307692308,4436.923076923077
753.96826,1.0,0.48416921,0.36112303,0.7080433,0,0.0,0.0,0.0,1.0,0.0,0,0,0.0,0.0,0,0,93.0,0.0,499.0,4692.307692307693,3990.7692307692314,4600.000000000001,4461.538461538462,4224.615384615385,4474.358974358975,4488.717948717949,4384.615384615385,4387.179487179487,4613.846153846154,4340.512820512821,4694.358974358975,4104.102564102564,4953.846153846154
754.34357,0.9509987,0.5123011,0.36757457,0.7163323,0,0.0,0.0,0.0,0.0,0.48682654,0,0,0.0,0.0,0,0,12.0,0.0,447.0,4657.435897435898,3972.307692307693,4549.743589743591,4444.102564102564,4256.410256410257,4510.769230769231,4482.564102564103,4388.717948717949,4380.512820512821,4410.769230769231,4405.128205128206,5507.179487179488,4085.6410256410263,4923.589743589744
754.5938,0.9509987,0.5123011,0.36757457,0.7163323,0,0.0,0.0,0.0,0.0,1.0,0,0,0.0,0.0,0,0,44.0,0.0,0.0,4711.282051282052,4013.8461538461543,4563.589743589744,4456.410256410257,4277.435897435898,4524.102564102564,4480.000000000001,4388.717948717949,4382.051282051282,4461.025641025642,4303.589743589744,5214.871794871796,4059.48717948718,4838.974358974359
754.844,0.8946,0.53761977,0.37336564,0.72012365,0,0.0,0.0,0.0,0.0,0.5456282,0,0,0.0,0.0,0,0,76.0,0.0,447.0,4719.48717948718,4003.076923076924,4554.871794871796,4449.743589743591,4279.48717948718,4534.358974358975,4484.615384615385,4388.717948717949,4385.641025641026,4535.384615384616,4337.948717948719,4883.589743589744,4078.9743589743593,4726.153846153847
755.09424,0.8946,0.53761977,0.37336564,0.72012365,0,0.0,0.0,0.0,0.0,0.0,0,0,0.0,0.0,0,0,108.0,0.0,447.0,4704.102564102564,3973.8461538461543,4523.076923076924,4419.48717948718,4258.974358974359,4508.205128205129,4460.512820512821,4368.717948717949,4377.435897435898,4569.2307692307695,4371.282051282052,4602.564102564103,4061.0256410256416,4657.435897435898
755.21936,0.8495806,0.5604066,0.37356248,0.7125938,0,0.0,0.0,0.0,0.0,0.0,0,0,0.0,0.0,0,0,124.0,0.0,447.0,4735.384615384616,3974.8717948717954,4510.256410256411,4415.8974358974365,4280.000000000001,4532.820512820514,4457.948717948719,4372.820512820514,4372.820512820514,4604.615384615385,4417.435897435898,4501.538461538462,4082.0512820512827,4604.615384615385
755.21936,0.8495806,0.5604066,0.37356248,0.7125938,0,0.0,0.0,0.0,0.0,0.0,0,0,0.0,0.0,0,0,124.0,0.0,447.0,4735.384615384616,3974.8717948717954,4510.256410256411,4415.8974358974365,4280.000000000001,4532.820512820514,4457.948717948719,4372.820512820514,4372.820512820514,4604.615384615385,4417.435897435898,4501.538461538462,4082.0512820512827,4604.615384615385
755.84485,0.8623541,0.6941562,0.36952424,0.6964667,0,0.0,0.0,0.0,0.0,0.09754625,0,0,0.0,0.0,0,0,75.0,0.0,404.0,4678.974358974359,3910.7692307692314,4469.2307692307695,4395.8974358974365,4238.974358974359,4491.282051282052,4428.205128205129,4371.794871794872,4361.025641025642,4608.205128205129,4425.641025641026,4153.333333333334,4079.48717948718,4485.641025641026
756.0951,0.8623541,0.6941562,0.36952424,0.6964667,0,0.0,0.0,0.0,0.0,0.042081676,0,0,0.0,0.0,0,0,107.0,0.0,404.0,4686.666666666667,3896.9230769230776,4480.000000000001,4398.974358974359,4212.820512820514,4463.589743589744,4441.025641025642,4401.025641025642,4367.179487179487,4652.307692307693,4443.076923076924,4122.051282051282,4092.307692307693,4475.384615384616
756.3453,0.8021441,0.69036496,0.3658885,0.6819593,0,0.0,0.0,0.0,0.0,0.120863385,0,0,0.0,0.0,0,0,10.0,0.0,528.0,4689.2307692307695,3917.9487179487182,4482.051282051282,4407.6923076923085,4224.102564102564,4475.384615384616,4447.179487179487,4401.538461538462,4370.256410256411,4686.666666666667,4463.076923076924,4096.410256410257,4113.333333333334,4472.820512820514
756.5955,0.8021441,0.69036496,0.3658885,0.6819593,0,0.0,0.0,0.0,0.0,0.3585945,0,0,0.0,0.0,0,0,42.0,0.0,0.0,4709.743589743591,3964.1025641025644,4534.871794871796,4446.153846153847,4260.512820512821,4520.512820512821,4511.282051282052,4469.743589743591,4395.384615384616,4734.358974358975,4520.512820512821,4158.461538461539,4174.358974358975,4475.384615384616
756.8457,0.80285466,0.6689314,0.36261213,0.6689069,0,0.0,0.0,0.0,0.0,0.1561779,0,0,0.0,0.0,0,0,74.0,0.0,528.0,4661.538461538462,3946.666666666667,4485.641025641026,4424.615384615385,4248.717948717949,4503.076923076924,4499.48717948718,4460.000000000001,4379.48717948718,4731.794871794872,4484.615384615385,4087.692307692308,4150.256410256411,4451.282051282052
757.09595,0.80285466,0.6689314,0.36261213,0.6689069,0,0.0,0.0,0.0,0.0,0.008374034,0,0,0.0,0.0,0,0,106.0,0.0,528.0,4616.410256410257,3900.0000000000005,4422.051282051282,4380.000000000001,4195.8974358974365,4451.282051282052,4500.000000000001,4450.256410256411,4360.000000000001,4701.538461538462,4435.8974358974365,4013.333333333334,4049.23076923077,4395.8974358974365
757.3461,0.8409659,0.6630007,0.35966232,0.66645235,0,0.0,0.0,0.0,0.0,0.013027262,0,0,0.0,0.0,0,0,9.0,0.0,475.0,4550.256410256411,3876.9230769230776,4358.461538461539,4337.435897435898,4195.8974358974365,4440.512820512821,4514.871794871796,4462.051282051282,4347.179487179487,4675.384615384616,4387.6923076923085,3996.9230769230776,3987.692307692308,4351.794871794872
757.5964,0.8409659,0.6630007,0.35966232,0.66645235,0,0.0,0.0,0.0,0.0,0.084843814,0,0,0.0,0.0,0,0,41.0,0.0,0.0,4510.256410256411,3880.512820512821,4364.102564102564,4323.589743589744,4176.410256410257,4422.051282051282,4495.8974358974365,4463.589743589744,4346.153846153847,4665.128205128206,4348.205128205129,3945.1282051282055,3981.538461538462,4294.871794871796
757.8466,0.8763836,0.6431109,0.35700956,0.6698353,0,0.0,0.0,0.0,0.0,0.7581632,0,0,0.0,0.0,0,0,73.0,0.0,475.0,4505.641025641026,3902.0512820512827,4415.384615384616,4335.8974358974365,4196.410256410257,4446.153846153847,4489.2307692307695,4464.615384615385,4355.8974358974365,4694.358974358975,4351.282051282052,3925.1282051282055,4036.9230769230776,4277.435897435898
758.0968,0.8763836,0.6431109,0.35700956,0.6698353,0,0.0,0.0,0.0,0.0,0.13616969,0,0,0.0,0.0,0,0,105.0,0.0,492.0,4518.974358974359,3939.48717948718,4478.461538461539,4390.769230769231,4221.538461538462,4481.025641025642,4480.000000000001,4461.538461538462,4363.076923076924,4699.48717948718,4339.48717948718,3981.538461538462,4079.48717948718,4263.589743589744
758.34705,0.8368726,0.62749034,0.35694453,0.6769375,0,0.0,0.0,0.0,0.0,0.0,0,0,0.0,0.0,0,0,8.0,0.0,340.0,4567.179487179488,3986.1538461538466,4548.205128205129,4443.076923076924,4248.205128205129,4522.564102564103,4484.102564102564,4472.307692307693,4373.846153846154,4748.717948717949,4370.769230769231,4047.1794871794878,4164.615384615385,4241.025641025642
758.34705,0.8368726,0.62749034,0.35694453,0.6769375,0,0.0,0.0,0.0,0.0,0.0,0,0,0.0,0.0,0,0,8.0,0.0,340.0,4567.179487179488,3986.1538461538466,4548.205128205129,4443.076923076924,4248.205128205129,4522.564102564103,4484.102564102564,4472.307692307693,4373.846153846154,4748.717948717949,4370.769230769231,4047.1794871794878,4164.615384615385,4241.025641025642
758.72235,0.7928682,0.62175554,0.35506392,0.6868232,0,0.0,0.0,0.0,0.0,0.0,0,0,0.0,0.0,0,0,56.0,0.0,0.0,4607.6923076923085,4012.820512820513,4620.000000000001,4492.307692307693,4285.128205128206,4557.435897435898,4477.435897435898,4460.512820512821,4383.589743589744,4753.846153846154,4364.102564102564,4078.9743589743593,4222.051282051282,4184.102564102564
758.72235,0.7928682,0.62175554,0.35506392,0.6868232,0,0.0,0.0,0.0,0.0,0.0,0,0,0.0,0.0,0,0,56.0,0.0,0.0,4607.6923076923085,4012.820512820513,4620.000000000001,4492.307692307693,4285.128205128206,4557.435897435898,4477.435897435898,4460.512820512821,4383.589743589744,4753.846153846154,4364.102564102564,4078.9743589743593,4222.051282051282,4184.102564102564
759.2228,0.7675728,0.6229744,0.34753993,0.69570345,0,0.0,0.0,0.0,0.0,0.0,0,0,0.0,0.0,0,0,120.0,0.0,449.0,4635.8974358974365,4041.538461538462,4621.538461538462,4492.820512820514,4287.179487179487,4557.948717948719,4473.333333333334,4446.666666666667,4392.307692307693,4772.820512820514,4388.205128205129,4151.282051282052,4255.8974358974365,4181.538461538462
759.2228,0.7675728,0.6229744,0.34753993,0.69570345,0,0.0,0.0,0.0,0.0,0.0,0,0,0.0,0.0,0,0,120.0,0.0,449.0,4635.8974358974365,4041.538461538462,4621.538461538462,4492.820512820514,4287.179487179487,4557.948717948719,4473.333333333334,4446.666666666667,4392.307692307693,4772.820512820514,4388.205128205129,4151.282051282052,4255.8974358974365,4181.538461538462
759.7232,0.7360719,0.65224457,0.34191516,0.70250624,0,0.0,0.0,0.0,0.0,0.0,0,0,0.0,0.0,0,0,55.0,0.0,0.0,4655.384615384616,4029.23076923077,4574.358974358975,4458.974358974359,4258.461538461539,4521.538461538462,4455.8974358974365,4419.48717948718,4386.666666666667,4752.820512820514,4366.153846153847,4156.410256410257,4221.538461538462,4154.358974358975
759.7232,0.7360719,0.65224457,0.34191516,0.70250624,0,0.0,0.0,0.0,0.0,0.0,0,0,0.0,0.0,0,0,55.0,0.0,0.0,4655.384615384616,4029.23076923077,4574.358974358975,4458.974358974359,4258.461538461539,4521.538461538462,4455.8974358974365,4419.48717948718,4386.666666666667,4752.820512820514,4366.153846153847,4156.410256410257,4221.538461538462,4154.358974358975
760.22363,0.7240755,0.6826832,0.3351087,0.70906746,0,0.0,0.0,0.0,0.0,0.0,0,0,0.0,0.0,0,0,119.0,0.0,418.0,4697.435897435898,4038.9743589743593,4606.153846153847,4485.641025641026,4284.615384615385,4544.615384615385,4478.461538461539,4450.256410256411,4400.512820512821,4782.564102564103,4389.743589743591,4218.461538461539,4206.153846153847,4170.256410256411
760.22363,0.7240755,0.6826832,0.3351087,0.70906746,0,0.0,0.0,0.0,0.0,0.0,0,0,0.0,0.0,0,0,119.0,0.0,418.0,4697.435897435898,4038.9743589743593,4606.153846153847,4485.641025641026,4284.615384615385,4544.615384615385,4478.461538461539,4450.256410256411,4400.512820512821,4782.564102564103,4389.743589743591,4218.461538461539,4206.153846153847,4170.256410256411
760.72406,0.6769026,0.71025246,0.32765195,0.7149542,0,0.0,0.0,0.0,0.0,0.0,0,0,0.0,0.0,0,0,54.0,0.0,0.0,4691.794871794872,4020.5128205128212,4593.333333333334,4503.076923076924,4283.076923076924,4540.000000000001,4490.769230769231,4456.923076923077,4407.179487179487,4793.846153846154,4357.948717948719,4268.205128205129,4234.358974358975,4244.615384615385
760.72406,0.6769026,0.71025246,0.32765195,0.7149542,0,0.0,0.0,0.0,0.0,0.0,0,0,0.0,0.0,0,0,54.0,0.0,0.0,4691.794871794872,4020.5128205128212,4593.333333333334,4503.076923076924,4283.076923076924,4540.000000000001,4490.769230769231,4456.923076923077,4407.179487179487,4793.846153846154,4357.948717948719,4268.205128205129,4234.358974358975,4244.615384615385
761.2245,0.6300429,0.7341123,0.3207957,0.7202334,0,0.0,0.0,0.0,0.0,0.0,0,0,0.0,0.0,0,0,118.0,0.0,528.0,4635.384615384616,4006.666666666667,4569.2307692307695,4496.923076923077,4287.179487179487,4542.564102564103,4482.051282051282,4443.589743589744,4411.282051282052,4789.2307692307695,4367.6923076923085,4131.282051282052,4229.74358974359,4217.948717948719
761.2245,0.6300429,0.7341123,0.3207957,0.7202334,0,0.0,0.0,0.0,0.0,0.0,0,0,0.0,0.0,0,0,118.0,0.0,528.0,4635.384615384616,4006.666666666667,4569.2307692307695,4496.923076923077,4287.179487179487,4542.564102564103,4482.051282051282,4443.589743589744,4411.282051282052,4789.2307692307695,4367.6923076923085,4131.282051282052,4229.74358974359,4217.948717948719
761.7249,0.6022635,0.70313215,0.31462556,0.72198737,0,0.0,0.0,0.0,0.0,0.0,0,0,0.0,0.0,0,0,53.0,0.0,0.0,4633.846153846154,4003.589743589744,4548.717948717949,4492.820512820514,4266.666666666667,4524.102564102564,4469.743589743591,4436.923076923077,4405.641025641026,4780.000000000001,4361.025641025642,4092.307692307693,4227.6923076923085,4278.974358974359
761.7249,0.6022635,0.70313215,0.31462556,0.72198737,0,0.0,0.0,0.0,0.0,0.0,0,0,0.0,0.0,0,0,53.0,0.0,0.0,4633.846153846154,4003.589743589744,4548.717948717949,4492.820512820514,4266.666666666667,4524.102564102564,4469.743589743591,4436.923076923077,4405.641025641026,4780.000000000001,4361.025641025642,4092.307692307693,4227.6923076923085,4278.974358974359
762.22534,0.54626256,0.6616576,0.30919847,0.7235516,0,0.0,0.0,0.0,0.0,0.0,0,0,0.0,0.0,0,0,117.0,0.0,492.0,4614.871794871796,3982.564102564103,4508.205128205129,4445.641025641026,4303.589743589744,4544.615384615385,4447.179487179487,4399.48717948718,4390.769230769231,4752.307692307693,4329.743589743591,4021.538461538462,4242.051282051282,4276.923076923077
762.22534,0.54626256,0.6616576,0.30919847,0.7235516,0,0.0,0.0,0.0,0.0,0.0,0,0,0.0,0.0,0,0,117.0,0.0,492.0,4614.871794871796,3982.564102564103,4508.205128205129,4445.641025641026,4303.589743589744,4544.615384615385,4447.179487179487,4399.48717948718,4390.769230769231,4752.307692307693,4329.743589743591,4021.538461538462,4242.051282051282,4276.923076923077
762.72577,0.5118891,0.6426335,0.304315,0.7222246,0,0.0,0.0,0.0,0.0,0.0,0,0,0.0,0.0,0,0,52.0,0.0,0.0,4681.025641025642,3976.410256410257,4553.333333333334,4474.871794871796,4299.48717948718,4534.358974358975,4458.974358974359,4420.512820512821,4397.435897435898,4799.48717948718,4364.615384615385,4020.0000000000005,4312.820512820514,4432.307692307693
762.976,0.5118891,0.6426335,0.304315,0.7222246,0,0.0,0.0,0.0,0.0,1.0,0,0,0.0,0.0,0,0,84.0,0.0,451.0,4674.358974358975,3980.0000000000005,4526.153846153847,4441.538461538462,4283.589743589744,4519.48717948718,4455.384615384616,4436.923076923077,4404.615384615385,4814.871794871796,4415.8974358974365,4398.974358974359,4298.974358974359,4674.358974358975
763.3513,0.4713653,0.6583827,0.30348977,0.7193633,0,0.0,0.0,0.0,0.0,0.15149936,0,0,0.0,0.0,0,0,3.0,0.0,405.0,4668.717948717949,3985.6410256410263,4509.743589743591,4422.051282051282,4247.179487179487,4493.333333333334,4444.615384615385,4424.102564102564,4404.102564102564,4840.000000000001,4444.615384615385,4614.358974358975,4288.717948717949,4755.8974358974365
763.47644,0.4713653,0.6583827,0.30348977,0.7193633,0,0.0,0.0,0.0,0.0,0.0,0,0,0.0,0.0,0,0,19.0,0.0,0.0,4657.948717948719,3987.1794871794878,4498.461538461539,4417.435897435898,4260.512820512821,4506.153846153847,4443.076923076924,4414.871794871796,4394.871794871796,4819.48717948718,4415.384615384616,4531.794871794872,4265.128205128206,4728.205128205129
763.85175,0.5038022,0.6827732,0.30648422,0.71288264,0,0.0,0.0,0.0,0.0,0.24346443,0,0,0.0,0.0,0,0,67.0,0.0,405.0,4727.179487179488,4081.0256410256416,4612.820512820514,4521.025641025642,4361.538461538462,4613.333333333334,4550.769230769231,4524.615384615385,4445.128205128206,4945.128205128206,4531.282051282052,4472.307692307693,4393.846153846154,4728.205128205129
764.102,0.5038022,0.6827732,0.30648422,0.71288264,0,0.0,0.0,0.0,0.0,0.5947573,0,0,0.0,0.0,0,0,99.0,0.0,402.0,4702.564102564103,4051.7948717948725,4571.282051282052,4492.820512820514,4317.435897435898,4572.307692307693,4507.6923076923085,4481.025641025642,4422.564102564103,4877.948717948719,4481.538461538462,4451.794871794872,4317.948717948719,4663.076923076924
764.3522,0.5619553,0.7408046,0.3091802,0.70405126,0,0.0,0.0,0.0,0.0,0.8407558,0,0,0.0,0.0,0,0,2.0,0.0,337.0,4670.256410256411,4020.5128205128212,4518.974358974359,4469.743589743591,4294.358974358975,4550.256410256411,4462.564102564103,4429.2307692307695,4406.666666666667,4816.410256410257,4416.923076923077,4319.48717948718,4245.641025641026,4575.8974358974365
764.6024,0.5619553,0.7408046,0.3091802,0.70405126,0,0.0,0.0,0.0,0.0,0.0,0,0,0.0,0.0,0,0,33.0,0.0,0.0,4689.743589743591,4046.1538461538466,4550.769230769231,4488.717948717949,4309.2307692307695,4562.564102564103,4488.717948717949,4457.948717948719,4422.564102564103,4861.538461538462,4462.051282051282,4334.871794871796,4297.435897435898,4596.923076923077
764.7275,0.57672685,0.7676086,0.31160745,0.68878824,0,0.0,0.0,0.0,0.0,0.0,0,0,0.0,0.0,0,0,50.0,0.0,0.0,4688.717948717949,4055.3846153846157,4545.641025641026,4479.48717948718,4293.333333333334,4542.051282051282,4474.358974358975,4437.948717948719,4412.307692307693,4834.871794871796,4426.666666666667,4257.948717948719,4266.666666666667,4508.205128205129
764.7275,0.57672685,0.7676086,0.31160745,0.68878824,0,0.0,0.0,0.0,0.0,0.0,0,0,0.0,0.0,0,0,50.0,0.0,0.0,4688.717948717949,4055.3846153846157,4545.641025641026,4479.48717948718,4293.333333333334,4542.051282051282,4474.358974358975,4437.948717948719,4412.307692307693,4834.871794871796,4426.666666666667,4257.948717948719,4266.666666666667,4508.205128205129
765.2279,0.5548412,0.77621716,0.31379277,0.675057,0,0.0,0.0,0.0,0.0,0.0,0,0,0.0,0.0,0,0,114.0,0.0,524.0,4689.2307692307695,4004.615384615385,4507.179487179488,4450.769230769231,4246.666666666667,4486.153846153847,4471.794871794872,4429.743589743591,4397.948717948719,4825.641025641026,4457.948717948719,4222.051282051282,4245.128205128206,4564.615384615385
765.2279,0.5548412,0.77621716,0.31379277,0.675057,0,0.0,0.0,0.0,0.0,0.0,0,0,0.0,0.0,0,0,114.0,0.0,524.0,4689.2307692307695,4004.615384615385,4507.179487179488,4450.769230769231,4246.666666666667,4486.153846153847,4471.794871794872,4429.743589743591,4397.948717948719,4825.641025641026,4457.948717948719,4222.051282051282,4245.128205128206,4564.615384615385
765.7284,0.52984184,0.77378094,0.31576025,0.6627021,0,0.0,0.0,0.0,0.0,0.0033803459,0,0,0.0,0.0,0,0,49.0,0.0,0.0,4616.410256410257,3978.9743589743593,4358.974358974359,4397.948717948719,4199.48717948718,4434.358974358975,4520.000000000001,4472.820512820514,4389.743589743591,4804.615384615386,4367.6923076923085,4009.23076923077,4154.871794871796,4532.820512820514
765.85345,0.52984184,0.77378094,0.31576025,0.6627021,0,0.0,0.0,0.0,0.0,0.0,0,0,0.0,0.0,0,0,65.0,0.0,407.0,4597.948717948719,3973.333333333334,4356.923076923077,4398.974358974359,4207.179487179487,4448.205128205129,4523.589743589744,4481.538461538462,4392.307692307693,4820.000000000001,4364.102564102564,4007.692307692308,4175.384615384616,4528.205128205129
766.2288,0.5290094,0.73130107,0.31753066,0.6599834,0,0.0,0.0,0.0,0.0,0.0,0,0,0.0,0.08662297,0,0,113.0,0.0,493.0,4551.282051282052,3958.9743589743593,4368.717948717949,4403.076923076924,4192.307692307693,4445.128205128206,4462.051282051282,4436.923076923077,4380.000000000001,4796.923076923077,4294.358974358975,3979.48717948718,4174.358974358975,4500.512820512821
766.6041,0.5290094,0.73130107,0.31753066,0.6599834,0,0.0,0.0,0.0,0.0,0.0,0,0,0.0,0.067836046,0,0,27.0,0.0,0.0,4520.000000000001,3961.538461538462,4362.051282051282,4385.128205128206,4177.948717948719,4448.205128205129,4416.923076923077,4407.179487179487,4388.205128205129,4809.2307692307695,4301.025641025642,3963.589743589744,4181.025641025642,4499.48717948718
766.72925,0.56659156,0.6680456,0.31942672,0.66536593,0,0.0,0.0,0.0,0.0,0.0,0,0,0.0,0.057439715,0,0,48.0,0.0,0.0,4534.871794871796,3968.717948717949,4403.076923076924,4398.974358974359,4182.564102564103,4454.358974358975,4419.48717948718,4398.974358974359,4393.333333333334,4822.051282051282,4311.282051282052,3997.435897435898,4195.384615384616,4521.538461538462
766.97943,0.56659156,0.6680456,0.31942672,0.66536593,0,0.0,0.0,0.0,0.0,0.0,0,0,0.0,0.20119818,0,0,80.0,0.0,450.0,4554.358974358975,3955.8974358974365,4411.282051282052,4385.641025641026,4160.512820512821,4416.923076923077,4422.564102564103,4397.435897435898,4389.2307692307695,4797.948717948719,4330.769230769231,4043.076923076924,4185.128205128206,4549.2307692307695
767.2297,0.51312965,0.621544,0.322163,0.6707723,0,0.0,0.0,0.0,0.0,0.69923633,0,0,0.0,0.0,0,0,112.0,0.0,450.0,4561.025641025642,3920.5128205128212,4392.307692307693,4360.512820512821,4151.794871794872,4400.512820512821,4438.461538461539,4420.512820512821,4386.153846153847,4780.000000000001,4331.282051282052,4030.2564102564106,4123.589743589744,4500.000000000001
767.47986,0.51312965,0.621544,0.322163,0.6707723,0,0.0,0.0,0.0,0.0,1.0,0,0,0.0,0.0,0,0,15.0,0.0,410.0,4553.846153846154,3896.410256410257,4384.615384615385,4360.512820512821,4175.8974358974365,4433.846153846154,4460.512820512821,4457.948717948719,4394.358974358975,4736.410256410257,4303.076923076924,4143.589743589744,4095.3846153846157,4603.076923076924
767.7301,0.4353446,0.5981613,0.32462606,0.676501,0,0.0,0.0,0.0,0.0,0.26849508,0,0,0.0,0.0,0,0,47.0,0.0,0.0,4533.333333333334,3890.7692307692314,4357.435897435898,4352.820512820514,4203.076923076924,4464.102564102564,4455.384615384616,4463.589743589744,4390.256410256411,4711.282051282052,4295.384615384616,4158.461538461539,4112.307692307693,4558.974358974359
767.9803,0.4353446,0.5981613,0.32462606,0.676501,0,0.0,0.0,0.0,0.0,0.16219817,0,0,0.0,0.0,0,0,79.0,0.0,410.0,4537.435897435898,3916.9230769230776,4413.846153846154,4410.256410256411,4213.846153846154,4483.076923076924,4463.076923076924,4464.102564102564,4388.717948717949,4692.820512820514,4281.025641025642,4309.2307692307695,4141.538461538462,4600.000000000001
768.2305,0.3929978,0.58825976,0.3255316,0.6816372,0,0.0,0.0,0.0,0.0,0.051067125,0,0,0.0,0.0,0,0,111.0,0.0,410.0,4542.051282051282,3908.717948717949,4457.948717948719,4428.205128205129,4244.102564102564,4511.282051282052,4442.051282051282,4435.384615384616,4392.307692307693,4680.512820512821,4301.025641025642,4280.512820512821,4157.948717948719,4579.48717948718
768.4807,0.3929978,0.58825976,0.3255316,0.6816372,0,0.0,0.0,0.0,0.0,0.049581714,0,0,0.0,0.0,0,0,14.0,0.0,526.0,4584.615384615385,3946.666666666667,4529.743589743591,4444.615384615385,4217.435897435898,4485.641025641026,4421.538461538462,4405.128205128206,4379.48717948718,4677.948717948719,4298.974358974359,4217.435897435898,4157.948717948719,4587.179487179488
768.73096,0.38696578,0.6155093,0.3263469,0.6862486,0,0.0,0.0,0.0,0.0,0.14178139,0,0,0.0,0.0,0,0,46.0,0.0,0.0,4585.128205128206,3942.564102564103,4532.820512820514,4449.2307692307695,4226.666666666667,4499.48717948718,4407.6923076923085,4382.564102564103,4377.948717948719,4665.641025641026,4300.512820512821,4177.948717948719,4130.256410256411,4571.794871794872
768.98114,0.38696578,0.6155093,0.3263469,0.6862486,0,0.0,0.0,0.0,0.0,0.0,0,0,0.0,0.0,0,0,78.0,0.0,526.0,4588.205128205129,3942.564102564103,4544.615384615385,4465.641025641026,4226.153846153847,4496.410256410257,4410.769230769231,4381.538461538462,4379.48717948718,4664.102564102564,4292.307692307693,4103.589743589744,4147.6923076923085,4553.846153846154
769.2314,0.34766006,0.6325348,0.3283934,0.6935796,0,0.0,0.0,0.0,0.0,0.0,0,0,0.0,0.0,0,0,110.0,0.0,526.0,4613.846153846154,3955.8974358974365,4565.641025641026,4486.153846153847,4215.8974358974365,4503.589743589744,4419.48717948718,4380.000000000001,4381.538461538462,4666.666666666667,4307.179487179487,4071.2820512820517,4177.435897435898,4514.358974358975
769.2314,0.34766006,0.6325348,0.3283934,0.6935796,0,0.0,0.0,0.0,0.0,0.0,0,0,0.0,0.0,0,0,110.0,0.0,526.0,4613.846153846154,3955.8974358974365,4565.641025641026,4486.153846153847,4215.8974358974365,4503.589743589744,4419.48717948718,4380.000000000001,4381.538461538462,4666.666666666667,4307.179487179487,4071.2820512820517,4177.435897435898,4514.358974358975
769.7318,0.30450994,0.7404016,0.3379021,0.70441127,0,0.0,0.0,0.0,0.0,0.0,0,0,0.0,0.0,0,0,45.0,0.0,0.0,5169.743589743591,4023.076923076924,4570.769230769231,4570.256410256411,4219.48717948718,4513.333333333334,4416.923076923077,4375.8974358974365,4376.923076923077,4681.025641025642,4195.384615384616,4041.538461538462,4017.9487179487182,4600.512820512821
769.982,0.30450994,0.7404016,0.3379021,0.70441127,0,0.0,0.0,0.0,0.8737668,0.0,0,0,0.0,0.0,0,0,77.0,0.0,475.0,5175.384615384616,4047.1794871794878,4560.000000000001,4538.974358974359,4252.820512820514,4527.6923076923085,4426.153846153847,4376.923076923077,4382.051282051282,4724.615384615386,4252.307692307693,4337.948717948719,4097.948717948719,4632.820512820514
770.2635,0.40455738,1.0,0.34542713,0.70999044,0,0.0,0.0,0.0,1.0,0.0,0,0,0.0,0.0,0,0,113.0,0.0,475.0,5048.205128205129,4032.307692307693,4567.179487179488,4528.205128205129,4246.153846153847,4522.564102564103,4449.2307692307695,4396.410256410257,4381.025641025642,4673.333333333334,4195.8974358974365,4195.8974358974365,4142.051282051282,4827.179487179488
770.2635,0.40455738,1.0,0.34542713,0.70999044,0,0.0,0.0,0.0,1.0,0.0,0,0,0.0,0.0,0,0,113.0,0.0,475.0,5048.205128205129,4032.307692307693,4567.179487179488,4528.205128205129,4246.153846153847,4522.564102564103,4449.2307692307695,4396.410256410257,4381.025641025642,4673.333333333334,4195.8974358974365,4195.8974358974365,4142.051282051282,4827.179487179488
770.7639,0.40819725,1.0,0.3521996,0.71268284,0,0.0,0.0,0.0,1.0,0.0,0,0,0.0,0.0,0,0,48.0,0.0,0.0,4967.6923076923085,4042.564102564103,4580.512820512821,4518.461538461539,4253.846153846154,4531.794871794872,4467.6923076923085,4406.666666666667,4372.307692307693,4665.641025641026,4058.9743589743593,4204.102564102564,4238.974358974359,4716.410256410257
770.7639,0.40819725,1.0,0.3521996,0.71268284,0,0.0,0.0,0.0,1.0,0.0,0,0,0.0,0.0,0,0,48.0,0.0,0.0,4967.6923076923085,4042.564102564103,4580.512820512821,4518.461538461539,4253.846153846154,4531.794871794872,4467.6923076923085,4406.666666666667,4372.307692307693,4665.641025641026,4058.9743589743593,4204.102564102564,4238.974358974359,4716.410256410257
771.2331,0.49280977,1.0,0.3582856,0.7080983,0,0.0,0.0,0.0,1.0,0.0,0,0,0.0,0.0,0,0,108.0,0.0,455.0,4830.256410256411,4044.1025641025644,4567.6923076923085,4501.025641025642,4260.000000000001,4540.000000000001,4452.820512820514,4406.153846153847,4374.358974358975,4620.512820512821,4103.589743589744,4258.974358974359,4192.820512820514,4488.717948717949
771.48334,0.49280977,1.0,0.3582856,0.7080983,0,0.0,0.0,0.0,0.0,1.0,0,0,0.0,0.0,0,0,11.0,0.0,401.0,4799.48717948718,4071.7948717948725,4583.076923076924,4508.717948717949,4284.102564102564,4554.358974358975,4469.743589743591,4419.48717948718,4368.205128205129,4633.333333333334,4153.846153846154,4293.846153846154,4223.589743589744,4459.48717948718
771.85864,0.49079365,1.0,0.3557811,0.69242704,0,0.0,0.0,0.0,1.0,0.0,0,0,0.0,0.0,0,0,59.0,0.0,0.0,4656.923076923077,4033.333333333334,4573.846153846154,4514.871794871796,4315.384615384616,4575.384615384616,4477.948717948719,4449.743589743591,4377.948717948719,4695.8974358974365,4251.794871794872,4293.333333333334,4285.128205128206,4456.923076923077
772.1088,0.49079365,1.0,0.3557811,0.69242704,0,0.0,0.0,0.0,0.0,1.0,0,0,0.0,0.0,0,0,74.0,0.0,529.0,4649.2307692307695,4037.435897435898,4570.769230769231,4515.384615384616,4309.2307692307695,4573.333333333334,4480.512820512821,4443.589743589744,4376.410256410257,4690.769230769231,4246.153846153847,4248.717948717949,4262.051282051282,4412.307692307693
772.23395,0.45906392,1.0,0.3535263,0.67832905,0,0.0,0.0,0.0,0.0,1.0,0,0,0.0,0.0,0,0,107.0,0.0,403.0,4611.794871794872,4023.076923076924,4569.2307692307695,4513.846153846154,4301.025641025642,4553.846153846154,4483.589743589744,4449.743589743591,4392.307692307693,4718.974358974359,4313.333333333334,4230.769230769231,4276.923076923077,4372.307692307693
772.23395,0.45906392,1.0,0.3535263,0.67832905,0,0.0,0.0,0.0,0.0,1.0,0,0,0.0,0.0,0,0,107.0,0.0,403.0,4611.794871794872,4023.076923076924,4569.2307692307695,4513.846153846154,4301.025641025642,4553.846153846154,4483.589743589744,4449.743589743591,4392.307692307693,4718.974358974359,4313.333333333334,4230.769230769231,4276.923076923077,4372.307692307693
772.8595,0.47302908,1.0,0.35149527,0.6656445,0,0.0,0.0,0.0,0.0,0.0,0,0,0.0,0.0,0,0,52.0,0.0,0.0,4621.025641025642,3982.564102564103,4510.769230769231,4472.307692307693,4281.025641025642,4491.794871794872,4475.8974358974365,4452.820512820514,4392.307692307693,4745.641025641026,4372.820512820514,4362.564102564103,4230.769230769231,4274.871794871796
772.8595,0.47302908,1.0,0.35149527,0.6656445,0,0.0,0.0,0.0,0.0,0.0,0,0,0.0,0.0,0,0,58.0,0.0,0.0,4664.615384615386,3993.8461538461543,4548.205128205129,4501.025641025642,4302.051282051282,4496.923076923077,4468.717948717949,4451.282051282052,4387.179487179487,4741.025641025642,4374.358974358975,4369.743589743591,4223.589743589744,4267.6923076923085
773.2348,0.45451286,1.0,0.3496667,0.6542395,0,0.0,0.0,0.0,0.0,0.0,0,0,0.0,0.0,0,0,106.0,0.0,529.0,4631.282051282052,4017.9487179487182,4537.435897435898,4505.641025641026,4325.641025641026,4541.538461538462,4486.153846153847,4487.6923076923085,4430.256410256411,4749.2307692307695,4377.435897435898,4343.589743589744,4233.333333333334,4267.179487179487
773.2348,0.45451286,1.0,0.3496667,0.6542395,0,0.0,0.0,0.0,0.0,0.0,0,0,0.0,0.0,0,0,106.0,0.0,529.0,4631.282051282052,4017.9487179487182,4537.435897435898,4505.641025641026,4325.641025641026,4541.538461538462,4486.153846153847,4487.6923076923085,4430.256410256411,4749.2307692307695,4377.435897435898,4343.589743589744,4233.333333333334,4267.179487179487
773.7352,0.48020336,1.0,0.3474904,0.64720005,0,0.0,0.0,0.0,0.0,0.0,0,0,0.0,0.0,0,0,41.0,0.0,0.0,4576.923076923077,4017.435897435898,4507.6923076923085,4458.974358974359,4255.384615384616,4482.051282051282,4447.179487179487,4449.743589743591,4415.384615384616,4772.820512820514,4410.256410256411,4311.282051282052,4212.820512820514,4210.256410256411
773.7352,0.48020336,1.0,0.3474904,0.64720005,0,0.0,0.0,0.0,0.0,0.0,0,0,0.0,0.0,0,0,41.0,0.0,0.0,4576.923076923077,4017.435897435898,4507.6923076923085,4458.974358974359,4255.384615384616,4482.051282051282,4447.179487179487,4449.743589743591,4415.384615384616,4772.820512820514,4410.256410256411,4311.282051282052,4212.820512820514,4210.256410256411
774.23566,0.44163087,1.0,0.34531412,0.64180773,0,0.0,0.0,0.0,0.0,0.0,0,0,0.0,0.0,0,0,105.0,0.0,495.0,4572.307692307693,4045.1282051282055,4506.666666666667,4467.6923076923085,4225.641025641026,4463.076923076924,4441.538461538462,4443.076923076924,4407.6923076923085,4773.333333333334,4400.000000000001,4264.102564102564,4200.512820512821,4224.102564102564
774.23566,0.44163087,1.0,0.34531412,0.64180773,0,0.0,0.0,0.0,0.0,0.0,0,0,0.0,0.0,0,0,105.0,0.0,495.0,4572.307692307693,4045.1282051282055,4506.666666666667,4467.6923076923085,4225.641025641026,4463.076923076924,4441.538461538462,4443.076923076924,4407.6923076923085,4773.333333333334,4400.000000000001,4264.102564102564,4200.512820512821,4224.102564102564
774.7361,0.42960668,1.0,0.3427451,0.63973594,0,0.0,0.0,0.0,0.0,0.0,0,0,0.0,0.0,0,0,40.0,0.0,0.0,4605.641025641026,4116.410256410257,4522.564102564103,4490.256410256411,4274.871794871796,4509.743589743591,4461.538461538462,4435.384615384616,4408.717948717949,4771.794871794872,4395.8974358974365,4256.923076923077,4214.871794871796,4203.076923076924
774.7361,0.42960668,1.0,0.3427451,0.63973594,0,0.0,0.0,0.0,0.0,0.0,0,0,0.0,0.0,0,0,40.0,0.0,0.0,4605.641025641026,4116.410256410257,4522.564102564103,4490.256410256411,4274.871794871796,4509.743589743591,4461.538461538462,4435.384615384616,4408.717948717949,4771.794871794872,4395.8974358974365,4256.923076923077,4214.871794871796,4203.076923076924
775.2365,0.45345616,1.0,0.3404326,0.64121675,0,0.0,0.0,0.0,0.0,0.0,0,0,0.0,0.0,0,0,104.0,0.0,457.0,4613.846153846154,4070.7692307692314,4528.205128205129,4486.666666666667,4261.025641025642,4497.435897435898,4482.051282051282,4449.743589743591,4409.743589743591,4826.666666666667,4428.717948717949,4275.384615384616,4251.794871794872,4246.153846153847
775.6119,0.45345616,1.0,0.3404326,0.64121675,0,0.0,0.0,0.0,0.0,0.64141726,0,0,0.0,0.0,0,0,16.0,0.0,417.0,4616.410256410257,4064.615384615385,4541.538461538462,4492.307692307693,4272.820512820514,4504.615384615385,4474.358974358975,4442.051282051282,4400.000000000001,4810.769230769231,4433.333333333334,4263.589743589744,4247.6923076923085,4261.538461538462
775.73694,0.4440475,1.0,0.3375161,0.6401655,0,0.0,0.0,0.0,0.0,0.5282456,0,0,0.0,0.0,0,0,39.0,0.0,0.0,4616.923076923077,3923.076923076924,4538.974358974359,4491.794871794872,4272.820512820514,4511.794871794872,4464.102564102564,4425.128205128206,4394.871794871796,4776.410256410257,4389.2307692307695,4239.48717948718,4198.461538461539,4251.794871794872
775.9872,0.4440475,1.0,0.3375161,0.6401655,0,0.0,0.0,0.0,0.0,0.17211258,0,0,0.0,0.0,0,0,71.0,0.0,469.0,4603.076923076924,3988.205128205129,4536.923076923077,4490.256410256411,4263.589743589744,4501.025641025642,4471.794871794872,4423.076923076924,4387.6923076923085,4778.974358974359,4384.615384615385,4210.256410256411,4200.512820512821,4262.564102564103
776.2687,0.42396134,1.0,0.33604094,0.6382817,0,0.0,0.0,0.0,0.0,0.06310556,0,0,0.0,0.0,0,0,107.0,0.0,417.0,4601.025641025642,3986.666666666667,4530.769230769231,4477.435897435898,4214.358974358975,4503.589743589744,4470.769230769231,4401.538461538462,4368.717948717949,4753.846153846154,4345.641025641026,4167.6923076923085,4177.435897435898,4242.564102564103
776.4876,0.42396134,1.0,0.33604094,0.6382817,0,0.0,0.0,0.0,0.0,0.15415946,0,0,0.0,0.0,0,0,6.0,0.0,540.0,4587.179487179488,3975.3846153846157,4523.589743589744,4473.333333333334,4211.282051282052,4507.179487179488,4476.923076923077,4406.153846153847,4366.153846153847,4752.307692307693,4344.102564102564,4144.615384615385,4170.769230769231,4276.410256410257
776.73785,0.36758852,0.97635204,0.33554637,0.63427436,0,0.0,0.0,0.0,0.0,0.0,0,0,0.0,0.0,0,0,38.0,0.0,0.0,4584.615384615385,3976.9230769230776,4510.256410256411,4465.128205128206,4218.974358974359,4503.076923076924,4468.205128205129,4398.461538461539,4360.512820512821,4744.615384615386,4333.846153846154,4140.512820512821,4169.2307692307695,4293.846153846154
776.73785,0.36758852,0.97635204,0.33554637,0.63427436,0,0.0,0.0,0.0,0.0,0.0,0,0,0.0,0.0,0,0,38.0,0.0,0.0,4584.615384615385,3976.9230769230776,4510.256410256411,4465.128205128206,4218.974358974359,4503.076923076924,4468.205128205129,4398.461538461539,4360.512820512821,4744.615384615386,4333.846153846154,4140.512820512821,4169.2307692307695,4293.846153846154
777.2383,0.33573455,0.9019577,0.33532417,0.62974703,0,0.0,0.0,0.0,0.0,0.0,0,0,0.0,0.0,0,0,102.0,0.0,529.0,4589.2307692307695,3989.23076923077,4500.000000000001,4444.615384615385,4211.282051282052,4492.307692307693,4467.6923076923085,4410.256410256411,4364.102564102564,4776.923076923077,4352.820512820514,4164.102564102564,4242.564102564103,4381.538461538462
777.2383,0.33573455,0.9019577,0.33532417,0.62974703,0,0.0,0.0,0.0,0.0,0.0,0,0,0.0,0.0,0,0,102.0,0.0,529.0,4589.2307692307695,3989.23076923077,4500.000000000001,4444.615384615385,4211.282051282052,4492.307692307693,4467.6923076923085,4410.256410256411,4364.102564102564,4776.923076923077,4352.820512820514,4164.102564102564,4242.564102564103,4381.538461538462
777.7387,0.2905922,0.8422197,0.3351242,0.62196815,0,0.0,0.0,0.0,0.0,0.0,0,0,0.0,0.0,0,0,37.0,0.0,0.0,4584.102564102564,3964.615384615385,4480.512820512821,4439.48717948718,4228.717948717949,4498.461538461539,4463.589743589744,4407.6923076923085,4368.205128205129,4769.2307692307695,4346.666666666667,4178.461538461539,4218.461538461539,4388.717948717949
777.9889,0.2905922,0.8422197,0.3351242,0.62196815,0,0.0,0.0,0.0,0.0,0.0,0,0,0.0,0.0,0,0,69.0,0.0,525.0,4604.615384615385,3972.820512820513,4500.000000000001,4444.615384615385,4221.538461538462,4493.846153846154,4455.8974358974365,4403.076923076924,4362.051282051282,4757.435897435898,4346.666666666667,4180.512820512821,4198.974358974359,4393.333333333334
778.23914,0.2838481,0.80268013,0.3349441,0.6149663,0,0.0,0.0,0.0,0.0,0.0,0,0,0.0,0.0,0,0,101.0,0.0,495.0,4598.974358974359,3979.48717948718,4483.589743589744,4430.256410256411,4218.461538461539,4482.564102564103,4452.307692307693,4392.307692307693,4353.333333333334,4740.512820512821,4322.564102564103,4176.410256410257,4166.666666666667,4360.512820512821
778.23914,0.2838481,0.80268013,0.3349441,0.6149663,0,0.0,0.0,0.0,0.0,0.0,0,0,0.0,0.0,0,0,101.0,0.0,495.0,4598.974358974359,3979.48717948718,4483.589743589744,4430.256410256411,4218.461538461539,4482.564102564103,4452.307692307693,4392.307692307693,4353.333333333334,4740.512820512821,4322.564102564103,4176.410256410257,4166.666666666667,4360.512820512821
778.73956,0.27325577,0.76550597,0.334782,0.6086636,0,0.0,0.0,0.0,0.0,0.0,0,0,0.0,0.0,0,0,36.0,0.0,0.0,4673.333333333334,3963.076923076924,4509.743589743591,4447.179487179487,4233.846153846154,4491.282051282052,4464.615384615385,4408.717948717949,4360.000000000001,4765.641025641026,4353.846153846154,4221.538461538462,4200.512820512821,4375.384615384616
778.73956,0.27325577,0.76550597,0.334782,0.6086636,0,0.0,0.0,0.0,0.0,0.0,0,0,0.0,0.0,0,0,36.0,0.0,0.0,4673.333333333334,3963.076923076924,4509.743589743591,4447.179487179487,4233.846153846154,4491.282051282052,4464.615384615385,4408.717948717949,4360.000000000001,4765.641025641026,4353.846153846154,4221.538461538462,4200.512820512821,4375.384615384616
779.24,0.23727287,0.738709,0.33463624,0.61032665,0,0.0,0.0,0.0,0.0,0.0,0,0,0.0,0.0,0,0,100.0,0.0,457.0,4649.2307692307695,3991.2820512820517,4518.461538461539,4442.564102564103,4234.358974358975,4484.102564102564,4466.153846153847,4410.769230769231,4364.615384615385,4766.666666666667,4311.282051282052,4233.846153846154,4214.871794871796,4393.333333333334
779.24,0.23727287,0.738709,0.33463624,0.61032665,0,0.0,0.0,0.0,0.0,0.0,0,0,0.0,0.0,0,0,100.0,0.0,457.0,4649.2307692307695,3991.2820512820517,4518.461538461539,4442.564102564103,4234.358974358975,4484.102564102564,4466.153846153847,4410.769230769231,4364.615384615385,4766.666666666667,4311.282051282052,4233.846153846154,4214.871794871796,4393.333333333334
779.7404,0.25646812,0.7121481,0.334505,0.6226889,0,0.0,0.0,0.0,0.0,0.0,0,0,0.0,0.0,0,0,35.0,0.0,0.0,4644.102564102564,3981.538461538462,4481.538461538462,4426.153846153847,4218.461538461539,4478.974358974359,4463.076923076924,4396.923076923077,4353.846153846154,4750.256410256411,4332.307692307693,4209.74358974359,4189.74358974359,4346.153846153847
779.7404,0.25646812,0.7121481,0.334505,0.6226889,0,0.0,0.0,0.0,0.0,0.0,0,0,0.0,0.0,0,0,35.0,0.0,0.0,4644.102564102564,3981.538461538462,4481.538461538462,4426.153846153847,4218.461538461539,4478.974358974359,4463.076923076924,4396.923076923077,4353.846153846154,4750.256410256411,4332.307692307693,4209.74358974359,4189.74358974359,4346.153846153847
780.24084,0.2646108,0.678498,0.33262408,0.6338089,0,0.0,0.0,0.0,0.0,0.0,0,0,0.0,0.0,0,0,99.0,0.0,417.0,4662.564102564103,3973.333333333334,4480.512820512821,4429.743589743591,4225.641025641026,4483.076923076924,4462.564102564103,4401.025641025642,4361.538461538462,4759.48717948718,4343.589743589744,4233.846153846154,4190.769230769231,4365.128205128206
780.24084,0.2646108,0.678498,0.33262408,0.6338089,0,0.0,0.0,0.0,0.0,0.0,0,0,0.0,0.0,0,0,99.0,0.0,417.0,4662.564102564103,3973.333333333334,4480.512820512821,4429.743589743591,4225.641025641026,4483.076923076924,4462.564102564103,4401.025641025642,4361.538461538462,4759.48717948718,4343.589743589744,4233.846153846154,4190.769230769231,4365.128205128206
780.7413,0.24756792,0.64673007,0.32759744,0.64380985,0,0.0,0.0,0.0,0.0,0.0,0,0,0.0,0.0,0,0,34.0,0.0,0.0,4674.871794871796,3990.2564102564106,4485.128205128206,4445.641025641026,4234.358974358975,4492.820512820514,4450.769230769231,4396.923076923077,4368.205128205129,4756.923076923077,4337.948717948719,4234.871794871796,4205.128205128206,4350.769230769231
780.7413,0.24756792,0.64673007,0.32759744,0.64380985,0,0.0,0.0,0.0,0.0,0.0,0,0,0.0,0.0,0,0,34.0,0.0,0.0,4674.871794871796,3990.2564102564106,4485.128205128206,4445.641025641026,4234.358974358975,4492.820512820514,4450.769230769231,4396.923076923077,4368.205128205129,4756.923076923077,4337.948717948719,4234.871794871796,4205.128205128206,4350.769230769231
781.2417,0.24494761,0.62458867,0.32044378,0.6497984,0,0.0,0.0,0.0,0.0,0.0,0,0,0.0,0.0,0,0,98.0,0.0,529.0,4649.2307692307695,4023.589743589744,4480.000000000001,4447.179487179487,4222.564102564103,4498.461538461539,4463.076923076924,4408.205128205129,4364.102564102564,4752.307692307693,4333.846153846154,4326.666666666667,4190.256410256411,4376.410256410257
781.2417,0.24494761,0.62458867,0.32044378,0.6497984,0,0.0,0.0,0.0,0.0,0.0,0,0,0.0,0.0,0,0,98.0,0.0,529.0,4649.2307692307695,4023.589743589744,4480.000000000001,4447.179487179487,4222.564102564103,4498.461538461539,4463.076923076924,4408.205128205129,4364.102564102564,4752.307692307693,4333.846153846154,4326.666666666667,4190.256410256411,4376.410256410257
781.7734,0.2335131,0.6012965,0.3139989,0.646957,0,0.0,0.0,0.0,0.0,0.0,0,0,0.0,0.0,0,0,37.0,0.0,0.0,4617.948717948719,4027.692307692308,4491.282051282052,4464.102564102564,4258.974358974359,4492.820512820514,4448.205128205129,4395.384615384616,4363.076923076924,4743.076923076924,4339.48717948718,4318.974358974359,4172.820512820514,4390.769230769231
781.7734,0.2335131,0.6012965,0.3139989,0.646957,0,0.0,0.0,0.0,0.0,0.0,0,0,0.0,0.0,0,0,37.0,0.0,0.0,4617.948717948719,4027.692307692308,4491.282051282052,4464.102564102564,4258.974358974359,4492.820512820514,4448.205128205129,4395.384615384616,4363.076923076924,4743.076923076924,4339.48717948718,4318.974358974359,4172.820512820514,4390.769230769231
782.24255,0.24045104,0.57915103,0.30820775,0.64141786,0,0.0,0.0,0.0,0.0,0.0,0,0,0.0,0.0,0,0,97.0,0.0,495.0,4622.051282051282,4007.692307692308,4502.051282051282,4488.205128205129,4284.102564102564,4526.153846153847,4486.153846153847,4438.461538461539,4378.974358974359,4787.6923076923085,4398.974358974359,4453.846153846154,4258.974358974359,4470.256410256411
782.24255,0.24045104,0.57915103,0.30820775,0.64141786,0,0.0,0.0,0.0,0.0,0.0,0,0,0.0,0.0,0,0,97.0,0.0,495.0,4622.051282051282,4007.692307692308,4502.051282051282,4488.205128205129,4284.102564102564,4526.153846153847,4486.153846153847,4438.461538461539,4378.974358974359,4787.6923076923085,4398.974358974359,4453.846153846154,4258.974358974359,4470.256410256411
782.743,0.22327235,0.559453,0.30739245,0.6338408,0,0.0,0.0,0.0,0.0,0.0,0,0,0.0,0.0,0,0,32.0,0.0,0.0,4653.333333333334,4005.1282051282055,4509.2307692307695,4489.2307692307695,4297.948717948719,4537.948717948719,4481.538461538462,4425.641025641026,4382.564102564103,4769.2307692307695,4382.564102564103,4514.358974358975,4237.948717948719,4474.871794871796
782.9932,0.22327235,0.559453,0.30739245,0.6338408,0,0.0,0.0,0.0,0.0,0.2359806,0,0,0.0,0.0,0,0,64.0,0.0,502.0,4677.948717948719,3984.615384615385,4536.410256410257,4504.615384615385,4244.615384615385,4565.641025641026,4486.153846153847,4450.769230769231,4387.179487179487,4789.2307692307695,4401.025641025642,4492.820512820514,4245.128205128206,4476.410256410257
783.2434,0.21592417,0.5485818,0.309996,0.62565064,0,0.0,0.0,0.0,0.0,0.0,0,0,0.0,0.0,0,0,96.0,0.0,457.0,4667.179487179488,3973.333333333334,4531.282051282052,4505.128205128206,4242.564102564103,4557.435897435898,4475.384615384616,4440.512820512821,4388.205128205129,4775.8974358974365,4389.743589743591,4442.564102564103,4240.512820512821,4475.384615384616
783.2434,0.21592417,0.5485818,0.309996,0.62565064,0,0.0,0.0,0.0,0.0,0.0,0,0,0.0,0.0,0,0,96.0,0.0,457.0,4667.179487179488,3973.333333333334,4531.282051282052,4505.128205128206,4242.564102564103,4557.435897435898,4475.384615384616,4440.512820512821,4388.205128205129,4775.8974358974365,4389.743589743591,4442.564102564103,4240.512820512821,4475.384615384616
783.74384,0.22712635,0.54891515,0.3123419,0.61827886,0,0.0,0.0,0.0,0.0,0.0,0,0,0.0,0.0,0,0,31.0,0.0,0.0,4657.948717948719,3976.410256410257,4525.641025641026,4505.128205128206,4256.923076923077,4555.8974358974365,4470.769230769231,4444.615384615385,4384.615384615385,4772.307692307693,4397.435897435898,4415.8974358974365,4238.461538461539,4464.615384615385
783.74384,0.22712635,0.54891515,0.3123419,0.61827886,0,0.0,0.0,0.0,0.0,0.0,0,0,0.0,0.0,0,0,31.0,0.0,0.0,4657.948717948719,3976.410256410257,4525.641025641026,4505.128205128206,4256.923076923077,4555.8974358974365,4470.769230769231,4444.615384615385,4384.615384615385,4772.307692307693,4397.435897435898,4415.8974358974365,4238.461538461539,4464.615384615385
784.24426,0.19428396,0.54391396,0.31445396,0.61164325,0,0.0,0.0,0.0,0.0,0.0,0,0,0.0,0.0,0,0,95.0,0.0,416.0,4641.538461538462,3951.7948717948725,4493.333333333334,4466.153846153847,4241.538461538462,4509.743589743591,4467.179487179487,4436.923076923077,4377.435897435898,4752.820512820514,4461.538461538462,4333.333333333334,4195.8974358974365,4419.48717948718
784.4945,0.19428396,0.54391396,0.31445396,0.61164325,0,0.0,0.0,0.0,0.0,0.0,0,0,0.0,0.022119476,0,0,127.0,0.0,416.0,4618.974358974359,3912.307692307693,4415.384615384616,4407.179487179487,4174.358974358975,4439.48717948718,4458.974358974359,4434.358974358975,4354.871794871796,4698.461538461539,4310.769230769231,4290.769230769231,4089.23076923077,4405.128205128206
784.7447,0.258664,0.507621,0.31635362,0.61338544,0,0.0,0.0,0.0,0.0,0.0,0,0,0.0,0.0,0,0,30.0,0.0,0.0,4581.538461538462,3885.6410256410263,4270.256410256411,4336.410256410257,4126.666666666667,4382.051282051282,4460.512820512821,4435.384615384616,4328.205128205129,4649.743589743591,4269.2307692307695,4201.538461538462,4006.666666666667,4370.256410256411
784.99493,0.258664,0.507621,0.31635362,0.61338544,0,0.0,0.0,0.0,0.0,0.0070524206,0,0,0.0,0.0,0,0,62.0,0.0,0.0,4526.666666666667,3864.615384615385,4195.384615384616,4278.974358974359,4137.435897435898,4381.025641025642,4443.076923076924,4414.358974358975,4304.102564102564,4592.307692307693,4203.076923076924,4015.3846153846157,3945.6410256410263,4335.384615384616
785.2451,0.36168632,0.47494525,0.3180639,0.6206557,0,0.0,0.0,0.0,0.0,0.0623403,0,0,0.0,0.0,0,0,94.0,0.0,529.0,4493.846153846154,3866.1538461538466,4203.076923076924,4263.589743589744,4138.461538461539,4394.358974358975,4424.102564102564,4400.512820512821,4305.641025641026,4589.2307692307695,4187.6923076923085,3893.333333333334,3998.9743589743593,4314.871794871796
785.49536,0.36168632,0.47494525,0.3180639,0.6206557,0,0.0,0.0,0.0,0.0,0.0,0,0,0.0,0.0,0,0,126.0,0.0,529.0,4482.564102564103,3883.076923076924,4232.820512820514,4261.025641025642,4156.923076923077,4409.743589743591,4429.2307692307695,4396.923076923077,4313.846153846154,4610.256410256411,4201.538461538462,3903.076923076924,4048.205128205129,4325.641025641026
785.74554,0.43268833,0.4455371,0.31969604,0.62719476,0,0.0,0.0,0.0,0.0,0.0,0,0,0.0,0.0,0,0,29.0,0.0,0.0,4491.794871794872,3915.3846153846157,4315.8974358974365,4293.333333333334,4189.2307692307695,4449.743589743591,4422.564102564103,4386.666666666667,4307.179487179487,4632.307692307693,4221.025641025642,3924.615384615385,4097.435897435898,4335.8974358974365
785.74554,0.43268833,0.4455371,0.31969604,0.62719476,0,0.0,0.0,0.0,0.0,0.0,0,0,0.0,0.0,0,0,29.0,0.0,0.0,4491.794871794872,3915.3846153846157,4315.8974358974365,4293.333333333334,4189.2307692307695,4449.743589743591,4422.564102564103,4386.666666666667,4307.179487179487,4632.307692307693,4221.025641025642,3924.615384615385,4097.435897435898,4335.8974358974365
786.246,0.4403756,0.41906977,0.3205863,0.6330752,0,0.0,0.0,0.0,0.0,0.0,0,0,0.0,0.0,0,0,93.0,0.0,494.0,4520.000000000001,3948.205128205129,4440.512820512821,4342.051282051282,4204.615384615385,4491.282051282052,4417.435897435898,4382.564102564103,4353.333333333334,4674.871794871796,4267.6923076923085,4090.2564102564106,4174.871794871796,4355.384615384616
786.246,0.4403756,0.41906977,0.3205863,0.6330752,0,0.0,0.0,0.0,0.0,0.0,0,0,0.0,0.0,0,0,93.0,0.0,494.0,4520.000000000001,3948.205128205129,4440.512820512821,4342.051282051282,4204.615384615385,4491.282051282052,4417.435897435898,4382.564102564103,4353.333333333334,4674.871794871796,4267.6923076923085,4090.2564102564106,4174.871794871796,4355.384615384616
786.7464,0.45685324,0.39524916,0.3172905,0.6355642,0,0.0,0.0,0.0,0.0,0.0,0,0,0.0,0.0,0,0,28.0,0.0,0.0,4581.025641025642,3993.8461538461543,4545.641025641026,4414.358974358975,4286.153846153847,4555.8974358974365,4449.2307692307695,4399.48717948718,4370.256410256411,4711.282051282052,4302.051282051282,4195.384615384616,4202.564102564103,4344.615384615385
786.7464,0.45685324,0.39524916,0.3172905,0.6355642,0,0.0,0.0,0.0,0.0,0.0,0,0,0.0,0.0,0,0,28.0,0.0,0.0,4581.025641025642,3993.8461538461543,4545.641025641026,4414.358974358975,4286.153846153847,4555.8974358974365,4449.2307692307695,4399.48717948718,4370.256410256411,4711.282051282052,4302.051282051282,4195.384615384616,4202.564102564103,4344.615384615385
787.2468,0.45422015,0.41928658,0.3143249,0.6378002,0,0.0,0.0,0.0,0.0,0.0,0,0,0.0,0.0,0,0,92.0,0.0,461.0,4615.8974358974365,4009.7435897435903,4575.8974358974365,4461.538461538462,4295.384615384616,4569.2307692307695,4477.435897435898,4426.153846153847,4386.153846153847,4735.384615384616,4347.179487179487,4269.74358974359,4224.102564102564,4351.794871794872
787.2468,0.45422015,0.41928658,0.3143249,0.6378002,0,0.0,0.0,0.0,0.0,0.0,0,0,0.0,0.0,0,0,92.0,0.0,461.0,4615.8974358974365,4009.7435897435903,4575.8974358974365,4461.538461538462,4295.384615384616,4569.2307692307695,4477.435897435898,4426.153846153847,4386.153846153847,4735.384615384616,4347.179487179487,4269.74358974359,4224.102564102564,4351.794871794872
787.7473,0.44456065,0.43823457,0.31165653,0.6371701,0,0.0,0.0,0.0,0.0,0.0,0,0,0.0,0.0,0,0,27.0,0.0,0.0,4647.179487179488,3998.9743589743593,4582.564102564103,4467.6923076923085,4283.076923076924,4550.769230769231,4468.717948717949,4417.435897435898,4382.564102564103,4741.538461538462,4395.384615384616,4353.846153846154,4245.128205128206,4379.48717948718
787.7473,0.44456065,0.43823457,0.31165653,0.6371701,0,0.0,0.0,0.0,0.0,0.0,0,0,0.0,0.0,0,0,27.0,0.0,0.0,4647.179487179488,3998.9743589743593,4582.564102564103,4467.6923076923085,4283.076923076924,4550.769230769231,4468.717948717949,4417.435897435898,4382.564102564103,4741.538461538462,4395.384615384616,4353.846153846154,4245.128205128206,4379.48717948718
788.24774,0.4506457,0.4537035,0.30570158,0.6340798,0,0.0,0.0,0.0,0.0,0.0,0,0,0.0,0.0,0,0,91.0,0.0,416.0,4647.6923076923085,3949.7435897435903,4525.128205128206,4441.538461538462,4256.410256410257,4522.051282051282,4437.948717948719,4392.307692307693,4343.076923076924,4696.923076923077,4325.128205128206,4301.538461538462,4195.384615384616,4363.076923076924
788.24774,0.4506457,0.4537035,0.30570158,0.6340798,0,0.0,0.0,0.0,0.0,0.0,0,0,0.0,0.0,0,0,91.0,0.0,416.0,4647.6923076923085,3949.7435897435903,4525.128205128206,4441.538461538462,4256.410256410257,4522.051282051282,4437.948717948719,4392.307692307693,4343.076923076924,4696.923076923077,4325.128205128206,4301.538461538462,4195.384615384616,4363.076923076924
788.74817,0.44046295,0.4597319,0.29911742,0.63205725,0,0.0,0.0,0.0,0.0,0.0,0,0,0.0,0.0,0,0,26.0,0.0,0.0,4648.717948717949,3943.076923076924,4500.512820512821,4429.743589743591,4247.6923076923085,4507.179487179488,4412.820512820514,4376.410256410257,4343.589743589744,4674.871794871796,4301.538461538462,4340.000000000001,4166.153846153847,4332.307692307693
788.74817,0.44046295,0.4597319,0.29911742,0.63205725,0,0.0,0.0,0.0,0.0,0.0,0,0,0.0,0.0,0,0,26.0,0.0,0.0,4648.717948717949,3943.076923076924,4500.512820512821,4429.743589743591,4247.6923076923085,4507.179487179488,4412.820512820514,4376.410256410257,4343.589743589744,4674.871794871796,4301.538461538462,4340.000000000001,4166.153846153847,4332.307692307693
789.2486,0.41167697,0.45061114,0.29309565,0.6295047,0,0.0,0.0,0.0,0.0,0.0,0,0,0.0,0.0,0,0,90.0,0.0,529.0,4647.179487179488,3942.0512820512827,4479.48717948718,4421.538461538462,4229.2307692307695,4487.6923076923085,4406.666666666667,4373.333333333334,4337.948717948719,4677.948717948719,4322.051282051282,4323.589743589744,4170.769230769231,4312.820512820514
789.2486,0.41167697,0.45061114,0.29309565,0.6295047,0,0.0,0.0,0.0,0.0,0.0,0,0,0.0,0.0,0,0,90.0,0.0,529.0,4647.179487179488,3942.0512820512827,4479.48717948718,4421.538461538462,4229.2307692307695,4487.6923076923085,4406.666666666667,4373.333333333334,4337.948717948719,4677.948717948719,4322.051282051282,4323.589743589744,4170.769230769231,4312.820512820514
789.749,0.39248788,0.44425887,0.2873576,0.6272966,0,0.0,0.0,0.0,0.0,1.0,0,0,0.0,0.0,0,0,25.0,0.0,0.0,4649.2307692307695,3926.1538461538466,4475.8974358974365,4430.256410256411,4273.333333333334,4484.102564102564,4417.435897435898,4376.923076923077,4348.205128205129,4686.666666666667,4330.769230769231,4330.256410256411,4165.641025641026,4384.102564102564
789.9992,0.39248788,0.44425887,0.2873576,0.6272966,0,0.0,0.0,0.0,0.0,0.7553239,0,0,0.0,0.0,0,0,57.0,0.0,0.0,4653.333333333334,3932.307692307693,4480.512820512821,4444.102564102564,4268.205128205129,4492.307692307693,4429.743589743591,4384.102564102564,4353.333333333334,4707.179487179488,4354.358974358975,4331.282051282052,4178.974358974359,4412.820512820514
790.24945,0.38640666,0.42953065,0.28084388,0.6253072,0,0.0,0.0,0.0,0.0,0.0,0,0,0.0,0.0,0,0,89.0,0.0,494.0,4674.358974358975,3949.2307692307695,4508.717948717949,4461.025641025642,4291.794871794872,4515.384615384616,4456.923076923077,4410.256410256411,4367.6923076923085,4745.641025641026,4359.48717948718,4348.205128205129,4227.6923076923085,4493.333333333334
790.49963,0.38640666,0.42953065,0.28084388,0.6253072,0,0.0,0.0,0.0,0.0,0.8106635,0,0,0.0,0.0,0,0,121.0,0.0,494.0,4690.769230769231,3947.692307692308,4522.051282051282,4458.974358974359,4294.358974358975,4520.000000000001,4460.000000000001,4394.358974358975,4365.128205128206,4738.974358974359,4350.769230769231,4316.923076923077,4210.256410256411,4528.717948717949
790.7499,0.37789232,0.44132486,0.2749837,0.627404,0,0.0,0.0,0.0,0.0,1.0,0,0,0.0,0.0,0,0,24.0,0.0,0.0,4686.153846153847,3952.820512820513,4524.615384615385,4455.8974358974365,4312.820512820514,4530.769230769231,4468.717948717949,4409.2307692307695,4368.717948717949,4737.948717948719,4352.820512820514,4200.512820512821,4214.871794871796,4582.051282051282
791.00006,0.37789232,0.44132486,0.2749837,0.627404,0,0.0,0.0,0.0,0.0,0.0,0,0,0.0,0.0,0,0,56.0,0.0,0.0,4685.641025641026,3951.7948717948725,4506.666666666667,4429.2307692307695,4303.076923076924,4529.743589743591,4462.564102564103,4398.461538461539,4366.153846153847,4733.846153846154,4367.179487179487,4222.051282051282,4208.205128205129,4577.435897435898
791.2503,0.3830665,0.44442675,0.2720686,0.63328594,0,0.0,0.0,0.0,0.0,0.0,0,0,0.0,0.0,0,0,88.0,0.0,461.0,4671.282051282052,3936.410256410257,4492.820512820514,4398.974358974359,4283.076923076924,4523.076923076924,4444.102564102564,4387.6923076923085,4362.564102564103,4712.307692307693,4337.435897435898,4214.871794871796,4182.564102564103,4600.512820512821
791.5005,0.3830665,0.44442675,0.2720686,0.63328594,0,0.0,0.0,0.0,0.0,0.29059443,0,0,0.0,0.0,0,0,120.0,0.0,461.0,4663.076923076924,3945.1282051282055,4489.743589743591,4413.846153846154,4298.974358974359,4542.051282051282,4449.2307692307695,4411.282051282052,4370.769230769231,4725.128205128206,4352.307692307693,4267.6923076923085,4202.051282051282,4623.076923076924
791.75073,0.4114801,0.43768218,0.27087253,0.6404003,0,0.0,0.0,0.0,0.0,0.064368315,0,0,0.0,0.0,0,0,23.0,0.0,0.0,4692.307692307693,3978.9743589743593,4528.717948717949,4463.076923076924,4343.076923076924,4567.179487179488,4472.820512820514,4456.410256410257,4380.512820512821,4747.179487179488,4350.769230769231,4318.461538461539,4237.948717948719,4659.48717948718
792.0009,0.4114801,0.43768218,0.27087253,0.6404003,0,0.0,0.0,0.0,0.0,0.0,0,0,0.0,0.0,0,0,55.0,0.0,0.0,4691.282051282052,3973.333333333334,4523.589743589744,4449.743589743591,4348.717948717949,4572.307692307693,4466.666666666667,4434.871794871796,4374.358974358975,4738.461538461539,4330.256410256411,4280.000000000001,4218.974358974359,4643.076923076924
792.25116,0.4704186,0.4524881,0.27476186,0.6467969,0,0.0,0.0,0.0,0.0,0.0,0,0,0.0,0.0,0,0,87.0,0.0,408.0,4679.48717948718,3968.205128205129,4503.589743589744,4417.948717948719,4324.102564102564,4549.743589743591,4460.000000000001,4427.179487179487,4376.923076923077,4720.512820512821,4297.435897435898,4267.6923076923085,4210.256410256411,4626.153846153847
792.25116,0.4704186,0.4524881,0.27476186,0.6467969,0,0.0,0.0,0.0,0.0,0.0,0,0,0.0,0.0,0,0,87.0,0.0,408.0,4679.48717948718,3968.205128205129,4503.589743589744,4417.948717948719,4324.102564102564,4549.743589743591,4460.000000000001,4427.179487179487,4376.923076923077,4720.512820512821,4297.435897435898,4267.6923076923085,4210.256410256411,4626.153846153847
792.7516,0.48975232,0.42151412,0.2787961,0.65254706,0,0.0,0.0,0.0,0.0,0.0,0,0,0.0,0.0,0,0,22.0,0.0,0.0,4617.435897435898,3877.435897435898,4279.48717948718,4152.820512820514,4190.769230769231,4408.717948717949,4472.307692307693,4418.974358974359,4308.717948717949,4620.512820512821,4192.307692307693,4146.153846153847,3983.076923076924,4545.641025641026
793.00183,0.48975232,0.42151412,0.2787961,0.65254706,0,0.0,0.0,0.0,0.0,0.003250333,0,0,0.0,0.0,0,0,54.0,0.0,0.0,4572.820512820514,3835.8974358974365,4189.74358974359,4138.461538461539,4133.846153846154,4346.153846153847,4486.153846153847,4443.589743589744,4289.2307692307695,4583.076923076924,4166.666666666667,3993.8461538461543,3909.7435897435903,4519.48717948718
793.252,0.539753,0.3935903,0.2824288,0.65771496,0,0.0,0.0,0.0,0.0,0.003066078,0,0,0.0,0.0,0,0,86.0,0.0,529.0,4518.461538461539,3804.615384615385,4103.076923076924,4121.025641025642,4121.025641025642,4349.2307692307695,4457.435897435898,4429.743589743591,4282.564102564103,4564.102564102564,4138.461538461539,3863.589743589744,3920.0000000000005,4483.589743589744
793.37714,0.539753,0.3935903,0.2824288,0.65771496,0,0.0,0.0,0.0,0.0,0.0,0,0,0.0,0.0,0,0,102.0,0.0,529.0,4505.128205128206,3815.3846153846157,4129.74358974359,4143.589743589744,4130.769230769231,4368.205128205129,4441.025641025642,4409.743589743591,4277.948717948719,4553.846153846154,4132.820512820514,3807.1794871794878,3951.2820512820517,4455.384615384616
793.75244,0.45056134,0.36845884,0.28569996,0.6618771,0,0.0,0.0,0.0,0.0,0.0,0,0,0.0,0.0,0,0,21.0,0.0,0.0,4480.000000000001,3861.538461538462,4248.717948717949,4210.769230769231,4162.564102564103,4413.333333333334,4390.256410256411,4368.205128205129,4308.205128205129,4565.641025641026,4147.179487179487,3773.8461538461543,4047.692307692308,4417.435897435898
794.0027,0.45056134,0.36845884,0.28569996,0.6618771,0,0.0,0.0,0.0,0.0,0.0689178,0,0,0.0,0.0,0,0,53.0,0.0,0.0,4463.076923076924,3879.48717948718,4330.256410256411,4249.74358974359,4184.615384615385,4437.435897435898,4391.282051282052,4358.461538461539,4328.205128205129,4590.256410256411,4170.769230769231,3769.2307692307695,4113.333333333334,4406.153846153847
794.25287,0.47931615,0.3458405,0.28461584,0.6626991,0,0.0,0.0,0.0,0.0,0.045975164,0,0,0.0,0.0,0,0,85.0,0.0,494.0,4487.179487179488,3946.666666666667,4422.051282051282,4311.794871794872,4211.282051282052,4470.769230769231,4383.589743589744,4347.179487179487,4349.2307692307695,4626.153846153847,4209.74358974359,3874.8717948717954,4163.589743589744,4424.102564102564
794.5031,0.47931615,0.3458405,0.28461584,0.6626991,0,0.0,0.0,0.0,0.0,1.0,0,0,0.0,0.0,0,0,117.0,0.0,494.0,5547.6923076923085,4078.9743589743593,4640.000000000001,4453.333333333334,4236.410256410257,4510.769230769231,4397.948717948719,4376.923076923077,4418.461538461539,4776.410256410257,4209.74358974359,4081.538461538462,4418.974358974359,7768.71794871795
794.7846,0.5712594,0.32548404,0.28362373,0.66079605,0,0.0,0.0,0.0,0.0,1.0,0,0,0.0,0.0,0,0,24.0,0.0,0.0,4844.615384615386,4033.8461538461543,4653.846153846154,4453.333333333334,4280.512820512821,4526.153846153847,4413.333333333334,4393.846153846154,4390.769230769231,4737.435897435898,4204.615384615385,4171.794871794872,4429.2307692307695,7686.666666666668
794.7846,0.5712594,0.32548404,0.28362373,0.66079605,0,0.0,0.0,0.0,0.0,1.0,0,0,0.0,0.0,0,0,24.0,0.0,0.0,4844.615384615386,4033.8461538461543,4653.846153846154,4453.333333333334,4280.512820512821,4526.153846153847,4413.333333333334,4393.846153846154,4390.769230769231,4737.435897435898,4204.615384615385,4171.794871794872,4429.2307692307695,7686.666666666668
795.28503,0.53392947,0.30716318,0.28273085,0.6538918,0,0.0,0.0,0.0,0.0,1.0,0,0,0.0,0.0,0,0,88.0,0.0,461.0,4647.6923076923085,4009.23076923077,4554.358974358975,4418.461538461539,4314.358974358975,4562.051282051282,4429.743589743591,4370.256410256411,4391.794871794872,4695.384615384616,4351.282051282052,4224.102564102564,4289.2307692307695,5989.23076923077
795.37885,0.53392947,0.30716318,0.28273085,0.6538918,0,0.0,0.0,0.0,0.0,1.0,0,0,0.0,0.0,0,0,100.0,0.0,461.0,4648.205128205129,3998.461538461539,4542.051282051282,4421.538461538462,4311.794871794872,4560.000000000001,4428.205128205129,4376.410256410257,4391.794871794872,4707.179487179488,4395.8974358974365,4276.410256410257,4300.000000000001,5833.846153846154
795.78546,0.46269158,0.29067445,0.28450975,0.6437265,0,0.0,0.0,0.0,0.0,1.0,0,0,0.0,0.0,0,0,23.0,0.0,0.0,4702.564102564103,3987.692307692308,4534.871794871796,4414.358974358975,4288.717948717949,4547.179487179488,4423.589743589744,4359.48717948718,4389.743589743591,4684.102564102564,4417.948717948719,4309.743589743591,4262.051282051282,5281.538461538462
795.78546,0.46269158,0.29067445,0.28450975,0.6437265,0,0.0,0.0,0.0,0.0,1.0,0,0,0.0,0.0,0,0,23.0,0.0,0.0,4702.564102564103,3987.692307692308,4534.871794871796,4414.358974358975,4288.717948717949,4547.179487179488,4423.589743589744,4359.48717948718,4389.743589743591,4684.102564102564,4417.948717948719,4309.743589743591,4262.051282051282,5281.538461538462
796.2546,0.44184694,0.27583456,0.2894081,0.63454586,0,0.0,0.0,0.0,0.0,1.0,0,0,0.0,0.0,0,0,83.0,0.0,388.0,4713.333333333334,3989.23076923077,4529.743589743591,4428.717948717949,4272.820512820514,4532.820512820514,4415.384615384616,4346.153846153847,4387.6923076923085,4694.871794871796,4406.153846153847,4369.743589743591,4244.615384615385,4890.256410256411
