timestamp,excitement,frustration,meditation,engagementBoredom,blink,clench,laugh,smile,eyebrow,furrowBrow,lookLeft,lookRight,smirkLeft,smirkRight,winkLeft,winkRight,eeg0,eeg1,eeg2,eeg3,eeg4,eeg5,eeg6,eeg7,eeg8,eeg9,eeg10,eeg11,eeg12,eeg13,eeg14,eeg15,eeg16
586.34766,0.21000004,0.94992703,0.33309683,0.56639826,0,0.0,0.0,0.0,0.0,0.09197688,0,0,0.0,0.0,0,0,107.0,0.0,511.0,4813.333333333334,4143.076923076924,4591.282051282052,4625.128205128206,4346.153846153847,4653.333333333334,4562.051282051282,4528.205128205129,4454.358974358975,4743.589743589744,4306.153846153847,4294.358974358975,4057.9487179487182,4532.307692307693
586.5353,0.34677467,1.0,0.33312052,0.5649805,0,0.0,0.0,0.0,0.0,0.22620517,0,0,0.0,0.0,0,0,2.0,0.0,219.0,4765.641025641026,3940.5128205128212,4578.461538461539,4429.743589743591,4292.307692307693,4629.743589743591,4553.846153846154,4535.8974358974365,4461.538461538462,4775.384615384616,4308.205128205129,4255.384615384616,4101.538461538462,4439.48717948718
586.7543,0.34677467,1.0,0.33312052,0.5649805,0,0.0,0.0,0.0,0.0,0.0,0,0,0.24193768,0.0,0,0,30.0,0.0,0.0,4717.948717948719,3869.7435897435903,4557.435897435898,4353.846153846154,4254.358974358975,4554.358974358975,4513.846153846154,4461.538461538462,4411.282051282052,4704.615384615386,4284.615384615385,4198.461538461539,4065.1282051282055,4386.666666666667
587.00446,0.51516175,1.0,0.3331419,0.56370157,0,0.0,0.0,0.0,0.0,0.0,0,0,0.16363567,0.0,0,0,62.0,0.0,0.0,4690.769230769231,3830.2564102564106,4542.051282051282,4312.307692307693,4217.948717948719,4443.076923076924,4430.769230769231,4372.307692307693,4339.48717948718,4653.333333333334,4297.435897435898,4162.564102564103,4099.48717948718,4438.974358974359
587.2547,0.51516175,1.0,0.3331419,0.56370157,0,0.0,0.0,0.0,0.0,0.0,0,1,0.0,0.17647442,0,1,94.0,0.0,557.0,4646.153846153847,3677.435897435898,4515.8974358974365,4174.358974358975,4197.435897435898,4401.025641025642,4420.512820512821,4416.923076923077,4363.589743589744,4713.333333333334,4382.564102564103,4135.8974358974365,4223.589743589744,4460.000000000001
587.5987,0.44405133,1.0,0.33316115,0.5625506,1,0.0,0.0,0.0,0.0,0.0,0,0,0.0,0.23238541,0,0,9.0,0.0,493.0,4640.512820512821,3791.7948717948725,4515.8974358974365,4291.794871794872,4220.000000000001,4363.076923076924,4383.076923076924,4357.435897435898,4330.256410256411,4693.333333333334,4401.025641025642,4129.2307692307695,4250.769230769231,4561.025641025642
587.7551,0.44405133,1.0,0.33316115,0.5625506,0,0.0,0.0,0.027116448,0.0,0.0,0,0,0.0,0.0,0,0,29.0,0.0,0.0,4616.410256410257,3804.1025641025644,4518.461538461539,4302.051282051282,4260.000000000001,4395.8974358974365,4400.512820512821,4348.717948717949,4351.282051282052,4726.153846153847,4403.076923076924,4134.871794871796,4253.333333333334,4536.410256410257
588.0053,0.46152702,1.0,0.33317846,0.56151444,0,0.0,0.0,0.0,0.0,0.5462998,0,0,0.0,0.0,0,0,61.0,0.0,0.0,4553.333333333334,3742.0512820512827,4505.641025641026,4246.153846153847,4259.48717948718,4445.128205128206,4433.846153846154,4360.512820512821,4360.512820512821,4709.743589743591,4362.564102564103,4114.358974358975,4151.282051282052,4380.000000000001
588.25555,0.46152702,1.0,0.33317846,0.56151444,0,0.0,0.0,0.0,0.0,0.39787436,0,0,0.0,0.0,0,0,93.0,0.0,497.0,4505.641025641026,3740.512820512821,4498.461538461539,4249.74358974359,4273.846153846154,4474.871794871796,4429.743589743591,4358.461538461539,4357.435897435898,4716.923076923077,4326.666666666667,4071.2820512820517,4058.9743589743593,4258.461538461539
588.50574,0.41614372,1.0,0.33319408,0.560582,0,0.0,0.0,0.0,0.0,0.56555086,0,0,0.0,0.0,0,0,125.0,0.0,497.0,4522.051282051282,3747.1794871794878,4496.410256410257,4253.846153846154,4302.564102564103,4516.923076923077,4442.051282051282,4406.153846153847,4392.307692307693,4735.8974358974365,4339.48717948718,4109.2307692307695,4074.358974358975,4291.282051282052
588.81854,0.41614372,1.0,0.33319408,0.560582,0,0.0,0.0,0.0,0.0,0.57563186,0,0,0.0,0.0,0,1,36.0,0.0,0.0,4583.076923076924,3810.7692307692314,4505.128205128206,4318.974358974359,4295.8974358974365,4556.923076923077,4482.051282051282,4449.743589743591,4420.000000000001,4797.948717948719,4489.743589743591,4224.102564102564,4284.615384615385,4549.2307692307695
589.00616,0.490696,1.0,0.3332081,0.55974245,0,0.0,0.0,0.0,0.0,0.49223974,0,0,0.0,0.0,0,1,60.0,0.0,0.0,4576.410256410257,3821.538461538462,4500.000000000001,4332.307692307693,4306.153846153847,4575.384615384616,4473.333333333334,4472.820512820514,4430.256410256411,4805.641025641026,4461.025641025642,4234.358974358975,4246.153846153847,4523.589743589744
589.2564,0.490696,1.0,0.3332081,0.55974245,0,0.0,0.0,0.0,0.0,0.24421562,0,0,0.0,0.0,0,0,92.0,0.0,529.0,4567.6923076923085,3853.333333333334,4502.051282051282,4368.205128205129,4315.8974358974365,4597.948717948719,4490.769230769231,4464.102564102564,4432.820512820514,4811.282051282052,4453.846153846154,4262.051282051282,4241.025641025642,4503.076923076924
589.5066,0.41108787,1.0,0.34349272,0.5589866,0,0.0,0.0,0.0,0.0,0.060156804,0,0,0.0,0.0,0,0,124.0,0.0,529.0,4589.2307692307695,3907.692307692308,4494.871794871796,4421.538461538462,4313.846153846154,4614.871794871796,4488.205128205129,4474.358974358975,4448.205128205129,4826.666666666667,4464.102564102564,4273.846153846154,4266.666666666667,4529.743589743591
589.75684,0.41108787,1.0,0.34349272,0.5589866,0,0.0,0.0,0.0,0.0,0.04079156,0,0,0.0,0.0,0,0,27.0,0.0,0.0,4614.871794871796,3968.717948717949,4484.615384615385,4493.333333333334,4328.717948717949,4633.846153846154,4481.025641025642,4447.6923076923085,4447.179487179487,4830.769230769231,4482.564102564103,4301.538461538462,4284.102564102564,4576.923076923077
590.007,0.3843307,1.0,0.36351797,0.5569367,0,0.0,0.0,0.0,0.0,0.029306639,0,0,0.0,0.0,0,0,59.0,0.0,0.0,4616.923076923077,3973.8461538461543,4485.641025641026,4506.153846153847,4320.000000000001,4645.641025641026,4488.205128205129,4444.615384615385,4456.923076923077,4812.307692307693,4441.025641025642,4293.333333333334,4241.025641025642,4575.384615384616
590.25726,0.3843307,1.0,0.36351797,0.5569367,0,0.0,0.0,0.097084686,0.0,0.0,0,0,0.0,0.0,0,0,91.0,0.0,516.0,4642.051282051282,4004.1025641025644,4486.666666666667,4535.384615384616,4301.538461538462,4641.025641025642,4469.2307692307695,4440.512820512821,4451.282051282052,4811.794871794872,4425.641025641026,4304.102564102564,4252.307692307693,4590.769230769231
590.50745,0.32885218,1.0,0.38153893,0.555092,0,0.0,0.0,0.0,0.0,0.0,0,0,0.99292254,0.0,0,0,123.0,0.0,516.0,4673.846153846154,4013.333333333334,4488.205128205129,4540.000000000001,4276.410256410257,4629.743589743591,4471.794871794872,4449.743589743591,4454.358974358975,4799.48717948718,4427.6923076923085,4331.282051282052,4257.948717948719,4625.128205128206
590.8515,0.32885218,1.0,0.38153893,0.555092,0,0.0,0.0,0.0,0.0,0.0,0,0,0.4327668,0.0,1,0,38.0,0.0,0.0,4738.974358974359,4148.717948717949,4496.923076923077,4650.256410256411,4271.794871794872,4610.256410256411,4438.974358974359,4339.48717948718,4423.589743589744,4720.512820512821,4358.974358974359,4318.974358974359,4209.2307692307695,4683.076923076924
591.0079,0.33020136,1.0,0.39775482,0.5550701,0,0.0,0.0,0.0,0.0,0.12844491,0,0,0.0,0.0,1,0,58.0,0.0,0.0,4751.794871794872,4099.48717948718,4485.641025641026,4602.564102564103,4264.615384615385,4598.461538461539,4437.435897435898,4373.333333333334,4427.179487179487,4734.358974358975,4342.051282051282,4309.2307692307695,4184.102564102564,4621.538461538462
591.2581,0.33020136,1.0,0.39775482,0.5550701,0,0.0,0.0,0.0,0.0,0.15476672,0,0,0.0,0.0,0,0,90.0,0.0,557.0,4780.000000000001,4051.2820512820517,4467.179487179487,4565.641025641026,4235.8974358974365,4592.307692307693,4437.948717948719,4395.384615384616,4425.128205128206,4722.051282051282,4309.2307692307695,4292.820512820514,4163.589743589744,4604.102564102564
591.5083,0.37004372,1.0,0.40148026,0.5519508,0,0.0,0.0,0.0,0.0,0.27870935,0,0,0.0,0.0,0,0,122.0,0.0,557.0,4812.307692307693,4289.74358974359,4447.179487179487,4723.076923076924,4237.948717948719,4584.615384615385,4427.6923076923085,4372.307692307693,4412.307692307693,4718.974358974359,4308.205128205129,4249.74358974359,4200.512820512821,4570.256410256411
591.75854,0.37004372,1.0,0.40148026,0.5519508,0,0.0,0.0,0.0,0.0,0.0845308,0,0,0.0,0.0,0,0,25.0,0.0,0.0,4858.974358974359,4230.256410256411,4414.358974358975,4701.538461538462,4214.871794871796,4556.923076923077,4396.923076923077,4346.153846153847,4393.846153846154,4689.743589743591,4256.923076923077,4221.538461538462,4142.051282051282,4545.128205128206
592.0088,0.45473298,1.0,0.40289512,0.54877657,1,0.0,0.0,0.0,0.0,0.44140872,0,0,0.0,0.0,0,0,57.0,0.0,0.0,4876.923076923077,4152.307692307693,4415.384615384616,4643.076923076924,4253.333333333334,4587.179487179488,4433.846153846154,4368.205128205129,4407.6923076923085,4709.743589743591,4300.512820512821,4269.74358974359,4203.076923076924,4598.461538461539
592.259,0.45473298,1.0,0.40289512,0.54877657,0,0.0,0.0,0.0,0.0,0.062174052,0,0,0.0,0.0,0,0,89.0,0.0,497.0,4875.384615384616,4029.23076923077,4401.025641025642,4535.384615384616,4256.923076923077,4613.846153846154,4460.512820512821,4376.410256410257,4402.051282051282,4718.974358974359,4285.641025641026,4269.2307692307695,4189.74358974359,4570.256410256411
592.5092,0.38520336,1.0,0.40416515,0.55041707,0,0.0,0.0,0.0,0.0,0.009411038,0,0,0.0,0.0,0,0,121.0,0.0,497.0,4873.846153846154,3960.0000000000005,4388.205128205129,4472.820512820514,4256.923076923077,4607.6923076923085,4483.076923076924,4384.615384615385,4406.666666666667,4715.384615384616,4283.589743589744,4267.6923076923085,4180.512820512821,4564.102564102564
592.7594,0.38520336,1.0,0.40416515,0.55041707,0,0.0,0.0,0.0,0.0,0.0,0,0,0.5869567,0.0,0,0,24.0,0.0,0.0,4876.410256410257,3923.589743589744,4388.205128205129,4457.435897435898,4278.461538461539,4613.846153846154,4492.307692307693,4393.333333333334,4418.974358974359,4737.435897435898,4287.179487179487,4278.974358974359,4186.666666666667,4589.743589743591
593.00964,0.38550404,1.0,0.4053048,0.55728674,0,0.0,0.0,0.0,0.0,0.0,0,0,0.090423845,0.0,0,0,56.0,0.0,0.0,4864.102564102564,3953.8461538461543,4398.974358974359,4457.948717948719,4263.076923076924,4607.6923076923085,4502.051282051282,4438.974358974359,4417.435897435898,4734.871794871796,4290.256410256411,4269.2307692307695,4190.769230769231,4595.384615384616
593.29114,0.38550404,1.0,0.4053048,0.55728674,1,0.0,0.0,0.0,0.0,0.0,0,0,0.28770572,0.0,0,0,92.0,0.0,528.0,4871.794871794872,3971.7948717948725,4421.025641025642,4474.871794871796,4262.051282051282,4584.102564102564,4478.974358974359,4436.923076923077,4425.641025641026,4732.820512820514,4304.615384615385,4284.615384615385,4216.923076923077,4647.179487179488
593.6039,0.27733484,1.0,0.41502854,0.5634693,0,0.0,0.0,0.0,0.0,0.20613454,0,0,0.0,0.0,0,1,3.0,0.0,563.0,4897.948717948719,4046.666666666667,4450.256410256411,4536.410256410257,4252.820512820514,4556.923076923077,4452.820512820514,4413.333333333334,4408.205128205129,4716.410256410257,4323.076923076924,4315.384615384616,4257.948717948719,4766.153846153847
593.76025,0.27733484,1.0,0.41502854,0.5634693,0,0.0,0.0,0.0,0.0,0.23230197,0,0,0.0,0.0,0,1,23.0,0.0,0.0,4843.589743589744,3938.9743589743593,4448.205128205129,4423.076923076924,4247.6923076923085,4566.153846153847,4457.435897435898,4418.974358974359,4404.615384615385,4740.000000000001,4293.846153846154,4264.102564102564,4174.871794871796,4589.2307692307695
594.0105,0.22286671,1.0,0.42377508,0.56903315,0,0.0,0.0,0.0,0.0,0.22188894,0,0,0.0,0.0,0,0,55.0,0.0,0.0,4832.820512820514,3925.1282051282055,4462.051282051282,4406.666666666667,4254.358974358975,4577.435897435898,4469.2307692307695,4448.205128205129,4426.153846153847,4747.179487179488,4295.384615384616,4251.794871794872,4170.769230769231,4584.102564102564
594.2607,0.22286671,1.0,0.42377508,0.56903315,0,0.0,0.0,0.0,0.0,0.058676403,0,0,0.0,0.0,0,0,87.0,0.0,512.0,4815.384615384616,3918.9743589743593,4478.974358974359,4404.615384615385,4239.48717948718,4569.743589743591,4460.512820512821,4433.333333333334,4420.512820512821,4747.6923076923085,4293.333333333334,4250.769230769231,4172.820512820514,4588.205128205129
594.5109,0.23604143,1.0,0.436543,0.5740398,0,0.0,0.0,0.0,0.0,0.078078225,0,0,0.0,0.0,0,0,119.0,0.0,512.0,4798.974358974359,3913.8461538461543,4491.794871794872,4376.410256410257,4221.025641025642,4553.333333333334,4462.051282051282,4401.025641025642,4386.666666666667,4701.538461538462,4269.74358974359,4232.307692307693,4131.282051282052,4565.128205128206
594.7611,0.23604143,1.0,0.436543,0.5740398,0,0.0,0.0,0.0,0.0,0.14632194,0,0,0.0,0.0,0,0,22.0,0.0,0.0,4777.435897435898,3895.8974358974365,4508.205128205129,4357.948717948719,4207.6923076923085,4536.410256410257,4464.102564102564,4417.435897435898,4392.307692307693,4704.615384615386,4285.128205128206,4235.8974358974365,4176.410256410257,4555.8974358974365
595.01135,0.23443857,1.0,0.44728673,0.5787714,0,0.0,0.0,0.0,0.0,0.20743893,0,0,0.0,0.0,0,0,54.0,0.0,0.0,4716.923076923077,3845.6410256410263,4516.923076923077,4304.102564102564,4205.128205128206,4506.153846153847,4472.307692307693,4396.410256410257,4365.641025641026,4643.076923076924,4255.384615384616,4201.538461538462,4121.538461538462,4458.974358974359
595.26154,0.23443857,1.0,0.44728673,0.5787714,0,0.0,0.0,0.0,0.0,0.24606735,0,0,0.0,0.0,0,0,86.0,0.0,557.0,4685.128205128206,3841.538461538462,4521.538461538462,4280.000000000001,4183.589743589744,4477.435897435898,4447.179487179487,4353.846153846154,4329.2307692307695,4618.461538461539,4227.179487179487,4153.333333333334,4096.923076923077,4415.8974358974365
595.5118,0.29669893,1.0,0.4481841,0.58478534,0,0.0,0.0,0.0,0.0,0.13374253,0,0,0.0,0.0,0,0,118.0,0.0,557.0,4657.948717948719,3858.461538461539,4531.794871794872,4264.102564102564,4232.307692307693,4473.846153846154,4474.358974358975,4402.564102564103,4342.564102564103,4635.8974358974365,4267.179487179487,4133.333333333334,4102.564102564103,4409.743589743591
595.76196,0.29669893,1.0,0.4481841,0.58478534,0,0.0,0.0,0.0,0.0,0.0,0,0,0.3632683,0.0,0,0,21.0,0.0,0.0,4632.307692307693,3845.6410256410263,4527.6923076923085,4275.384615384616,4216.410256410257,4468.717948717949,4455.8974358974365,4386.666666666667,4338.461538461539,4651.282051282052,4267.179487179487,4123.589743589744,4126.666666666667,4404.615384615385
596.0122,0.3722573,0.96897507,0.44386166,0.5917602,0,0.0,0.0,0.0,0.0,0.0,0,0,0.17650908,0.0,0,0,53.0,0.0,0.0,4647.6923076923085,3896.410256410257,4537.435897435898,4311.282051282052,4232.307692307693,4477.948717948719,4452.820512820514,4381.025641025642,4353.333333333334,4672.820512820514,4313.846153846154,4137.435897435898,4133.333333333334,4414.358974358975
596.2624,0.3722573,0.96897507,0.44386166,0.5917602,0,0.0,0.0,0.0,0.0,0.0,0,0,0.055656254,0.0,0,0,85.0,0.0,497.0,4661.538461538462,3947.1794871794878,4533.333333333334,4366.666666666667,4235.384615384616,4496.410256410257,4433.333333333334,4368.205128205129,4351.794871794872,4667.6923076923085,4320.512820512821,4147.179487179487,4125.641025641026,4429.743589743591
596.51263,0.3552182,0.8896982,0.433402,0.59972715,0,0.0,0.0,0.0,0.0,0.0,0,0,0.07636942,0.0,0,0,117.0,0.0,497.0,4687.179487179488,4011.7948717948725,4547.6923076923085,4425.641025641026,4244.102564102564,4514.358974358975,4421.025641025642,4354.358974358975,4358.974358974359,4696.410256410257,4329.2307692307695,4174.358974358975,4138.974358974359,4467.6923076923085
596.7628,0.3552182,0.8896982,0.433402,0.59972715,0,0.0,0.0,0.0,0.0,0.0,0,0,0.12028714,0.0,0,0,20.0,0.0,0.0,4718.974358974359,4048.205128205129,4546.153846153847,4463.589743589744,4286.153846153847,4548.205128205129,4433.846153846154,4369.2307692307695,4371.282051282052,4731.794871794872,4366.666666666667,4216.410256410257,4187.179487179487,4528.717948717949
597.01306,0.36657456,0.84022963,0.41673234,0.6088603,0,0.0,0.0,0.0,0.0,0.0,0,0,0.15183201,0.0,0,0,52.0,0.0,0.0,4750.256410256411,4224.615384615385,4537.948717948719,4593.846153846154,4269.2307692307695,4547.179487179488,4414.871794871796,4324.102564102564,4374.358974358975,4720.512820512821,4355.384615384616,4203.589743589744,4174.358974358975,4568.717948717949
597.29456,0.36657456,0.84022963,0.41673234,0.6088603,1,0.0,0.0,0.0,0.0,0.0,0,0,0.35525283,0.0,0,0,88.0,0.0,530.0,4778.974358974359,4107.6923076923085,4518.461538461539,4560.000000000001,4231.794871794872,4553.846153846154,4414.358974358975,4356.410256410257,4381.538461538462,4749.743589743591,4402.051282051282,4254.871794871796,4237.435897435898,4605.128205128206
597.5135,0.38285032,0.85122454,0.40172717,0.617076,0,0.0,0.0,0.0,0.0,0.0,0,0,0.22271906,0.0,0,0,116.0,0.0,530.0,4783.589743589744,4004.615384615385,4505.641025641026,4474.871794871796,4244.615384615385,4581.538461538462,4458.461538461539,4416.410256410257,4420.000000000001,4780.512820512821,4414.871794871796,4275.384615384616,4251.794871794872,4594.871794871796
597.76373,0.38285032,0.85122454,0.40172717,0.617076,0,0.0,0.0,0.0,0.0,0.0,0,0,0.14810856,0.0,0,0,19.0,0.0,0.0,4801.538461538462,4012.820512820513,4508.205128205129,4498.974358974359,4269.2307692307695,4603.589743589744,4478.461538461539,4434.358974358975,4445.128205128206,4803.589743589744,4436.923076923077,4309.2307692307695,4266.153846153847,4636.410256410257
598.0139,0.3740545,0.8789396,0.38822022,0.6271474,0,0.0,0.0,0.0,0.0,0.0,0,0,0.4842005,0.0,0,0,51.0,0.0,0.0,4798.974358974359,3982.564102564103,4484.102564102564,4478.974358974359,4265.128205128206,4600.000000000001,4472.820512820514,4415.384615384616,4429.2307692307695,4776.923076923077,4409.743589743591,4293.333333333334,4245.128205128206,4606.666666666667
598.26416,0.3740545,0.8789396,0.38822022,0.6271474,0,0.0,0.0,0.0,0.0,0.0,0,0,0.23250107,0.0,0,0,83.0,0.0,513.0,4798.974358974359,3967.692307692308,4475.384615384616,4472.820512820514,4271.794871794872,4618.461538461539,4485.128205128206,4454.358974358975,4448.205128205129,4800.000000000001,4405.128205128206,4304.102564102564,4262.051282051282,4601.025641025642
598.51434,0.3640888,0.8937736,0.38069433,0.6362047,0,0.0,0.0,0.0,0.0,0.0,0,0,0.35603213,0.0,0,0,115.0,0.0,513.0,4799.48717948718,3946.666666666667,4449.2307692307695,4471.794871794872,4232.820512820514,4603.076923076924,4488.205128205129,4446.153846153847,4430.256410256411,4797.948717948719,4419.48717948718,4308.717948717949,4256.923076923077,4587.179487179488
598.7646,0.3640888,0.8937736,0.38069433,0.6362047,0,0.0,0.0,0.0,0.0,0.0,0,0,0.28717852,0.0,0,0,18.0,0.0,0.0,4838.974358974359,3937.435897435898,4440.000000000001,4479.48717948718,4254.871794871796,4607.179487179488,4510.769230769231,4462.051282051282,4443.589743589744,4801.025641025642,4406.666666666667,4366.153846153847,4230.769230769231,4578.461538461539
599.0461,0.36449674,0.8806611,0.37249458,0.64072543,1,0.0,0.0,0.0,0.0,0.0,0,0,0.18743835,0.0,0,0,54.0,0.0,0.0,4901.538461538462,3986.1538461538466,4430.256410256411,4531.282051282052,4262.564102564103,4605.641025641026,4515.8974358974365,4439.48717948718,4433.333333333334,4804.102564102564,4427.179487179487,4384.102564102564,4278.974358974359,4654.871794871796
599.265,0.36449674,0.8806611,0.37249458,0.64072543,0,0.0,0.0,0.0,0.0,0.19987258,0,0,0.0,0.0,0,0,82.0,0.0,557.0,4905.128205128206,3942.0512820512827,4422.564102564103,4491.282051282052,4265.641025641026,4618.461538461539,4527.6923076923085,4484.615384615385,4446.153846153847,4808.717948717949,4427.179487179487,4363.076923076924,4266.153846153847,4593.846153846154
599.5152,0.27889594,0.87447727,0.36638182,0.6411873,0,0.0,0.0,0.0,0.0,0.13646394,0,0,0.0,0.0,0,0,114.0,0.0,557.0,4894.871794871796,3914.358974358975,4431.282051282052,4461.538461538462,4262.564102564103,4600.000000000001,4509.743589743591,4467.6923076923085,4451.794871794872,4803.076923076924,4425.128205128206,4351.794871794872,4260.000000000001,4577.435897435898
599.76544,0.27889594,0.87447727,0.36638182,0.6411873,0,0.0,0.0,0.0,0.0,0.0,0,0,0.33266655,0.0,0,0,17.0,0.0,0.0,4869.2307692307695,3918.9743589743593,4448.717948717949,4469.2307692307695,4268.717948717949,4600.000000000001,4508.205128205129,4448.205128205129,4425.641025641026,4787.179487179488,4388.717948717949,4315.384615384616,4224.615384615385,4537.435897435898
600.0156,0.2713423,0.8645617,0.37260395,0.64124626,0,0.0,0.0,0.0,0.0,0.0,0,0,0.2783369,0.0,0,0,49.0,0.0,0.0,4914.871794871796,3946.666666666667,4453.846153846154,4494.871794871796,4267.6923076923085,4598.461538461539,4510.769230769231,4458.974358974359,4439.48717948718,4784.615384615386,4391.794871794872,4318.974358974359,4225.641025641026,4555.8974358974365
600.26587,0.2713423,0.8645617,0.37260395,0.64124626,0,0.0,0.0,0.0,0.0,0.6587097,0,0,0.0,0.0,0,0,81.0,0.0,497.0,4934.358974358975,3953.333333333334,4428.717948717949,4477.435897435898,4247.6923076923085,4591.282051282052,4496.923076923077,4446.153846153847,4427.179487179487,4762.051282051282,4364.615384615385,4293.333333333334,4211.794871794872,4535.8974358974365
600.51605,0.24919416,0.8797381,0.38952056,0.6396764,0,0.0,0.0,0.0,0.0,0.06587744,0,0,0.0,0.0,0,0,113.0,0.0,497.0,4914.358974358975,3961.0256410256416,4430.769230769231,4490.256410256411,4270.256410256411,4596.923076923077,4496.923076923077,4438.461538461539,4426.666666666667,4766.153846153847,4365.641025641026,4300.512820512821,4210.256410256411,4532.820512820514
600.8601,0.24919416,0.8797381,0.38952056,0.6396764,0,0.0,0.0,0.0,0.0,0.153778,0,0,0.0,0.0,0,1,28.0,0.0,0.0,4931.282051282052,4054.8717948717954,4444.102564102564,4569.743589743591,4234.358974358975,4570.769230769231,4477.435897435898,4418.461538461539,4421.025641025642,4747.179487179488,4384.615384615385,4335.8974358974365,4278.461538461539,4657.435897435898
601.0165,0.16535787,0.8637242,0.39057595,0.63826007,0,0.0,0.0,0.0,0.0,0.15435714,0,0,0.0,0.0,0,0,48.0,0.0,0.0,4932.820512820514,4101.538461538462,4443.589743589744,4602.564102564103,4253.333333333334,4569.743589743591,4465.128205128206,4408.717948717949,4415.384615384616,4753.333333333334,4405.641025641026,4349.2307692307695,4314.871794871796,4686.666666666667
601.2667,0.16535787,0.8637242,0.39057595,0.63826007,0,0.0,0.0,0.0,0.0,0.23678763,0,0,0.0,0.0,0,0,80.0,0.0,527.0,4877.435897435898,3971.7948717948725,4441.538461538462,4480.512820512821,4263.076923076924,4599.48717948718,4490.769230769231,4436.410256410257,4431.282051282052,4753.846153846154,4349.743589743591,4292.307692307693,4206.666666666667,4488.205128205129
601.5169,0.07598006,0.83061033,0.38232046,0.6369819,0,0.0,0.0,0.0,0.0,0.16431643,0,0,0.0,0.0,0,0,112.0,0.0,527.0,4869.2307692307695,3941.0256410256416,4444.615384615385,4440.000000000001,4236.923076923077,4590.256410256411,4494.358974358975,4448.205128205129,4438.974358974359,4766.153846153847,4335.384615384616,4271.794871794872,4189.2307692307695,4443.076923076924
601.76715,0.07598006,0.83061033,0.38232046,0.6369819,0,0.0,0.0,0.0,0.0,0.13750742,0,0,0.0,0.0,0,0,15.0,0.0,513.0,4845.128205128206,3953.8461538461543,4447.179487179487,4452.820512820514,4255.8974358974365,4603.589743589744,4502.051282051282,4446.666666666667,4435.384615384616,4771.282051282052,4340.000000000001,4284.102564102564,4200.512820512821,4455.384615384616
602.01733,0.031260878,0.8172183,0.3786281,0.6392741,0,0.0,0.0,0.0,0.0,0.30708182,0,0,0.0,0.0,0,0,47.0,0.0,0.0,4837.948717948719,4068.205128205129,4448.717948717949,4541.025641025642,4266.153846153847,4588.717948717949,4493.333333333334,4440.512820512821,4431.794871794872,4757.435897435898,4359.48717948718,4282.564102564103,4211.794871794872,4524.102564102564
602.2676,0.031260878,0.8172183,0.3786281,0.6392741,0,0.0,0.0,0.0,0.0,0.26498446,0,0,0.0,0.0,0,0,79.0,0.0,513.0,4795.384615384616,4034.8717948717954,4456.410256410257,4509.743589743591,4257.948717948719,4595.384615384616,4505.641025641026,4453.846153846154,4441.538461538462,4753.846153846154,4326.153846153847,4249.74358974359,4183.589743589744,4469.743589743591
602.51776,0.0,0.7887173,0.37841198,0.6434229,0,0.0,0.0,0.0,0.0,0.21240678,0,0,0.0,0.0,0,0,111.0,0.0,513.0,4765.128205128206,3967.692307692308,4454.358974358975,4457.948717948719,4236.410256410257,4582.051282051282,4491.794871794872,4440.000000000001,4442.564102564103,4725.641025641026,4331.794871794872,4268.717948717949,4208.205128205129,4461.538461538462
602.768,0.0,0.7887173,0.37841198,0.6434229,0,0.0,0.0,0.0,0.0,0.33046532,0,0,0.0,0.0,0,0,14.0,0.0,558.0,4755.8974358974365,3946.1538461538466,4467.179487179487,4439.48717948718,4241.538461538462,4585.641025641026,4492.820512820514,4438.461538461539,4443.076923076924,4734.871794871796,4330.769230769231,4283.076923076924,4231.282051282052,4508.717948717949
603.01825,0.0,0.7428549,0.37821546,0.64821345,0,0.0,0.0,0.0,0.0,0.31087768,0,0,0.0,0.0,0,0,46.0,0.0,0.0,4732.307692307693,3928.717948717949,4468.205128205129,4426.666666666667,4237.435897435898,4572.307692307693,4477.435897435898,4430.769230769231,4436.410256410257,4708.717948717949,4310.256410256411,4220.000000000001,4208.205128205129,4480.000000000001
603.26843,0.0,0.7428549,0.37821546,0.64821345,0,0.0,0.0,0.0,0.0,0.16379951,0,0,0.0,0.0,0,0,78.0,0.0,558.0,4715.8974358974365,3933.333333333334,4476.923076923077,4417.948717948719,4246.153846153847,4565.641025641026,4470.769230769231,4416.923076923077,4440.000000000001,4708.717948717949,4304.615384615385,4226.153846153847,4215.384615384616,4455.8974358974365
603.5187,0.0,0.688703,0.37803662,0.65398777,0,0.0,0.0,0.0,0.0,0.29708275,0,0,0.0,0.0,0,0,110.0,0.0,558.0,4702.051282051282,3924.615384615385,4488.205128205129,4403.589743589744,4233.333333333334,4557.948717948719,4463.076923076924,4409.2307692307695,4437.948717948719,4711.282051282052,4300.000000000001,4231.282051282052,4206.153846153847,4446.666666666667
603.8002,0.0,0.688703,0.37803662,0.65398777,1,0.0,0.0,0.0,0.0,0.0,0,0,0.29150108,0.0,0,0,17.0,0.0,0.0,4740.512820512821,3961.0256410256416,4508.205128205129,4432.820512820514,4242.564102564103,4558.974358974359,4463.589743589744,4401.538461538462,4446.666666666667,4695.8974358974365,4314.358974358975,4247.6923076923085,4221.025641025642,4524.615384615385
604.0191,0.0,0.638995,0.37787366,0.66155446,0,0.0,0.0,0.0,0.0,0.24031885,0,0,0.0,0.0,0,0,45.0,0.0,0.0,4740.512820512821,3921.0256410256416,4518.974358974359,4402.564102564103,4234.358974358975,4556.410256410257,4463.076923076924,4414.871794871796,4446.666666666667,4692.820512820514,4290.256410256411,4232.820512820514,4177.948717948719,4491.794871794872
604.2693,0.0,0.638995,0.37787366,0.66155446,0,0.0,0.0,0.0,0.0,0.10238362,0,0,0.0,0.0,0,0,77.0,0.0,497.0,4701.025641025642,3897.435897435898,4521.538461538462,4390.256410256411,4219.48717948718,4546.153846153847,4449.2307692307695,4388.717948717949,4422.564102564103,4682.564102564103,4271.794871794872,4220.512820512821,4162.564102564103,4478.974358974359
604.51953,0.021521673,0.60592365,0.3783317,0.6669042,0,0.0,0.0,0.0,0.0,0.0667389,0,0,0.0,0.0,0,0,109.0,0.0,497.0,4701.025641025642,3901.0256410256416,4520.000000000001,4375.8974358974365,4217.948717948719,4531.794871794872,4444.102564102564,4397.948717948719,4412.307692307693,4685.128205128206,4256.410256410257,4222.564102564103,4142.051282051282,4479.48717948718
604.7697,0.021521673,0.60592365,0.3783317,0.6669042,0,0.0,0.0,0.0,0.0,0.0,0,0,0.40956426,0.0,0,0,12.0,0.0,529.0,4687.179487179488,3910.2564102564106,4532.307692307693,4385.128205128206,4228.205128205129,4532.307692307693,4447.6923076923085,4408.717948717949,4411.794871794872,4697.435897435898,4269.74358974359,4227.6923076923085,4152.307692307693,4503.076923076924
605.0825,0.0731861,0.57865375,0.3811118,0.67119086,1,0.0,0.0,0.0,0.0,0.0,0,0,0.109870814,0.0,0,0,52.0,0.0,0.0,4680.512820512821,3961.538461538462,4543.589743589744,4418.974358974359,4222.051282051282,4524.615384615385,4438.461538461539,4374.871794871796,4398.461538461539,4693.333333333334,4262.564102564103,4235.8974358974365,4165.641025641026,4545.128205128206
605.27014,0.0731861,0.57865375,0.3811118,0.67119086,0,0.0,0.0,0.0,0.0,0.19500825,0,0,0.0,0.0,0,0,76.0,0.0,529.0,4648.717948717949,3922.0512820512827,4532.307692307693,4380.512820512821,4222.564102564103,4524.102564102564,4432.820512820514,4367.6923076923085,4388.205128205129,4697.435897435898,4262.051282051282,4215.384615384616,4151.282051282052,4462.564102564103
605.5204,0.011659509,0.55756587,0.38423082,0.6750384,0,0.0,0.0,0.0,0.0,0.3573348,0,0,0.0,0.0,0,0,108.0,0.0,529.0,4628.717948717949,3910.7692307692314,4536.923076923077,4376.923076923077,4227.6923076923085,4538.461538461539,4444.102564102564,4389.2307692307695,4402.051282051282,4718.974358974359,4273.333333333334,4231.794871794872,4145.128205128206,4463.076923076924
605.77057,0.011659509,0.55756587,0.38423082,0.6750384,0,0.0,0.0,0.0,0.0,0.069853224,0,0,0.0,0.0,0,0,11.0,0.0,514.0,4632.307692307693,3904.615384615385,4549.2307692307695,4379.48717948718,4230.769230769231,4538.461538461539,4446.153846153847,4367.179487179487,4389.2307692307695,4712.820512820514,4280.512820512821,4234.358974358975,4153.846153846154,4457.948717948719
606.0208,0.0,0.5166172,0.38466355,0.67101634,0,0.0,0.0,0.0,0.0,0.093755566,0,0,0.0,0.0,0,0,43.0,0.0,0.0,4630.769230769231,3898.461538461539,4556.923076923077,4386.153846153847,4233.846153846154,4530.256410256411,4433.333333333334,4360.000000000001,4384.615384615385,4703.076923076924,4270.256410256411,4225.128205128206,4144.102564102564,4452.820512820514
606.271,0.0,0.5166172,0.38466355,0.67101634,0,0.0,0.0,0.0,0.0,0.0,0,0,0.0,0.0,0,0,75.0,0.0,516.0,4650.769230769231,3938.461538461539,4560.512820512821,4407.179487179487,4226.153846153847,4526.666666666667,4427.179487179487,4344.102564102564,4375.8974358974365,4693.846153846154,4270.769230769231,4223.076923076924,4136.410256410257,4456.923076923077
606.52124,0.0056924857,0.4808134,0.38198578,0.6577297,0,0.0,0.0,0.0,0.0,0.12592028,0,0,0.0,0.0,0,0,107.0,0.0,516.0,4641.538461538462,3956.410256410257,4564.102564102564,4407.6923076923085,4234.358974358975,4531.282051282052,4434.871794871796,4363.076923076924,4386.666666666667,4698.974358974359,4267.179487179487,4216.923076923077,4129.2307692307695,4447.179487179487
606.7714,0.0056924857,0.4808134,0.38198578,0.6577297,0,0.0,0.0,0.0,0.0,0.118982285,0,0,0.0,0.0,0,0,10.0,0.0,558.0,4637.435897435898,3963.076923076924,4572.820512820514,4424.102564102564,4242.051282051282,4537.948717948719,4433.846153846154,4349.743589743591,4380.000000000001,4709.743589743591,4278.974358974359,4221.025641025642,4133.846153846154,4456.923076923077
607.02167,0.040942784,0.4550528,0.3795737,0.6440796,0,0.0,0.0,0.0,0.0,0.0,0,0,0.58320034,0.0,0,0,42.0,0.0,0.0,4631.794871794872,3938.9743589743593,4565.641025641026,4404.615384615385,4232.820512820514,4533.333333333334,4435.8974358974365,4367.179487179487,4390.256410256411,4712.307692307693,4288.717948717949,4215.8974358974365,4146.153846153847,4460.512820512821
607.27185,0.040942784,0.4550528,0.3795737,0.6440796,0,0.0,0.0,0.0,0.0,0.25293383,0,0,0.0,0.0,0,0,74.0,0.0,558.0,4601.538461538462,4012.820512820513,4566.666666666667,4455.8974358974365,4251.794871794872,4552.307692307693,4425.641025641026,4337.948717948719,4363.589743589744,4662.051282051282,4214.871794871796,4151.282051282052,4026.1538461538466,4391.794871794872
607.5221,0.0,0.4425703,0.3738831,0.63179606,0,0.0,0.0,0.0,0.0,0.20042706,0,0,0.0,0.0,0,0,106.0,0.0,558.0,4592.820512820514,4005.1282051282055,4563.076923076924,4430.769230769231,4256.410256410257,4556.923076923077,4443.076923076924,4367.179487179487,4373.333333333334,4668.205128205129,4222.051282051282,4153.846153846154,4038.461538461539,4398.461538461539
607.8036,0.0,0.4425703,0.3738831,0.63179606,0,0.0,0.0,0.0,0.0,0.41813484,0,0,0.0,0.0,0,1,13.0,0.0,497.0,4630.256410256411,3989.7435897435903,4577.948717948719,4440.512820512821,4230.256410256411,4544.615384615385,4456.410256410257,4398.461538461539,4398.461538461539,4744.615384615386,4355.8974358974365,4265.128205128206,4260.512820512821,4602.051282051282
608.0225,0.041106317,0.47767442,0.3687599,0.6198612,0,0.0,0.0,0.0,0.0,0.38733885,0,0,0.0,0.0,0,1,41.0,0.0,0.0,4616.923076923077,3952.820512820513,4574.871794871796,4403.076923076924,4220.000000000001,4537.435897435898,4457.948717948719,4402.051282051282,4405.128205128206,4757.948717948719,4352.307692307693,4261.538461538462,4236.923076923077,4553.846153846154
608.27277,0.041106317,0.47767442,0.3687599,0.6198612,0,0.0,0.0,0.0,0.0,0.26130137,0,0,0.0,0.0,0,0,73.0,0.0,490.0,4617.948717948719,3948.205128205129,4576.410256410257,4399.48717948718,4223.076923076924,4545.641025641026,4456.923076923077,4400.512820512821,4400.000000000001,4760.512820512821,4353.846153846154,4263.076923076924,4232.307692307693,4535.384615384616
608.52295,0.015554789,0.4945492,0.36414754,0.6078144,0,0.0,0.0,0.0,0.0,0.13438976,0,0,0.0,0.0,0,0,105.0,0.0,497.0,4618.461538461539,3961.0256410256416,4579.48717948718,4415.384615384616,4238.461538461539,4548.205128205129,4458.974358974359,4389.2307692307695,4389.743589743591,4748.717948717949,4350.256410256411,4245.641025641026,4217.435897435898,4520.512820512821
608.7732,0.015554789,0.4945492,0.36414754,0.6078144,0,0.0,0.0,0.0,0.0,0.2088398,0,0,0.0,0.0,0,0,8.0,0.0,396.0,4602.051282051282,3943.589743589744,4576.410256410257,4405.128205128206,4219.48717948718,4531.282051282052,4465.641025641026,4416.923076923077,4401.025641025642,4744.615384615386,4350.256410256411,4243.076923076924,4190.769230769231,4481.025641025642
609.0234,0.019004604,0.49291968,0.36825222,0.5969718,0,0.0,0.0,0.0,0.0,0.18116751,0,0,0.0,0.0,0,0,40.0,0.0,0.0,4608.717948717949,3935.3846153846157,4577.435897435898,4400.512820512821,4214.358974358975,4533.333333333334,4458.461538461539,4378.974358974359,4381.025641025642,4701.025641025642,4325.128205128206,4231.282051282052,4184.102564102564,4455.384615384616
609.2736,0.019004604,0.49291968,0.36825222,0.5969718,0,0.0,0.0,0.0,0.0,0.26337332,0,0,0.0,0.0,0,0,72.0,0.0,396.0,4597.435897435898,3910.7692307692314,4574.358974358975,4375.8974358974365,4205.641025641026,4512.307692307693,4449.743589743591,4381.538461538462,4382.564102564103,4696.410256410257,4310.769230769231,4215.384615384616,4169.2307692307695,4437.435897435898
609.5238,0.030302625,0.4669045,0.37081116,0.589468,0,0.0,0.0,0.0,0.0,0.08681908,0,0,0.0,0.0,0,0,104.0,0.0,530.0,4585.641025641026,3893.333333333334,4573.846153846154,4348.205128205129,4203.589743589744,4502.051282051282,4443.589743589744,4370.256410256411,4369.2307692307695,4697.948717948719,4322.051282051282,4214.358974358975,4181.538461538462,4423.589743589744
609.77405,0.030302625,0.4669045,0.37081116,0.589468,0,0.0,0.0,0.0,0.0,0.1427232,0,0,0.0,0.0,0,0,7.0,0.0,465.0,4578.461538461539,3916.9230769230776,4582.051282051282,4365.641025641026,4219.48717948718,4506.153846153847,4449.743589743591,4383.076923076924,4378.461538461539,4695.8974358974365,4322.051282051282,4250.769230769231,4177.948717948719,4442.051282051282
610.02423,0.010393067,0.43076593,0.3731125,0.58654785,0,0.0,0.0,0.0,0.0,0.26203248,0,0,0.0,0.0,0,0,39.0,0.0,0.0,4560.000000000001,3940.0000000000005,4586.153846153847,4370.769230769231,4221.025641025642,4503.076923076924,4440.512820512821,4362.564102564103,4371.282051282052,4683.076923076924,4315.384615384616,4229.2307692307695,4164.615384615385,4457.948717948719
610.2745,0.010393067,0.43076593,0.3731125,0.58654785,0,0.0,0.0,0.0,0.0,0.21562919,0,0,0.0,0.0,0,0,71.0,0.0,465.0,4547.6923076923085,3930.2564102564106,4579.48717948718,4363.589743589744,4225.128205128206,4498.974358974359,4443.589743589744,4382.564102564103,4385.641025641026,4693.333333333334,4322.051282051282,4222.051282051282,4169.2307692307695,4454.871794871796
610.52466,0.0,0.41711402,0.37572083,0.58956444,1,0.0,0.0,0.0,0.0,0.23157234,0,0,0.0,0.0,0,0,103.0,0.0,516.0,4629.743589743591,4043.076923076924,4591.282051282052,4491.282051282052,4218.974358974359,4510.256410256411,4442.051282051282,4372.820512820514,4392.820512820514,4723.589743589744,4378.461538461539,4279.48717948718,4265.641025641026,4618.974358974359
610.7749,0.0,0.41711402,0.37572083,0.58956444,0,0.0,0.0,0.0,0.0,0.30154675,0,0,0.0,0.0,0,0,6.0,0.0,550.0,4595.8974358974365,3913.333333333334,4576.923076923077,4384.615384615385,4245.128205128206,4528.205128205129,4458.461538461539,4403.076923076924,4390.769230769231,4729.743589743591,4313.846153846154,4204.615384615385,4147.179487179487,4418.974358974359
611.0251,0.0,0.43470368,0.36974376,0.5961376,0,0.0,0.0,0.0,0.0,0.1709557,0,0,0.0,0.0,0,0,38.0,0.0,0.0,4592.307692307693,3933.8461538461543,4574.358974358975,4423.076923076924,4277.435897435898,4563.076923076924,4472.820512820514,4410.769230769231,4383.589743589744,4753.333333333334,4359.48717948718,4245.128205128206,4182.564102564103,4452.820512820514
611.2753,0.0,0.43470368,0.36974376,0.5961376,0,0.0,0.0,0.0,0.0,0.0,0,0,0.70453554,0.0,0,0,70.0,0.0,550.0,4584.102564102564,3942.0512820512827,4558.974358974359,4430.256410256411,4265.641025641026,4559.48717948718,4474.358974358975,4408.717948717949,4390.256410256411,4746.153846153847,4345.641025641026,4240.512820512821,4162.051282051282,4429.2307692307695
611.5255,0.0,0.458232,0.36436293,0.60205096,0,0.0,0.0,0.0,0.0,0.0,0,0,0.39843923,0.0,0,0,102.0,0.0,555.0,4603.076923076924,3943.076923076924,4546.153846153847,4430.769230769231,4254.358974358975,4550.256410256411,4470.769230769231,4396.410256410257,4376.923076923077,4734.871794871796,4340.512820512821,4234.871794871796,4169.2307692307695,4426.666666666667
611.77576,0.0,0.458232,0.36436293,0.60205096,0,0.0,0.0,0.0,0.0,0.0,0,0,0.39753968,0.0,0,0,5.0,0.0,580.0,4600.512820512821,3907.692307692308,4550.256410256411,4409.743589743591,4237.948717948719,4544.102564102564,4463.589743589744,4390.769230769231,4380.512820512821,4729.2307692307695,4339.48717948718,4232.820512820514,4160.512820512821,4429.743589743591
612.02594,0.022892458,0.4916586,0.35867012,0.6073702,0,0.0,0.0,0.0,0.0,0.0,0,0,0.305475,0.0,0,0,37.0,0.0,0.0,4604.615384615385,3938.9743589743593,4554.871794871796,4406.666666666667,4242.051282051282,4543.589743589744,4460.512820512821,4384.102564102564,4384.102564102564,4720.000000000001,4325.641025641026,4220.000000000001,4151.282051282052,4417.948717948719
612.2762,0.022892458,0.4916586,0.35867012,0.6073702,0,0.0,0.0,0.0,0.0,0.17255677,0,0,0.0,0.0,0,0,69.0,0.0,580.0,4601.538461538462,3967.1794871794878,4568.205128205129,4417.435897435898,4238.974358974359,4542.051282051282,4458.461538461539,4382.564102564103,4371.794871794872,4731.282051282052,4343.076923076924,4230.769230769231,4173.846153846154,4452.820512820514
612.52637,0.022538273,0.4677922,0.35354552,0.61412865,0,0.0,0.0,0.0,0.0,0.117659524,0,0,0.0,0.0,0,0,101.0,0.0,497.0,4602.051282051282,3992.307692307693,4588.205128205129,4426.666666666667,4232.307692307693,4544.615384615385,4461.025641025642,4375.384615384616,4380.000000000001,4729.2307692307695,4345.641025641026,4232.820512820514,4166.153846153847,4458.461538461539
612.8392,0.022538273,0.4677922,0.35354552,0.61412865,0,0.0,0.0,0.0,0.0,0.120839305,0,0,0.0,0.0,1,0,12.0,0.0,529.0,4598.974358974359,4198.974358974359,4606.666666666667,4584.615384615385,4211.794871794872,4520.512820512821,4426.153846153847,4353.846153846154,4365.641025641026,4707.6923076923085,4358.461538461539,4196.923076923077,4199.48717948718,4521.025641025642
613.0268,0.0,0.45287004,0.3489325,0.6168397,0,0.0,0.0,0.0,0.0,0.0,0,0,0.24287757,0.0,1,0,36.0,0.0,0.0,4569.743589743591,4090.2564102564106,4593.846153846154,4495.8974358974365,4218.461538461539,4540.512820512821,4453.846153846154,4404.102564102564,4384.102564102564,4737.435897435898,4343.076923076924,4186.666666666667,4181.538461538462,4432.307692307693
613.27704,0.0,0.45287004,0.3489325,0.6168397,0,0.0,0.0,0.0,0.0,0.11042527,0,0,0.0,0.0,0,0,68.0,0.0,577.0,4580.512820512821,4078.461538461539,4590.256410256411,4495.384615384616,4224.102564102564,4537.435897435898,4442.564102564103,4390.256410256411,4379.48717948718,4721.538461538462,4334.871794871796,4195.384615384616,4187.179487179487,4466.153846153847
613.5273,0.0,0.45164558,0.34575495,0.6151607,0,0.0,0.0,0.0,0.0,0.24405853,0,0,0.0,0.0,0,1,100.0,0.0,529.0,4550.256410256411,4052.820512820513,4598.461538461539,4450.769230769231,4221.025641025642,4539.48717948718,4447.179487179487,4390.256410256411,4376.410256410257,4717.948717948719,4326.666666666667,4198.461538461539,4168.205128205129,4465.641025641026
613.77747,0.0,0.45164558,0.34575495,0.6151607,0,0.0,0.0,0.0,0.0,0.11236083,0,0,0.0,0.0,0,0,3.0,0.0,565.0,4557.435897435898,4014.358974358975,4593.333333333334,4431.794871794872,4207.6923076923085,4536.410256410257,4447.179487179487,4394.871794871796,4384.102564102564,4724.102564102564,4321.025641025642,4201.538461538462,4158.461538461539,4485.128205128206
614.0277,0.0,0.45174366,0.3428946,0.61073977,0,0.0,0.0,0.0,0.0,0.1378089,0,0,0.0,0.0,0,0,35.0,0.0,0.0,4552.307692307693,3952.820512820513,4590.256410256411,4400.512820512821,4158.974358974359,4534.358974358975,4438.461538461539,4380.000000000001,4364.102564102564,4700.512820512821,4298.461538461539,4191.282051282052,4135.8974358974365,4460.512820512821
614.2779,0.0,0.45174366,0.3428946,0.61073977,0,0.0,0.0,0.0,0.0,0.0685926,0,0,0.0,0.0,0,0,67.0,0.0,563.0,4540.512820512821,3966.1538461538466,4599.48717948718,4400.512820512821,4201.025641025642,4535.8974358974365,4435.384615384616,4395.384615384616,4371.282051282052,4706.153846153847,4330.769230769231,4205.641025641026,4171.794871794872,4486.666666666667
614.52814,0.0,0.4631779,0.3403199,0.60675937,0,0.0,0.0,0.0,0.0,0.0,0,0,1.0,0.0,0,0,99.0,0.0,514.0,4535.384615384616,3951.7948717948725,4589.2307692307695,4406.666666666667,4245.128205128206,4545.641025641026,4442.051282051282,4406.153846153847,4376.923076923077,4717.435897435898,4322.564102564103,4214.358974358975,4171.794871794872,4487.6923076923085
614.7783,0.0,0.4631779,0.3403199,0.60675937,0,0.0,0.0,0.0,0.0,0.0,0,0,0.68890256,0.0,0,0,2.0,0.0,212.0,4551.794871794872,3910.2564102564106,4562.051282051282,4401.538461538462,4251.282051282052,4544.102564102564,4458.461538461539,4443.076923076924,4389.743589743591,4736.923076923077,4320.512820512821,4213.846153846154,4164.615384615385,4475.8974358974365
615.02856,0.02162817,0.4669571,0.33449996,0.6052433,0,0.0,0.0,0.0,0.0,0.0,0,0,0.9636204,0.0,0,0,34.0,0.0,0.0,4563.076923076924,3894.358974358975,4562.051282051282,4399.48717948718,4245.641025641026,4556.923076923077,4461.025641025642,4440.512820512821,4385.641025641026,4743.076923076924,4332.820512820514,4228.205128205129,4182.564102564103,4497.435897435898
615.1536,0.02162817,0.4669571,0.33449996,0.6052433,0,0.0,0.0,0.0,0.0,0.0,0,0,1.0,0.0,0,0,50.0,0.0,0.0,4554.871794871796,3895.3846153846157,4564.615384615385,4411.282051282052,4246.153846153847,4550.256410256411,4460.512820512821,4428.205128205129,4375.384615384616,4741.025641025642,4348.205128205129,4247.6923076923085,4192.820512820514,4497.948717948719
615.529,0.0,0.46310386,0.32866663,0.60387707,0,0.0,0.0,0.0,0.0,0.0,0,0,0.6021883,0.0,0,0,98.0,0.0,551.0,4548.205128205129,3872.820512820513,4550.769230769231,4400.512820512821,4254.358974358975,4551.282051282052,4469.2307692307695,4449.743589743591,4391.282051282052,4738.974358974359,4326.153846153847,4229.2307692307695,4174.358974358975,4470.256410256411
615.7792,0.0,0.46310386,0.32866663,0.60387707,0,0.0,0.0,0.0,0.0,0.0,0,0,0.31986737,0.0,0,0,1.0,0.0,530.0,4556.410256410257,3905.6410256410263,4526.666666666667,4434.871794871796,4234.871794871796,4572.820512820514,4488.205128205129,4464.102564102564,4403.076923076924,4745.641025641026,4336.410256410257,4246.153846153847,4194.871794871796,4494.358974358975
616.0294,0.08928394,0.47350886,0.32341686,0.6050223,0,0.0,0.0,0.0,0.0,0.0,0,0,0.43515962,0.0,0,0,33.0,0.0,0.0,4568.717948717949,3910.2564102564106,4486.153846153847,4451.794871794872,4268.717948717949,4600.512820512821,4508.717948717949,4488.717948717949,4427.6923076923085,4774.871794871796,4363.076923076924,4282.051282051282,4232.307692307693,4509.2307692307695
616.2796,0.08928394,0.47350886,0.32341686,0.6050223,0,0.0,0.0,0.0,0.0,0.0,0,0,0.34574986,0.0,0,0,65.0,0.0,530.0,4568.717948717949,3913.333333333334,4463.076923076924,4459.48717948718,4275.8974358974365,4591.282051282052,4506.153846153847,4479.48717948718,4447.6923076923085,4755.384615384616,4372.820512820514,4279.48717948718,4250.256410256411,4506.666666666667
616.52985,0.06512161,0.47140145,0.31507075,0.60764176,0,0.0,0.0,0.0,0.0,0.0,0,0,1.0,0.0,0,0,97.0,0.0,497.0,4570.769230769231,3940.0000000000005,4465.128205128206,4445.128205128206,4270.769230769231,4588.717948717949,4498.974358974359,4481.025641025642,4462.051282051282,4722.564102564103,4355.8974358974365,4274.871794871796,4235.8974358974365,4491.282051282052
616.78,0.06512161,0.47140145,0.31507075,0.60764176,0,0.0,0.0,0.0,0.0,0.0,0,0,0.40665087,0.0,0,0,0.0,0.0,258.0,4632.820512820514,4036.9230769230776,4485.641025641026,4529.2307692307695,4246.153846153847,4557.435897435898,4486.153846153847,4437.948717948719,4453.333333333334,4673.846153846154,4363.076923076924,4309.2307692307695,4307.179487179487,4673.846153846154
617.0303,0.01066645,0.47762522,0.3066084,0.60999656,0,0.0,0.0,0.0,0.0,0.0,0,0,0.33391652,0.0,0,0,32.0,0.0,0.0,4604.102564102564,3904.1025641025644,4460.000000000001,4421.025641025642,4249.2307692307695,4578.974358974359,4506.153846153847,4457.948717948719,4465.641025641026,4673.846153846154,4324.615384615385,4261.538461538462,4221.025641025642,4534.358974358975
617.28046,0.01066645,0.47762522,0.3066084,0.60999656,0,0.0,0.0,0.0,0.0,0.14362718,0,0,0.0,0.0,0,0,64.0,0.0,258.0,4618.461538461539,3920.5128205128212,4462.051282051282,4444.102564102564,4261.025641025642,4580.512820512821,4502.051282051282,4460.000000000001,4463.076923076924,4721.025641025642,4346.666666666667,4274.871794871796,4235.384615384616,4539.48717948718
617.59326,0.0,0.48524725,0.29899353,0.6121131,1,0.0,0.0,0.0,0.0,0.17954704,0,0,0.0,0.0,0,0,104.0,0.0,529.0,4630.769230769231,3947.692307692308,4437.948717948719,4471.794871794872,4251.794871794872,4578.461538461539,4491.282051282052,4434.358974358975,4441.538461538462,4703.076923076924,4323.076923076924,4267.6923076923085,4197.948717948719,4543.589743589744
617.7809,0.0,0.48524725,0.29899353,0.6121131,0,0.0,0.0,0.0,0.0,0.202557,0,0,0.0,0.0,0,0,128.0,0.0,529.0,4640.512820512821,3925.6410256410263,4432.307692307693,4449.743589743591,4262.564102564103,4597.948717948719,4505.128205128206,4441.538461538462,4444.102564102564,4733.846153846154,4327.6923076923085,4281.025641025642,4197.948717948719,4537.948717948719
618.0311,0.0,0.5153509,0.2921418,0.6106586,0,0.0,0.0,0.0,0.0,0.0,0,0,1.0,0.0,0,0,31.0,0.0,0.0,4643.589743589744,3934.8717948717954,4428.205128205129,4449.743589743591,4219.48717948718,4578.461538461539,4494.871794871796,4438.461538461539,4429.2307692307695,4742.051282051282,4309.743589743591,4270.769230769231,4180.000000000001,4535.8974358974365
618.0311,0.0,0.5153509,0.2921418,0.6106586,0,0.0,0.0,0.0,0.0,0.0,0,0,1.0,0.0,0,0,31.0,0.0,0.0,4643.589743589744,3934.8717948717954,4428.205128205129,4449.743589743591,4219.48717948718,4578.461538461539,4494.871794871796,4438.461538461539,4429.2307692307695,4742.051282051282,4309.743589743591,4270.769230769231,4180.000000000001,4535.8974358974365
618.5628,0.0,0.56993824,0.29126778,0.6080536,0,0.0,0.0,0.0,0.0,0.0,0,0,1.0,0.0,0,0,99.0,0.0,514.0,4691.794871794872,3980.5128205128212,4476.410256410257,4443.589743589744,4255.384615384616,4563.076923076924,4475.8974358974365,4433.333333333334,4415.8974358974365,4731.794871794872,4305.128205128206,4296.923076923077,4189.2307692307695,4543.589743589744
618.8443,0.0,0.56993824,0.29126778,0.6080536,0,0.0,0.0,0.0,0.0,0.0,0,0,0.22262491,0.0,0,0,6.0,0.0,548.0,4717.435897435898,3947.692307692308,4499.48717948718,4423.076923076924,4248.205128205129,4552.307692307693,4471.794871794872,4419.48717948718,4414.871794871796,4719.48717948718,4304.102564102564,4291.282051282052,4176.923076923077,4502.564102564103
619.032,0.0,0.62292385,0.29549092,0.60411686,0,0.0,0.0,0.0,0.0,0.36788896,0,0,0.0,0.0,0,0,30.0,0.0,0.0,4716.923076923077,3941.0256410256416,4504.615384615385,4422.564102564103,4211.794871794872,4554.871794871796,4470.769230769231,4420.000000000001,4418.461538461539,4733.846153846154,4316.923076923077,4293.846153846154,4185.641025641026,4495.8974358974365
619.2822,0.0,0.62292385,0.29549092,0.60411686,0,0.0,0.0,0.0,0.0,0.0,0,0,0.73903066,0.0,0,0,62.0,0.0,0.0,4720.000000000001,3963.076923076924,4518.974358974359,4435.384615384616,4271.794871794872,4566.153846153847,4477.948717948719,4428.717948717949,4422.051282051282,4740.512820512821,4328.717948717949,4307.179487179487,4202.564102564103,4510.256410256411
619.5324,0.0,0.6731369,0.2992933,0.5994414,0,0.0,0.0,0.0,0.0,0.0,0,0,0.34246197,0.0,0,0,94.0,0.0,554.0,4703.076923076924,3948.717948717949,4516.923076923077,4427.179487179487,4254.358974358975,4550.769230769231,4463.076923076924,4398.974358974359,4406.153846153847,4730.256410256411,4317.948717948719,4282.564102564103,4182.564102564103,4502.564102564103
619.78265,0.0,0.6731369,0.2992933,0.5994414,0,0.0,0.0,0.0,0.0,0.12290514,0,0,0.0,0.0,0,0,126.0,0.0,554.0,4714.871794871796,3935.8974358974365,4519.48717948718,4443.589743589744,4274.871794871796,4561.025641025642,4473.846153846154,4397.948717948719,4410.769230769231,4751.794871794872,4345.641025641026,4305.128205128206,4216.923076923077,4541.538461538462
620.03284,0.0,0.6778442,0.30271685,0.59470344,0,0.0,0.0,0.0,0.0,0.06905395,0,0,0.0,0.0,0,0,29.0,0.0,0.0,4700.000000000001,3914.358974358975,4502.051282051282,4431.282051282052,4244.615384615385,4552.307692307693,4470.256410256411,4389.2307692307695,4393.846153846154,4736.923076923077,4323.076923076924,4279.48717948718,4193.846153846154,4508.717948717949
620.2831,0.0,0.6778442,0.30271685,0.59470344,0,0.0,0.0,0.0,0.0,0.0,0,0,0.0,0.1377228,0,0,61.0,0.0,0.0,4719.48717948718,3924.1025641025644,4494.871794871796,4452.307692307693,4261.025641025642,4568.205128205129,4487.6923076923085,4407.179487179487,4409.2307692307695,4743.076923076924,4329.2307692307695,4290.769230769231,4199.48717948718,4505.128205128206
620.53326,0.0,0.6626404,0.3057977,0.5904381,0,0.0,0.0,0.0,0.0,0.0,0,0,0.24422118,0.0,0,0,93.0,0.0,498.0,4729.743589743591,3911.7948717948725,4475.384615384616,4451.282051282052,4250.769230769231,4568.717948717949,4493.333333333334,4427.179487179487,4423.589743589744,4738.461538461539,4329.2307692307695,4257.435897435898,4190.256410256411,4479.48717948718
620.7835,0.0,0.6626404,0.3057977,0.5904381,0,0.0,0.0,0.0,0.0,0.0,0,0,0.7315806,0.0,0,0,125.0,0.0,498.0,4745.641025641026,3920.0000000000005,4465.128205128206,4455.384615384616,4255.8974358974365,4566.666666666667,4483.076923076924,4404.102564102564,4408.717948717949,4717.435897435898,4354.871794871796,4250.256410256411,4202.051282051282,4454.871794871796
621.0337,0.0,0.6391847,0.30856848,0.5865983,0,0.0,0.0,0.0,0.0,0.56483305,0,0,0.0,0.0,0,0,28.0,0.0,0.0,4792.820512820514,3917.435897435898,4458.974358974359,4456.923076923077,4246.153846153847,4569.2307692307695,4488.717948717949,4408.205128205129,4423.076923076924,4719.48717948718,4354.871794871796,4262.051282051282,4218.974358974359,4458.974358974359
621.28394,0.0,0.6391847,0.30856848,0.5865983,0,0.0,0.0,0.0,0.0,0.5786493,0,0,0.0,0.0,0,0,60.0,0.0,0.0,4844.615384615386,3944.1025641025644,4456.923076923077,4474.358974358975,4261.025641025642,4568.717948717949,4491.282051282052,4421.538461538462,4433.333333333334,4750.769230769231,4386.153846153847,4286.666666666667,4242.564102564103,4487.179487179488
621.5341,0.0,0.6395378,0.30559978,0.5882199,0,0.0,0.0,0.0,0.0,0.3258118,0,0,0.0,0.0,0,1,92.0,0.0,532.0,4830.256410256411,3942.0512820512827,4456.923076923077,4472.307692307693,4251.282051282052,4573.333333333334,4482.564102564103,4412.307692307693,4425.641025641026,4738.461538461539,4370.256410256411,4276.923076923077,4232.820512820514,4516.410256410257
621.78436,0.0,0.6395378,0.30559978,0.5882199,0,0.0,0.0,0.0,0.0,0.1127012,0,0,0.0,0.0,0,1,124.0,0.0,532.0,4828.205128205129,3940.5128205128212,4449.743589743591,4477.948717948719,4269.74358974359,4581.025641025642,4504.102564102564,4452.820512820514,4433.846153846154,4757.948717948719,4360.000000000001,4277.948717948719,4208.205128205129,4487.179487179488
622.03455,0.0,0.64172906,0.29888156,0.58991176,0,0.0,0.0,0.0,0.0,0.06345502,0,0,0.0,0.0,0,0,27.0,0.0,0.0,4821.025641025642,3952.307692307693,4444.102564102564,4489.743589743591,4287.179487179487,4598.974358974359,4506.666666666667,4451.794871794872,4440.000000000001,4765.128205128206,4364.102564102564,4273.846153846154,4220.512820512821,4494.871794871796
622.2848,0.0,0.64172906,0.29888156,0.58991176,0,0.0,0.0,0.0,0.0,0.0,0,0,0.7663865,0.0,0,0,59.0,0.0,0.0,4821.538461538462,3949.7435897435903,4435.8974358974365,4487.6923076923085,4283.589743589744,4585.641025641026,4500.000000000001,4443.589743589744,4437.948717948719,4773.846153846154,4372.820512820514,4272.820512820514,4211.282051282052,4460.512820512821
622.535,0.0,0.6494572,0.29283676,0.59143287,0,0.0,0.0,0.0,0.0,0.34313098,0,0,0.0,0.0,0,0,91.0,0.0,514.0,4829.743589743591,3943.589743589744,4442.051282051282,4478.461538461539,4284.102564102564,4588.717948717949,4495.384615384616,4451.282051282052,4440.512820512821,4771.794871794872,4364.615384615385,4281.025641025642,4218.461538461539,4509.2307692307695
622.7852,0.0,0.6494572,0.29283676,0.59143287,0,0.0,0.0,0.0,0.0,0.36322302,0,0,0.0,0.0,0,0,123.0,0.0,514.0,4852.307692307693,3954.8717948717954,4449.2307692307695,4481.538461538462,4270.769230769231,4597.435897435898,4506.666666666667,4457.948717948719,4442.564102564103,4780.512820512821,4380.512820512821,4289.74358974359,4230.256410256411,4522.564102564103
623.0354,0.0013343558,0.6410497,0.2873983,0.5928003,0,0.0,0.0,0.0,0.0,0.18574359,0,0,0.0,0.0,0,0,26.0,0.0,0.0,4864.102564102564,3984.615384615385,4449.2307692307695,4483.589743589744,4277.435897435898,4578.974358974359,4487.6923076923085,4452.307692307693,4440.512820512821,4772.820512820514,4371.282051282052,4283.076923076924,4228.717948717949,4532.307692307693
623.28564,0.0013343558,0.6410497,0.2873983,0.5928003,0,0.0,0.0,0.0,0.0,0.15265031,0,0,0.0,0.0,0,0,58.0,0.0,0.0,4852.820512820514,3971.7948717948725,4452.307692307693,4469.743589743591,4268.205128205129,4571.282051282052,4475.384615384616,4424.102564102564,4425.128205128206,4745.128205128206,4355.384615384616,4266.666666666667,4208.717948717949,4530.256410256411
623.5358,0.0,0.6048851,0.28399527,0.5876607,0,0.0,0.0,0.0,0.0,0.0,0,0,0.29465857,0.0,0,0,90.0,0.0,554.0,4841.025641025642,4038.9743589743593,4460.000000000001,4519.48717948718,4280.512820512821,4586.153846153847,4484.102564102564,4427.6923076923085,4427.179487179487,4764.615384615386,4362.564102564103,4267.179487179487,4206.153846153847,4552.820512820514
623.7861,0.0,0.6048851,0.28399527,0.5876607,0,0.0,0.0,0.0,0.0,0.09346977,0,0,0.0,0.0,1,0,122.0,0.0,554.0,4832.307692307693,4131.794871794872,4469.743589743591,4587.179487179488,4286.153846153847,4578.974358974359,4482.051282051282,4409.2307692307695,4426.153846153847,4768.205128205129,4384.102564102564,4288.717948717949,4239.48717948718,4602.564102564103
624.03625,0.023143334,0.57934576,0.28093475,0.58052856,0,0.0,0.0,0.0,0.0,0.4869313,0,0,0.0,0.0,0,0,25.0,0.0,0.0,4872.820512820514,4168.717948717949,4476.923076923077,4636.923076923077,4263.589743589744,4580.000000000001,4477.948717948719,4413.333333333334,4409.2307692307695,4748.717948717949,4410.256410256411,4333.333333333334,4308.717948717949,4774.358974358975
624.2865,0.023143334,0.57934576,0.28093475,0.58052856,0,0.0,0.0,0.0,0.0,0.37311876,0,0,0.0,0.0,0,1,57.0,0.0,0.0,4858.974358974359,4052.820512820513,4469.2307692307695,4569.2307692307695,4325.128205128206,4599.48717948718,4497.948717948719,4453.846153846154,4444.615384615385,4800.000000000001,4405.641025641026,4309.2307692307695,4260.000000000001,4624.615384615385
624.53674,0.0,0.5942854,0.28043306,0.5741089,0,0.0,0.0,0.0,0.0,0.24789742,0,0,0.0,0.0,0,0,89.0,0.0,498.0,4878.461538461539,3967.692307692308,4456.410256410257,4505.128205128206,4284.102564102564,4591.282051282052,4507.6923076923085,4466.666666666667,4443.589743589744,4768.717948717949,4368.205128205129,4273.846153846154,4203.076923076924,4542.051282051282
624.7869,0.0,0.5942854,0.28043306,0.5741089,0,0.0,0.0,0.0,0.0,0.31356615,0,0,0.0,0.0,0,0,121.0,0.0,498.0,4899.48717948718,3957.435897435898,4450.256410256411,4507.6923076923085,4263.589743589744,4578.461538461539,4492.307692307693,4436.410256410257,4429.743589743591,4760.512820512821,4358.974358974359,4267.179487179487,4195.8974358974365,4539.48717948718
625.0372,0.013985649,0.6264875,0.2858302,0.56833065,0,0.0,0.0,0.0,0.0,0.4763389,0,0,0.0,0.0,0,0,24.0,0.0,0.0,4922.564102564103,3923.076923076924,4447.6923076923085,4466.666666666667,4240.512820512821,4584.615384615385,4485.128205128206,4446.666666666667,4433.846153846154,4763.076923076924,4344.102564102564,4267.6923076923085,4197.948717948719,4522.051282051282
625.28735,0.013985649,0.6264875,0.2858302,0.56833065,0,0.0,0.0,0.0,0.0,0.30785927,0,0,0.0,0.0,0,0,56.0,0.0,0.0,4878.974358974359,3931.2820512820517,4443.589743589744,4472.307692307693,4284.615384615385,4588.717948717949,4492.820512820514,4457.948717948719,4431.794871794872,4765.641025641026,4344.102564102564,4271.282051282052,4197.948717948719,4540.000000000001
625.5376,0.0,0.6514981,0.28484067,0.5672965,0,0.0,0.0,0.6079289,0.0,0.0,0,0,0.0,0.0,0,0,88.0,0.0,532.0,4869.2307692307695,3957.9487179487182,4441.538461538462,4488.205128205129,4300.512820512821,4587.6923076923085,4493.846153846154,4445.128205128206,4423.589743589744,4773.846153846154,4374.358974358975,4272.307692307693,4227.179487179487,4572.307692307693
625.7878,0.0,0.6514981,0.28484067,0.5672965,0,0.0,0.0,0.0,0.0,0.0,0,0,1.0,0.0,0,0,120.0,0.0,532.0,4828.205128205129,3895.8974358974365,4445.128205128206,4412.820512820514,4253.333333333334,4584.102564102564,4492.820512820514,4450.256410256411,4427.6923076923085,4766.153846153847,4361.538461538462,4279.48717948718,4220.000000000001,4553.333333333334
626.038,0.0,0.6606245,0.2811022,0.57570535,0,0.0,0.0,0.0,0.0,0.0,0,0,1.0,0.0,0,0,23.0,0.0,0.0,4823.076923076924,3906.666666666667,4441.025641025642,4426.153846153847,4283.589743589744,4587.179487179488,4495.8974358974365,4447.6923076923085,4423.589743589744,4750.769230769231,4355.384615384616,4280.000000000001,4198.974358974359,4565.641025641026
626.038,0.0,0.6606245,0.2811022,0.57570535,0,0.0,0.0,0.0,0.0,0.0,0,0,1.0,0.0,0,0,23.0,0.0,0.0,4823.076923076924,3906.666666666667,4441.025641025642,4426.153846153847,4283.589743589744,4587.179487179488,4495.8974358974365,4447.6923076923085,4423.589743589744,4750.769230769231,4355.384615384616,4280.000000000001,4198.974358974359,4565.641025641026
626.53845,0.027596738,0.6537704,0.27654892,0.5901835,0,0.0,0.0,0.0,0.0,0.0,0,0,1.0,0.0,0,0,87.0,0.0,512.0,4814.871794871796,3892.820512820513,4444.102564102564,4418.461538461539,4227.179487179487,4575.384615384616,4488.717948717949,4421.025641025642,4418.461538461539,4707.179487179488,4327.179487179487,4263.076923076924,4212.820512820514,4551.794871794872
626.78864,0.027596738,0.6537704,0.27654892,0.5901835,0,0.0,0.0,1.0,0.0,0.0,0,0,0.0,0.0,0,0,119.0,0.0,512.0,4791.282051282052,3891.7948717948725,4438.974358974359,4411.794871794872,4263.589743589744,4568.717948717949,4491.282051282052,4430.256410256411,4424.615384615385,4716.410256410257,4330.769230769231,4266.153846153847,4212.820512820514,4530.256410256411
627.0389,0.0,0.6134087,0.27254587,0.6035548,0,0.0,0.0,0.6153735,0.0,0.0,0,0,0.0,0.0,0,0,22.0,0.0,0.0,4762.051282051282,3908.205128205129,4446.153846153847,4409.743589743591,4278.974358974359,4559.48717948718,4478.974358974359,4401.025641025642,4395.384615384616,4713.846153846154,4349.2307692307695,4234.871794871796,4202.051282051282,4518.461538461539
627.28906,0.0,0.6134087,0.27254587,0.6035548,0,0.0,0.0,0.0,0.0,0.0,0,0,1.0,0.0,0,0,54.0,0.0,0.0,4745.128205128206,3874.358974358975,4451.282051282052,4389.2307692307695,4216.923076923077,4536.410256410257,4447.179487179487,4367.179487179487,4380.000000000001,4697.948717948719,4349.2307692307695,4212.307692307693,4182.564102564103,4509.743589743591
627.5393,0.0,0.5935914,0.26894596,0.61790603,0,0.0,0.0,0.0,0.0,0.0,0,0,1.0,0.0,0,0,86.0,0.0,562.0,4732.307692307693,3871.2820512820517,4458.461538461539,4383.076923076924,4264.102564102564,4549.2307692307695,4470.769230769231,4409.2307692307695,4409.743589743591,4737.948717948719,4382.051282051282,4242.564102564103,4221.025641025642,4530.256410256411
627.7895,0.0,0.5935914,0.26894596,0.61790603,1,0.0,0.0,0.0,0.0,0.0,0,0,0.25451493,0.0,0,0,118.0,0.0,562.0,4703.076923076924,3936.410256410257,4463.076923076924,4429.2307692307695,4285.641025641026,4549.2307692307695,4462.051282051282,4404.615384615385,4409.743589743591,4742.564102564103,4406.666666666667,4247.6923076923085,4234.871794871796,4525.641025641026
628.071,0.0,0.5789378,0.2656791,0.6308502,0,0.0,0.0,0.0,0.0,0.0,0,0,0.32374498,0.0,0,0,25.0,0.0,0.0,4674.358974358975,3925.6410256410263,4470.256410256411,4426.666666666667,4265.128205128206,4545.641025641026,4461.025641025642,4398.974358974359,4392.307692307693,4720.000000000001,4399.48717948718,4230.256410256411,4195.8974358974365,4521.025641025642
628.2899,0.0,0.5789378,0.2656791,0.6308502,0,0.0,0.0,0.0,0.0,0.0,0,0,0.8598286,0.0,0,0,53.0,0.0,0.0,4656.410256410257,3897.435897435898,4477.948717948719,4380.000000000001,4268.205128205129,4553.846153846154,4461.538461538462,4409.2307692307695,4402.564102564103,4747.6923076923085,4401.025641025642,4234.358974358975,4214.358974358975,4526.153846153847
628.5714,0.0,0.5595769,0.2654463,0.64209247,0,0.0,0.0,0.29462138,0.0,0.0,0,0,0.0,0.0,0,0,89.0,0.0,501.0,4661.538461538462,3926.666666666667,4490.769230769231,4400.512820512821,4274.871794871796,4553.333333333334,4472.307692307693,4401.025641025642,4393.333333333334,4736.410256410257,4387.179487179487,4227.6923076923085,4194.871794871796,4553.846153846154
628.79034,0.0,0.5595769,0.2654463,0.64209247,0,0.0,0.0,0.0,0.0,0.0,0,0,1.0,0.0,0,0,117.0,0.0,501.0,4671.794871794872,3935.8974358974365,4492.820512820514,4415.8974358974365,4253.846153846154,4539.48717948718,4445.641025641026,4391.794871794872,4378.461538461539,4724.102564102564,4403.076923076924,4233.846153846154,4192.820512820514,4556.923076923077
629.0406,0.0,0.55305886,0.27033314,0.64145523,0,0.0,0.0,0.0,0.0,0.0,0,0,1.0,0.0,0,0,20.0,0.0,0.0,4669.743589743591,3920.0000000000005,4511.794871794872,4406.666666666667,4303.076923076924,4564.102564102564,4452.820512820514,4420.512820512821,4399.48717948718,4752.820512820514,4396.923076923077,4248.205128205129,4217.435897435898,4571.794871794872
629.2908,0.0,0.55305886,0.27033314,0.64145523,0,0.0,0.0,0.5492801,0.0,0.0,0,0,0.0,0.0,0,0,52.0,0.0,0.0,4661.025641025642,3941.538461538462,4517.435897435898,4425.641025641026,4254.358974358975,4549.2307692307695,4445.641025641026,4406.666666666667,4394.871794871796,4732.307692307693,4370.769230769231,4239.48717948718,4207.179487179487,4558.974358974359
629.541,0.0,0.52884686,0.27666065,0.6324947,0,0.0,0.0,1.0,0.0,0.0,0,0,0.0,0.0,0,0,84.0,0.0,529.0,4666.153846153847,3949.2307692307695,4523.589743589744,4425.128205128206,4272.307692307693,4567.179487179488,4454.871794871796,4408.717948717949,4389.2307692307695,4743.076923076924,4368.717948717949,4256.410256410257,4195.384615384616,4566.666666666667
629.79126,0.0,0.52884686,0.27666065,0.6324947,0,0.0,0.0,0.96113473,0.0,0.0,0,0,0.0,0.0,0,0,116.0,0.0,529.0,4665.641025641026,3956.410256410257,4523.589743589744,4440.512820512821,4297.435897435898,4570.256410256411,4462.051282051282,4422.051282051282,4401.025641025642,4750.769230769231,4369.2307692307695,4264.615384615385,4208.205128205129,4551.282051282052
630.04144,0.025381543,0.49479038,0.2823576,0.6244297,0,0.0,0.0,0.31720513,0.0,0.0,0,0,0.0,0.0,0,0,19.0,0.0,0.0,4666.153846153847,3954.358974358975,4526.153846153847,4447.179487179487,4303.076923076924,4578.461538461539,4456.923076923077,4429.2307692307695,4416.923076923077,4762.564102564103,4386.153846153847,4274.358974358975,4243.076923076924,4582.564102564103
630.2917,0.025381543,0.49479038,0.2823576,0.6244297,0,0.0,0.0,0.0,0.0,0.0,0,0,0.94996697,0.0,0,0,51.0,0.0,0.0,4646.666666666667,3945.1282051282055,4503.589743589744,4433.333333333334,4267.6923076923085,4576.410256410257,4457.435897435898,4422.051282051282,4413.846153846154,4734.358974358975,4357.435897435898,4265.128205128206,4216.410256410257,4555.8974358974365
630.5419,0.0,0.4667329,0.28748688,0.6171703,0,0.0,0.0,0.0,0.0,0.0,0,0,0.75773156,0.0,0,0,83.0,0.0,514.0,4647.6923076923085,3953.333333333334,4490.256410256411,4453.846153846154,4279.48717948718,4585.641025641026,4471.282051282052,4431.794871794872,4420.000000000001,4742.564102564103,4364.615384615385,4269.2307692307695,4214.358974358975,4566.666666666667
630.7921,0.0,0.4667329,0.28748688,0.6171703,0,0.0,0.0,0.0,0.0,0.0,0,0,0.56335795,0.0,0,0,115.0,0.0,514.0,4635.384615384616,3920.5128205128212,4483.076923076924,4441.025641025642,4220.512820512821,4568.205128205129,4461.025641025642,4409.2307692307695,4400.000000000001,4713.333333333334,4333.846153846154,4259.48717948718,4192.820512820514,4517.435897435898
631.0423,0.0,0.44260657,0.29209995,0.61064166,0,0.0,0.0,0.0,0.0,0.0,0,0,0.92474,0.0,0,0,18.0,0.0,0.0,4638.974358974359,3938.9743589743593,4481.025641025642,4452.820512820514,4263.589743589744,4588.205128205129,4480.000000000001,4433.846153846154,4428.205128205129,4753.333333333334,4361.025641025642,4281.538461538462,4215.384615384616,4523.076923076924
631.29254,0.0,0.44260657,0.29209995,0.61064166,0,0.0,0.0,0.0,0.0,0.0,0,0,0.34739193,0.0,0,0,50.0,0.0,0.0,4639.48717948718,3940.5128205128212,4482.564102564103,4451.794871794872,4257.948717948719,4570.769230769231,4460.000000000001,4415.384615384616,4410.769230769231,4729.743589743591,4359.48717948718,4282.051282051282,4216.923076923077,4557.435897435898
631.5427,0.0,0.4245222,0.29325998,0.60608715,0,0.0,0.0,0.0,0.0,0.0,0,0,0.8844213,0.0,0,0,82.0,0.0,558.0,4639.48717948718,3957.435897435898,4486.153846153847,4465.641025641026,4261.025641025642,4591.794871794872,4491.282051282052,4446.666666666667,4431.794871794872,4769.743589743591,4369.2307692307695,4291.794871794872,4233.333333333334,4574.871794871796
631.79297,0.0,0.4245222,0.29325998,0.60608715,0,0.0,0.0,0.0,0.0,0.0,0,0,1.0,0.0,0,0,114.0,0.0,558.0,4631.282051282052,3952.820512820513,4477.435897435898,4456.410256410257,4262.564102564103,4572.307692307693,4475.384615384616,4413.846153846154,4404.102564102564,4756.410256410257,4356.923076923077,4282.564102564103,4216.923076923077,4568.205128205129
632.1057,0.0,0.4081938,0.29100657,0.6043082,0,0.0,0.0,0.0,0.0,0.0,1,0,1.0,0.0,0,0,25.0,0.0,0.0,4582.051282051282,3986.1538461538466,4476.410256410257,4482.051282051282,4265.128205128206,4572.307692307693,4458.461538461539,4380.512820512821,4370.256410256411,4662.051282051282,4217.948717948719,4168.205128205129,4006.1538461538466,4381.538461538462
632.2934,0.0,0.4081938,0.29100657,0.6043082,0,0.0,0.0,0.16209058,0.0,0.0,1,0,0.0,0.0,0,0,49.0,0.0,0.0,4619.48717948718,3977.435897435898,4469.743589743591,4470.256410256411,4288.205128205129,4591.282051282052,4476.410256410257,4421.538461538462,4400.000000000001,4705.641025641026,4263.076923076924,4204.102564102564,4098.974358974359,4449.2307692307695
632.5436,0.06285683,0.39349827,0.28873932,0.60731626,0,0.0,0.0,0.38139835,0.0,0.0,1,0,0.0,0.0,0,0,81.0,0.0,500.0,4637.948717948719,3978.461538461539,4466.666666666667,4477.948717948719,4287.179487179487,4593.846153846154,4473.846153846154,4422.564102564103,4412.307692307693,4724.102564102564,4293.333333333334,4230.256410256411,4147.6923076923085,4492.820512820514
632.7938,0.06285683,0.39349827,0.28873932,0.60731626,0,0.0,0.0,0.088642746,0.0,0.0,1,0,0.0,0.0,0,0,113.0,0.0,500.0,4656.410256410257,3919.48717948718,4450.256410256411,4438.461538461539,4252.307692307693,4549.2307692307695,4443.589743589744,4399.48717948718,4395.8974358974365,4698.974358974359,4298.461538461539,4222.051282051282,4172.820512820514,4510.769230769231
633.044,0.056996014,0.3802723,0.2867008,0.61474305,0,0.0,0.0,0.0,0.0,0.63971746,1,0,0.0,0.0,0,0,16.0,0.0,0.0,4686.666666666667,3958.461538461539,4458.974358974359,4460.512820512821,4275.384615384616,4569.2307692307695,4466.153846153847,4412.820512820514,4394.871794871796,4715.384615384616,4323.589743589744,4258.461538461539,4172.307692307693,4543.076923076924
633.3568,0.056996014,0.3802723,0.2867008,0.61474305,0,0.0,0.0,0.0,0.0,1.0,0,0,0.0,0.0,0,0,56.0,0.0,0.0,4734.358974358975,3921.0256410256416,4446.153846153847,4425.641025641026,4248.205128205129,4550.256410256411,4461.025641025642,4399.48717948718,4376.923076923077,4695.8974358974365,4315.384615384616,4247.179487179487,4156.410256410257,4509.2307692307695
633.54443,0.035612334,0.36836892,0.2851754,0.6287855,0,0.0,0.0,0.0,0.0,0.0,0,0,0.50524116,0.0,0,0,80.0,0.0,529.0,4734.358974358975,3913.333333333334,4438.461538461539,4424.102564102564,4234.871794871796,4534.871794871796,4458.974358974359,4371.794871794872,4368.205128205129,4668.717948717949,4289.2307692307695,4220.000000000001,4150.769230769231,4481.025641025642
633.7947,0.035612334,0.36836892,0.2851754,0.6287855,0,0.0,0.0,0.0,0.0,0.0,0,0,0.23815997,0.0,0,0,112.0,0.0,529.0,4715.384615384616,3877.9487179487182,4427.179487179487,4388.205128205129,4242.051282051282,4507.6923076923085,4466.153846153847,4371.282051282052,4342.051282051282,4665.128205128206,4292.307692307693,4201.025641025642,4138.974358974359,4448.717948717949
634.04486,0.122474425,0.38699153,0.28244382,0.64133185,0,0.0,0.0,0.0,0.0,0.0,0,0,0.5907398,0.0,0,0,15.0,0.0,515.0,4717.948717948719,3877.435897435898,4418.461538461539,4387.179487179487,4249.74358974359,4493.846153846154,4444.102564102564,4347.179487179487,4332.307692307693,4661.025641025642,4301.538461538462,4176.410256410257,4138.461538461539,4445.128205128206
634.17,0.122474425,0.38699153,0.28244382,0.64133185,0,0.0,0.0,0.0,0.0,0.0,0,0,0.0,0.0,0,0,31.0,0.0,0.0,4711.282051282052,3875.8974358974365,4416.923076923077,4383.589743589744,4242.051282051282,4493.333333333334,4434.358974358975,4335.8974358974365,4315.8974358974365,4629.743589743591,4308.205128205129,4173.333333333334,4130.769230769231,4448.205128205129
634.5453,0.20057689,0.40037563,0.27973524,0.65261346,0,0.0,0.0,0.0,0.0,0.0,0,0,0.0,0.0,0,0,79.0,0.0,515.0,4744.102564102564,3890.7692307692314,4409.743589743591,4392.307692307693,4260.000000000001,4505.641025641026,4426.153846153847,4368.205128205129,4338.974358974359,4679.48717948718,4358.974358974359,4169.74358974359,4145.641025641026,4471.794871794872
634.79553,0.20057689,0.40037563,0.27973524,0.65261346,0,0.0,0.0,0.0,0.0,0.116160974,0,0,0.0,0.0,0,0,111.0,0.0,515.0,4777.435897435898,3947.692307692308,4419.48717948718,4446.666666666667,4282.051282051282,4526.153846153847,4436.923076923077,4384.615384615385,4356.923076923077,4716.923076923077,4391.794871794872,4215.8974358974365,4172.307692307693,4515.384615384616
635.0457,0.19828922,0.44457218,0.27909675,0.6627551,0,0.0,0.0,0.0,0.0,0.22807345,0,0,0.0,0.0,0,0,14.0,0.0,557.0,4796.410256410257,3946.1538461538466,4419.48717948718,4454.871794871796,4288.205128205129,4538.461538461539,4426.666666666667,4367.179487179487,4344.102564102564,4727.179487179488,4396.410256410257,4215.8974358974365,4164.615384615385,4501.538461538462
635.29596,0.19828922,0.44457218,0.27909675,0.6627551,0,0.0,0.0,0.0,0.0,0.13576339,0,0,0.0,0.0,0,0,46.0,0.0,0.0,4798.461538461539,3965.1282051282055,4422.051282051282,4472.307692307693,4283.589743589744,4558.461538461539,4443.076923076924,4413.846153846154,4373.846153846154,4765.128205128206,4434.871794871796,4254.871794871796,4196.410256410257,4511.282051282052
635.5462,0.20345613,0.4570541,0.2840087,0.6646745,0,0.0,0.0,0.0,0.0,0.0,0,0,0.45106027,0.0,0,0,78.0,0.0,557.0,4840.512820512821,3986.1538461538466,4442.051282051282,4493.846153846154,4256.410256410257,4563.076923076924,4432.820512820514,4445.641025641026,4400.000000000001,4830.256410256411,4549.2307692307695,4355.384615384616,4388.205128205129,4698.974358974359
635.7964,0.20345613,0.4570541,0.2840087,0.6646745,0,0.0,0.0,0.0,0.0,0.5405593,0,0,0.0,0.0,0,1,110.0,0.0,557.0,4833.333333333334,3982.564102564103,4450.256410256411,4472.820512820514,4267.179487179487,4592.307692307693,4474.358974358975,4506.666666666667,4444.102564102564,4866.666666666667,4571.794871794872,4400.000000000001,4410.256410256411,4670.256410256411
636.04663,0.27578488,0.49307212,0.28843144,0.66418207,0,0.0,0.0,0.0,0.0,0.28671023,0,0,0.0,0.0,0,0,13.0,0.0,500.0,4841.538461538462,3978.9743589743593,4448.205128205129,4476.923076923077,4252.307692307693,4598.461538461539,4465.641025641026,4473.333333333334,4425.128205128206,4867.6923076923085,4550.769230769231,4382.051282051282,4493.333333333334,4611.794871794872
636.2968,0.27578488,0.49307212,0.28843144,0.66418207,0,0.0,0.0,0.0,0.0,0.3699566,0,0,0.0,0.0,0,0,45.0,0.0,0.0,4862.564102564103,4037.435897435898,4450.769230769231,4531.794871794872,4272.820512820514,4612.820512820514,4482.051282051282,4494.871794871796,4441.538461538462,4867.6923076923085,4536.410256410257,4398.974358974359,4344.615384615385,4628.205128205129
636.54706,0.25610557,0.529717,0.29855815,0.6637333,0,0.0,0.0,0.09374195,0.0,0.0,0,0,0.0,0.0,0,0,77.0,0.0,500.0,4853.846153846154,4028.717948717949,4454.871794871796,4520.000000000001,4271.282051282052,4622.564102564103,4504.102564102564,4502.051282051282,4444.102564102564,4849.2307692307695,4501.025641025642,4400.000000000001,4283.076923076924,4589.2307692307695
636.79724,0.25610557,0.529717,0.29855815,0.6637333,0,0.0,0.0,0.115630046,0.0,0.0,0,0,0.0,0.0,0,0,109.0,0.0,500.0,4849.743589743591,4040.5128205128212,4451.282051282052,4524.615384615385,4273.333333333334,4614.871794871796,4502.564102564103,4498.461538461539,4432.820512820514,4819.48717948718,4470.769230769231,4400.512820512821,4258.461538461539,4573.333333333334
637.0475,0.3283269,0.51794374,0.31712532,0.6633239,0,0.0,0.0,0.0,0.0,0.0,0,0,0.3232638,0.0,0,0,12.0,0.0,525.0,4872.307692307693,4022.564102564103,4454.871794871796,4518.974358974359,4275.384615384616,4619.48717948718,4507.6923076923085,4489.2307692307695,4442.051282051282,4812.307692307693,4465.641025641026,4397.948717948719,4252.820512820514,4573.333333333334
637.29767,0.3283269,0.51794374,0.31712532,0.6633239,0,0.0,0.0,0.0,0.0,0.0,0,0,0.40164396,0.0,0,0,44.0,0.0,0.0,4892.307692307693,4019.48717948718,4449.2307692307695,4515.384615384616,4283.589743589744,4620.512820512821,4513.846153846154,4488.205128205129,4430.769230769231,4801.538461538462,4381.538461538462,4374.871794871796,4243.589743589744,4575.8974358974365
637.57916,0.35363567,0.51470995,0.33383664,0.65828973,0,0.0,0.0,0.0,0.0,0.0,0,0,0.0,0.41512063,0,0,80.0,0.0,524.0,4911.282051282052,3994.358974358975,4460.000000000001,4490.256410256411,4263.076923076924,4598.974358974359,4502.564102564103,4457.948717948719,4418.461538461539,4780.000000000001,4366.666666666667,4351.794871794872,4227.6923076923085,4554.871794871796
637.7981,0.35363567,0.51470995,0.33383664,0.65828973,0,0.0,0.0,0.0,0.0,0.0,0,0,0.0,0.28673735,0,0,108.0,0.0,524.0,4914.871794871796,4027.1794871794878,4466.666666666667,4518.974358974359,4282.564102564103,4600.512820512821,4509.743589743591,4464.102564102564,4426.666666666667,4763.076923076924,4393.846153846154,4365.128205128206,4248.205128205129,4598.974358974359
638.04834,0.3248521,0.5104644,0.3488703,0.6476387,0,0.0,0.0,0.0,0.0,0.16333707,1,0,0.0,0.0,0,0,11.0,0.0,514.0,4876.923076923077,4052.820512820513,4461.025641025642,4544.102564102564,4296.923076923077,4595.8974358974365,4479.48717948718,4407.6923076923085,4388.205128205129,4674.358974358975,4276.923076923077,4260.000000000001,4056.410256410257,4453.846153846154
638.2985,0.3248521,0.5104644,0.3488703,0.6476387,0,0.0,0.0,0.0,0.0,0.1611462,1,0,0.0,0.0,0,0,43.0,0.0,0.0,4892.820512820514,4025.1282051282055,4465.128205128206,4521.538461538462,4286.153846153847,4595.8974358974365,4498.974358974359,4440.000000000001,4404.102564102564,4693.846153846154,4288.717948717949,4254.871794871796,4074.8717948717954,4498.461538461539
638.54877,0.3418007,0.53008556,0.3539736,0.6380564,0,0.0,0.0,0.0,0.0,0.44567472,0,0,0.0,0.0,0,0,75.0,0.0,514.0,5000.000000000001,4096.410256410257,4483.076923076924,4597.948717948719,4246.666666666667,4570.769230769231,4502.564102564103,4440.000000000001,4414.871794871796,4765.128205128206,4484.615384615385,4402.051282051282,4374.871794871796,4831.282051282052
638.79895,0.3418007,0.53008556,0.3539736,0.6380564,0,0.0,0.0,0.0,0.0,0.36217257,0,0,0.0,0.0,0,1,107.0,0.0,514.0,4939.48717948718,3956.9230769230776,4468.205128205129,4469.743589743591,4240.000000000001,4589.2307692307695,4507.179487179488,4440.512820512821,4413.846153846154,4775.384615384616,4421.025641025642,4305.128205128206,4259.48717948718,4581.538461538462
639.0492,0.28851014,0.6100597,0.3519009,0.6294383,0,0.0,0.0,0.0,0.0,0.2228115,0,0,0.0,0.0,0,0,10.0,0.0,552.0,4906.153846153847,3974.358974358975,4483.589743589744,4462.564102564103,4284.615384615385,4607.179487179488,4528.717948717949,4472.307692307693,4437.948717948719,4792.307692307693,4410.769230769231,4310.769230769231,4282.564102564103,4576.410256410257
639.2994,0.28851014,0.6100597,0.3519009,0.6294383,1,0.0,0.0,0.0,0.0,0.2670695,0,0,0.0,0.0,0,0,42.0,0.0,0.0,4945.641025641026,4116.410256410257,4510.256410256411,4580.000000000001,4279.48717948718,4580.000000000001,4503.589743589744,4471.794871794872,4425.128205128206,4758.461538461539,4465.128205128206,4368.717948717949,4352.820512820514,4806.153846153847
639.5496,0.24695714,0.72417533,0.3500347,0.6216813,0,0.0,0.0,0.0,0.0,0.26624462,0,0,0.0,0.0,0,0,74.0,0.0,552.0,4888.205128205129,4020.0000000000005,4509.743589743591,4488.205128205129,4262.051282051282,4556.923076923077,4497.948717948719,4467.179487179487,4420.512820512821,4738.974358974359,4386.666666666667,4298.461538461539,4224.615384615385,4597.435897435898
639.7998,0.24695714,0.72417533,0.3500347,0.6216813,0,0.0,0.0,0.0,0.0,0.20738329,0,0,0.0,0.0,0,0,106.0,0.0,552.0,4816.410256410257,3919.48717948718,4517.948717948719,4381.538461538462,4244.615384615385,4552.820512820514,4518.461538461539,4489.2307692307695,4416.410256410257,4718.461538461539,4312.307692307693,4213.846153846154,4171.282051282052,4442.051282051282
640.05005,0.28953296,0.7969732,0.34835446,0.614699,0,0.0,0.0,0.0,0.0,0.07010056,0,0,0.0,0.0,0,0,9.0,0.0,491.0,4734.871794871796,3831.7948717948725,4501.025641025642,4289.74358974359,4229.74358974359,4507.6923076923085,4501.025641025642,4446.153846153847,4374.358974358975,4680.000000000001,4285.641025641026,4125.641025641026,4134.358974358975,4397.948717948719
640.30023,0.28953296,0.7969732,0.34835446,0.614699,0,0.0,0.0,0.0,0.0,0.3037639,0,0,0.0,0.0,0,0,41.0,0.0,0.0,4664.102564102564,3769.2307692307695,4472.307692307693,4236.923076923077,4244.102564102564,4458.974358974359,4458.461538461539,4393.846153846154,4327.179487179487,4656.923076923077,4277.435897435898,4047.1794871794878,4105.641025641026,4383.589743589744
640.5505,0.35045928,0.8147092,0.35313383,0.61510825,0,0.0,0.0,0.0,0.0,0.0,0,0,0.52740866,0.0,0,0,73.0,0.0,491.0,4622.051282051282,3756.9230769230776,4453.846153846154,4223.076923076924,4237.435897435898,4416.923076923077,4409.2307692307695,4345.641025641026,4324.102564102564,4663.076923076924,4282.051282051282,4048.717948717949,4100.512820512821,4380.512820512821
640.8007,0.35045928,0.8147092,0.35313383,0.61510825,0,0.0,0.0,0.0,0.0,0.0,0,0,0.071160175,0.0,0,0,105.0,0.0,498.0,4601.025641025642,3771.794871794872,4449.2307692307695,4245.128205128206,4257.948717948719,4411.794871794872,4374.358974358975,4345.128205128206,4334.358974358975,4695.384615384616,4327.179487179487,4086.1538461538466,4124.102564102564,4413.333333333334
641.0509,0.4129443,0.8310911,0.35743442,0.6204913,0,0.0,0.0,0.0,0.0,0.0,0,0,0.15331136,0.0,0,1,8.0,0.0,399.0,4634.871794871796,3937.9487179487182,4465.128205128206,4389.743589743591,4271.794871794872,4410.769230769231,4360.512820512821,4345.128205128206,4338.974358974359,4692.307692307693,4398.974358974359,4153.846153846154,4248.717948717949,4593.846153846154
641.30115,0.4129443,0.8310911,0.35743442,0.6204913,0,0.0,0.0,0.0,0.0,0.24797706,0,0,0.0,0.0,0,0,40.0,0.0,0.0,4618.974358974359,3972.820512820513,4457.948717948719,4432.307692307693,4288.205128205129,4445.641025641026,4369.2307692307695,4367.179487179487,4355.8974358974365,4713.846153846154,4434.358974358975,4179.48717948718,4285.128205128206,4625.128205128206
641.55133,0.42266858,0.8458349,0.36130393,0.6253319,0,0.0,0.0,0.0,0.0,0.15451409,0,0,0.0,0.0,0,0,72.0,0.0,399.0,4597.948717948719,3883.076923076924,4446.666666666667,4370.256410256411,4274.358974358975,4484.615384615385,4408.717948717949,4423.589743589744,4392.820512820514,4758.461538461539,4431.282051282052,4115.8974358974365,4224.615384615385,4494.358974358975
641.8016,0.42266858,0.8458349,0.36130393,0.6253319,0,0.0,0.0,0.0,0.0,0.19230734,0,0,0.0,0.0,0,0,104.0,0.0,528.0,4608.205128205129,3952.820512820513,4441.538461538462,4440.000000000001,4297.948717948719,4536.410256410257,4441.538461538462,4438.461538461539,4408.205128205129,4780.512820512821,4470.769230769231,4176.410256410257,4243.589743589744,4517.948717948719
642.05176,0.4343847,0.8591043,0.3683869,0.6296838,0,0.0,0.0,0.0,0.0,0.15682696,0,0,0.0,0.0,0,1,7.0,0.0,467.0,4638.461538461539,4010.7692307692314,4449.2307692307695,4503.589743589744,4310.256410256411,4575.384615384616,4451.282051282052,4438.461538461539,4406.153846153847,4774.871794871796,4485.641025641026,4238.974358974359,4269.74358974359,4593.846153846154
642.302,0.4343847,0.8591043,0.3683869,0.6296838,0,0.0,0.0,0.0,0.0,0.13132122,0,0,0.0,0.0,0,0,39.0,0.0,0.0,4648.205128205129,3965.1282051282055,4442.051282051282,4457.948717948719,4271.794871794872,4610.769230769231,4493.846153846154,4487.179487179488,4420.512820512821,4759.48717948718,4481.025641025642,4278.461538461539,4249.2307692307695,4561.538461538462
642.5522,0.3853727,0.8710467,0.37476,0.6291516,0,0.0,0.0,0.0,0.0,0.0,0,0,0.4636406,0.0,0,0,71.0,0.0,459.0,4650.256410256411,3961.538461538462,4440.000000000001,4459.48717948718,4273.846153846154,4587.6923076923085,4497.435897435898,4460.512820512821,4396.923076923077,4755.384615384616,4446.666666666667,4263.076923076924,4263.589743589744,4538.461538461539
642.8024,0.3853727,0.8710467,0.37476,0.6291516,0,0.0,0.0,0.0,0.0,0.0,0,0,0.27750733,0.0,0,0,103.0,0.0,508.0,4613.846153846154,3809.7435897435903,4436.410256410257,4333.333333333334,4242.564102564103,4522.051282051282,4492.307692307693,4401.538461538462,4341.538461538462,4685.128205128206,4331.282051282052,4197.435897435898,4138.461538461539,4422.564102564103
643.0526,0.4637087,0.86845016,0.38049388,0.6258085,0,0.0,0.0,0.0,0.0,0.04349234,0,0,0.0,0.0,0,0,6.0,0.0,549.0,4568.717948717949,3750.2564102564106,4426.666666666667,4259.48717948718,4175.8974358974365,4460.512820512821,4453.846153846154,4334.871794871796,4300.000000000001,4649.743589743591,4256.923076923077,4126.153846153847,4089.7435897435903,4385.641025641026
643.30286,0.4637087,0.86845016,0.38049388,0.6258085,0,0.0,0.0,0.0,0.0,0.0,0,0,0.8790593,0.0,0,0,38.0,0.0,0.0,4536.410256410257,3760.0000000000005,4425.128205128206,4250.256410256411,4222.564102564103,4458.461538461539,4474.871794871796,4360.512820512821,4322.564102564103,4699.48717948718,4259.48717948718,4031.7948717948725,4121.538461538462,4364.102564102564
643.55304,0.5202784,0.86672515,0.380082,0.6227976,0,0.0,0.0,0.0,0.0,0.0,0,0,0.7101434,0.0,0,0,70.0,0.0,549.0,4511.794871794872,3798.461538461539,4426.666666666667,4266.666666666667,4217.948717948719,4468.717948717949,4442.051282051282,4350.256410256411,4324.615384615385,4715.8974358974365,4284.615384615385,4054.358974358975,4160.512820512821,4359.48717948718
643.8033,0.5202784,0.86672515,0.380082,0.6227976,0,0.0,0.0,0.0,0.0,0.0,0,0,0.061303608,0.0,0,0,102.0,0.0,553.0,4507.6923076923085,3848.205128205129,4436.410256410257,4326.666666666667,4282.051282051282,4511.282051282052,4438.461538461539,4381.025641025642,4347.6923076923085,4734.871794871796,4334.871794871796,4136.923076923077,4193.333333333334,4410.769230769231
644.05347,0.5410179,0.86517256,0.37970936,0.6200857,0,0.0,0.0,0.0,0.0,0.0,0,0,0.28641242,0.0,0,0,5.0,0.0,580.0,4491.794871794872,3904.615384615385,4450.769230769231,4382.564102564103,4300.512820512821,4536.410256410257,4429.743589743591,4395.384615384616,4360.000000000001,4740.000000000001,4369.2307692307695,4202.564102564103,4191.282051282052,4449.2307692307695
644.3037,0.5410179,0.86517256,0.37970936,0.6200857,0,0.0,0.0,0.0,0.0,0.0,0,0,0.68438613,0.0,0,0,37.0,0.0,0.0,4495.384615384616,3951.7948717948725,4461.538461538462,4431.282051282052,4276.410256410257,4541.025641025642,4437.435897435898,4426.153846153847,4376.923076923077,4751.794871794872,4432.820512820514,4294.871794871796,4238.461538461539,4514.871794871796
644.5539,0.55050635,0.86377525,0.3793721,0.6222865,0,0.0,0.0,0.0,0.0,0.0,0,0,0.45430923,0.0,0,0,69.0,0.0,582.0,4524.102564102564,4022.564102564103,4482.051282051282,4508.717948717949,4351.282051282052,4595.8974358974365,4462.051282051282,4458.974358974359,4410.769230769231,4785.641025641026,4490.256410256411,4370.256410256411,4278.461538461539,4569.743589743591
644.80414,0.55050635,0.86377525,0.3793721,0.6222865,0,0.0,0.0,0.0,0.0,0.0,0,0,0.5000992,0.0,0,0,101.0,0.0,496.0,4553.846153846154,4080.5128205128212,4484.102564102564,4567.179487179488,4354.358974358975,4626.666666666667,4462.051282051282,4480.512820512821,4424.615384615385,4772.820512820514,4504.102564102564,4411.794871794872,4287.179487179487,4617.435897435898
645.0543,0.58672595,0.8625177,0.37427053,0.62906605,0,0.0,0.0,0.0,0.0,0.0,0,0,0.65447474,0.0,0,0,4.0,0.0,577.0,4588.717948717949,4075.8974358974365,4482.051282051282,4572.820512820514,4323.589743589744,4644.102564102564,4455.384615384616,4484.615384615385,4440.000000000001,4771.794871794872,4524.102564102564,4444.102564102564,4302.564102564103,4664.615384615386
645.30457,0.58672595,0.8625177,0.37427053,0.62906605,0,0.0,0.0,0.0,0.0,0.0,0,0,0.7398425,0.0,0,0,36.0,0.0,0.0,4605.641025641026,4109.2307692307695,4469.743589743591,4597.948717948719,4342.051282051282,4660.512820512821,4477.948717948719,4493.846153846154,4446.153846153847,4783.076923076924,4504.102564102564,4456.410256410257,4302.051282051282,4687.179487179488
645.55475,0.5706541,0.8368661,0.36546296,0.63826454,0,0.0,0.0,0.0,0.0,0.0,0,0,0.4698297,0.0,0,0,68.0,0.0,577.0,4613.846153846154,4122.564102564103,4480.000000000001,4602.051282051282,4341.538461538462,4671.794871794872,4485.641025641026,4474.358974358975,4440.512820512821,4781.538461538462,4505.128205128206,4439.48717948718,4309.2307692307695,4714.358974358975
645.805,0.5706541,0.8368661,0.36546296,0.63826454,0,0.0,0.0,0.0,0.0,0.0,0,0,0.5970932,0.0,0,0,100.0,0.0,527.0,4612.820512820514,4095.3846153846157,4479.48717948718,4577.948717948719,4311.794871794872,4663.589743589744,4489.2307692307695,4482.564102564103,4446.153846153847,4782.564102564103,4469.2307692307695,4443.076923076924,4288.205128205129,4706.153846153847
646.05524,0.64455175,0.8158606,0.35573182,0.649955,0,0.0,0.0,0.0,0.0,0.0,0,0,0.7664472,0.0,0,0,3.0,0.0,569.0,4623.589743589744,4099.48717948718,4498.974358974359,4579.48717948718,4302.051282051282,4653.846153846154,4478.461538461539,4478.461538461539,4441.025641025642,4795.8974358974365,4461.025641025642,4462.051282051282,4285.128205128206,4705.641025641026
646.3054,0.64455175,0.8158606,0.35573182,0.649955,0,0.0,0.0,0.0,0.0,0.0,0,0,0.47151917,0.0,0,0,35.0,0.0,0.0,4618.974358974359,4070.2564102564106,4515.384615384616,4551.282051282052,4277.435897435898,4630.769230769231,4476.923076923077,4456.923076923077,4425.128205128206,4757.948717948719,4415.384615384616,4444.615384615385,4241.025641025642,4648.205128205129
646.55566,0.6728551,0.7770856,0.34591296,0.65742683,0,0.0,0.0,0.0,0.0,0.24111125,0,0,0.0,0.0,0,0,67.0,0.0,569.0,4616.410256410257,4081.0256410256416,4536.410256410257,4546.153846153847,4270.256410256411,4619.48717948718,4484.615384615385,4458.461538461539,4425.128205128206,4758.974358974359,4408.717948717949,4429.743589743591,4238.461538461539,4628.205128205129
646.80585,0.6728551,0.7770856,0.34591296,0.65742683,0,0.0,0.0,0.0,0.0,0.0,0,0,0.1363604,0.0,0,0,99.0,0.0,513.0,4618.974358974359,4079.48717948718,4553.333333333334,4543.076923076924,4286.666666666667,4608.717948717949,4497.948717948719,4471.282051282052,4436.923076923077,4774.871794871796,4394.871794871796,4411.794871794872,4235.8974358974365,4632.820512820514
647.0561,0.6163512,0.7311114,0.3370755,0.6640766,0,0.0,0.0,0.0,0.0,0.0,0,0,1.0,0.0,0,0,2.0,0.0,201.0,4633.846153846154,4051.7948717948725,4548.205128205129,4527.179487179488,4262.564102564103,4593.333333333334,4485.641025641026,4434.871794871796,4414.871794871796,4632.307692307693,4369.2307692307695,4376.410256410257,4222.564102564103,4602.564102564103
647.3063,0.6163512,0.7311114,0.3370755,0.6640766,0,0.0,0.0,0.0,0.0,0.0,0,0,0.0,0.0,0,0,34.0,0.0,0.0,4633.333333333334,4033.333333333334,4552.307692307693,4511.794871794872,4258.461538461539,4593.846153846154,4493.333333333334,4432.820512820514,4413.846153846154,4645.641025641026,4360.512820512821,4348.717948717949,4214.871794871796,4594.358974358975
647.58777,0.5279705,0.676038,0.33018112,0.6632486,1,0.0,0.0,0.0,0.0,0.0,0,0,0.0,0.0,0,0,70.0,0.0,549.0,4648.205128205129,4108.717948717949,4558.974358974359,4577.948717948719,4268.205128205129,4595.384615384616,4495.8974358974365,4425.128205128206,4414.358974358975,4677.948717948719,4363.589743589744,4356.410256410257,4221.025641025642,4610.769230769231
647.8067,0.5279705,0.676038,0.33018112,0.6632486,0,0.0,0.0,0.0,0.0,0.21684045,0,0,0.0,0.0,0,0,98.0,0.0,558.0,4671.282051282052,4136.923076923077,4562.564102564103,4600.512820512821,4247.6923076923085,4568.205128205129,4486.153846153847,4418.461538461539,4411.282051282052,4695.384615384616,4380.512820512821,4364.615384615385,4275.8974358974365,4701.025641025642
648.0882,0.39398387,0.66320753,0.32397616,0.65214765,0,0.0,0.0,0.0,0.0,0.32565707,0,0,0.0,0.0,0,1,5.0,0.0,582.0,4682.564102564103,4126.153846153847,4560.000000000001,4584.615384615385,4235.384615384616,4548.205128205129,4474.871794871796,4386.153846153847,4385.641025641026,4668.717948717949,4361.538461538462,4339.48717948718,4253.846153846154,4716.410256410257
648.3071,0.39398387,0.66320753,0.32397616,0.65214765,0,0.0,0.0,0.0,0.0,0.13920666,0,0,0.0,0.0,0,0,33.0,0.0,0.0,4685.641025641026,4105.128205128206,4562.051282051282,4563.076923076924,4265.641025641026,4580.512820512821,4500.000000000001,4434.358974358975,4409.743589743591,4710.769230769231,4394.358974358975,4344.102564102564,4294.358974358975,4724.102564102564
648.5574,0.38178694,0.6838477,0.32190117,0.6421154,0,0.0,0.0,0.0,0.0,0.124277614,0,0,0.0,0.0,0,0,65.0,0.0,528.0,4703.589743589744,4088.717948717949,4570.769230769231,4549.743589743591,4265.128205128206,4557.948717948719,4491.282051282052,4440.512820512821,4413.333333333334,4704.615384615386,4377.948717948719,4323.076923076924,4258.461538461539,4685.641025641026
648.80756,0.38178694,0.6838477,0.32190117,0.6421154,0,0.0,0.0,0.0,0.0,0.20133626,0,0,0.0,0.0,0,0,97.0,0.0,494.0,4669.743589743591,3997.9487179487182,4569.743589743591,4476.410256410257,4242.564102564103,4556.923076923077,4492.307692307693,4438.461538461539,4413.846153846154,4742.051282051282,4412.307692307693,4327.6923076923085,4315.8974358974365,4653.333333333334
649.0578,0.27804554,0.7028443,0.3230491,0.6330864,0,0.0,0.0,0.0,0.0,0.23956867,0,0,0.0,0.0,0,0,0.0,0.0,257.0,4635.8974358974365,3915.3846153846157,4565.128205128206,4404.102564102564,4258.461538461539,4578.461538461539,4505.128205128206,4445.128205128206,4418.974358974359,4732.307692307693,4316.923076923077,4232.307692307693,4119.48717948718,4414.871794871796
649.308,0.27804554,0.7028443,0.3230491,0.6330864,0,0.0,0.0,0.0,0.0,0.23480906,0,0,0.0,0.0,0,0,32.0,0.0,0.0,4618.461538461539,3882.0512820512827,4569.743589743591,4382.564102564103,4254.871794871796,4593.333333333334,4522.564102564103,4480.000000000001,4441.025641025642,4742.051282051282,4310.769230769231,4220.512820512821,4107.179487179487,4381.025641025642
649.5582,0.27969182,0.716863,0.32408267,0.6249597,0,0.0,0.0,0.0,0.0,0.04965271,0,0,0.0,0.0,0,0,64.0,0.0,256.0,4624.102564102564,3864.615384615385,4566.153846153847,4371.282051282052,4228.205128205129,4565.641025641026,4505.128205128206,4444.102564102564,4425.641025641026,4714.871794871796,4293.846153846154,4209.2307692307695,4115.8974358974365,4384.615384615385
649.8084,0.27969182,0.716863,0.32408267,0.6249597,0,0.0,0.0,0.0,0.0,0.087599404,0,0,0.0,0.0,0,0,96.0,0.0,527.0,4616.923076923077,3878.461538461539,4565.128205128206,4388.717948717949,4237.948717948719,4564.102564102564,4506.666666666667,4419.48717948718,4427.179487179487,4723.076923076924,4303.076923076924,4212.820512820514,4134.358974358975,4409.743589743591
650.05865,0.20902236,0.70001614,0.32501373,0.6176449,0,0.0,0.0,0.0,0.0,0.10914177,0,0,0.0,0.0,0,0,128.0,0.0,527.0,4604.102564102564,3853.333333333334,4556.410256410257,4368.205128205129,4201.538461538462,4538.974358974359,4501.538461538462,4427.179487179487,4412.307692307693,4708.205128205129,4287.179487179487,4194.871794871796,4101.538461538462,4397.948717948719
650.30884,0.20902236,0.70001614,0.32501373,0.6176449,0,0.0,0.0,0.0,0.0,0.3722106,0,0,0.0,0.0,0,0,31.0,0.0,0.0,4597.948717948719,3871.7948717948725,4560.000000000001,4382.564102564103,4218.974358974359,4546.666666666667,4501.025641025642,4420.512820512821,4408.205128205129,4713.846153846154,4299.48717948718,4198.974358974359,4154.871794871796,4451.794871794872
650.5591,0.2035775,0.6588215,0.325852,0.61106056,0,0.0,0.0,0.0,0.0,0.1633303,0,0,0.0,0.0,0,0,63.0,0.0,0.0,4575.384615384616,3857.435897435898,4547.6923076923085,4367.6923076923085,4209.2307692307695,4533.333333333334,4499.48717948718,4412.307692307693,4411.282051282052,4706.153846153847,4303.076923076924,4183.076923076924,4169.74358974359,4433.333333333334
650.80927,0.2035775,0.6588215,0.325852,0.61106056,0,0.0,0.0,0.0,0.0,0.0,0,0,0.7127079,0.0,0,0,95.0,0.0,515.0,4537.435897435898,3834.8717948717954,4533.333333333334,4336.923076923077,4230.256410256411,4523.589743589744,4489.743589743591,4386.666666666667,4385.128205128206,4676.410256410257,4267.179487179487,4114.871794871796,4141.025641025642,4409.2307692307695
651.0595,0.29708865,0.61279446,0.3266063,0.6051366,0,0.0,0.0,0.0,0.0,0.0,0,0,0.959453,0.0,0,0,127.0,0.0,515.0,4504.615384615385,3826.1538461538466,4529.743589743591,4306.666666666667,4225.128205128206,4497.948717948719,4462.051282051282,4374.358974358975,4365.128205128206,4655.384615384616,4260.512820512821,4055.3846153846157,4132.820512820514,4408.205128205129
651.18463,0.29708865,0.61279446,0.3266063,0.6051366,0,0.0,0.0,0.0,0.0,0.0,0,0,0.0,0.0,0,0,14.0,0.0,558.0,4475.8974358974365,3817.9487179487182,4528.205128205129,4290.256410256411,4217.435897435898,4483.076923076924,4443.589743589744,4347.179487179487,4351.794871794872,4662.051282051282,4269.2307692307695,3992.820512820513,4129.74358974359,4388.205128205129
651.55994,0.40385053,0.571421,0.32728454,0.5998096,0,0.0,0.0,0.0,0.0,0.0,0,0,0.0,0.0,0,0,62.0,0.0,0.0,4463.076923076924,3791.7948717948725,4526.666666666667,4249.74358974359,4197.948717948719,4447.6923076923085,4390.769230769231,4341.025641025642,4362.051282051282,4635.8974358974365,4308.205128205129,3993.8461538461543,4422.564102564103,4404.615384615385
651.8102,0.40385053,0.571421,0.32728454,0.5998096,0,0.0,0.0,0.0,0.0,0.0,0,0,0.08465868,0.0,0,0,94.0,0.0,550.0,4473.846153846154,3821.538461538462,4435.8974358974365,4273.333333333334,4193.846153846154,4456.410256410257,4374.871794871796,4321.538461538462,4384.615384615385,4670.769230769231,4346.153846153847,4040.5128205128212,4650.256410256411,4430.769230769231
652.06036,0.45161423,0.5341849,0.32499996,0.5985944,0,0.0,0.0,0.0,0.0,0.062000327,0,0,0.0,0.0,0,0,126.0,0.0,550.0,4474.871794871796,3863.589743589744,4424.615384615385,4315.384615384616,4178.461538461539,4466.666666666667,4375.384615384616,4291.794871794872,4384.615384615385,4677.948717948719,4347.179487179487,4086.666666666667,4463.076923076924,4447.179487179487
652.3106,0.45161423,0.5341849,0.32499996,0.5985944,0,0.0,0.0,0.59719557,0.0,0.0,0,0,0.0,0.0,0,0,29.0,0.0,0.0,4475.8974358974365,3923.589743589744,4441.025641025642,4371.282051282052,4222.564102564103,4494.358974358975,4391.282051282052,4314.871794871796,4389.2307692307695,4686.666666666667,4379.48717948718,4066.666666666667,4378.974358974359,4480.000000000001
652.5608,0.54478157,0.5006724,0.32781455,0.6044324,0,0.0,0.0,0.0,0.0,0.0,0,0,0.0,0.29194835,0,0,61.0,0.0,0.0,4473.846153846154,3965.1282051282055,4464.615384615385,4406.153846153847,4264.102564102564,4529.2307692307695,4429.2307692307695,4362.051282051282,4410.769230769231,4712.820512820514,4401.025641025642,4147.6923076923085,4359.48717948718,4498.461538461539
652.81104,0.54478157,0.5006724,0.32781455,0.6044324,0,0.0,0.0,0.0,0.0,0.0,0,0,0.32552955,0.0,0,0,93.0,0.0,495.0,4478.461538461539,3973.333333333334,4478.974358974359,4436.923076923077,4246.153846153847,4533.846153846154,4432.307692307693,4368.205128205129,4418.461538461539,4679.48717948718,4386.666666666667,4194.358974358975,4325.128205128206,4493.846153846154
653.0612,0.4893845,0.47051117,0.3303479,0.61536425,0,0.0,0.0,0.0,0.0,0.0,0,0,0.7366942,0.0,0,0,125.0,0.0,495.0,4491.794871794872,4012.307692307693,4495.8974358974365,4454.871794871796,4245.128205128206,4529.2307692307695,4428.205128205129,4391.282051282052,4407.6923076923085,4683.589743589744,4375.384615384616,4220.512820512821,4295.384615384616,4489.2307692307695
653.31146,0.4893845,0.47051117,0.3303479,0.61536425,0,0.0,0.0,0.0,0.0,0.0,0,0,0.23590995,0.0,0,0,28.0,0.0,0.0,4512.307692307693,4107.6923076923085,4504.102564102564,4524.102564102564,4229.2307692307695,4510.769230769231,4401.538461538462,4366.153846153847,4409.743589743591,4683.076923076924,4427.6923076923085,4249.2307692307695,4346.666666666667,4585.641025641026
653.56165,0.45198944,0.48652932,0.32779247,0.6276394,0,0.0,0.0,0.0,0.0,0.17807053,0,0,0.0,0.0,0,0,60.0,0.0,0.0,4509.2307692307695,4049.23076923077,4509.2307692307695,4493.333333333334,4183.589743589744,4486.666666666667,4399.48717948718,4376.410256410257,4408.717948717949,4618.974358974359,4386.153846153847,4240.512820512821,4304.102564102564,4570.256410256411
653.8119,0.45198944,0.48652932,0.32779247,0.6276394,0,0.0,0.0,0.0,0.0,0.07794506,0,0,0.0,0.0,0,0,92.0,0.0,530.0,4486.153846153847,3978.9743589743593,4503.589743589744,4443.589743589744,4194.871794871796,4526.153846153847,4417.948717948719,4388.717948717949,4411.794871794872,4637.948717948719,4305.641025641026,4228.717948717949,4149.74358974359,4472.307692307693
654.0621,0.40802166,0.5044049,0.32725304,0.63867974,0,0.0,0.0,0.0,0.0,0.06616683,0,0,0.0,0.0,0,0,124.0,0.0,530.0,4505.128205128206,3986.666666666667,4505.128205128206,4453.846153846154,4179.48717948718,4503.076923076924,4427.6923076923085,4392.820512820514,4400.000000000001,4651.794871794872,4310.256410256411,4271.282051282052,4149.2307692307695,4494.358974358975
654.3123,0.40802166,0.5044049,0.32725304,0.63867974,0,0.0,0.0,0.0,0.0,0.51400864,0,0,0.0,0.0,0,0,27.0,0.0,0.0,4547.6923076923085,3998.461538461539,4516.410256410257,4463.589743589744,4209.74358974359,4533.846153846154,4446.666666666667,4377.435897435898,4398.461538461539,4661.025641025642,4326.666666666667,4290.256410256411,4116.410256410257,4465.641025641026
654.5625,0.32999414,0.53205407,0.332786,0.65059316,0,0.0,0.0,0.0,0.0,0.56655407,0,0,0.0,0.0,0,0,59.0,0.0,0.0,4571.282051282052,3985.1282051282055,4508.717948717949,4469.743589743591,4200.000000000001,4531.794871794872,4440.512820512821,4383.589743589744,4389.2307692307695,4685.128205128206,4319.48717948718,4298.974358974359,4112.307692307693,4488.717948717949
654.81274,0.32999414,0.53205407,0.332786,0.65059316,0,0.0,0.0,0.0,0.0,0.06512365,0,0,0.0,0.0,0,0,91.0,0.0,515.0,4570.256410256411,3977.9487179487182,4494.871794871796,4468.717948717949,4228.717948717949,4540.512820512821,4469.2307692307695,4435.384615384616,4410.256410256411,4704.102564102564,4348.717948717949,4317.435897435898,4122.051282051282,4473.846153846154
655.0629,0.28760606,0.5446595,0.3435226,0.6613038,0,0.0,0.0,0.0,0.0,0.038264334,0,0,0.0,0.0,0,0,123.0,0.0,515.0,4587.179487179488,3925.1282051282055,4475.384615384616,4436.410256410257,4220.000000000001,4544.615384615385,4487.6923076923085,4443.589743589744,4414.358974358975,4720.512820512821,4349.743589743591,4304.615384615385,4120.512820512821,4477.435897435898
655.3444,0.28760606,0.5446595,0.3435226,0.6613038,1,0.0,0.0,0.0,0.0,0.50440687,0,0,0.0,0.0,0,0,30.0,0.0,0.0,4594.871794871796,3908.717948717949,4457.948717948719,4424.102564102564,4232.307692307693,4521.025641025642,4481.538461538462,4454.358974358975,4414.871794871796,4714.358974358975,4350.256410256411,4297.948717948719,4088.717948717949,4524.615384615385
655.56335,0.27338868,0.559698,0.3483416,0.6709305,0,0.0,0.0,0.0,0.0,0.29528856,0,0,0.0,0.0,0,0,58.0,0.0,0.0,4594.871794871796,3909.2307692307695,4453.846153846154,4428.717948717949,4188.717948717949,4511.794871794872,4451.794871794872,4404.615384615385,4371.794871794872,4657.948717948719,4327.6923076923085,4281.538461538462,4082.564102564103,4566.666666666667
655.8136,0.27338868,0.559698,0.3483416,0.6709305,0,0.0,0.0,0.0,0.0,0.10683525,0,0,0.0,0.0,0,0,90.0,0.0,552.0,4583.076923076924,4414.358974358975,4455.384615384616,4846.666666666667,4273.846153846154,4540.512820512821,4477.435897435898,4439.48717948718,4389.743589743591,4734.358974358975,4322.051282051282,4282.564102564103,4187.6923076923085,4575.8974358974365
656.0951,0.27338868,0.57327217,0.34688142,0.6717388,0,0.041529313,0.0,0.0,0.0,0.0,0,0,0.0,0.0,1,0,126.0,0.0,552.0,4627.179487179488,4358.461538461539,4446.153846153847,4843.076923076924,4341.538461538462,4561.538461538462,4495.8974358974365,4473.333333333334,4438.461538461539,4808.205128205129,4415.384615384616,4343.589743589744,4356.410256410257,4698.461538461539
656.314,0.27338868,0.57327217,0.34688142,0.6717388,0,0.09044095,0.0,0.0,0.0,0.0,0,0,0.0,0.0,1,0,25.0,0.0,0.0,4589.743589743591,4150.256410256411,4426.153846153847,4669.743589743591,4333.333333333334,4578.974358974359,4517.948717948719,4513.846153846154,4443.076923076924,4777.435897435898,4369.743589743591,4286.153846153847,4237.948717948719,4499.48717948718
656.5955,0.20447421,0.58548886,0.34552664,0.66558594,0,0.09376601,0.0,0.0,0.0,0.0,0,0,0.0,0.0,0,1,61.0,0.0,0.0,4595.8974358974365,4046.666666666667,4422.564102564103,4602.564102564103,4323.589743589744,4601.538461538462,4518.974358974359,4492.820512820514,4427.6923076923085,4773.333333333334,4386.153846153847,4281.538461538462,4139.48717948718,4489.743589743591
656.81445,0.20447421,0.58548886,0.34552664,0.66558594,0,0.0,0.0,0.14423648,0.0,0.0,0,0,0.0,0.0,0,0,89.0,0.0,504.0,4595.384615384616,3950.2564102564106,4413.846153846154,4526.666666666667,4315.8974358974365,4606.153846153847,4527.6923076923085,4506.666666666667,4433.333333333334,4782.564102564103,4414.358974358975,4287.179487179487,4157.948717948719,4489.2307692307695
657.09595,0.16586891,0.59648395,0.3443073,0.65673125,0,0.0,0.0,0.0,0.0,0.0,0,0,0.40718326,0.0,0,0,125.0,0.0,504.0,4628.717948717949,3862.564102564103,4427.179487179487,4451.282051282052,4285.641025641026,4585.128205128206,4506.153846153847,4476.410256410257,4404.615384615385,4754.358974358975,4390.256410256411,4274.358974358975,4158.461538461539,4538.461538461539
657.3149,0.16586891,0.59648395,0.3443073,0.65673125,0,0.0,0.0,0.0,0.0,0.0,0,0,0.2157396,0.0,0,0,24.0,0.0,0.0,4695.8974358974365,3896.410256410257,4444.615384615385,4480.512820512821,4269.2307692307695,4553.846153846154,4475.384615384616,4421.538461538462,4384.615384615385,4720.000000000001,4402.564102564103,4290.256410256411,4182.564102564103,4623.076923076924
657.5964,0.084705174,0.6063795,0.3432099,0.646282,1,0.0,0.0,0.0,0.0,0.15262635,0,0,0.0,0.0,0,0,60.0,0.0,0.0,4717.948717948719,3899.48717948718,4462.051282051282,4466.666666666667,4271.794871794872,4560.000000000001,4472.820512820514,4381.025641025642,4378.974358974359,4718.461538461539,4376.923076923077,4282.051282051282,4173.333333333334,4611.282051282052
657.8153,0.084705174,0.6063795,0.3432099,0.646282,0,0.0,0.0,0.0,0.0,0.18572749,0,0,0.0,0.0,0,0,88.0,0.0,533.0,4687.6923076923085,3751.794871794872,4474.871794871796,4332.307692307693,4241.025641025642,4567.6923076923085,4495.384615384616,4443.589743589744,4397.948717948719,4732.307692307693,4339.48717948718,4231.794871794872,4102.051282051282,4437.948717948719
658.0968,0.009338118,0.7514567,0.34222224,0.6368777,0,0.0,0.0,0.0,0.0,0.1530357,0,0,0.0,0.0,0,0,124.0,0.0,533.0,4663.589743589744,3693.333333333334,4487.6923076923085,4263.589743589744,4266.153846153847,4555.8974358974365,4512.307692307693,4447.179487179487,4384.102564102564,4701.025641025642,4327.6923076923085,4191.282051282052,4050.7692307692314,4367.179487179487
658.31573,0.009338118,0.7514567,0.34222224,0.6368777,0,0.0,0.0,0.0,0.0,0.082542114,0,0,0.0,0.0,0,0,23.0,0.0,0.0,4651.282051282052,3679.48717948718,4493.333333333334,4234.871794871796,4252.307692307693,4538.974358974359,4480.512820512821,4413.846153846154,4364.615384615385,4693.333333333334,4311.282051282052,4156.923076923077,4061.0256410256416,4380.512820512821
658.566,0.056919947,0.80734247,0.34133008,0.6283817,0,0.0,0.0,0.0,0.0,0.06496801,0,0,0.0,0.0,0,0,55.0,0.0,0.0,4655.384615384616,3694.8717948717954,4501.025641025642,4231.794871794872,4244.615384615385,4514.358974358975,4447.179487179487,4366.153846153847,4339.48717948718,4660.512820512821,4293.333333333334,4119.48717948718,4050.7692307692314,4373.333333333334
658.81616,0.056919947,0.80734247,0.34133008,0.6283817,0,0.0,0.0,0.0,0.0,0.0,0,0,0.09895683,0.0,0,0,87.0,0.0,518.0,4650.769230769231,3717.435897435898,4504.102564102564,4239.48717948718,4210.256410256411,4510.256410256411,4446.153846153847,4341.025641025642,4328.205128205129,4668.717948717949,4310.769230769231,4118.461538461539,4087.1794871794878,4394.871794871796
659.0664,0.07300234,0.84184074,0.34052682,0.62073463,0,0.0,0.0,0.0,0.0,0.0,0,0,0.28083128,0.0,0,0,119.0,0.0,518.0,4679.48717948718,3777.435897435898,4514.871794871796,4280.512820512821,4242.051282051282,4530.769230769231,4437.948717948719,4349.743589743591,4366.153846153847,4716.410256410257,4342.564102564103,4135.384615384616,4121.538461538462,4449.2307692307695
659.3166,0.07300234,0.84184074,0.34052682,0.62073463,0,0.0,0.0,0.0,0.0,0.0,0,0,0.09354238,0.0,0,0,22.0,0.0,0.0,4617.948717948719,3813.8461538461543,4510.769230769231,4256.923076923077,4166.153846153847,4476.410256410257,4361.025641025642,4298.974358974359,4315.8974358974365,4661.025641025642,4272.820512820514,4086.1538461538466,4086.666666666667,4354.358974358975
659.56683,0.118029356,0.81917644,0.3398036,0.6138513,0,0.0,0.2645771,0.0,0.0,0.0,0,0,0.0,0.0,0,0,54.0,0.0,0.0,4632.307692307693,3937.435897435898,4518.461538461539,4305.641025641026,4126.666666666667,4429.743589743591,4336.410256410257,4300.000000000001,4342.564102564103,4682.564102564103,4317.435897435898,4142.564102564103,4197.948717948719,4373.846153846154
659.817,0.118029356,0.81917644,0.3398036,0.6138513,0,0.0,0.0,0.6818479,0.0,0.0,0,0,0.0,0.0,0,0,86.0,0.0,556.0,4624.615384615385,3901.538461538462,4528.717948717949,4307.6923076923085,4143.589743589744,4486.153846153847,4361.025641025642,4314.871794871796,4345.641025641026,4642.051282051282,4310.256410256411,4175.8974358974365,4152.820512820514,4385.128205128206
660.06726,0.11690191,0.7929288,0.33915243,0.6076578,0,0.0,0.6604341,0.0,0.0,0.0,0,0,0.0,0.0,0,0,118.0,0.0,556.0,4643.076923076924,3936.9230769230776,4543.589743589744,4397.435897435898,4240.000000000001,4524.615384615385,4422.051282051282,4400.000000000001,4398.974358974359,4701.025641025642,4368.205128205129,4255.8974358974365,4181.025641025642,4470.256410256411
660.31744,0.11690191,0.7929288,0.33915243,0.6076578,0,0.0,0.5428831,0.0,0.0,0.0,0,0,0.0,0.0,0,0,21.0,0.0,0.0,4650.256410256411,3905.1282051282055,4530.769230769231,4378.974358974359,4178.461538461539,4520.000000000001,4408.717948717949,4372.307692307693,4377.948717948719,4643.076923076924,4319.48717948718,4243.076923076924,4160.512820512821,4442.051282051282
660.5677,0.17886508,0.7796578,0.33856648,0.6020873,0,0.0,0.23591797,0.0,0.0,0.0,0,0,0.0,0.0,0,0,53.0,0.0,0.0,4660.000000000001,3906.1538461538466,4530.256410256411,4370.256410256411,4189.74358974359,4528.205128205129,4417.948717948719,4412.820512820514,4386.153846153847,4649.743589743591,4324.102564102564,4246.666666666667,4148.717948717949,4485.128205128206
660.8179,0.17886508,0.7796578,0.33856648,0.6020873,0,0.0,0.0,0.0,0.0,0.0,0,0,0.300746,0.0,0,0,85.0,0.0,500.0,4664.102564102564,3977.435897435898,4547.6923076923085,4416.410256410257,4221.538461538462,4553.333333333334,4460.512820512821,4438.974358974359,4397.435897435898,4676.410256410257,4349.2307692307695,4286.666666666667,4164.615384615385,4514.358974358975
661.0681,0.25053728,0.7655788,0.33803952,0.6012997,0,0.0,0.0,0.0,0.0,0.30319357,0,0,0.0,0.0,0,0,117.0,0.0,500.0,4651.282051282052,3982.0512820512827,4560.000000000001,4423.589743589744,4195.384615384616,4558.461538461539,4463.076923076924,4425.641025641026,4383.589743589744,4699.48717948718,4347.179487179487,4282.051282051282,4167.6923076923085,4556.410256410257
661.3183,0.25053728,0.7655788,0.33803952,0.6012997,0,0.0,0.30621162,0.0,0.0,0.0,0,0,0.0,0.0,0,0,20.0,0.0,0.0,4694.871794871796,4044.1025641025644,4563.589743589744,4502.051282051282,4210.769230769231,4550.769230769231,4446.666666666667,4411.282051282052,4384.615384615385,4702.564102564103,4385.641025641026,4329.743589743591,4240.000000000001,4688.717948717949
661.5998,0.17132784,0.7758275,0.3375651,0.60745996,0,0.0,0.21416637,0.0,0.0,0.0,0,0,0.0,0.0,0,0,56.0,0.0,0.0,4653.846153846154,3963.589743589744,4546.666666666667,4429.743589743591,4202.564102564103,4535.384615384616,4458.461538461539,4426.666666666667,4391.794871794872,4701.538461538462,4313.846153846154,4274.358974358975,4134.358974358975,4493.846153846154
661.8187,0.17132784,0.7758275,0.3375651,0.60745996,0,0.0,0.0,0.0,0.0,0.3442894,0,0,0.0,0.0,0,0,84.0,0.0,530.0,4658.974358974359,3938.9743589743593,4556.923076923077,4414.358974358975,4200.000000000001,4542.051282051282,4458.974358974359,4423.076923076924,4383.589743589744,4721.025641025642,4340.512820512821,4261.538461538462,4167.179487179487,4494.358974358975
662.069,0.12266084,0.7846195,0.3381395,0.62370026,0,0.0,0.0,0.0,0.0,0.09948438,0,0,0.0,0.0,0,0,116.0,0.0,530.0,4653.333333333334,3894.358974358975,4544.615384615385,4390.769230769231,4150.256410256411,4540.000000000001,4460.512820512821,4430.256410256411,4393.333333333334,4717.948717948719,4333.846153846154,4267.6923076923085,4159.48717948718,4481.538461538462
662.3192,0.12266084,0.7846195,0.3381395,0.62370026,0,0.0,0.0,0.0,0.0,0.14975838,0,0,0.0,0.0,0,0,19.0,0.0,0.0,4642.051282051282,3860.512820512821,4547.179487179488,4368.205128205129,4200.512820512821,4550.769230769231,4474.358974358975,4447.6923076923085,4403.589743589744,4746.666666666667,4331.282051282052,4280.000000000001,4178.974358974359,4495.384615384616
662.5694,0.13147861,0.79461765,0.33968207,0.64754647,0,0.0,0.0,0.0,0.0,0.0,0,0,1.0,0.0,0,0,51.0,0.0,0.0,4651.794871794872,3935.8974358974365,4545.128205128206,4418.461538461539,4220.000000000001,4523.589743589744,4466.153846153847,4440.512820512821,4397.948717948719,4731.794871794872,4361.025641025642,4295.384615384616,4202.564102564103,4514.871794871796
662.5694,0.13147861,0.79461765,0.33968207,0.64754647,0,0.0,0.0,0.0,0.0,0.0,0,0,1.0,0.0,0,0,51.0,0.0,0.0,4651.794871794872,3935.8974358974365,4545.128205128206,4418.461538461539,4220.000000000001,4523.589743589744,4466.153846153847,4440.512820512821,4397.948717948719,4731.794871794872,4361.025641025642,4295.384615384616,4202.564102564103,4514.871794871796
663.0698,0.0552582,0.82172346,0.34107015,0.66898996,1,0.0,0.0,0.0,0.0,0.0,0,0,0.24375038,0.0,0,0,115.0,0.0,512.0,4678.974358974359,4022.564102564103,4553.333333333334,4478.461538461539,4195.8974358974365,4519.48717948718,4435.8974358974365,4370.256410256411,4362.051282051282,4683.076923076924,4331.794871794872,4306.666666666667,4238.461538461539,4608.717948717949
663.32007,0.0552582,0.82172346,0.34107015,0.66898996,0,0.0,0.0,0.0,0.0,0.0,0,0,0.34585884,0.0,0,0,18.0,0.0,0.0,4625.128205128206,3863.076923076924,4545.128205128206,4371.282051282052,4157.435897435898,4538.461538461539,4466.666666666667,4395.8974358974365,4377.435897435898,4700.000000000001,4292.820512820514,4240.000000000001,4160.512820512821,4469.2307692307695
663.60156,0.0,0.8268905,0.34129754,0.6883479,0,0.0,0.21182577,0.0,0.0,0.0,0,0,0.0,0.0,0,0,54.0,0.0,0.0,4629.2307692307695,3893.8461538461543,4556.923076923077,4377.435897435898,4153.846153846154,4581.025641025642,4501.025641025642,4423.076923076924,4401.538461538462,4750.769230769231,4320.512820512821,4249.74358974359,4156.410256410257,4467.179487179487
663.8205,0.0,0.8268905,0.34129754,0.6883479,0,0.0,1.0,0.0,0.0,0.0,0,0,0.0,0.0,0,0,82.0,0.0,557.0,4622.051282051282,3922.0512820512827,4562.564102564103,4386.666666666667,4225.128205128206,4572.307692307693,4495.8974358974365,4422.051282051282,4406.153846153847,4737.435897435898,4348.717948717949,4268.717948717949,4162.051282051282,4460.000000000001
664.102,0.074848056,0.83723044,0.3405011,0.70415145,0,0.0,0.0,0.0,0.0,0.36355555,0,0,0.0,0.0,0,0,118.0,0.0,557.0,4628.717948717949,3848.717948717949,4560.000000000001,4341.025641025642,4164.615384615385,4548.717948717949,4483.076923076924,4398.461538461539,4386.153846153847,4736.410256410257,4306.666666666667,4245.128205128206,4156.410256410257,4467.179487179487
664.3522,0.074848056,0.83723044,0.3405011,0.70415145,1,0.0,0.0,0.0,0.0,0.0,0,0,0.89672863,0.0,0,0,21.0,0.0,0.0,4680.000000000001,3892.307692307693,4560.512820512821,4370.769230769231,4271.794871794872,4558.461538461539,4483.076923076924,4417.948717948719,4384.615384615385,4710.256410256411,4336.410256410257,4253.333333333334,4177.948717948719,4524.102564102564
664.6024,0.103218675,0.9036259,0.33978432,0.7034506,0,0.0,0.0,0.0,0.0,0.0,0,0,0.6644695,0.0,0,0,53.0,0.0,0.0,4722.051282051282,3844.1025641025644,4547.179487179488,4353.846153846154,4260.000000000001,4551.282051282052,4481.025641025642,4431.794871794872,4394.358974358975,4723.076923076924,4338.461538461539,4234.871794871796,4168.205128205129,4496.923076923077
664.82135,0.103218675,0.9036259,0.33978432,0.7034506,0,0.0,0.0,0.0,0.0,0.4451888,0,0,0.0,0.0,0,0,81.0,0.0,498.0,4729.743589743591,3823.589743589744,4528.717948717949,4329.743589743591,4248.205128205129,4548.717948717949,4475.8974358974365,4432.307692307693,4379.48717948718,4729.2307692307695,4317.948717948719,4215.384615384616,4150.769230769231,4499.48717948718
665.07153,0.15219653,0.9332175,0.33913687,0.6882467,0,0.0,0.0,0.0,0.0,0.09140639,0,0,0.0,0.0,0,0,113.0,0.0,498.0,4734.871794871796,3866.1538461538466,4502.564102564103,4368.717948717949,4300.000000000001,4538.461538461539,4470.769230769231,4422.564102564103,4376.410256410257,4721.025641025642,4338.974358974359,4223.589743589744,4161.025641025642,4520.000000000001
665.19666,0.15219653,0.9332175,0.33913687,0.6882467,0,0.0,0.0,0.0,0.0,0.0,0,0,1.0,0.0,0,0,0.0,0.0,250.0,4731.282051282052,3833.333333333334,4497.435897435898,4339.48717948718,4205.128205128206,4526.153846153847,4450.769230769231,4406.153846153847,4369.743589743591,4710.256410256411,4332.307692307693,4200.000000000001,4141.025641025642,4504.615384615385
665.6033,0.20360643,0.9485286,0.33855605,0.6746369,0,0.0,0.0,0.88112617,0.0,0.0,0,0,0.0,0.0,0,0,52.0,0.0,0.0,4716.923076923077,3892.820512820513,4501.538461538462,4386.153846153847,4256.923076923077,4533.846153846154,4460.000000000001,4412.307692307693,4384.615384615385,4730.256410256411,4342.564102564103,4213.333333333334,4166.666666666667,4532.820512820514
665.8222,0.20360643,0.9485286,0.33855605,0.6746369,0,0.0,0.0,0.34054768,0.0,0.0,0,0,0.0,0.0,0,0,80.0,0.0,528.0,4706.153846153847,3944.1025641025644,4513.846153846154,4412.307692307693,4285.128205128206,4558.461538461539,4468.717948717949,4410.256410256411,4385.128205128206,4726.153846153847,4343.589743589744,4220.000000000001,4174.358974358975,4556.410256410257
666.1037,0.1712419,0.9352834,0.33803332,0.6623881,0,0.0,0.0,0.92708635,0.0,0.0,0,0,0.0,0.0,0,0,116.0,0.0,528.0,4704.102564102564,3891.2820512820517,4525.128205128206,4375.384615384616,4235.384615384616,4548.205128205129,4475.8974358974365,4426.153846153847,4402.564102564103,4745.641025641026,4383.589743589744,4217.435897435898,4215.8974358974365,4567.179487179488
666.32263,0.1712419,0.9352834,0.33803332,0.6623881,0,0.0,0.0,0.46785447,0.0,0.0,0,0,0.0,0.0,0,0,15.0,0.0,513.0,4700.000000000001,3953.333333333334,4533.333333333334,4417.948717948719,4232.307692307693,4562.564102564103,4480.000000000001,4407.179487179487,4401.025641025642,4738.461538461539,4351.794871794872,4224.102564102564,4223.589743589744,4575.384615384616
666.6041,0.17966384,0.8778906,0.33756307,0.6513686,0,0.0,0.0,0.26009104,0.0,0.0,0,0,0.0,0.0,0,0,51.0,0.0,0.0,4685.128205128206,3982.564102564103,4526.153846153847,4435.8974358974365,4246.153846153847,4551.282051282052,4457.435897435898,4389.2307692307695,4401.538461538462,4711.282051282052,4379.48717948718,4228.717948717949,4214.871794871796,4571.282051282052
666.82306,0.17966384,0.8778906,0.33756307,0.6513686,0,0.0,0.0,0.85896,0.0,0.0,0,0,0.0,0.0,0,0,79.0,0.0,513.0,4669.743589743591,3933.8461538461543,4530.769230769231,4406.666666666667,4168.717948717949,4531.794871794872,4456.410256410257,4401.025641025642,4396.923076923077,4718.461538461539,4370.769230769231,4231.282051282052,4205.128205128206,4552.307692307693
667.10455,0.1450256,0.82482934,0.3371401,0.64145565,0,0.0,0.0,0.4270634,0.0,0.0,0,0,0.0,0.0,0,0,115.0,0.0,513.0,4673.846153846154,3938.461538461539,4540.512820512821,4405.128205128206,4205.128205128206,4537.948717948719,4454.358974358975,4388.205128205129,4384.615384615385,4720.512820512821,4347.6923076923085,4226.666666666667,4195.8974358974365,4537.435897435898
667.3235,0.1450256,0.82482934,0.3371401,0.64145565,0,0.0,0.0,0.7039969,0.0,0.0,0,0,0.0,0.0,0,0,14.0,0.0,564.0,4671.794871794872,3934.358974358975,4530.769230769231,4422.051282051282,4208.717948717949,4530.769230769231,4453.333333333334,4390.256410256411,4375.8974358974365,4685.641025641026,4301.538461538462,4197.435897435898,4115.8974358974365,4490.769230769231
667.605,0.14617556,0.7850097,0.33675942,0.63253397,0,0.0,0.0,0.48191258,0.0,0.0,0,0,0.0,0.0,0,0,50.0,0.0,0.0,4670.256410256411,3866.666666666667,4526.153846153847,4363.589743589744,4171.282051282052,4540.512820512821,4458.974358974359,4400.000000000001,4382.051282051282,4697.435897435898,4288.717948717949,4190.769230769231,4137.948717948719,4497.948717948719
667.8239,0.14617556,0.7850097,0.33675942,0.63253397,0,0.0,0.0,0.29931268,0.0,0.0,0,0,0.0,0.0,0,0,78.0,0.0,563.0,4683.076923076924,3911.2820512820517,4527.6923076923085,4397.948717948719,4212.307692307693,4548.717948717949,4460.000000000001,4379.48717948718,4377.435897435898,4719.48717948718,4326.153846153847,4200.512820512821,4153.333333333334,4521.025641025642
668.1054,0.13260417,0.76165456,0.3364168,0.62450445,0,0.0,0.0,0.29538196,0.0,0.0,0,0,0.0,0.0,0,0,114.0,0.0,563.0,4671.794871794872,3886.1538461538466,4521.025641025642,4380.000000000001,4150.256410256411,4515.384615384616,4440.512820512821,4376.923076923077,4366.666666666667,4672.820512820514,4310.256410256411,4183.589743589744,4137.948717948719,4488.717948717949
668.1992,0.13260417,0.76165456,0.3364168,0.62450445,0,0.0,0.0,0.0,0.0,0.0,0,0,1.0,0.0,0,0,126.0,0.0,563.0,4677.435897435898,3903.076923076924,4517.435897435898,4380.512820512821,4179.48717948718,4531.794871794872,4443.589743589744,4374.871794871796,4367.179487179487,4695.384615384616,4303.589743589744,4184.102564102564,4145.128205128206,4476.923076923077
668.60583,0.1684521,0.75861275,0.33610848,0.61727786,0,0.0,0.0,0.808013,0.0,0.0,0,0,0.0,0.0,0,0,49.0,0.0,0.0,4695.384615384616,3984.615384615385,4541.538461538462,4404.615384615385,4203.589743589744,4533.333333333334,4442.051282051282,4387.179487179487,4378.974358974359,4698.974358974359,4326.666666666667,4201.538461538462,4145.128205128206,4467.179487179487
668.82477,0.1684521,0.75861275,0.33610848,0.61727786,0,0.0,0.0,0.0,0.0,0.0,0,0,0.6158355,0.0,0,1,77.0,0.0,498.0,4682.051282051282,3972.307692307693,4555.8974358974365,4421.025641025642,4236.923076923077,4550.769230769231,4470.256410256411,4412.820512820514,4380.512820512821,4711.794871794872,4347.6923076923085,4226.666666666667,4169.74358974359,4513.333333333334
