timestamp,excitement,frustration,meditation,engagementBoredom,blink,clench,laugh,smile,eyebrow,furrowBrow,lookLeft,lookRight,smirkLeft,smirkRight,winkLeft,winkRight,eeg0,eeg1,eeg2,eeg3,eeg4,eeg5,eeg6,eeg7,eeg8,eeg9,eeg10,eeg11,eeg12,eeg13,eeg14,eeg15,eeg16
413.48035,0.7960527,0.7446551,0.38518256,0.5828729,0,0.0,0.0,0.0,0.0,0.0,0,0,0.31497753,0.0,0,0,58.0,0.0,0.0,4726.153846153847,3830.2564102564106,4491.282051282052,4361.025641025642,4258.461538461539,4544.102564102564,4464.102564102564,4360.000000000001,4329.2307692307695,4702.564102564103,4354.871794871796,4133.846153846154,4113.846153846154,4428.717948717949
413.73056,0.7960527,0.7446551,0.38518256,0.5828729,0,0.0,0.0,0.0,0.0,0.0,0,0,0.2994178,0.0,0,0,90.0,0.0,566.0,4716.410256410257,3872.820512820513,4500.512820512821,4383.589743589744,4248.205128205129,4554.358974358975,4463.076923076924,4370.769230769231,4341.025641025642,4740.512820512821,4392.307692307693,4164.615384615385,4172.820512820514,4476.410256410257
413.98077,0.71138686,0.75456697,0.41059184,0.58750224,0,0.0,0.0,0.0,0.0,0.090228,0,0,0.0,0.0,0,0,122.0,0.0,566.0,4706.153846153847,3993.8461538461543,4512.820512820514,4464.615384615385,4299.48717948718,4577.948717948719,4451.794871794872,4373.846153846154,4348.205128205129,4741.025641025642,4387.179487179487,4218.461538461539,4166.153846153847,4502.564102564103
414.231,0.71138686,0.75456697,0.41059184,0.58750224,0,0.0,0.0,0.0,0.0,0.19498703,0,0,0.0,0.0,0,1,25.0,0.0,0.0,4736.923076923077,4142.564102564103,4535.8974358974365,4597.435897435898,4267.6923076923085,4565.128205128206,4428.717948717949,4395.8974358974365,4372.820512820514,4776.923076923077,4475.384615384616,4333.333333333334,4311.794871794872,4753.333333333334
414.575,0.6718331,0.71732265,0.43345135,0.59957415,0,0.0,0.0,0.0,0.0,0.23167506,0,0,0.0,0.0,0,0,69.0,0.0,599.0,4674.358974358975,4035.8974358974365,4546.153846153847,4494.871794871796,4253.333333333334,4580.512820512821,4432.307692307693,4413.846153846154,4383.589743589744,4800.512820512821,4432.307692307693,4314.871794871796,4235.384615384616,4601.025641025642
414.7314,0.6718331,0.71732265,0.43345135,0.59957415,0,0.0,0.0,0.0,0.0,0.15658121,0,0,0.0,0.0,0,0,89.0,0.0,497.0,4673.333333333334,4027.1794871794878,4547.6923076923085,4502.051282051282,4264.102564102564,4604.615384615385,4450.769230769231,4440.512820512821,4394.358974358975,4797.435897435898,4427.179487179487,4327.6923076923085,4236.923076923077,4589.743589743591
414.98163,0.67096025,0.6941739,0.45401275,0.6192021,0,0.0,0.0,0.0,0.0,0.26424578,0,0,0.0,0.0,0,0,121.0,0.0,497.0,4680.512820512821,4031.2820512820517,4555.8974358974365,4504.102564102564,4237.435897435898,4576.410256410257,4428.205128205129,4403.076923076924,4377.948717948719,4783.589743589744,4407.6923076923085,4337.435897435898,4234.871794871796,4577.948717948719
415.23184,0.67096025,0.6941739,0.45401275,0.6192021,0,0.0,0.0,0.0,0.0,0.3793771,0,0,0.0,0.0,0,0,24.0,0.0,0.0,4664.102564102564,4002.0512820512827,4553.846153846154,4476.923076923077,4240.512820512821,4575.8974358974365,4413.333333333334,4392.820512820514,4368.717948717949,4762.564102564103,4356.410256410257,4315.8974358974365,4187.179487179487,4502.564102564103
415.48206,0.7048116,0.6946524,0.45581612,0.63685536,0,0.0,0.0,0.0,0.0,0.051942833,0,0,0.0,0.0,0,0,56.0,0.0,0.0,4662.564102564103,4051.2820512820517,4548.205128205129,4505.641025641026,4226.666666666667,4567.6923076923085,4375.384615384616,4381.025641025642,4362.051282051282,4760.000000000001,4370.256410256411,4322.051282051282,4228.205128205129,4554.871794871796
415.73227,0.7048116,0.6946524,0.45581612,0.63685536,0,0.0,0.0,0.05967936,0.0,0.0,0,0,0.0,0.0,0,0,88.0,0.0,540.0,4658.461538461539,4068.717948717949,4552.307692307693,4509.743589743591,4220.512820512821,4545.128205128206,4390.256410256411,4399.48717948718,4365.641025641026,4743.589743589744,4352.307692307693,4331.794871794872,4223.076923076924,4553.846153846154
415.98248,0.6495081,0.7002595,0.45559734,0.6527272,0,0.0,0.0,0.1937855,0.0,0.0,0,0,0.0,0.0,0,0,120.0,0.0,540.0,4656.410256410257,4082.0512820512827,4558.974358974359,4518.461538461539,4213.846153846154,4525.641025641026,4388.717948717949,4377.948717948719,4357.435897435898,4712.307692307693,4327.179487179487,4330.769230769231,4215.8974358974365,4556.923076923077
416.2327,0.6495081,0.7002595,0.45559734,0.6527272,0,0.0,0.0,0.0,0.0,0.0,0,0,0.04850616,0.0,0,0,23.0,0.0,0.0,4631.794871794872,4017.9487179487182,4548.205128205129,4483.076923076924,4205.128205128206,4523.589743589744,4408.205128205129,4397.435897435898,4348.205128205129,4690.769230769231,4282.564102564103,4274.871794871796,4169.2307692307695,4516.923076923077
416.4829,0.6060197,0.6771396,0.45268726,0.6662739,0,0.0,0.0,0.0,0.0,0.0,0,0,0.060236745,0.0,0,0,55.0,0.0,0.0,4600.512820512821,3910.2564102564106,4545.128205128206,4381.025641025642,4193.846153846154,4515.384615384616,4404.615384615385,4411.794871794872,4349.2307692307695,4696.410256410257,4232.820512820514,4216.923076923077,4072.820512820513,4396.410256410257
416.73312,0.6060197,0.6771396,0.45268726,0.6662739,0,0.0,0.0,0.0,0.0,0.0,0,0,0.15149133,0.0,0,1,87.0,0.0,525.0,4583.589743589744,3868.717948717949,4540.512820512821,4336.410256410257,4180.000000000001,4516.923076923077,4425.128205128206,4397.948717948719,4337.948717948719,4596.410256410257,4186.666666666667,4200.512820512821,4014.358974358975,4337.435897435898
417.01462,0.5879981,0.65654993,0.44876102,0.66564196,0,0.0,0.0,0.0,0.0,0.0,0,0,0.0,0.2553981,0,1,123.0,0.0,525.0,4618.461538461539,3898.461538461539,4540.512820512821,4380.512820512821,4162.564102564103,4494.358974358975,4416.410256410257,4369.2307692307695,4344.102564102564,4615.8974358974365,4291.794871794872,4238.974358974359,4285.641025641026,4572.820512820514
417.23355,0.5879981,0.65654993,0.44876102,0.66564196,0,0.0,0.0,0.0,0.0,0.0,0,0,0.0,0.33194464,0,1,22.0,0.0,0.0,4568.205128205129,3839.48717948718,4528.205128205129,4323.589743589744,4191.794871794872,4500.512820512821,4398.461538461539,4353.333333333334,4322.051282051282,4614.358974358975,4148.205128205129,4126.666666666667,4020.5128205128212,4318.461538461539
417.48376,0.54756916,0.6380192,0.44652092,0.6615439,0,0.0,0.0,0.0,0.0,0.0,0,0,0.0,0.5272234,0,0,54.0,0.0,0.0,4568.717948717949,3870.2564102564106,4535.384615384616,4359.48717948718,4226.666666666667,4527.179487179488,4446.153846153847,4367.6923076923085,4318.461538461539,4650.769230769231,4171.282051282052,4121.538461538462,4028.205128205129,4343.076923076924
417.73398,0.54756916,0.6380192,0.44652092,0.6615439,0,0.0,0.0,0.0,0.0,0.0,0,0,0.0,0.22543564,0,0,86.0,0.0,568.0,4555.8974358974365,3890.7692307692314,4529.743589743591,4374.358974358975,4223.076923076924,4495.8974358974365,4445.128205128206,4369.743589743591,4327.179487179487,4645.128205128206,4191.282051282052,4058.461538461539,3995.3846153846157,4388.205128205129
417.98422,0.52639973,0.6213415,0.44832167,0.65248716,0,0.0,0.0,0.0,0.0,0.0,0,0,0.5077944,0.0,0,0,118.0,0.0,568.0,4552.307692307693,3835.3846153846157,4516.410256410257,4326.153846153847,4231.794871794872,4505.641025641026,4478.974358974359,4425.128205128206,4349.2307692307695,4707.179487179488,4250.256410256411,4084.615384615385,4108.205128205129,4401.025641025642
418.23444,0.52639973,0.6213415,0.44832167,0.65248716,0,0.0,0.0,0.0,0.0,0.0,0,0,0.5199413,0.0,0,0,21.0,0.0,0.0,4537.435897435898,3798.461538461539,4513.846153846154,4282.564102564103,4209.2307692307695,4491.794871794872,4465.128205128206,4422.051282051282,4356.410256410257,4697.435897435898,4276.923076923077,4108.205128205129,4128.205128205129,4384.615384615385
418.48465,0.5283919,0.60633165,0.46411598,0.6443358,0,0.0,0.0,0.0,0.0,0.0,0,0,0.3114507,0.0,0,0,53.0,0.0,0.0,4553.333333333334,4035.8974358974365,4527.179487179488,4468.717948717949,4243.076923076924,4469.2307692307695,4412.820512820514,4343.076923076924,4318.974358974359,4592.307692307693,4192.307692307693,4075.8974358974365,4016.9230769230776,4398.974358974359
418.7974,0.5283919,0.60633165,0.46411598,0.6443358,0,0.0,0.0,0.16717471,0.0,0.0,0,0,0.0,0.0,0,1,93.0,0.0,497.0,4538.974358974359,3956.9230769230776,4520.512820512821,4378.461538461539,4086.1538461538466,4333.333333333334,4305.128205128206,4260.512820512821,4298.974358974359,4540.512820512821,4269.74358974359,4106.153846153847,4148.717948717949,4529.743589743591
418.98508,0.4747891,0.59282273,0.48061764,0.64236695,0,0.0,0.0,0.16984434,0.0,0.0,0,0,0.0,0.0,0,1,117.0,0.0,497.0,4507.6923076923085,3887.692307692308,4514.358974358975,4315.8974358974365,4130.769230769231,4390.769230769231,4312.307692307693,4285.128205128206,4333.846153846154,4583.589743589744,4282.564102564103,4105.128205128206,4106.153846153847,4354.358974358975
419.26657,0.4747891,0.59282273,0.48061764,0.64236695,1,0.0,0.0,0.13135055,0.0,0.0,0,0,0.0,0.0,0,0,24.0,0.0,0.0,4555.384615384616,3995.8974358974365,4524.615384615385,4453.846153846154,4163.589743589744,4413.333333333334,4358.974358974359,4314.871794871796,4366.153846153847,4578.461538461539,4344.102564102564,4188.717948717949,4200.512820512821,4427.6923076923085
419.4855,0.48444483,0.58066475,0.49867508,0.6430189,0,0.0,0.0,0.0,0.0,0.21296538,0,0,0.0,0.0,0,0,52.0,0.0,0.0,4498.461538461539,3846.666666666667,4519.48717948718,4339.48717948718,4169.2307692307695,4452.820512820514,4380.512820512821,4326.666666666667,4369.743589743591,4612.307692307693,4311.794871794872,4145.128205128206,4110.769230769231,4227.6923076923085
419.82953,0.48444483,0.58066475,0.49867508,0.6430189,0,0.0,0.0,0.095146924,0.0,0.0,0,0,0.0,0.0,0,1,96.0,0.0,540.0,4517.948717948719,3802.0512820512827,4521.025641025642,4316.923076923077,4135.384615384616,4447.6923076923085,4390.769230769231,4336.410256410257,4390.769230769231,4603.589743589744,4364.102564102564,4191.282051282052,4184.102564102564,4299.48717948718
419.98593,0.42453438,0.56972253,0.52140033,0.6503658,0,0.0,0.0,0.0,0.0,0.0,0,0,0.0,0.3393616,0,1,116.0,0.0,540.0,4521.538461538462,3777.9487179487182,4519.48717948718,4301.025641025642,4147.179487179487,4458.974358974359,4410.256410256411,4325.128205128206,4376.923076923077,4558.974358974359,4339.48717948718,4208.205128205129,4131.282051282052,4245.128205128206
420.23615,0.42453438,0.56972253,0.52140033,0.6503658,0,0.0,0.0,0.0,0.0,0.0,0,0,0.0,0.08306909,0,0,19.0,0.0,0.0,4457.948717948719,3656.9230769230776,4501.025641025642,4189.74358974359,4073.8461538461543,4364.102564102564,4361.538461538462,4251.794871794872,4292.820512820514,4445.641025641026,4192.820512820514,4118.974358974359,3967.692307692308,4141.538461538462
420.5802,0.5835902,0.55987453,0.5410795,0.65696603,0,0.0,0.0,0.0,0.0,0.0,0,0,0.0,0.15972057,0,1,63.0,0.0,0.0,4490.256410256411,3754.358974358975,4517.948717948719,4290.256410256411,4205.128205128206,4451.282051282052,4494.871794871796,4395.8974358974365,4347.6923076923085,4586.666666666667,4308.717948717949,4158.974358974359,4112.820512820514,4298.461538461539
420.73657,0.5835902,0.55987453,0.5410795,0.65696603,0,0.0,0.0,0.0,0.0,0.0,0,0,0.0,0.45974067,0,1,83.0,0.0,529.0,4486.666666666667,3754.358974358975,4514.871794871796,4286.153846153847,4211.794871794872,4441.025641025642,4494.871794871796,4398.461538461539,4341.538461538462,4597.435897435898,4346.666666666667,4125.641025641026,4115.384615384616,4307.179487179487
421.08063,0.7235594,0.5510114,0.5529911,0.662973,1,0.0,0.0,0.0,0.0,0.0,0,0,0.0,0.00817297,0,0,127.0,0.0,529.0,4533.333333333334,3930.2564102564106,4517.435897435898,4448.205128205129,4235.384615384616,4442.051282051282,4424.615384615385,4317.435897435898,4329.743589743591,4597.948717948719,4352.307692307693,4140.512820512821,4145.128205128206,4458.974358974359
421.237,0.7235594,0.5510114,0.5529911,0.662973,0,0.0,0.0,0.0,0.0,0.0,0,0,0.0,0.031733546,0,0,18.0,0.0,0.0,4508.205128205129,3878.461538461539,4513.333333333334,4389.2307692307695,4236.410256410257,4479.48717948718,4451.794871794872,4384.615384615385,4373.846153846154,4650.769230769231,4332.307692307693,4096.923076923077,4109.74358974359,4352.820512820514
421.4872,0.5988523,0.5430345,0.55451417,0.6673164,0,0.0,0.0,0.0,0.0,0.208685,0,0,0.0,0.0,0,1,50.0,0.0,0.0,4535.384615384616,4011.7948717948725,4517.948717948719,4477.435897435898,4244.102564102564,4458.461538461539,4421.025641025642,4344.615384615385,4348.717948717949,4662.564102564103,4392.820512820514,4146.666666666667,4209.74358974359,4508.717948717949
421.8,0.5988523,0.5430345,0.55451417,0.6673164,0,0.0,0.0,0.0,0.0,0.065408625,0,0,0.0,0.0,0,0,90.0,0.0,568.0,4506.666666666667,3980.0000000000005,4495.384615384616,4406.666666666667,4257.435897435898,4406.666666666667,4328.717948717949,4357.435897435898,4331.282051282052,4645.641025641026,4510.769230769231,4072.820512820513,4143.589743589744,4304.615384615385
421.98764,0.55542266,0.53585535,0.54566145,0.660832,0,0.0,0.0,0.0,0.0,1.0,0,0,0.0,0.0,0,0,114.0,0.0,568.0,4429.2307692307695,3931.7948717948725,4494.358974358975,4393.846153846154,4300.000000000001,4484.102564102564,4388.205128205129,4359.48717948718,4376.410256410257,4666.666666666667,4504.615384615385,4065.1282051282055,4309.2307692307695,4053.333333333334
422.11276,0.55542266,0.53585535,0.54566145,0.660832,0,0.0,0.0,0.0,0.0,1.0,0,0,0.0,0.0,0,1,1.0,0.0,545.0,4366.153846153847,3948.717948717949,4494.871794871796,4418.974358974359,4331.794871794872,4568.717948717949,4466.666666666667,4473.333333333334,4444.102564102564,4667.179487179488,4565.128205128206,4100.000000000001,4731.282051282052,4220.512820512821
422.39426,0.62406784,0.5293941,0.52441543,0.6499676,0,0.0,0.0,0.0,0.0,1.0,0,0,0.0,0.0,0,0,37.0,0.0,0.0,4534.358974358975,3971.7948717948725,4410.256410256411,4478.974358974359,4321.538461538462,4610.256410256411,4499.48717948718,4422.051282051282,4474.871794871796,4677.948717948719,4524.102564102564,4189.74358974359,5013.846153846154,4780.000000000001
422.73828,0.62406784,0.5293941,0.52441543,0.6499676,0,0.0,0.0,0.0,0.0,0.69466215,0,0,0.0,0.0,0,0,81.0,0.0,497.0,4614.871794871796,4042.564102564103,4424.615384615385,4573.333333333334,4315.384615384616,4631.282051282052,4497.948717948719,4342.564102564103,4405.128205128206,4649.2307692307695,4382.564102564103,4298.974358974359,4178.974358974359,4430.256410256411
422.9885,0.6825957,0.52357894,0.5052941,0.6401897,0,0.0,0.0,0.0,0.0,0.3069002,0,0,0.0,0.0,0,0,113.0,0.0,497.0,4630.256410256411,4012.307692307693,4427.179487179487,4536.923076923077,4292.820512820514,4638.974358974359,4519.48717948718,4391.794871794872,4399.48717948718,4651.794871794872,4388.205128205129,4274.871794871796,4129.2307692307695,4474.871794871796
423.2387,0.6825957,0.52357894,0.5052941,0.6401897,0,0.0,0.0,0.0,0.0,0.5239572,0,0,0.0,0.0,0,0,16.0,0.0,0.0,4663.076923076924,3974.8717948717954,4417.435897435898,4495.384615384616,4264.615384615385,4612.820512820514,4470.256410256411,4381.025641025642,4388.717948717949,4686.153846153847,4403.076923076924,4273.333333333334,4110.769230769231,4510.256410256411
423.48895,0.60408324,0.5183453,0.48796868,0.63134265,0,0.0,0.0,0.0,0.0,0.22315581,0,0,0.0,0.0,0,0,48.0,0.0,0.0,4689.2307692307695,4001.538461538462,4437.948717948719,4521.538461538462,4308.717948717949,4650.769230769231,4508.717948717949,4435.8974358974365,4411.282051282052,4750.769230769231,4440.000000000001,4304.615384615385,4168.205128205129,4589.2307692307695
423.73917,0.60408324,0.5183453,0.48796868,0.63134265,0,0.0,0.0,0.16193628,0.0,0.0,0,0,0.0,0.0,0,0,80.0,0.0,539.0,4685.128205128206,3978.9743589743593,4446.153846153847,4488.205128205129,4308.205128205129,4644.102564102564,4494.871794871796,4425.128205128206,4401.538461538462,4734.871794871796,4409.2307692307695,4289.2307692307695,4129.2307692307695,4547.6923076923085
423.98938,0.67598623,0.51363504,0.47238523,0.62338454,0,0.0,0.0,0.16401863,0.0,0.0,0,0,0.0,0.0,0,0,112.0,0.0,539.0,4684.102564102564,3972.820512820513,4454.871794871796,4486.666666666667,4287.179487179487,4632.307692307693,4487.6923076923085,4427.6923076923085,4409.2307692307695,4757.435897435898,4415.384615384616,4293.846153846154,4160.512820512821,4573.846153846154
424.27087,0.67598623,0.51363504,0.47238523,0.62338454,1,0.0,0.0,0.0,0.0,0.0,0,0,0.0,0.21793854,0,0,19.0,0.0,0.0,4697.948717948719,4004.1025641025644,4470.769230769231,4521.538461538462,4273.333333333334,4604.615384615385,4488.717948717949,4449.743589743591,4417.948717948719,4786.153846153847,4453.333333333334,4351.282051282052,4231.794871794872,4687.179487179488
424.4898,0.6355728,0.6315142,0.45835575,0.616221,0,0.0,0.0,0.0,0.0,0.0,0,0,0.0,0.1908339,0,0,47.0,0.0,0.0,4703.076923076924,3922.564102564103,4471.282051282052,4449.743589743591,4267.6923076923085,4607.179487179488,4506.666666666667,4470.256410256411,4425.641025641026,4809.743589743591,4419.48717948718,4320.000000000001,4185.128205128206,4587.6923076923085
424.74002,0.6355728,0.6315142,0.45835575,0.616221,0,0.0,0.0,0.0,0.0,0.26153085,0,0,0.0,0.0,0,0,79.0,0.0,521.0,4752.820512820514,4031.2820512820517,4490.769230769231,4556.410256410257,4263.589743589744,4609.2307692307695,4484.615384615385,4431.282051282052,4424.615384615385,4786.666666666667,4454.871794871796,4358.461538461539,4287.179487179487,4736.923076923077
424.99023,0.65974367,0.70440364,0.44573423,0.60977614,0,0.0,0.0,0.0,0.0,0.23534776,0,0,0.0,0.0,0,1,111.0,0.0,521.0,4711.282051282052,3948.205128205129,4485.128205128206,4487.6923076923085,4201.025641025642,4573.333333333334,4454.871794871796,4376.410256410257,4403.076923076924,4793.333333333334,4371.282051282052,4352.820512820514,4210.769230769231,4702.051282051282
425.24045,0.65974367,0.70440364,0.44573423,0.60977614,0,0.0,0.0,0.042309362,0.0,0.0,0,0,0.0,0.0,0,0,14.0,0.0,567.0,4635.8974358974365,3794.8717948717954,4447.179487179487,4342.051282051282,4118.461538461539,4503.589743589744,4407.179487179487,4354.358974358975,4353.846153846154,4660.512820512821,4204.102564102564,4206.153846153847,3964.615384615385,4449.743589743591
425.49066,0.75154805,0.770316,0.43438837,0.60398114,0,0.0,0.0,0.0,0.0,0.21875736,0,0,0.0,0.0,0,0,46.0,0.0,0.0,4621.538461538462,3728.717948717949,4408.205128205129,4272.820512820514,4028.205128205129,4353.846153846154,4325.641025641026,4217.435897435898,4242.051282051282,4418.974358974359,4085.1282051282055,4111.282051282052,3840.512820512821,4396.923076923077
425.77216,0.75154805,0.770316,0.43438837,0.60398114,0,0.0,0.0,0.0,0.0,0.0,0,0,0.0,0.40384436,0,1,82.0,0.0,567.0,4632.307692307693,3723.076923076924,4418.974358974359,4264.615384615385,4160.000000000001,4425.641025641026,4444.615384615385,4348.717948717949,4291.794871794872,4524.615384615385,4138.461538461539,4113.846153846154,3941.0256410256416,4430.256410256411
425.9911,0.87136227,0.8296371,0.424262,0.5987989,0,0.0,0.0,0.0,0.0,0.0,0,0,0.0,0.22868542,0,1,110.0,0.0,567.0,4624.102564102564,3745.1282051282055,4420.000000000001,4270.769230769231,4182.051282051282,4416.923076923077,4457.948717948719,4357.435897435898,4292.820512820514,4532.307692307693,4160.512820512821,4090.7692307692314,3980.0000000000005,4412.820512820514
426.2413,0.87136227,0.8296371,0.424262,0.5987989,0,0.0,0.0,0.0,0.0,0.0,0,0,0.0,0.542088,0,0,13.0,0.0,500.0,4628.205128205129,3787.692307692308,4423.589743589744,4303.589743589744,4200.512820512821,4438.974358974359,4445.641025641026,4363.076923076924,4307.179487179487,4582.564102564103,4207.6923076923085,4072.820512820513,4046.666666666667,4463.589743589744
426.5228,0.8853859,0.8830262,0.41516912,0.59414285,1,0.0,0.0,0.0,0.0,0.0,0,0,0.0,0.11089665,0,0,49.0,0.0,0.0,4665.128205128206,3967.692307692308,4447.179487179487,4465.641025641026,4300.000000000001,4537.948717948719,4507.6923076923085,4445.641025641026,4380.000000000001,4686.153846153847,4339.48717948718,4237.948717948719,4160.512820512821,4576.923076923077
426.74173,0.8853859,0.8830262,0.41516912,0.59414285,0,0.0,0.0,0.0,0.0,0.0,0,0,0.0,0.28826267,0,0,77.0,0.0,500.0,4648.205128205129,3931.2820512820517,4454.871794871796,4427.179487179487,4310.769230769231,4558.461538461539,4510.256410256411,4443.589743589744,4361.025641025642,4742.051282051282,4303.076923076924,4195.8974358974365,4156.410256410257,4473.333333333334
426.99194,0.8870871,0.9310763,0.40698555,0.58995247,0,0.0,0.0,0.0,0.0,0.89100796,0,0,0.0,0.0,0,0,109.0,0.0,500.0,4642.051282051282,3951.7948717948725,4456.923076923077,4449.2307692307695,4321.538461538462,4590.256410256411,4502.564102564103,4436.410256410257,4375.384615384616,4741.538461538462,4289.2307692307695,4134.871794871796,4110.256410256411,4391.282051282052
427.24216,0.8870871,0.9310763,0.40698555,0.58995247,0,0.0,0.0,0.0,0.0,0.5711125,0,0,0.0,0.0,0,0,12.0,0.0,539.0,4619.48717948718,3938.461538461539,4455.384615384616,4436.923076923077,4278.974358974359,4568.205128205129,4476.410256410257,4425.641025641026,4375.384615384616,4708.717948717949,4262.564102564103,4084.1025641025644,4043.589743589744,4398.461538461539
427.49237,0.89765775,0.9743214,0.39957803,0.58616465,0,0.0,0.0,0.3658661,0.0,0.0,0,0,0.0,0.0,0,0,44.0,0.0,0.0,4620.512820512821,3897.9487179487182,4460.000000000001,4412.307692307693,4266.153846153847,4587.179487179488,4485.641025641026,4460.512820512821,4400.000000000001,4752.307692307693,4348.717948717949,4138.974358974359,4148.205128205129,4451.282051282052
427.74258,0.89765775,0.9743214,0.39957803,0.58616465,0,0.0,0.0,0.0,0.0,0.0,0,0,0.0,0.18403396,0,0,76.0,0.0,543.0,4632.307692307693,3915.3846153846157,4474.871794871796,4443.589743589744,4268.205128205129,4604.615384615385,4502.051282051282,4443.589743589744,4402.051282051282,4730.256410256411,4351.282051282052,4169.2307692307695,4187.6923076923085,4461.538461538462
427.9928,0.8802151,0.9526287,0.3929077,0.5827543,0,0.0,0.0,0.0,0.0,0.0,0,0,0.0,0.21027495,0,0,108.0,0.0,543.0,4613.333333333334,3847.1794871794878,4477.948717948719,4379.48717948718,4236.410256410257,4571.794871794872,4488.205128205129,4408.205128205129,4365.128205128206,4671.794871794872,4263.076923076924,4096.923076923077,4130.256410256411,4430.256410256411
428.243,0.8802151,0.9526287,0.3929077,0.5827543,0,0.0,0.0,0.0,0.0,0.0,0,0,0.0,0.50685996,0,0,11.0,0.0,527.0,4600.512820512821,3829.7435897435903,4477.435897435898,4353.846153846154,4208.717948717949,4520.512820512821,4465.641025641026,4381.538461538462,4333.333333333334,4610.256410256411,4185.128205128206,3992.307692307693,4053.333333333334,4413.846153846154
428.49323,0.8350814,0.94751525,0.38690114,0.5796838,0,0.0,0.0,0.0,0.0,0.0,0,0,0.20570877,0.0,0,0,43.0,0.0,0.0,4585.128205128206,3801.538461538462,4448.205128205129,4324.102564102564,4169.74358974359,4488.717948717949,4444.102564102564,4350.769230769231,4328.205128205129,4601.025641025642,4178.461538461539,3952.307692307693,4026.666666666667,4348.205128205129
428.74344,0.8350814,0.94751525,0.38690114,0.5796838,0,0.0,0.0,0.0,0.0,0.0,0,0,0.39889458,0.0,0,0,75.0,0.0,527.0,4644.615384615385,3839.48717948718,4428.717948717949,4364.615384615385,4220.000000000001,4512.820512820514,4460.512820512821,4385.128205128206,4361.025641025642,4658.461538461539,4241.538461538462,4015.8974358974365,4103.589743589744,4405.641025641026
428.99368,0.8325677,0.9161421,0.38149628,0.5769207,0,0.0,0.0,0.0,0.0,0.0,0,0,0.47099975,0.0,0,0,107.0,0.0,527.0,4697.435897435898,3878.461538461539,4420.000000000001,4393.333333333334,4227.6923076923085,4538.461538461539,4474.871794871796,4420.512820512821,4380.512820512821,4716.923076923077,4308.205128205129,4080.0000000000005,4111.794871794872,4441.025641025642
429.2439,0.8325677,0.9161421,0.38149628,0.5769207,0,0.0,0.0,0.0,0.0,0.0,0,0,0.18822475,0.0,0,0,10.0,0.0,566.0,4707.6923076923085,3933.8461538461543,4405.128205128206,4442.051282051282,4249.2307692307695,4566.153846153847,4484.102564102564,4412.820512820514,4395.384615384616,4760.512820512821,4357.948717948719,4169.74358974359,4167.179487179487,4491.282051282052
429.4941,0.7867956,0.8996238,0.37663695,0.5744359,0,0.0,0.0,0.0,0.0,0.0,0,0,0.1463647,0.0,0,0,42.0,0.0,0.0,4745.128205128206,4052.307692307693,4415.8974358974365,4563.589743589744,4255.384615384616,4572.820512820514,4477.948717948719,4396.410256410257,4398.461538461539,4756.410256410257,4436.923076923077,4316.410256410257,4275.8974358974365,4664.615384615386
429.74432,0.7867956,0.8996238,0.37663695,0.5744359,0,0.0,0.0,0.0,0.0,0.11869701,0,0,0.0,0.0,0,0,74.0,0.0,566.0,4717.435897435898,3990.2564102564106,4423.589743589744,4509.2307692307695,4237.435897435898,4587.179487179488,4472.307692307693,4417.435897435898,4413.846153846154,4762.051282051282,4446.666666666667,4358.461538461539,4257.435897435898,4594.358974358975
429.99454,0.6576271,0.8766294,0.37226105,0.57665485,0,0.0,0.0,0.0,0.0,0.18912469,0,0,0.0,0.0,0,0,106.0,0.0,566.0,4717.948717948719,3977.9487179487182,4445.641025641026,4498.974358974359,4228.717948717949,4577.948717948719,4458.461538461539,4404.615384615385,4387.179487179487,4725.641025641026,4438.461538461539,4395.384615384616,4209.74358974359,4590.256410256411
430.24475,0.6576271,0.8766294,0.37226105,0.57665485,0,0.0,0.0,0.0,0.0,0.19769089,0,0,0.0,0.0,0,0,9.0,0.0,500.0,4718.974358974359,3937.9487179487182,4461.025641025642,4460.000000000001,4215.384615384616,4565.641025641026,4452.307692307693,4403.076923076924,4380.512820512821,4706.153846153847,4410.769230769231,4375.8974358974365,4163.589743589744,4517.435897435898
430.49496,0.6695971,0.84791476,0.3683205,0.58409524,0,0.0,0.0,0.0,0.0,0.1855322,0,0,0.0,0.0,0,0,41.0,0.0,0.0,4726.153846153847,3928.205128205129,4465.128205128206,4445.641025641026,4222.051282051282,4560.512820512821,4458.974358974359,4424.615384615385,4377.948717948719,4718.974358974359,4408.717948717949,4384.102564102564,4176.410256410257,4526.666666666667
430.74518,0.6695971,0.84791476,0.3683205,0.58409524,0,0.0,0.0,0.0,0.0,0.12771633,0,0,0.0,0.0,0,0,73.0,0.0,500.0,4707.6923076923085,3905.1282051282055,4463.076923076924,4413.846153846154,4231.282051282052,4580.000000000001,4470.256410256411,4442.564102564103,4402.051282051282,4740.512820512821,4424.615384615385,4382.051282051282,4170.769230769231,4457.435897435898
430.9954,0.5764501,0.8112891,0.36625898,0.59078944,0,0.0,0.0,0.0,0.0,0.29067576,0,0,0.0,0.0,0,0,105.0,0.0,499.0,4687.6923076923085,3876.410256410257,4458.461538461539,4398.461538461539,4238.461538461539,4585.128205128206,4476.410256410257,4460.000000000001,4410.769230769231,4729.2307692307695,4390.769230769231,4386.153846153847,4126.666666666667,4387.6923076923085
431.2456,0.5764501,0.8112891,0.36625898,0.59078944,0,0.0,0.0,0.0,0.0,0.0,0,0,0.0,0.0026918533,0,0,8.0,0.0,402.0,4717.435897435898,3978.9743589743593,4461.538461538462,4491.794871794872,4244.615384615385,4575.384615384616,4454.871794871796,4298.461538461539,4394.871794871796,4730.256410256411,4416.410256410257,4380.000000000001,4156.410256410257,4475.384615384616
431.49582,0.47840416,0.7756566,0.36443618,0.59683377,0,0.0,0.0,0.0942914,0.0,0.0,0,0,0.0,0.0,0,0,40.0,0.0,0.0,4643.589743589744,3910.2564102564106,4463.076923076924,4424.102564102564,4250.769230769231,4588.205128205129,4463.076923076924,4332.307692307693,4387.6923076923085,4722.051282051282,4332.307692307693,4271.282051282052,4012.307692307693,4251.794871794872
431.83987,0.47840416,0.7756566,0.36443618,0.59683377,0,0.0,0.0,0.0,0.0,0.0,0,0,0.0,0.17262892,0,1,84.0,0.0,533.0,4717.948717948719,3975.3846153846157,4470.769230769231,4495.8974358974365,4231.282051282052,4560.512820512821,4474.358974358975,4377.948717948719,4387.6923076923085,4773.846153846154,4461.025641025642,4384.615384615385,4198.461538461539,4516.923076923077
431.99625,0.4839454,0.78374994,0.36130875,0.59740293,0,0.0,0.0,0.0,0.0,0.0,0,0,0.0,0.24484512,0,1,104.0,0.0,533.0,4711.282051282052,3915.8974358974365,4466.666666666667,4436.923076923077,4228.205128205129,4564.615384615385,4476.923076923077,4421.538461538462,4386.153846153847,4750.769230769231,4428.205128205129,4366.153846153847,4160.512820512821,4452.820512820514
432.24646,0.4839454,0.78374994,0.36130875,0.59740293,0,0.0,0.0,0.0,0.0,0.0,0,0,0.0,0.005208752,0,0,7.0,0.0,473.0,4709.743589743591,3861.538461538462,4458.461538461539,4388.205128205129,4206.153846153847,4537.948717948719,4483.076923076924,4406.666666666667,4362.051282051282,4720.000000000001,4394.358974358975,4301.025641025642,4125.128205128206,4432.820512820514
432.49667,0.4345115,0.8155545,0.35849243,0.5934606,0,0.0,0.0,0.0,0.0,0.0,0,0,0.0,0.3115929,0,1,39.0,0.0,0.0,4685.128205128206,3853.333333333334,4461.025641025642,4379.48717948718,4203.589743589744,4522.051282051282,4460.512820512821,4385.641025641026,4349.2307692307695,4669.2307692307695,4340.000000000001,4256.923076923077,4103.589743589744,4433.333333333334
432.80945,0.4345115,0.8155545,0.35849243,0.5934606,0,0.0,0.0,0.0,0.0,0.0,0,0,0.0,0.26594567,0,0,79.0,0.0,528.0,4661.025641025642,3822.564102564103,4471.282051282052,4340.512820512821,4228.205128205129,4537.435897435898,4474.871794871796,4423.589743589744,4382.564102564103,4743.076923076924,4425.641025641026,4256.410256410257,4190.256410256411,4431.282051282052
432.9971,0.38875413,0.8499762,0.35595798,0.5893186,0,0.0,0.0,0.0,0.0,0.0,0,0,0.0,1.0,0,0,103.0,0.0,528.0,4648.717948717949,3835.8974358974365,4473.333333333334,4355.8974358974365,4237.948717948719,4544.615384615385,4476.410256410257,4434.358974358975,4385.641025641026,4750.769230769231,4395.384615384616,4265.641025641026,4195.8974358974365,4431.282051282052
433.34116,0.38875413,0.8499762,0.35595798,0.5893186,1,0.0,0.0,0.0,0.0,0.0,0,0,0.0,0.13589671,0,0,18.0,0.0,0.0,4653.333333333334,3943.589743589744,4484.102564102564,4448.717948717949,4232.307692307693,4535.8974358974365,4441.025641025642,4401.025641025642,4372.820512820514,4756.410256410257,4433.846153846154,4310.256410256411,4223.589743589744,4536.923076923077
433.49753,0.33729494,0.88371253,0.35367885,0.58558935,0,0.0,0.0,0.0,0.0,0.0,0,0,0.0,0.07337556,0,0,38.0,0.0,0.0,4645.128205128206,3939.48717948718,4486.666666666667,4445.641025641026,4245.128205128206,4558.461538461539,4448.717948717949,4428.205128205129,4382.564102564103,4755.384615384616,4438.461538461539,4324.102564102564,4198.461538461539,4535.384615384616
433.74774,0.33729494,0.88371253,0.35367885,0.58558935,0,0.0,0.0,0.0,0.0,0.0,0,0,0.0,0.2357311,0,0,70.0,0.0,561.0,4634.358974358975,3960.5128205128212,4488.717948717949,4472.307692307693,4245.641025641026,4553.333333333334,4450.256410256411,4424.615384615385,4379.48717948718,4768.205128205129,4410.256410256411,4345.641025641026,4202.051282051282,4537.948717948719
433.99796,0.30402762,0.8313492,0.35162646,0.58223176,0,0.0,0.0,0.0,0.0,0.0,0,0,0.0,0.36839664,0,0,102.0,0.0,568.0,4629.743589743591,3940.5128205128212,4495.8974358974365,4456.410256410257,4236.923076923077,4556.410256410257,4447.179487179487,4418.974358974359,4385.641025641026,4777.948717948719,4437.435897435898,4359.48717948718,4206.666666666667,4560.000000000001
434.24817,0.30402762,0.8313492,0.35162646,0.58223176,0,0.0,0.0,0.0,0.0,0.0,0,0,0.0,0.20116393,0,0,5.0,0.0,597.0,4635.384615384616,3957.9487179487182,4501.025641025642,4468.205128205129,4224.615384615385,4550.769230769231,4433.846153846154,4398.974358974359,4391.794871794872,4757.435897435898,4423.076923076924,4352.820512820514,4214.358974358975,4582.051282051282
434.4984,0.2412616,0.8041968,0.354407,0.59100986,0,0.0,0.0,0.0,0.0,0.0,0,0,0.0,0.1808469,0,1,37.0,0.0,0.0,4647.179487179488,4005.6410256410263,4501.025641025642,4509.743589743591,4225.641025641026,4545.128205128206,4428.717948717949,4399.48717948718,4393.846153846154,4746.153846153847,4425.128205128206,4397.948717948719,4248.717948717949,4660.512820512821
434.81116,0.2412616,0.8041968,0.354407,0.59100986,0,0.0,0.0,0.0,0.0,0.18965943,0,0,0.0,0.0,0,0,77.0,0.0,499.0,4626.666666666667,3917.9487179487182,4491.282051282052,4436.923076923077,4237.948717948719,4573.333333333334,4466.153846153847,4452.820512820514,4426.153846153847,4774.358974358975,4449.2307692307695,4389.743589743591,4244.615384615385,4557.435897435898
434.99884,0.14547752,0.78410643,0.36122614,0.6138442,0,0.0,0.0,0.0,0.0,0.12788308,0,0,0.0,0.0,0,0,101.0,0.0,499.0,4619.48717948718,3900.5128205128212,4486.153846153847,4418.461538461539,4235.8974358974365,4571.794871794872,4450.769230769231,4442.564102564103,4428.205128205129,4741.538461538462,4404.102564102564,4355.8974358974365,4216.410256410257,4506.153846153847
435.31158,0.14547752,0.78410643,0.36122614,0.6138442,0,0.0,0.0,0.0,0.0,0.1473493,1,0,0.0,0.0,0,0,12.0,0.0,537.0,4631.794871794872,4006.1538461538466,4480.000000000001,4501.025641025642,4244.102564102564,4569.743589743591,4440.000000000001,4459.48717948718,4426.666666666667,4690.256410256411,4354.358974358975,4330.256410256411,4124.102564102564,4494.871794871796
435.49927,0.10409413,0.7581788,0.3673616,0.63980824,0,0.0,0.0,0.0,0.0,0.18677057,1,0,0.0,0.0,0,0,36.0,0.0,0.0,4655.8974358974365,3998.9743589743593,4476.410256410257,4493.333333333334,4247.6923076923085,4579.48717948718,4435.384615384616,4481.025641025642,4430.769230769231,4718.974358974359,4387.6923076923085,4345.128205128206,4172.820512820514,4521.025641025642
435.74948,0.10409413,0.7581788,0.3673616,0.63980824,0,0.0,0.0,0.18890488,0.0,0.0,1,0,0.0,0.0,0,0,68.0,0.0,589.0,4683.589743589744,3969.7435897435903,4470.769230769231,4471.794871794872,4243.589743589744,4567.6923076923085,4434.358974358975,4485.128205128206,4439.48717948718,4724.615384615386,4387.179487179487,4331.794871794872,4190.769230769231,4519.48717948718
435.9997,0.08347396,0.746445,0.37288132,0.6631528,0,0.0,0.0,0.0,0.0,0.21592157,0,0,0.0,0.0,0,0,100.0,0.0,536.0,4664.615384615386,3917.435897435898,4469.743589743591,4418.461538461539,4218.974358974359,4577.948717948719,4445.641025641026,4481.025641025642,4436.410256410257,4786.153846153847,4391.794871794872,4324.615384615385,4236.923076923077,4520.512820512821
436.2499,0.08347396,0.746445,0.37288132,0.6631528,0,0.0,0.0,0.15187596,0.0,0.0,0,0,0.0,0.0,0,0,3.0,0.0,575.0,4662.051282051282,3928.205128205129,4470.769230769231,4425.128205128206,4225.128205128206,4573.846153846154,4453.333333333334,4507.6923076923085,4445.128205128206,4790.256410256411,4420.000000000001,4330.769230769231,4255.384615384616,4535.384615384616
436.50012,0.065249525,0.72762406,0.37784654,0.6787069,0,0.0,0.0,0.0,0.0,0.0,0,0,0.0,0.3382649,0,0,35.0,0.0,0.0,4654.358974358975,3943.589743589744,4471.794871794872,4432.820512820514,4221.025641025642,4566.666666666667,4451.282051282052,4480.512820512821,4418.461538461539,4745.641025641026,4391.794871794872,4310.769230769231,4218.974358974359,4526.153846153847
436.8129,0.065249525,0.72762406,0.37784654,0.6787069,0,0.0,0.0,0.1759649,0.0,0.0,0,0,0.0,0.0,0,1,75.0,0.0,524.0,4632.820512820514,3945.6410256410263,4483.076923076924,4415.384615384616,4192.820512820514,4539.48717948718,4438.974358974359,4462.051282051282,4406.153846153847,4709.743589743591,4387.6923076923085,4303.076923076924,4249.74358974359,4600.512820512821
437.00055,0.022546588,0.68803704,0.38301435,0.69267595,0,0.0,0.0,0.12880954,0.0,0.0,0,0,0.0,0.0,0,1,99.0,0.0,524.0,4613.333333333334,3911.2820512820517,4488.717948717949,4382.051282051282,4185.641025641026,4529.2307692307695,4437.435897435898,4446.666666666667,4400.512820512821,4680.000000000001,4347.6923076923085,4267.179487179487,4183.076923076924,4527.6923076923085
437.25076,0.022546588,0.68803704,0.38301435,0.69267595,0,0.0,0.0,0.0,0.0,0.25075632,0,0,0.0,0.0,0,0,2.0,0.0,214.0,4599.48717948718,3926.1538461538466,4494.871794871796,4392.820512820514,4197.948717948719,4522.564102564103,4417.948717948719,4427.6923076923085,4397.435897435898,4709.743589743591,4341.538461538462,4233.333333333334,4182.564102564103,4531.282051282052
437.50098,0.020355018,0.6383268,0.38450354,0.7081304,0,0.0,0.0,0.14604189,0.0,0.0,0,0,0.0,0.0,0,0,34.0,0.0,0.0,4591.794871794872,3983.076923076924,4496.410256410257,4447.179487179487,4206.666666666667,4510.256410256411,4406.153846153847,4401.025641025642,4375.384615384616,4654.871794871796,4261.538461538462,4200.512820512821,4098.461538461539,4492.307692307693
437.7512,0.020355018,0.6383268,0.38450354,0.7081304,0,0.0,0.0,0.09748663,0.0,0.0,0,0,0.0,0.0,0,0,66.0,0.0,214.0,4585.128205128206,3964.615384615385,4496.410256410257,4434.358974358975,4217.435897435898,4519.48717948718,4411.282051282052,4376.923076923077,4365.128205128206,4656.410256410257,4226.666666666667,4186.666666666667,4082.564102564103,4438.974358974359
438.0014,0.0,0.58628005,0.38163558,0.7180919,0,0.0,0.0,0.0,0.0,0.13940631,0,0,0.0,0.0,0,0,98.0,0.0,567.0,4585.641025641026,3952.307692307693,4496.410256410257,4424.102564102564,4220.512820512821,4519.48717948718,4427.179487179487,4394.871794871796,4386.153846153847,4677.435897435898,4266.666666666667,4189.2307692307695,4091.7948717948725,4433.846153846154
438.25162,0.0,0.58628005,0.38163558,0.7180919,0,0.0,0.0,0.0,0.0,0.0,0,0,0.0,0.42535865,0,0,1.0,0.0,546.0,4609.743589743591,3949.2307692307695,4496.923076923077,4426.153846153847,4221.538461538462,4521.025641025642,4429.743589743591,4385.641025641026,4380.512820512821,4686.153846153847,4260.000000000001,4190.769230769231,4108.717948717949,4438.461538461539
438.50183,0.07626542,0.55674946,0.38151774,0.7270197,0,0.0,0.0,0.0,0.0,0.0,0,0,0.0,0.20830938,0,0,33.0,0.0,0.0,4615.8974358974365,3912.820512820513,4490.769230769231,4403.589743589744,4202.051282051282,4512.820512820514,4429.743589743591,4385.641025641026,4367.179487179487,4666.153846153847,4231.282051282052,4168.205128205129,4089.23076923077,4415.8974358974365
438.75204,0.07626542,0.55674946,0.38151774,0.7270197,0,0.0,0.0,0.0,0.0,0.0,0,0,0.0,0.478821,0,1,65.0,0.0,546.0,4633.846153846154,3952.307692307693,4496.923076923077,4437.948717948719,4182.051282051282,4463.589743589744,4400.512820512821,4330.769230769231,4327.6923076923085,4612.307692307693,4242.564102564103,4152.820512820514,4147.179487179487,4535.8974358974365
439.00226,0.045691274,0.5341486,0.38023818,0.73643047,0,0.0,0.0,0.0,0.0,0.25933814,0,0,0.0,0.0,0,0,97.0,0.0,499.0,4615.8974358974365,3909.7435897435903,4500.000000000001,4385.641025641026,4186.153846153847,4449.743589743591,4389.743589743591,4327.6923076923085,4326.153846153847,4613.846153846154,4238.974358974359,4094.358974358975,4169.2307692307695,4506.666666666667
439.25247,0.045691274,0.5341486,0.38023818,0.73643047,0,0.0,0.0,0.0,0.0,0.06643498,0,0,0.0,0.0,0,0,0.0,0.0,249.0,4585.128205128206,3865.1282051282055,4500.512820512821,4344.102564102564,4195.8974358974365,4459.48717948718,4412.307692307693,4329.743589743591,4329.2307692307695,4613.333333333334,4204.102564102564,4028.717948717949,4130.769230769231,4475.384615384616
439.5027,0.03915046,0.50837064,0.37608665,0.74660397,0,0.0,0.0,0.0,0.0,0.0,0,0,0.17193039,0.0,0,0,32.0,0.0,0.0,4572.307692307693,3921.0256410256416,4510.256410256411,4388.717948717949,4218.461538461539,4449.2307692307695,4411.282051282052,4329.743589743591,4331.282051282052,4644.615384615385,4245.128205128206,4044.615384615385,4186.153846153847,4522.051282051282
439.75293,0.03915046,0.50837064,0.37608665,0.74660397,0,0.0,0.0,0.0,0.0,0.0948737,0,0,0.0,0.0,0,0,64.0,0.0,249.0,4554.871794871796,3935.3846153846157,4509.743589743591,4391.794871794872,4222.564102564103,4463.589743589744,4410.769230769231,4308.205128205129,4329.2307692307695,4645.128205128206,4254.871794871796,4033.333333333334,4192.307692307693,4503.589743589744
440.00314,0.09576072,0.4986441,0.37234783,0.75344104,0,0.0,0.0,0.013693897,0.0,0.0,0,0,0.0,0.0,0,0,96.0,0.0,539.0,4537.435897435898,3980.0000000000005,4513.846153846154,4418.461538461539,4227.179487179487,4501.025641025642,4438.461538461539,4303.076923076924,4369.743589743591,4697.435897435898,4324.102564102564,4052.307692307693,4206.666666666667,4524.615384615385
440.25336,0.09576072,0.4986441,0.37234783,0.75344104,0,0.0,0.0,0.0,0.0,0.064172514,0,0,0.0,0.0,0,0,128.0,0.0,539.0,4521.025641025642,4005.1282051282055,4516.923076923077,4427.179487179487,4233.333333333334,4520.512820512821,4433.846153846154,4322.051282051282,4375.8974358974365,4721.025641025642,4336.923076923077,4088.717948717949,4208.717948717949,4514.871794871796
440.50357,0.14708585,0.4888576,0.3719814,0.7563885,0,0.0,0.0,0.0,0.0,0.0,0,0,0.14245987,0.0,0,0,31.0,0.0,0.0,4540.512820512821,4042.564102564103,4530.256410256411,4460.000000000001,4233.846153846154,4518.974358974359,4450.769230769231,4356.923076923077,4377.435897435898,4731.794871794872,4381.025641025642,4185.641025641026,4216.410256410257,4505.641025641026
440.75378,0.14708585,0.4888576,0.3719814,0.7563885,0,0.0,0.0,0.0,0.0,0.0,0,0,0.45396414,0.0,0,0,63.0,0.0,0.0,4522.564102564103,4003.076923076924,4529.743589743591,4441.538461538462,4186.153846153847,4480.512820512821,4444.615384615385,4348.205128205129,4346.666666666667,4652.820512820514,4347.6923076923085,4189.74358974359,4143.589743589744,4444.615384615385
441.004,0.18102184,0.46815836,0.37556988,0.74988085,0,0.0,0.0,0.0,0.0,0.0,0,0,0.2720785,0.0,0,0,95.0,0.0,524.0,4505.641025641026,3878.9743589743593,4516.923076923077,4323.589743589744,4120.000000000001,4400.000000000001,4436.410256410257,4331.282051282052,4303.076923076924,4532.820512820514,4197.435897435898,4104.102564102564,4031.7948717948725,4371.794871794872
441.2542,0.18102184,0.46815836,0.37556988,0.74988085,0,0.0,0.0,0.017968114,0.0,0.0,0,0,0.0,0.0,0,0,127.0,0.0,524.0,4428.205128205129,3729.7435897435903,4510.256410256411,4156.410256410257,4112.307692307693,4364.615384615385,4451.282051282052,4363.076923076924,4301.025641025642,4494.871794871796,4100.512820512821,3988.717948717949,3971.7948717948725,4218.974358974359
441.50443,0.2623012,0.44948623,0.38557333,0.72496116,0,0.0,0.0,0.11195113,0.0,0.0,0,0,0.0,0.0,0,0,30.0,0.0,0.0,4409.2307692307695,3773.333333333334,4514.871794871796,4173.333333333334,4147.179487179487,4389.743589743591,4441.025641025642,4396.410256410257,4330.256410256411,4568.205128205129,4129.74358974359,3961.0256410256416,4066.1538461538466,4227.6923076923085
441.75464,0.2623012,0.44948623,0.38557333,0.72496116,0,0.0,0.0,0.0,0.0,0.0,0,0,0.0,0.067357086,0,0,62.0,0.0,0.0,4434.871794871796,3908.717948717949,4528.717948717949,4318.461538461539,4190.256410256411,4412.820512820514,4431.794871794872,4391.794871794872,4344.102564102564,4647.6923076923085,4251.794871794872,4062.0512820512827,4252.820512820514,4465.128205128206
442.0987,0.39208636,0.43268132,0.39831963,0.6950725,0,0.0,0.0,0.0,0.0,0.0,0,0,0.0,0.13344729,0,0,106.0,0.0,568.0,4367.179487179487,3852.307692307693,4522.051282051282,4273.333333333334,4249.74358974359,4512.820512820514,4463.589743589744,4404.102564102564,4376.410256410257,4725.641025641026,4264.615384615385,4084.615384615385,4134.358974358975,4285.128205128206
442.31763,0.39208636,0.43268132,0.39831963,0.6950725,0,0.0,0.0,0.22870782,0.0,0.0,0,0,0.0,0.0,0,1,5.0,0.0,597.0,4413.846153846154,3877.435897435898,4533.333333333334,4320.512820512821,4235.8974358974365,4527.6923076923085,4481.025641025642,4426.153846153847,4411.794871794872,4814.871794871796,4456.410256410257,4228.205128205129,4358.974358974359,4508.717948717949
442.50528,0.34531665,0.4175569,0.4097862,0.6681989,0,0.0,0.0,0.08193744,0.0,0.0,0,0,0.0,0.0,0,1,29.0,0.0,0.0,4407.6923076923085,4060.0000000000005,4543.589743589744,4496.923076923077,4275.384615384616,4531.794871794872,4431.794871794872,4331.282051282052,4364.102564102564,4675.384615384616,4314.871794871796,4161.025641025642,4090.7692307692314,4384.102564102564
442.7555,0.34531665,0.4175569,0.4097862,0.6681989,0,0.0,0.0,0.2864109,0.0,0.0,1,0,0.0,0.0,0,0,61.0,0.0,0.0,4354.358974358975,3850.7692307692314,4537.435897435898,4318.461538461539,4301.025641025642,4612.307692307693,4476.923076923077,4412.820512820514,4417.435897435898,4817.948717948719,4429.743589743591,4199.48717948718,4065.6410256410263,4194.358974358975
443.0057,0.34008598,0.40394494,0.42010003,0.6440268,0,0.0,0.0,0.16744474,0.0,0.0,1,0,0.0,0.0,0,0,93.0,0.0,499.0,4375.8974358974365,3907.692307692308,4536.923076923077,4392.820512820514,4295.384615384616,4643.589743589744,4441.025641025642,4383.589743589744,4415.384615384616,4829.2307692307695,4461.538461538462,4280.512820512821,4112.307692307693,4277.948717948719
443.25592,0.34008598,0.40394494,0.42010003,0.6440268,0,0.0,0.0,0.09070664,0.0,0.0,0,0,0.0,0.0,0,1,125.0,0.0,499.0,4405.641025641026,3948.717948717949,4529.2307692307695,4442.051282051282,4275.8974358974365,4641.538461538462,4434.871794871796,4401.538461538462,4425.641025641026,4814.358974358975,4494.358974358975,4376.410256410257,4169.74358974359,4389.743589743591
443.59998,0.23216853,0.39169416,0.4293755,0.62730277,0,0.0,0.0,0.3228411,0.0,0.0,0,0,0.0,0.0,0,0,40.0,0.0,0.0,4422.051282051282,3907.692307692308,4574.871794871796,4407.179487179487,4207.6923076923085,4630.769230769231,4426.153846153847,4400.512820512821,4436.410256410257,4877.948717948719,4553.333333333334,4488.205128205129,4232.820512820514,4468.717948717949
443.63126,0.23216853,0.39169416,0.4293755,0.62730277,0,0.0,0.0,0.0,0.0,0.0,0,0,0.0,1.0,0,0,44.0,0.0,0.0,4421.025641025642,3906.1538461538466,4574.871794871796,4405.641025641026,4214.358974358975,4635.384615384616,4433.333333333334,4409.743589743591,4440.512820512821,4867.6923076923085,4550.256410256411,4486.153846153847,4207.179487179487,4460.512820512821
444.00656,0.1799035,0.38066846,0.43668598,0.61713,0,0.0,0.0,0.0,0.0,0.0,0,0,0.0,0.7242445,0,0,92.0,0.0,528.0,4447.179487179487,3911.2820512820517,4564.615384615385,4401.025641025642,4102.564102564103,4606.666666666667,4406.666666666667,4388.205128205129,4421.025641025642,4827.6923076923085,4524.615384615385,4475.8974358974365,4161.025641025642,4479.48717948718
444.25677,0.1799035,0.38066846,0.43668598,0.61713,0,0.0,0.0,1.0,0.0,0.0,0,0,0.0,0.0,0,0,124.0,0.0,528.0,4475.8974358974365,3953.8461538461543,4563.589743589744,4461.538461538462,4155.8974358974365,4618.974358974359,4429.743589743591,4414.871794871796,4427.179487179487,4817.948717948719,4485.128205128206,4474.871794871796,4176.410256410257,4513.846153846154
444.507,0.1941218,0.37074533,0.4432573,0.6080425,0,0.0,0.0,0.48283914,0.0,0.0,0,0,0.0,0.0,0,0,27.0,0.0,0.0,4489.743589743591,3947.692307692308,4557.948717948719,4466.153846153847,4182.564102564103,4612.820512820514,4444.615384615385,4450.256410256411,4427.179487179487,4790.256410256411,4487.179487179488,4460.000000000001,4187.6923076923085,4536.410256410257
444.7572,0.1941218,0.37074533,0.4432573,0.6080425,0,0.0,0.0,0.0,0.0,0.0,0,0,0.0,0.7664082,0,0,59.0,0.0,0.0,4507.6923076923085,3964.1025641025644,4545.128205128206,4473.846153846154,4203.589743589744,4611.794871794872,4460.512820512821,4451.282051282052,4438.461538461539,4762.051282051282,4457.435897435898,4446.153846153847,4176.410256410257,4543.076923076924
445.10126,0.21073732,0.3618145,0.45177367,0.60802823,0,0.0,0.0,0.0,0.0,0.35920396,0,0,0.0,0.0,0,0,103.0,0.0,528.0,4551.794871794872,4006.1538461538466,4524.102564102564,4513.333333333334,4211.282051282052,4608.717948717949,4472.307692307693,4452.820512820514,4432.820512820514,4745.128205128206,4428.717948717949,4435.384615384616,4192.307692307693,4575.384615384616
445.25766,0.21073732,0.3618145,0.45177367,0.60802823,0,0.0,0.0,0.0,0.0,0.0,0,0,0.0,0.21430127,0,0,123.0,0.0,528.0,4555.8974358974365,3981.538461538462,4514.871794871796,4501.538461538462,4223.076923076924,4604.102564102564,4463.076923076924,4429.2307692307695,4414.871794871796,4730.256410256411,4407.6923076923085,4402.051282051282,4177.948717948719,4550.769230769231
445.5704,0.17343122,0.42288107,0.4594283,0.6172454,0,0.0,0.0,0.0,0.0,0.0,1,0,0.0,1.0,0,0,34.0,0.0,0.0,4564.615384615385,3994.358974358975,4504.102564102564,4517.435897435898,4244.615384615385,4581.025641025642,4440.000000000001,4392.820512820514,4392.820512820514,4678.974358974359,4324.615384615385,4329.2307692307695,4051.7948717948725,4463.589743589744
445.7581,0.17343122,0.42288107,0.4594283,0.6172454,0,0.0,0.0,0.47020403,0.0,0.0,1,0,0.0,0.0,0,0,58.0,0.0,0.0,4569.743589743591,3960.0000000000005,4488.717948717949,4490.769230769231,4224.615384615385,4566.153846153847,4432.820512820514,4385.641025641026,4381.538461538462,4663.076923076924,4305.128205128206,4294.871794871796,4092.307692307693,4463.589743589744
446.0083,0.19825903,0.483402,0.46639737,0.61910105,0,0.0,0.0,0.23464727,0.0,0.0,1,0,0.0,0.0,0,0,90.0,0.0,568.0,4568.205128205129,3855.8974358974365,4472.820512820514,4383.076923076924,4182.051282051282,4501.025641025642,4424.615384615385,4351.282051282052,4341.538461538462,4555.384615384616,4243.076923076924,4216.410256410257,4018.461538461539,4393.333333333334
446.2585,0.19825903,0.483402,0.46639737,0.61910105,0,0.0,0.0,0.09424766,0.0,0.0,1,0,0.0,0.0,0,0,122.0,0.0,568.0,4538.461538461539,3749.2307692307695,4469.2307692307695,4247.6923076923085,4093.8461538461543,4411.282051282052,4406.666666666667,4330.769230769231,4309.2307692307695,4447.179487179487,4132.820512820514,4040.0000000000005,3984.1025641025644,4315.384615384616
446.50873,0.38446784,0.5379062,0.4623719,0.61238366,0,0.0,0.0,0.04999256,0.0,0.0,1,0,0.0,0.0,0,0,25.0,0.0,0.0,4508.717948717949,3710.2564102564106,4471.282051282052,4200.512820512821,4129.2307692307695,4361.025641025642,4399.48717948718,4324.102564102564,4295.8974358974365,4407.6923076923085,4102.051282051282,3890.2564102564106,4001.0256410256416,4294.871794871796
446.75894,0.38446784,0.5379062,0.4623719,0.61238366,0,0.0,0.0,0.3987006,0.0,0.0,1,0,0.0,0.0,0,0,57.0,0.0,0.0,4474.358974358975,3728.205128205129,4482.051282051282,4201.538461538462,4118.974358974359,4386.666666666667,4407.6923076923085,4374.871794871796,4305.128205128206,4478.974358974359,4137.948717948719,3840.0000000000005,4067.692307692308,4277.435897435898
447.00916,0.54769313,0.58696,0.4504404,0.6063392,0,0.0,0.0,0.72066087,0.0,0.0,1,0,0.0,0.0,0,0,89.0,0.0,494.0,4463.589743589744,3795.3846153846157,4485.128205128206,4273.846153846154,4198.461538461539,4451.794871794872,4428.205128205129,4407.6923076923085,4338.974358974359,4579.48717948718,4234.358974358975,3891.7948717948725,4149.74358974359,4220.000000000001
447.25937,0.54769313,0.58696,0.4504404,0.6063392,0,0.0,0.0,0.0,0.0,1.0,1,0,0.0,0.0,0,0,121.0,0.0,494.0,4468.717948717949,3864.1025641025644,4479.48717948718,4345.128205128206,4244.102564102564,4525.641025641026,4471.794871794872,4438.461538461539,4384.102564102564,4678.974358974359,4313.846153846154,3973.333333333334,4237.435897435898,4248.205128205129
447.50958,0.583732,0.63110846,0.43865484,0.6009028,0,0.0,0.0,0.0,0.0,0.06947459,1,0,0.0,0.0,0,0,24.0,0.0,0.0,4464.102564102564,3922.564102564103,4471.282051282052,4403.589743589744,4263.589743589744,4551.282051282052,4484.102564102564,4437.435897435898,4412.307692307693,4737.948717948719,4384.615384615385,4083.589743589744,4270.256410256411,4311.282051282052
447.7598,0.583732,0.63110846,0.43865484,0.6009028,0,0.0,0.0,0.023553537,0.0,0.0,1,0,0.0,0.0,0,0,56.0,0.0,0.0,4472.307692307693,3951.2820512820517,4462.051282051282,4435.384615384616,4297.948717948719,4589.2307692307695,4480.000000000001,4420.000000000001,4444.102564102564,4740.512820512821,4405.128205128206,4172.820512820514,4274.358974358975,4344.615384615385
448.01,0.6430127,0.670842,0.42802894,0.5960085,0,0.0,0.0,0.11055065,0.0,0.0,0,0,0.0,0.0,0,0,88.0,0.0,540.0,4491.282051282052,4021.538461538462,4466.666666666667,4515.384615384616,4290.256410256411,4624.102564102564,4502.564102564103,4421.538461538462,4457.435897435898,4757.948717948719,4454.358974358975,4258.974358974359,4284.102564102564,4402.564102564103
448.26022,0.6430127,0.670842,0.42802894,0.5960085,0,0.0,0.0,0.15397343,0.0,0.0,0,0,0.0,0.0,0,0,120.0,0.0,540.0,4515.384615384616,4039.48717948718,4454.871794871796,4527.179487179488,4330.769230769231,4636.923076923077,4492.307692307693,4438.461538461539,4474.358974358975,4786.153846153847,4491.794871794872,4344.102564102564,4257.435897435898,4424.102564102564
448.51044,0.59726524,0.7066022,0.41845378,0.59160215,0,0.0,0.0,0.0,0.0,0.06417797,0,0,0.0,0.0,0,0,23.0,0.0,0.0,4558.974358974359,4045.6410256410263,4452.820512820514,4544.615384615385,4290.256410256411,4653.846153846154,4494.871794871796,4425.128205128206,4473.846153846154,4777.948717948719,4488.205128205129,4407.179487179487,4247.6923076923085,4463.076923076924
448.76065,0.59726524,0.7066022,0.41845378,0.59160215,0,0.0,0.0,0.0,0.0,0.17413975,0,0,0.0,0.0,0,0,55.0,0.0,0.0,4580.512820512821,4037.9487179487182,4463.589743589744,4541.538461538462,4299.48717948718,4639.48717948718,4491.282051282052,4442.051282051282,4475.384615384616,4769.2307692307695,4496.923076923077,4437.948717948719,4245.641025641026,4462.051282051282
449.01086,0.5794076,0.7196214,0.40983975,0.5951081,0,0.0,0.0,0.098935455,0.0,0.0,0,0,0.0,0.0,0,0,87.0,0.0,533.0,4595.8974358974365,3983.076923076924,4469.743589743591,4503.076923076924,4275.8974358974365,4636.923076923077,4492.307692307693,4487.6923076923085,4500.512820512821,4825.128205128206,4538.461538461539,4500.512820512821,4356.410256410257,4555.384615384616
449.26108,0.5794076,0.7196214,0.40983975,0.5951081,0,0.0,0.0,0.43393904,0.0,0.0,0,0,0.0,0.0,0,0,119.0,0.0,533.0,4601.025641025642,3994.8717948717954,4486.153846153847,4498.461538461539,4271.794871794872,4622.051282051282,4500.512820512821,4478.974358974359,4493.846153846154,4826.666666666667,4498.974358974359,4506.153846153847,4324.102564102564,4560.000000000001
449.5113,0.5874325,0.7294867,0.40209785,0.6035219,0,0.0,0.0,0.0,0.0,0.2695728,0,0,0.0,0.0,0,1,22.0,0.0,0.0,4626.153846153847,4020.5128205128212,4494.871794871796,4523.076923076924,4236.923076923077,4592.307692307693,4472.307692307693,4453.846153846154,4480.512820512821,4832.307692307693,4532.820512820514,4556.923076923077,4407.179487179487,4688.717948717949
449.82407,0.5874325,0.7294867,0.40209785,0.6035219,0,0.0,0.0,0.0,0.0,0.30500796,0,0,0.0,0.0,0,0,62.0,0.0,0.0,4561.025641025642,3917.435897435898,4497.435897435898,4383.076923076924,4193.333333333334,4605.641025641026,4489.743589743591,4480.512820512821,4490.769230769231,4828.205128205129,4431.794871794872,4491.794871794872,4255.384615384616,4453.846153846154
450.01172,0.6031526,0.74919105,0.40118557,0.61109,0,0.0,0.0,0.0,0.0,0.26783445,0,0,0.0,0.0,0,0,86.0,0.0,567.0,4580.000000000001,3995.3846153846157,4514.358974358975,4429.743589743591,4246.153846153847,4604.102564102564,4490.769230769231,4472.307692307693,4475.8974358974365,4807.6923076923085,4425.128205128206,4488.717948717949,4244.102564102564,4493.333333333334
450.26193,0.6031526,0.74919105,0.40118557,0.61109,0,0.0,0.0,0.46865022,0.0,0.0,0,0,0.0,0.0,0,0,118.0,0.0,567.0,4587.179487179488,4020.0000000000005,4529.743589743591,4433.333333333334,4270.769230769231,4606.153846153847,4494.358974358975,4459.48717948718,4476.923076923077,4807.6923076923085,4391.282051282052,4461.025641025642,4261.025641025642,4508.717948717949
450.51215,0.49838352,0.75555503,0.40701059,0.6194814,0,0.0,0.0,0.15063843,0.0,0.0,0,0,0.0,0.0,0,0,21.0,0.0,0.0,4572.307692307693,4017.9487179487182,4545.128205128206,4406.666666666667,4215.8974358974365,4559.48717948718,4454.358974358975,4410.256410256411,4444.615384615385,4786.153846153847,4347.6923076923085,4404.615384615385,4220.000000000001,4461.538461538462
450.7624,0.49838352,0.75555503,0.40701059,0.6194814,0,0.0,0.0,0.3506468,0.0,0.0,0,0,0.0,0.0,0,0,53.0,0.0,0.0,4570.256410256411,4021.538461538462,4557.948717948719,4398.461538461539,4218.461538461539,4542.051282051282,4446.666666666667,4390.256410256411,4421.025641025642,4748.717948717949,4298.461538461539,4370.256410256411,4158.461538461539,4437.948717948719
451.0126,0.4529767,0.75389594,0.41224802,0.6248127,0,0.0,0.0,0.3536563,0.0,0.0,0,0,0.0,0.0,0,0,85.0,0.0,490.0,4572.307692307693,4062.0512820512827,4558.461538461539,4404.615384615385,4219.48717948718,4544.615384615385,4447.179487179487,4399.48717948718,4416.923076923077,4748.717948717949,4296.410256410257,4365.128205128206,4154.358974358975,4531.282051282052
451.1377,0.4529767,0.75389594,0.41224802,0.6248127,0,0.0,0.0,0.0,0.0,1.0,0,0,0.0,0.0,0,0,101.0,0.0,490.0,4564.615384615385,4045.6410256410263,4542.564102564103,4382.051282051282,4164.615384615385,4524.615384615385,4428.717948717949,4363.589743589744,4403.076923076924,4733.333333333334,4271.282051282052,4328.205128205129,4115.8974358974365,4541.025641025642
451.51303,0.45765227,0.73995435,0.4169563,0.627673,0,0.0,0.0,0.0,0.0,0.23867804,0,0,0.0,0.0,0,0,20.0,0.0,0.0,4526.153846153847,3980.0000000000005,4517.435897435898,4309.2307692307695,4059.48717948718,4475.8974358974365,4369.743589743591,4301.025641025642,4361.025641025642,4693.846153846154,4218.974358974359,4257.948717948719,4070.2564102564106,4502.564102564103
451.76324,0.45765227,0.73995435,0.4169563,0.627673,0,0.0,0.0,0.0,0.0,0.86480325,0,0,0.0,0.0,0,0,52.0,0.0,0.0,4486.666666666667,3835.3846153846157,4489.2307692307695,4188.717948717949,3973.8461538461543,4348.205128205129,4244.102564102564,4176.923076923077,4271.794871794872,4545.641025641026,4082.0512820512827,4128.205128205129,3929.7435897435903,4365.641025641026
452.01346,0.6127341,0.72777545,0.41586724,0.6294566,0,0.0,0.0,0.0,0.0,0.93958735,0,0,0.0,0.0,0,0,84.0,0.0,538.0,4493.846153846154,3861.538461538462,4477.435897435898,4247.179487179487,4061.0256410256416,4398.974358974359,4303.076923076924,4252.820512820514,4298.974358974359,4605.641025641026,4162.051282051282,4170.769230769231,4005.6410256410263,4510.769230769231
452.13855,0.6127341,0.72777545,0.41586724,0.6294566,0,0.0,0.0,0.0,0.0,1.0,0,0,0.0,0.0,0,0,100.0,0.0,538.0,4503.076923076924,3886.666666666667,4468.717948717949,4289.74358974359,4101.025641025642,4438.461538461539,4341.025641025642,4289.2307692307695,4311.282051282052,4644.102564102564,4207.179487179487,4186.666666666667,4063.589743589744,4597.435897435898
452.5139,0.74920607,0.71681446,0.41049898,0.6310568,0,0.0,0.0,0.0,0.0,0.029198835,0,0,0.0,0.0,0,0,19.0,0.0,0.0,4513.846153846154,3850.7692307692314,4425.128205128206,4349.743589743591,4150.769230769231,4484.615384615385,4400.000000000001,4380.000000000001,4321.538461538462,4649.743589743591,4270.256410256411,4216.410256410257,4099.48717948718,4595.384615384616
452.7641,0.74920607,0.71681446,0.41049898,0.6310568,0,0.0,0.0,0.0,0.0,0.11427472,0,0,0.0,0.0,0,0,51.0,0.0,0.0,4520.000000000001,3833.8461538461543,4423.076923076924,4374.358974358975,4162.564102564103,4514.871794871796,4431.794871794872,4362.564102564103,4295.8974358974365,4608.205128205129,4265.128205128206,4211.794871794872,4086.666666666667,4530.256410256411
453.0143,0.68451685,0.7069496,0.40566346,0.6344256,0,0.0,0.0,0.0,0.0,0.10037968,0,0,0.0,0.0,0,0,83.0,0.0,525.0,4520.512820512821,3815.3846153846157,4420.000000000001,4350.769230769231,4139.48717948718,4484.102564102564,4430.256410256411,4345.641025641026,4296.923076923077,4548.205128205129,4270.256410256411,4191.794871794872,4094.358974358975,4524.102564102564
453.1394,0.68451685,0.7069496,0.40566346,0.6344256,0,0.0,0.0,0.0,0.0,0.0,0,0,0.0,1.0,0,0,99.0,0.0,525.0,4519.48717948718,3831.2820512820517,4421.025641025642,4354.871794871796,4142.051282051282,4478.461538461539,4431.794871794872,4351.794871794872,4296.923076923077,4529.2307692307695,4267.6923076923085,4181.025641025642,4116.923076923077,4529.743589743591
453.51474,0.58539736,0.6980712,0.40130764,0.63819486,0,0.0,0.0,0.0,0.0,0.0,0,0,0.0,0.44421652,0,0,18.0,0.0,0.0,4518.974358974359,3900.5128205128212,4431.282051282052,4350.769230769231,4158.974358974359,4485.128205128206,4433.333333333334,4364.102564102564,4311.282051282052,4557.435897435898,4296.410256410257,4169.2307692307695,4138.974358974359,4509.2307692307695
453.76495,0.58539736,0.6980712,0.40130764,0.63819486,0,0.0,0.0,0.0,0.0,0.21601361,0,0,0.0,0.0,0,0,50.0,0.0,0.0,4520.512820512821,3966.1538461538466,4453.333333333334,4387.179487179487,4191.282051282052,4494.358974358975,4435.8974358974365,4383.589743589744,4336.923076923077,4638.461538461539,4354.871794871796,4178.461538461539,4170.769230769231,4497.948717948719
454.01517,0.53749764,0.64292043,0.39411306,0.6448653,0,0.0,0.0,0.0,0.0,0.27410492,0,0,0.0,0.0,0,0,82.0,0.0,567.0,4513.846153846154,3991.2820512820517,4471.794871794872,4394.358974358975,4200.000000000001,4501.538461538462,4436.410256410257,4389.743589743591,4336.410256410257,4648.205128205129,4365.128205128206,4168.717948717949,4166.666666666667,4480.512820512821
454.26538,0.53749764,0.64292043,0.39411306,0.6448653,0,0.0,0.0,0.0,0.0,0.14395356,0,0,0.0,0.0,0,0,114.0,0.0,567.0,4520.512820512821,4023.589743589744,4500.000000000001,4424.102564102564,4222.564102564103,4508.717948717949,4432.307692307693,4391.794871794872,4361.025641025642,4705.128205128206,4384.615384615385,4178.974358974359,4179.48717948718,4492.820512820514
454.5156,0.54600537,0.5940102,0.38531435,0.6512596,0,0.0,0.0,0.0,0.0,0.0,0,0,0.43833295,0.0,0,0,17.0,0.0,0.0,4515.8974358974365,4021.0256410256416,4514.871794871796,4428.717948717949,4207.179487179487,4510.256410256411,4416.923076923077,4383.589743589744,4367.6923076923085,4726.666666666667,4408.205128205129,4172.820512820514,4206.666666666667,4489.743589743591
454.64072,0.54600537,0.5940102,0.38531435,0.6512596,0,0.0,0.0,0.0,0.0,0.0,0,0,1.0,0.0,0,0,33.0,0.0,0.0,4516.923076923077,4017.9487179487182,4520.000000000001,4437.948717948719,4221.538461538462,4518.461538461539,4434.358974358975,4398.461538461539,4378.461538461539,4754.358974358975,4430.256410256411,4194.358974358975,4210.769230769231,4484.102564102564
455.01602,0.48233134,0.5568528,0.3773929,0.6634122,0,0.0,0.0,0.0,0.0,0.0,0,0,0.49263963,0.0,0,0,81.0,0.0,498.0,4492.307692307693,3964.1025641025644,4531.282051282052,4380.000000000001,4166.666666666667,4486.153846153847,4430.769230769231,4362.564102564103,4344.102564102564,4646.153846153847,4340.512820512821,4169.2307692307695,4117.435897435898,4382.051282051282
455.26624,0.48233134,0.5568528,0.3773929,0.6634122,0,0.0,0.0,0.34217656,0.0,0.0,0,0,0.0,0.0,0,0,113.0,0.0,498.0,4490.256410256411,3829.2307692307695,4529.2307692307695,4270.256410256411,4063.076923076924,4395.384615384616,4378.461538461539,4304.615384615385,4281.025641025642,4523.589743589744,4242.051282051282,4101.025641025642,4017.435897435898,4307.6923076923085
455.51645,0.5781908,0.5234307,0.36866045,0.6744201,0,0.0,0.8788618,0.0,0.0,0.0,0,0,0.0,0.0,0,1,16.0,0.0,0.0,4492.820512820514,3830.7692307692314,4525.128205128206,4297.948717948719,4065.1282051282055,4334.358974358975,4343.076923076924,4310.769230769231,4266.153846153847,4505.641025641026,4195.8974358974365,4071.7948717948725,4063.076923076924,4424.615384615385
455.82922,0.5781908,0.5234307,0.36866045,0.6744201,0,0.0,0.45422393,0.0,0.0,0.0,0,0,0.0,0.0,0,0,56.0,0.0,0.0,4522.564102564103,3962.0512820512827,4530.769230769231,4436.923076923077,4157.435897435898,4332.307692307693,4363.076923076924,4333.333333333334,4262.564102564103,4564.102564102564,4258.461538461539,4058.9743589743593,4176.410256410257,4571.282051282052
456.0169,0.5490651,0.49335077,0.36080125,0.6840928,1,0.0,0.0,0.0,0.0,0.18571486,0,0,0.0,0.0,0,0,80.0,0.0,544.0,4524.615384615385,4160.512820512821,4526.666666666667,4607.6923076923085,4213.846153846154,4394.871794871796,4380.512820512821,4384.615384615385,4306.153846153847,4637.948717948719,4302.564102564103,4039.48717948718,4275.8974358974365,4609.743589743591
456.26712,0.5490651,0.49335077,0.36080125,0.6840928,0,0.0,0.0,0.0,0.0,0.8876294,0,0,0.0,0.0,0,0,112.0,0.0,544.0,4478.974358974359,4047.1794871794878,4526.666666666667,4525.641025641026,4251.794871794872,4493.333333333334,4432.820512820514,4427.6923076923085,4351.282051282052,4826.153846153847,4374.871794871796,4027.1794871794878,4302.051282051282,4345.128205128206
456.51733,0.597042,0.46627882,0.3537162,0.6849569,0,0.0,0.47684434,0.0,0.0,0.0,0,0,0.0,0.0,0,0,15.0,0.0,526.0,4506.666666666667,4055.8974358974365,4534.871794871796,4542.051282051282,4234.871794871796,4497.435897435898,4434.358974358975,4469.743589743591,4388.205128205129,4876.410256410257,4509.2307692307695,4144.615384615385,4489.2307692307695,4743.589743589744
456.76755,0.597042,0.46627882,0.3537162,0.6849569,0,0.0,0.4763728,0.0,0.0,0.0,0,0,0.0,0.0,0,1,47.0,0.0,0.0,4434.358974358975,3938.461538461539,4504.102564102564,4446.666666666667,4276.923076923077,4551.794871794872,4456.410256410257,4463.076923076924,4412.307692307693,4878.461538461539,4433.846153846154,4080.5128205128212,4266.153846153847,4493.333333333334
457.01776,0.6103825,0.44191408,0.351665,0.67159337,0,0.0,0.0,0.0,0.0,0.36887723,0,0,0.0,0.0,0,0,79.0,0.0,526.0,4425.128205128206,3895.3846153846157,4488.717948717949,4382.051282051282,4272.307692307693,4587.179487179488,4454.358974358975,4448.717948717949,4408.205128205129,4840.512820512821,4428.717948717949,4094.8717948717954,4198.461538461539,4458.974358974359
457.26797,0.6103825,0.44191408,0.351665,0.67159337,0,0.0,0.0,0.0,0.0,0.2191439,0,0,0.0,0.0,0,1,111.0,0.0,526.0,4489.2307692307695,4010.2564102564106,4511.794871794872,4455.8974358974365,4292.820512820514,4589.2307692307695,4455.8974358974365,4442.051282051282,4416.923076923077,4880.000000000001,4564.615384615385,4232.820512820514,4390.769230769231,4711.794871794872
457.58075,0.6091915,0.4199858,0.34981787,0.6595702,0,0.0,0.0,0.0,0.0,0.37224814,0,0,0.0,0.0,0,0,22.0,0.0,0.0,4453.333333333334,3993.8461538461543,4510.769230769231,4430.769230769231,4303.076923076924,4635.384615384616,4479.48717948718,4446.153846153847,4413.846153846154,4839.48717948718,4448.205128205129,4201.538461538462,4127.6923076923085,4451.282051282052
457.83096,0.6091915,0.4199858,0.34981787,0.6595702,0,0.0,0.0,0.0,0.0,0.3232542,0,0,0.0,0.0,0,1,54.0,0.0,0.0,4505.128205128206,4126.666666666667,4542.564102564103,4568.205128205129,4380.512820512821,4694.871794871796,4527.179487179488,4465.641025641026,4427.179487179487,4868.205128205129,4480.000000000001,4308.205128205129,4201.025641025642,4560.512820512821
458.01862,0.6863215,0.40025038,0.3481557,0.6487514,0,0.0,0.0,0.0,0.0,0.2348186,0,0,0.0,0.0,0,1,78.0,0.0,567.0,4501.538461538462,4058.461538461539,4548.717948717949,4513.333333333334,4361.025641025642,4682.051282051282,4527.6923076923085,4465.128205128206,4436.923076923077,4835.8974358974365,4438.974358974359,4298.974358974359,4178.974358974359,4511.282051282052
458.26883,0.6863215,0.40025038,0.3481557,0.6487514,0,0.0,0.0,0.0,0.0,0.372903,0,0,0.0,0.0,0,0,110.0,0.0,567.0,4515.384615384616,3993.333333333334,4557.435897435898,4456.410256410257,4310.769230769231,4654.871794871796,4521.538461538462,4438.461538461539,4435.8974358974365,4784.102564102564,4438.461538461539,4313.333333333334,4184.102564102564,4527.179487179488
458.51904,0.7021499,0.38248846,0.34666115,0.63902617,0,0.0,0.0,0.09416983,0.0,0.0,0,0,0.0,0.0,0,0,13.0,0.0,499.0,4538.974358974359,4010.2564102564106,4561.025641025642,4480.000000000001,4294.358974358975,4618.974358974359,4494.871794871796,4413.846153846154,4442.564102564103,4774.871794871796,4437.435897435898,4362.564102564103,4183.589743589744,4633.333333333334
458.76926,0.7021499,0.38248846,0.34666115,0.63902617,0,0.0,0.0,0.0,0.0,0.2583688,0,0,0.0,0.0,0,1,45.0,0.0,0.0,4514.358974358975,3956.410256410257,4555.8974358974365,4422.564102564103,4267.6923076923085,4606.666666666667,4485.641025641026,4393.846153846154,4408.717948717949,4737.948717948719,4389.2307692307695,4310.769230769231,4131.794871794872,4568.717948717949
459.01947,0.62514466,0.36650276,0.36161533,0.6330791,0,0.0,0.0,0.0,0.0,0.15497862,0,0,0.0,0.0,0,1,77.0,0.0,499.0,4517.435897435898,3953.333333333334,4549.743589743591,4409.743589743591,4221.025641025642,4568.205128205129,4460.000000000001,4388.717948717949,4409.743589743591,4745.128205128206,4368.717948717949,4295.8974358974365,4148.717948717949,4580.512820512821
459.26968,0.62514466,0.36650276,0.36161533,0.6330791,0,0.0,0.0,0.0,0.0,0.0,0,0,0.0,0.35494676,0,1,109.0,0.0,499.0,4505.641025641026,3895.8974358974365,4562.051282051282,4345.641025641026,4240.512820512821,4567.6923076923085,4460.512820512821,4363.589743589744,4384.615384615385,4775.384615384616,4367.179487179487,4269.74358974359,4144.102564102564,4489.2307692307695
459.5199,0.4917868,0.35211563,0.39561492,0.63074476,0,0.0,0.0,0.0,0.0,0.45825186,0,0,0.0,0.0,0,0,12.0,0.0,535.0,4516.923076923077,3897.435897435898,4564.102564102564,4339.48717948718,4212.820512820514,4541.025641025642,4452.820512820514,4342.051282051282,4371.794871794872,4734.871794871796,4338.461538461539,4234.871794871796,4120.000000000001,4446.666666666667
459.7701,0.4917868,0.35211563,0.39561492,0.63074476,0,0.0,0.0,0.0,0.0,0.23165344,0,0,0.0,0.0,0,0,44.0,0.0,0.0,4507.6923076923085,3908.205128205129,4565.641025641026,4324.102564102564,4181.538461538462,4503.076923076924,4426.666666666667,4327.6923076923085,4352.820512820514,4693.846153846154,4290.769230769231,4193.846153846154,4074.358974358975,4390.769230769231
460.02032,0.51698744,0.45349166,0.4262075,0.62897563,0,0.0,0.0,0.0,0.0,0.26724353,0,0,0.0,0.0,0,0,76.0,0.0,539.0,4507.6923076923085,3810.7692307692314,4560.512820512821,4264.615384615385,4144.615384615385,4453.333333333334,4418.974358974359,4290.256410256411,4312.307692307693,4601.025641025642,4235.384615384616,4167.6923076923085,4046.666666666667,4359.48717948718
460.27054,0.51698744,0.45349166,0.4262075,0.62897563,0,0.0,0.0,0.08902104,0.0,0.0,0,0,0.0,0.0,0,0,108.0,0.0,539.0,4506.666666666667,3666.666666666667,4544.615384615385,4169.2307692307695,4110.256410256411,4368.717948717949,4407.179487179487,4294.358974358975,4274.358974358975,4514.358974358975,4122.051282051282,4093.8461538461543,4049.7435897435903,4356.923076923077
460.52075,0.664949,0.54476976,0.45372918,0.62738,0,0.0,0.0,0.36374003,0.0,0.0,0,0,0.0,0.0,0,0,11.0,0.0,525.0,4505.641025641026,3742.564102564103,4546.153846153847,4215.384615384616,4091.7948717948725,4304.102564102564,4381.538461538462,4292.820512820514,4249.2307692307695,4457.948717948719,4131.282051282052,4029.23076923077,4087.692307692308,4465.128205128206
460.77097,0.664949,0.54476976,0.45372918,0.62738,0,0.0,0.0,0.090187915,0.0,0.0,0,0,0.0,0.0,0,0,43.0,0.0,0.0,4508.717948717949,3943.076923076924,4558.461538461539,4335.8974358974365,4154.358974358975,4319.48717948718,4381.538461538462,4291.794871794872,4257.948717948719,4502.051282051282,4168.717948717949,4020.5128205128212,4128.205128205129,4487.6923076923085
461.02118,0.7951551,0.6269201,0.47771645,0.6276176,0,0.0,0.0,0.11223119,0.0,0.0,0,0,0.0,0.0,0,0,75.0,0.0,525.0,4504.615384615385,3956.410256410257,4548.717948717949,4386.153846153847,4215.384615384616,4377.948717948719,4408.717948717949,4350.769230769231,4305.641025641026,4592.820512820514,4231.794871794872,4052.820512820513,4161.538461538462,4469.743589743591
461.2714,0.7951551,0.6269201,0.47771645,0.6276176,0,0.0,0.0,0.69621974,0.0,0.0,0,0,0.0,0.0,0,0,107.0,0.0,525.0,4490.256410256411,3934.8717948717954,4544.615384615385,4381.538461538462,4246.153846153847,4446.666666666667,4432.820512820514,4385.128205128206,4351.282051282052,4656.923076923077,4255.384615384616,4078.9743589743593,4218.461538461539,4445.128205128206
461.52164,0.7354482,0.7008554,0.48149714,0.63083774,0,0.0,0.0,0.20861812,0.0,0.0,0,1,0.0,0.0,0,0,10.0,0.0,567.0,4441.025641025642,3801.0256410256416,4532.307692307693,4254.358974358975,4231.282051282052,4505.641025641026,4452.307692307693,4461.025641025642,4430.256410256411,4725.641025641026,4320.512820512821,4110.769230769231,4247.179487179487,4281.538461538462
461.77185,0.7354482,0.7008554,0.48149714,0.63083774,0,0.0,0.0,0.048960652,0.0,0.0,0,1,0.0,0.0,0,0,42.0,0.0,0.0,4441.538461538462,3868.205128205129,4537.435897435898,4317.948717948719,4267.6923076923085,4537.435897435898,4435.8974358974365,4450.256410256411,4433.846153846154,4763.076923076924,4352.307692307693,4151.794871794872,4281.025641025642,4333.846153846154
462.02206,0.69567513,0.7673971,0.46763894,0.63534784,0,0.0,0.0,0.0,0.0,0.07045327,0,0,0.0,0.0,0,0,74.0,0.0,567.0,4444.102564102564,3926.666666666667,4544.615384615385,4378.974358974359,4277.948717948719,4567.6923076923085,4433.333333333334,4437.435897435898,4440.000000000001,4770.256410256411,4359.48717948718,4188.205128205129,4244.615384615385,4377.948717948719
462.27228,0.69567513,0.7673971,0.46763894,0.63534784,0,0.0,0.0,0.0,0.0,0.0,0,0,0.0,0.03898508,0,0,106.0,0.0,567.0,4452.820512820514,3955.3846153846157,4547.179487179488,4425.128205128206,4282.051282051282,4575.384615384616,4433.333333333334,4430.256410256411,4446.153846153847,4772.820512820514,4382.051282051282,4213.846153846154,4248.205128205129,4381.025641025642
462.5225,0.67418206,0.8272847,0.4551621,0.6410727,0,0.0,0.0,0.0,0.0,0.0,0,0,0.0,0.46611616,0,0,9.0,0.0,499.0,4470.256410256411,3989.7435897435903,4549.743589743591,4476.410256410257,4287.179487179487,4609.2307692307695,4451.282051282052,4426.153846153847,4449.743589743591,4759.48717948718,4325.128205128206,4223.589743589744,4226.666666666667,4436.923076923077
462.64758,0.67418206,0.8272847,0.4551621,0.6410727,0,0.0,0.0,0.0,0.0,0.0,0,0,0.0,1.0,0,0,25.0,0.0,0.0,4471.282051282052,3976.410256410257,4544.615384615385,4466.153846153847,4257.435897435898,4582.051282051282,4427.6923076923085,4396.923076923077,4425.128205128206,4701.538461538462,4330.256410256411,4223.076923076924,4187.6923076923085,4429.743589743591
463.02292,0.6936031,0.78941536,0.44125283,0.6448216,0,0.0,0.0,0.0,0.0,0.0,0,0,0.0,0.119597085,0,0,73.0,0.0,496.0,4473.333333333334,3940.0000000000005,4533.333333333334,4437.435897435898,4216.410256410257,4524.615384615385,4376.923076923077,4251.282051282052,4396.410256410257,4665.128205128206,4287.6923076923085,4229.2307692307695,4153.333333333334,4410.769230769231
463.27313,0.6936031,0.78941536,0.44125283,0.6448216,0,0.0,0.0,0.0,0.0,0.0,0,0,0.0,0.034498237,0,0,105.0,0.0,499.0,4502.051282051282,3928.205128205129,4517.435897435898,4461.538461538462,4222.564102564103,4514.358974358975,4380.512820512821,4250.256410256411,4368.717948717949,4712.820512820514,4332.307692307693,4257.948717948719,4170.769230769231,4491.282051282052
463.52335,0.6284364,0.75937766,0.42873448,0.64819556,0,0.0,0.0,0.0,0.0,0.0,0,0,0.0,0.24828441,0,0,8.0,0.0,401.0,4522.051282051282,3933.333333333334,4510.256410256411,4482.564102564103,4242.564102564103,4536.410256410257,4408.205128205129,4254.871794871796,4384.615384615385,4730.256410256411,4336.410256410257,4281.025641025642,4140.000000000001,4531.282051282052
463.77356,0.6284364,0.75937766,0.42873448,0.64819556,0,0.0,0.0,0.0,0.0,0.0,0,0,0.0,0.43578196,0,0,40.0,0.0,0.0,4558.974358974359,3893.8461538461543,4500.000000000001,4466.666666666667,4231.794871794872,4554.358974358975,4422.564102564103,4278.974358974359,4396.923076923077,4739.48717948718,4347.179487179487,4303.589743589744,4172.307692307693,4511.282051282052
464.05505,0.5875336,0.74567413,0.41914243,0.646506,1,0.0,0.0,0.0,0.0,0.0,0,0,0.0,0.3035392,0,0,76.0,0.0,537.0,4609.2307692307695,3943.076923076924,4501.025641025642,4514.358974358975,4225.641025641026,4523.589743589744,4418.461538461539,4286.153846153847,4397.435897435898,4749.743589743591,4389.2307692307695,4325.641025641026,4184.615384615385,4551.794871794872
464.274,0.5875336,0.74567413,0.41914243,0.646506,0,0.0,0.0,0.0,0.0,0.0,0,0,0.0,0.10736421,0,0,104.0,0.0,537.0,4581.538461538462,3864.1025641025644,4492.820512820514,4448.205128205129,4211.794871794872,4515.8974358974365,4433.333333333334,4302.051282051282,4386.153846153847,4735.384615384616,4323.076923076924,4285.128205128206,4116.410256410257,4415.384615384616
464.5242,0.5432639,0.7539531,0.41050568,0.63702655,0,0.0,0.0,0.0,0.0,0.0,0,0,0.0,0.020941982,0,0,7.0,0.0,471.0,4569.2307692307695,3826.666666666667,4493.846153846154,4410.256410256411,4182.051282051282,4481.538461538462,4407.179487179487,4278.461538461539,4350.769230769231,4672.820512820514,4300.512820512821,4244.615384615385,4071.7948717948725,4366.666666666667
464.7744,0.5432639,0.7539531,0.41050568,0.63702655,0,0.0,0.0,0.0,0.0,0.0,0,0,0.0,0.66376543,0,0,39.0,0.0,0.0,4555.8974358974365,3766.1538461538466,4484.102564102564,4314.358974358975,4128.717948717949,4415.384615384616,4386.666666666667,4236.923076923077,4285.641025641026,4515.384615384616,4225.128205128206,4185.641025641026,3998.461538461539,4326.666666666667
465.02463,0.63439995,0.75857294,0.40273383,0.6284947,0,0.0,0.0,0.0,0.0,0.0,0,0,0.0,0.28271756,0,0,71.0,0.0,471.0,4540.000000000001,3693.333333333334,4475.384615384616,4218.974358974359,4100.512820512821,4350.256410256411,4390.256410256411,4263.589743589744,4269.2307692307695,4469.743589743591,4164.102564102564,4098.461538461539,3956.410256410257,4307.179487179487
465.27484,0.63439995,0.75857294,0.40273383,0.6284947,0,0.0,0.0,0.0,0.0,0.0,0,0,0.0,0.054610167,0,0,103.0,0.0,526.0,4520.512820512821,3703.076923076924,4469.2307692307695,4216.410256410257,4109.2307692307695,4337.948717948719,4389.743589743591,4284.615384615385,4269.2307692307695,4485.128205128206,4185.128205128206,4033.8461538461543,3999.48717948718,4258.461538461539
465.52505,0.63661855,0.7631527,0.39573085,0.62081504,0,0.0,0.0,0.0,0.0,0.1290571,0,0,0.0,0.0,0,0,6.0,0.0,561.0,4493.846153846154,3765.6410256410263,4464.102564102564,4254.871794871796,4173.846153846154,4391.282051282052,4400.512820512821,4362.564102564103,4297.948717948719,4551.794871794872,4257.948717948719,4012.820512820513,4055.3846153846157,4271.794871794872
465.77527,0.63661855,0.7631527,0.39573085,0.62081504,0,0.0,0.0,0.0,0.0,0.19276859,0,0,0.0,0.0,0,0,38.0,0.0,0.0,4488.205128205129,3850.7692307692314,4469.743589743591,4309.743589743591,4205.128205128206,4442.051282051282,4418.461538461539,4408.205128205129,4331.282051282052,4637.435897435898,4317.435897435898,4053.8461538461543,4125.128205128206,4328.717948717949
466.02548,0.72233677,0.76727456,0.38942504,0.61390996,0,0.0,0.0,0.0,0.0,0.19560517,0,0,0.0,0.0,0,0,70.0,0.0,561.0,4483.589743589744,3906.666666666667,4481.025641025642,4349.743589743591,4241.538461538462,4491.282051282052,4428.205128205129,4437.948717948719,4354.358974358975,4715.384615384616,4378.461538461539,4103.076923076924,4178.974358974359,4365.641025641026
466.2757,0.72233677,0.76727456,0.38942504,0.61390996,0,0.0,0.0,0.0,0.0,0.0,0,0,0.23441428,0.0,0,0,102.0,0.0,564.0,4502.564102564103,3966.666666666667,4495.8974358974365,4402.564102564103,4266.666666666667,4526.153846153847,4428.717948717949,4426.666666666667,4377.435897435898,4790.256410256411,4450.769230769231,4151.282051282052,4243.076923076924,4390.769230769231
466.5259,0.73850626,0.7709842,0.3819408,0.61773103,0,0.0,0.0,0.0,0.0,0.0,0,0,0.19007045,0.0,0,0,5.0,0.0,595.0,4509.2307692307695,4021.0256410256416,4511.794871794872,4454.871794871796,4304.102564102564,4571.282051282052,4447.179487179487,4430.769230769231,4378.974358974359,4831.282051282052,4490.256410256411,4193.846153846154,4260.000000000001,4428.205128205129
466.77612,0.73850626,0.7709842,0.3819408,0.61773103,0,0.0,0.0,0.0,0.0,0.0,0,0,0.58831716,0.0,0,0,37.0,0.0,0.0,4522.564102564103,4020.5128205128212,4517.948717948719,4461.538461538462,4298.974358974359,4594.871794871796,4461.538461538462,4447.6923076923085,4401.025641025642,4860.000000000001,4508.205128205129,4237.435897435898,4268.717948717949,4496.410256410257
467.02637,0.8313295,0.77432287,0.37147853,0.6338727,0,0.0,0.0,0.0,0.0,0.0,0,0,0.56507844,0.0,0,0,69.0,0.0,592.0,4536.923076923077,4025.6410256410263,4518.461538461539,4467.6923076923085,4276.410256410257,4588.205128205129,4452.307692307693,4421.538461538462,4383.076923076924,4814.871794871796,4468.205128205129,4254.358974358975,4243.076923076924,4574.358974358975
467.27658,0.8313295,0.77432287,0.37147853,0.6338727,0,0.0,0.0,0.82014555,0.0,0.0,0,0,0.0,0.0,0,0,101.0,0.0,499.0,4533.846153846154,3989.7435897435903,4518.461538461539,4447.6923076923085,4250.769230769231,4576.410256410257,4444.102564102564,4411.282051282052,4377.435897435898,4772.820512820514,4426.666666666667,4241.025641025642,4201.538461538462,4525.128205128206
467.5268,0.895668,0.7186679,0.3589505,0.6491424,0,0.0,0.0,0.0,0.0,0.0,0,0,0.0,0.270778,0,0,4.0,0.0,589.0,4560.512820512821,4010.7692307692314,4525.128205128206,4467.179487179487,4256.410256410257,4585.641025641026,4443.589743589744,4396.410256410257,4383.076923076924,4782.051282051282,4439.48717948718,4293.333333333334,4202.564102564103,4607.179487179488
467.83954,0.895668,0.7186679,0.3589505,0.6491424,0,0.0,0.0,0.0,0.0,0.0,0,0,0.0,0.19200099,0,0,44.0,0.0,0.0,4604.615384615385,4090.7692307692314,4533.846153846154,4566.153846153847,4246.153846153847,4555.384615384616,4426.666666666667,4357.948717948719,4354.871794871796,4752.307692307693,4407.179487179487,4323.076923076924,4211.794871794872,4665.641025641026
468.02722,0.7913194,0.6930117,0.3476739,0.66286814,0,0.0,0.0,0.0,0.0,0.0,0,0,0.0,0.14769894,0,0,68.0,0.0,589.0,4590.256410256411,4027.692307692308,4535.8974358974365,4502.564102564103,4258.461538461539,4572.307692307693,4452.307692307693,4370.256410256411,4357.948717948719,4765.128205128206,4387.179487179487,4292.307692307693,4188.717948717949,4572.307692307693
468.27744,0.7913194,0.6930117,0.3476739,0.66286814,0,0.0,0.0,0.0,0.0,0.0,0,0,0.0,0.08274244,0,0,100.0,0.0,536.0,4579.48717948718,3991.7948717948725,4531.794871794872,4478.461538461539,4230.769230769231,4560.000000000001,4444.615384615385,4347.179487179487,4338.461538461539,4689.2307692307695,4345.128205128206,4237.435897435898,4113.846153846154,4479.48717948718
468.52765,0.75690424,0.67396665,0.3375242,0.6725293,0,0.0,0.0,0.0,0.0,0.0,0,0,0.0,0.35715175,0,0,3.0,0.0,573.0,4584.615384615385,3984.1025641025644,4535.384615384616,4476.410256410257,4247.6923076923085,4563.076923076924,4444.615384615385,4347.179487179487,4330.256410256411,4684.615384615386,4332.820512820514,4212.820512820514,4123.076923076924,4484.102564102564
468.77786,0.75690424,0.67396665,0.3375242,0.6725293,0,0.0,0.0,0.0,0.0,0.0,0,0,0.0,0.24278128,0,0,35.0,0.0,0.0,4583.076923076924,3956.410256410257,4516.410256410257,4446.153846153847,4225.128205128206,4540.000000000001,4441.538461538462,4355.384615384616,4328.205128205129,4665.128205128206,4336.410256410257,4190.256410256411,4131.794871794872,4487.6923076923085
469.02808,0.6473868,0.661824,0.3287915,0.67856276,0,0.0,0.0,0.0,0.0,0.0,0,0,0.0,0.32952708,0,0,67.0,0.0,573.0,4569.2307692307695,3959.48717948718,4510.769230769231,4425.641025641026,4219.48717948718,4527.6923076923085,4431.794871794872,4351.282051282052,4332.820512820514,4663.076923076924,4302.564102564103,4161.538461538462,4125.641025641026,4458.461538461539
469.2783,0.6473868,0.661824,0.3287915,0.67856276,0,0.0,0.0,0.0,0.0,0.0,0,0,0.0,0.22244827,0,0,99.0,0.0,523.0,4569.743589743591,4015.8974358974365,4519.48717948718,4446.666666666667,4226.153846153847,4529.743589743591,4433.333333333334,4369.743589743591,4332.820512820514,4693.333333333334,4332.820512820514,4182.051282051282,4164.102564102564,4484.102564102564
469.5285,0.5341684,0.644051,0.3251474,0.68099105,0,0.0,0.0,0.0,0.0,0.0,0,0,0.0,0.5414006,0,0,2.0,0.0,218.0,4567.6923076923085,4006.1538461538466,4516.923076923077,4438.974358974359,4230.256410256411,4536.923076923077,4442.564102564103,4400.000000000001,4358.974358974359,4736.410256410257,4358.974358974359,4197.435897435898,4200.000000000001,4512.307692307693
469.77872,0.5341684,0.644051,0.3251474,0.68099105,0,0.0,0.0,0.0,0.0,0.0,0,0,0.0,0.09403756,0,0,34.0,0.0,0.0,4606.153846153847,4087.692307692308,4527.179487179488,4535.384615384616,4230.256410256411,4518.974358974359,4413.846153846154,4362.564102564103,4346.153846153847,4743.589743589744,4401.025641025642,4269.74358974359,4262.564102564103,4628.205128205129
470.02893,0.48717552,0.60660654,0.32452446,0.6831642,0,0.0,0.0,0.0,0.0,0.0,0,0,0.0,0.05771795,0,0,66.0,0.0,218.0,4600.000000000001,4037.9487179487182,4516.923076923077,4508.717948717949,4237.435897435898,4525.128205128206,4420.512820512821,4400.000000000001,4369.2307692307695,4759.48717948718,4408.205128205129,4264.615384615385,4265.641025641026,4587.179487179488
470.27914,0.48717552,0.60660654,0.32452446,0.6831642,0,0.0,0.0,0.061608415,0.0,0.0,0,0,0.0,0.0,0,0,98.0,0.0,562.0,4569.2307692307695,3942.564102564103,4500.512820512821,4429.743589743591,4228.717948717949,4536.923076923077,4437.435897435898,4417.435897435898,4381.538461538462,4776.923076923077,4371.282051282052,4250.256410256411,4181.538461538462,4477.435897435898
470.52936,0.36543298,0.5771403,0.32524714,0.68510747,0,0.0,0.0,0.04634754,0.0,0.0,0,0,0.0,0.0,0,0,1.0,0.0,538.0,4576.410256410257,3927.1794871794878,4503.076923076924,4433.333333333334,4235.8974358974365,4540.512820512821,4433.846153846154,4410.256410256411,4362.564102564103,4754.871794871796,4304.102564102564,4237.435897435898,4149.2307692307695,4451.794871794872
470.77957,0.36543298,0.5771403,0.32524714,0.68510747,0,0.0,0.0,0.32420146,0.0,0.0,0,0,0.0,0.0,0,0,33.0,0.0,0.0,4574.871794871796,3893.333333333334,4496.923076923077,4412.307692307693,4230.256410256411,4527.179487179488,4436.410256410257,4414.358974358975,4359.48717948718,4694.358974358975,4313.333333333334,4243.589743589744,4113.846153846154,4460.000000000001
471.0298,0.3543259,0.5518643,0.3284595,0.68684393,0,0.0,0.0,0.28745392,0.0,0.0,0,0,0.0,0.0,0,0,65.0,0.0,538.0,4573.846153846154,3838.461538461539,4496.410256410257,4372.307692307693,4219.48717948718,4524.615384615385,4434.871794871796,4406.666666666667,4366.153846153847,4728.205128205129,4322.564102564103,4247.6923076923085,4145.128205128206,4497.435897435898
471.28,0.3543259,0.5518643,0.3284595,0.68684393,0,0.0,0.0,0.0,0.0,0.0,0,0,0.0,0.29251432,0,0,97.0,0.0,498.0,4573.333333333334,3791.7948717948725,4479.48717948718,4339.48717948718,4199.48717948718,4520.512820512821,4436.410256410257,4431.794871794872,4376.923076923077,4726.666666666667,4324.615384615385,4230.256410256411,4169.74358974359,4489.743589743591
471.5302,0.30621788,0.5341661,0.3321623,0.6883942,0,0.0,0.0,0.0,0.0,0.0,0,0,0.0,0.1038626,0,0,0.0,0.0,249.0,4586.153846153847,3819.48717948718,4467.6923076923085,4379.48717948718,4222.564102564103,4538.461538461539,4433.846153846154,4449.2307692307695,4377.948717948719,4716.410256410257,4322.564102564103,4231.282051282052,4178.461538461539,4500.512820512821
471.78043,0.30621788,0.5341661,0.3321623,0.6883942,0,0.0,0.0,0.0,0.0,0.0,0,0,0.0,0.15702656,0,0,32.0,0.0,0.0,4598.974358974359,3821.538461538462,4454.871794871796,4396.923076923077,4242.051282051282,4542.564102564103,4456.923076923077,4471.282051282052,4393.333333333334,4740.512820512821,4298.461538461539,4234.358974358975,4186.666666666667,4490.256410256411
472.03064,0.36559117,0.52306736,0.33417818,0.69304305,0,0.0,0.0,0.0,0.0,0.0,0,0,0.0,0.10720695,0,0,64.0,0.0,249.0,4617.435897435898,3883.589743589744,4448.717948717949,4466.153846153847,4251.794871794872,4542.564102564103,4447.6923076923085,4436.923076923077,4389.2307692307695,4736.410256410257,4304.615384615385,4247.6923076923085,4204.615384615385,4538.974358974359
472.28088,0.36559117,0.52306736,0.33417818,0.69304305,0,0.0,0.0,0.0,0.0,0.0,0,0,0.0,0.15420592,0,0,96.0,0.0,534.0,4607.179487179488,3873.333333333334,4444.102564102564,4457.948717948719,4239.48717948718,4534.871794871796,4438.974358974359,4426.666666666667,4389.743589743591,4732.820512820514,4333.846153846154,4228.205128205129,4188.717948717949,4507.179487179488
472.5311,0.32191065,0.5214325,0.334744,0.7010412,0,0.0,0.0,0.09180147,0.0,0.0,0,0,0.0,0.0,0,0,128.0,0.0,534.0,4614.358974358975,3889.7435897435903,4438.974358974359,4467.179487179487,4249.2307692307695,4527.179487179488,4431.794871794872,4418.461538461539,4391.282051282052,4724.615384615386,4290.769230769231,4216.410256410257,4171.794871794872,4497.948717948719
472.7813,0.32191065,0.5214325,0.334744,0.7010412,0,0.0,0.0,0.15752944,0.0,0.0,0,0,0.0,0.0,0,0,31.0,0.0,0.0,4612.820512820514,3909.2307692307695,4432.307692307693,4482.564102564103,4256.923076923077,4545.641025641026,4442.051282051282,4414.358974358975,4406.153846153847,4756.410256410257,4329.743589743591,4229.2307692307695,4199.48717948718,4503.076923076924
473.03152,0.2396431,0.5234873,0.33603254,0.70428205,0,0.0,0.0,0.0,0.0,0.0,0,0,0.0,0.07645663,0,0,63.0,0.0,0.0,4648.205128205129,4000.5128205128212,4436.923076923077,4550.256410256411,4253.846153846154,4536.410256410257,4428.205128205129,4384.615384615385,4399.48717948718,4747.6923076923085,4368.205128205129,4278.974358974359,4281.538461538462,4624.615384615385
473.28174,0.2396431,0.5234873,0.33603254,0.70428205,0,0.0,0.0,0.0,0.0,0.0,0,0,0.0,0.082174994,0,0,95.0,0.0,522.0,4649.743589743591,4023.589743589744,4442.564102564103,4561.025641025642,4262.564102564103,4533.846153846154,4424.615384615385,4392.820512820514,4401.025641025642,4740.000000000001,4355.384615384616,4280.512820512821,4261.538461538462,4620.512820512821
473.53195,0.24187629,0.53091633,0.33663517,0.705737,0,0.0,0.0,0.12952685,0.0,0.0,0,0,0.0,0.0,0,0,127.0,0.0,522.0,4618.461538461539,3915.3846153846157,4439.48717948718,4461.538461538462,4261.025641025642,4566.666666666667,4451.794871794872,4443.076923076924,4418.974358974359,4817.948717948719,4369.743589743591,4263.589743589744,4253.333333333334,4543.589743589744
473.78217,0.24187629,0.53091633,0.33663517,0.705737,0,0.0,0.0,0.0908842,0.0,0.0,0,0,0.0,0.0,0,0,30.0,0.0,0.0,4610.256410256411,3908.205128205129,4445.128205128206,4424.102564102564,4253.846153846154,4564.615384615385,4454.358974358975,4428.205128205129,4416.410256410257,4794.358974358975,4358.461538461539,4258.461538461539,4195.8974358974365,4467.179487179487
474.03238,0.17535648,0.53273594,0.33427957,0.707828,0,0.0,0.0,0.15196545,0.0,0.0,0,0,0.0,0.0,0,0,62.0,0.0,0.0,4590.256410256411,3913.333333333334,4455.384615384616,4407.179487179487,4232.307692307693,4556.410256410257,4445.128205128206,4402.564102564103,4400.000000000001,4754.358974358975,4337.435897435898,4217.948717948719,4170.256410256411,4420.000000000001
474.2826,0.17535648,0.53273594,0.33427957,0.707828,0,0.0,0.0,0.0,0.0,0.0,0,0,0.0,0.30839443,0,0,94.0,0.0,565.0,4601.025641025642,3973.333333333334,4473.846153846154,4453.333333333334,4238.461538461539,4546.666666666667,4435.8974358974365,4394.358974358975,4391.282051282052,4753.846153846154,4327.6923076923085,4213.846153846154,4163.076923076924,4473.846153846154
474.5328,0.1562459,0.5237585,0.3321595,0.7096927,0,0.0,0.0,0.13953514,0.0,0.0,0,0,0.0,0.0,0,0,126.0,0.0,565.0,4615.8974358974365,4022.564102564103,4486.153846153847,4511.794871794872,4223.076923076924,4509.743589743591,4409.2307692307695,4357.435897435898,4362.051282051282,4724.615384615386,4319.48717948718,4227.6923076923085,4153.333333333334,4529.2307692307695
474.78302,0.1562459,0.5237585,0.3321595,0.7096927,0,0.0,0.0,0.12750806,0.0,0.0,0,0,0.0,0.0,0,0,29.0,0.0,0.0,4603.589743589744,4017.435897435898,4490.256410256411,4504.102564102564,4204.102564102564,4484.615384615385,4390.256410256411,4300.512820512821,4325.128205128206,4673.846153846154,4295.8974358974365,4200.000000000001,4139.48717948718,4484.615384615385
475.03323,0.15010479,0.50843126,0.33315244,0.7098441,0,0.0,0.0,0.22831763,0.0,0.0,0,0,0.0,0.0,0,0,61.0,0.0,0.0,4597.948717948719,3999.48717948718,4484.102564102564,4492.820512820514,4175.384615384616,4462.564102564103,4370.769230769231,4287.6923076923085,4305.128205128206,4644.102564102564,4315.8974358974365,4144.102564102564,4093.333333333334,4500.512820512821
475.28345,0.15010479,0.50843126,0.33315244,0.7098441,0,0.0,0.0,0.0,0.0,0.0,0,0,0.0,0.41718075,0,0,93.0,0.0,498.0,4571.794871794872,3956.9230769230776,4483.076923076924,4455.8974358974365,4118.461538461539,4417.435897435898,4351.794871794872,4270.256410256411,4268.717948717949,4563.589743589744,4277.435897435898,4085.1282051282055,4016.9230769230776,4425.641025641026
475.53366,0.317356,0.48049605,0.33404616,0.7099661,0,0.0,0.0,0.0,0.0,0.0,0,0,0.21075499,0.0,0,0,125.0,0.0,498.0,4569.2307692307695,3927.1794871794878,4487.6923076923085,4425.128205128206,4154.871794871796,4415.384615384616,4362.051282051282,4299.48717948718,4282.051282051282,4567.6923076923085,4231.794871794872,4102.564102564103,4055.8974358974365,4444.102564102564
475.78387,0.317356,0.48049605,0.33404616,0.7099661,0,0.0,0.0,1.0,0.0,0.0,0,0,0.0,0.0,0,0,28.0,0.0,0.0,4585.128205128206,4010.2564102564106,4498.974358974359,4512.307692307693,4203.589743589744,4442.051282051282,4388.205128205129,4344.615384615385,4299.48717948718,4510.769230769231,4344.102564102564,4188.205128205129,4131.794871794872,4509.743589743591
476.0341,0.42249906,0.4514979,0.3369151,0.7115709,0,0.0,0.0,0.35848305,0.0,0.0,0,0,0.0,0.0,0,0,60.0,0.0,0.0,4571.282051282052,3982.0512820512827,4489.2307692307695,4481.538461538462,4126.666666666667,4432.307692307693,4367.6923076923085,4271.794871794872,4304.615384615385,4531.282051282052,4341.025641025642,4168.205128205129,4142.564102564103,4500.000000000001
476.2843,0.42249906,0.4514979,0.3369151,0.7115709,0,0.0,0.0,0.15276177,0.0,0.0,0,0,0.0,0.0,0,0,92.0,0.0,539.0,4584.102564102564,4007.1794871794878,4480.000000000001,4485.641025641026,4101.538461538462,4408.717948717949,4242.564102564103,4275.8974358974365,4279.48717948718,4515.384615384616,4344.615384615385,4163.589743589744,4092.307692307693,4469.2307692307695
476.53452,0.36313522,0.4375895,0.34677678,0.6998021,0,0.0,0.0,0.06304465,0.0,0.0,0,0,0.0,0.0,0,0,124.0,0.0,539.0,4543.076923076924,3922.564102564103,4473.333333333334,4406.666666666667,4009.23076923077,4480.000000000001,4324.102564102564,4352.820512820514,4317.435897435898,4586.666666666667,4343.076923076924,4145.128205128206,4083.076923076924,4369.2307692307695
476.78473,0.36313522,0.4375895,0.34677678,0.6998021,0,0.0,0.0,0.059404574,0.0,0.0,0,0,0.0,0.0,0,0,27.0,0.0,0.0,4534.871794871796,3907.1794871794878,4475.8974358974365,4395.8974358974365,4075.3846153846157,4492.307692307693,4377.435897435898,4372.307692307693,4326.153846153847,4593.846153846154,4333.846153846154,4148.717948717949,4084.1025641025644,4372.820512820514
477.03494,0.32301518,0.42829058,0.3616927,0.6774066,0,0.0,0.0,0.31918675,0.0,0.0,0,0,0.0,0.0,0,1,59.0,0.0,0.0,4528.205128205129,3946.666666666667,4479.48717948718,4420.512820512821,4132.820512820514,4489.2307692307695,4384.102564102564,4386.153846153847,4335.8974358974365,4618.974358974359,4330.769230769231,4144.615384615385,4117.948717948719,4450.256410256411
477.34772,0.32301518,0.42829058,0.3616927,0.6774066,0,0.0,0.0,0.33618617,0.0,0.0,0,0,0.0,0.0,0,0,99.0,0.0,524.0,4505.128205128206,3980.5128205128212,4487.179487179488,4452.820512820514,4226.153846153847,4512.307692307693,4411.282051282052,4398.974358974359,4353.846153846154,4667.179487179488,4331.794871794872,4093.8461538461543,4110.256410256411,4375.384615384616
477.53537,0.35443228,0.45015252,0.3713361,0.66712946,0,0.0,0.0,0.4100697,0.0,0.0,0,0,0.0,0.0,0,0,123.0,0.0,524.0,4490.769230769231,3945.1282051282055,4486.153846153847,4431.794871794872,4264.102564102564,4536.923076923077,4445.641025641026,4434.358974358975,4378.974358974359,4716.410256410257,4377.948717948719,4097.435897435898,4120.000000000001,4333.333333333334
477.7856,0.35443228,0.45015252,0.3713361,0.66712946,0,0.0,0.0,0.25978056,0.0,0.0,0,0,0.0,0.0,0,0,26.0,0.0,0.0,4475.8974358974365,3949.7435897435903,4486.153846153847,4433.846153846154,4289.2307692307695,4548.717948717949,4461.025641025642,4446.666666666667,4390.256410256411,4760.000000000001,4419.48717948718,4108.717948717949,4157.435897435898,4341.025641025642
478.03583,0.34886736,0.4657344,0.37396517,0.6729055,0,0.0,0.0,0.07515865,0.0,0.0,0,0,0.0,0.0,0,0,58.0,0.0,0.0,4556.410256410257,4090.7692307692314,4501.538461538462,4567.6923076923085,4271.794871794872,4536.410256410257,4460.000000000001,4427.179487179487,4382.564102564103,4775.384615384616,4509.743589743591,4246.666666666667,4320.000000000001,4640.512820512821
478.28604,0.34886736,0.4657344,0.37396517,0.6729055,0,0.0,0.0,0.087421365,0.0,0.0,0,0,0.0,0.0,0,0,90.0,0.0,565.0,4556.923076923077,4062.0512820512827,4510.256410256411,4537.948717948719,4278.974358974359,4536.923076923077,4458.461538461539,4367.6923076923085,4373.333333333334,4781.025641025642,4495.8974358974365,4264.102564102564,4271.794871794872,4576.410256410257
478.53625,0.33963597,0.51422733,0.37793753,0.6780897,0,0.0,0.0,0.0,0.0,0.34424332,0,0,0.0,0.0,0,0,122.0,0.0,565.0,4540.000000000001,3988.717948717949,4501.538461538462,4467.179487179487,4277.435897435898,4551.794871794872,4478.974358974359,4412.307692307693,4386.666666666667,4777.948717948719,4437.948717948719,4262.051282051282,4198.974358974359,4457.948717948719
478.78647,0.33963597,0.51422733,0.37793753,0.6780897,0,0.0,0.0,0.0,0.0,0.09499685,0,0,0.0,0.0,0,0,25.0,0.0,0.0,4569.2307692307695,4026.666666666667,4503.076923076924,4478.974358974359,4300.512820512821,4585.128205128206,4494.871794871796,4418.974358974359,4395.8974358974365,4807.6923076923085,4455.8974358974365,4296.923076923077,4213.333333333334,4524.615384615385
479.03668,0.29057798,0.5583019,0.38151008,0.6843783,0,0.0,0.0,0.0,0.0,0.48493272,0,0,0.0,0.0,0,0,57.0,0.0,0.0,4572.307692307693,3976.410256410257,4487.179487179488,4442.564102564103,4289.2307692307695,4583.589743589744,4492.820512820514,4405.128205128206,4375.8974358974365,4784.102564102564,4422.564102564103,4301.025641025642,4164.102564102564,4514.871794871796
479.2869,0.29057798,0.5583019,0.38151008,0.6843783,0,0.0,0.0,0.0,0.0,0.27026218,0,0,0.0,0.0,0,0,89.0,0.0,498.0,4570.256410256411,3973.333333333334,4494.358974358975,4447.6923076923085,4309.2307692307695,4616.923076923077,4512.307692307693,4411.794871794872,4396.923076923077,4826.153846153847,4440.000000000001,4315.384615384616,4171.282051282052,4468.205128205129
479.5371,0.34648278,0.5980471,0.38296822,0.6936029,0,0.0,0.0,0.0,0.0,0.5642862,0,0,0.0,0.0,0,0,121.0,0.0,498.0,4545.641025641026,3852.820512820513,4474.358974358975,4335.384615384616,4217.948717948719,4524.102564102564,4430.769230769231,4361.538461538462,4355.8974358974365,4699.48717948718,4346.666666666667,4231.282051282052,4082.564102564103,4330.256410256411
479.78732,0.34648278,0.5980471,0.38296822,0.6936029,0,0.0,0.0,0.0,0.0,0.22768545,0,0,0.0,0.0,0,0,24.0,0.0,0.0,4562.051282051282,3859.48717948718,4480.512820512821,4356.923076923077,4266.153846153847,4551.282051282052,4474.358974358975,4398.461538461539,4369.743589743591,4732.307692307693,4363.589743589744,4282.051282051282,4131.794871794872,4401.538461538462
480.03754,0.39147526,0.6338177,0.38427776,0.70188063,0,0.0,0.0,0.0,0.0,0.45117763,0,0,0.0,0.0,0,1,56.0,0.0,0.0,4572.307692307693,3810.2564102564106,4485.641025641026,4323.589743589744,4227.6923076923085,4512.307692307693,4447.179487179487,4302.564102564103,4371.282051282052,4773.846153846154,4417.435897435898,4340.512820512821,4262.051282051282,4515.8974358974365
480.28775,0.39147526,0.6338177,0.38427776,0.70188063,0,0.0,0.0,0.0,0.0,0.0,0,0,0.0,0.20244263,0,1,88.0,0.0,532.0,4566.666666666667,3813.333333333334,4486.153846153847,4297.948717948719,4246.153846153847,4523.076923076924,4466.666666666667,4364.102564102564,4394.358974358975,4805.641025641026,4417.948717948719,4327.6923076923085,4233.846153846154,4444.615384615385
480.53796,0.34527797,0.6660113,0.3854535,0.7138905,0,0.0,0.0,0.0,0.0,0.0,0,0,0.0,0.08100757,0,0,120.0,0.0,532.0,4555.8974358974365,3785.1282051282055,4470.256410256411,4294.871794871796,4228.717948717949,4512.307692307693,4458.974358974359,4379.48717948718,4395.384615384616,4791.794871794872,4400.512820512821,4309.743589743591,4257.948717948719,4466.153846153847
480.78818,0.34527797,0.6660113,0.3854535,0.7138905,0,0.0,0.0,0.0,0.0,0.0,0,0,0.0,0.24200805,0,0,23.0,0.0,0.0,4615.384615384616,3922.564102564103,4462.564102564103,4437.435897435898,4251.282051282052,4525.641025641026,4455.384615384616,4365.128205128206,4392.820512820514,4757.435897435898,4463.589743589744,4346.153846153847,4323.076923076924,4654.871794871796
481.0384,0.3306369,0.69498545,0.39341947,0.7237618,0,0.0,0.0,0.0,0.0,0.0,0,0,0.0,0.27158788,0,0,55.0,0.0,0.0,4617.435897435898,3949.7435897435903,4451.794871794872,4483.076923076924,4268.717948717949,4531.282051282052,4447.6923076923085,4337.435897435898,4391.282051282052,4732.820512820514,4395.8974358974365,4290.256410256411,4247.179487179487,4613.333333333334
481.2886,0.3306369,0.69498545,0.39341947,0.7237618,0,0.0,0.0,0.023555072,0.0,0.0,0,0,0.0,0.0,0,0,87.0,0.0,523.0,4614.871794871796,3883.076923076924,4434.358974358975,4431.794871794872,4293.333333333334,4555.384615384616,4529.2307692307695,4387.179487179487,4416.410256410257,4708.205128205129,4375.384615384616,4266.153846153847,4191.282051282052,4512.307692307693
481.53882,0.23098208,0.7103805,0.40660346,0.72802573,0,0.0,0.0,0.036961343,0.0,0.0,0,0,0.0,0.0,0,0,119.0,0.0,523.0,4644.102564102564,3995.8974358974365,4438.461538461539,4538.461538461539,4298.461538461539,4563.076923076924,4553.333333333334,4409.2307692307695,4431.282051282052,4749.2307692307695,4392.820512820514,4304.102564102564,4253.333333333334,4608.717948717949
481.78903,0.23098208,0.7103805,0.40660346,0.72802573,0,0.0,0.0,0.0,0.0,0.18062645,0,0,0.0,0.0,0,0,22.0,0.0,0.0,4648.205128205129,4021.0256410256416,4446.153846153847,4565.641025641026,4298.461538461539,4561.538461538462,4517.435897435898,4393.846153846154,4445.128205128206,4735.384615384616,4395.384615384616,4323.589743589744,4258.461538461539,4640.512820512821
482.03925,0.24963792,0.72766674,0.4184635,0.72936577,0,0.0,0.0,0.0,0.0,0.034513075,0,0,0.0,0.0,0,0,54.0,0.0,0.0,4653.333333333334,4016.410256410257,4444.102564102564,4563.076923076924,4317.435897435898,4585.128205128206,4521.538461538462,4414.358974358975,4457.948717948719,4765.641025641026,4404.615384615385,4294.358974358975,4277.948717948719,4608.717948717949
482.28946,0.24963792,0.72766674,0.4184635,0.72936577,0,0.0,0.0,0.0,0.0,0.23838815,0,0,0.0,0.0,0,0,86.0,0.0,563.0,4634.358974358975,3936.9230769230776,4446.666666666667,4483.076923076924,4320.512820512821,4603.589743589744,4527.179487179488,4446.153846153847,4462.564102564103,4794.871794871796,4389.2307692307695,4288.205128205129,4218.974358974359,4482.564102564103
482.53967,0.19491242,0.71706927,0.42913103,0.7304057,0,0.0,0.0,0.0,0.0,0.15773416,0,0,0.0,0.0,0,0,118.0,0.0,563.0,4632.820512820514,3934.358974358975,4455.8974358974365,4464.615384615385,4305.641025641026,4587.6923076923085,4511.282051282052,4445.128205128206,4435.384615384616,4773.333333333334,4333.333333333334,4261.025641025642,4172.307692307693,4445.641025641026
482.7899,0.19491242,0.71706927,0.42913103,0.7304057,0,0.0,0.0,0.0,0.0,0.0,0,0,0.0,0.19126081,0,0,21.0,0.0,0.0,4633.846153846154,3941.538461538462,4470.769230769231,4464.102564102564,4284.102564102564,4579.48717948718,4500.000000000001,4449.743589743591,4434.358974358975,4792.820512820514,4378.461538461539,4288.205128205129,4191.282051282052,4463.076923076924
483.0401,0.17435193,0.6887515,0.4332516,0.7313214,0,0.0,0.0,0.0,0.0,0.0,0,0,0.0,0.3076136,0,0,53.0,0.0,0.0,4631.794871794872,3971.2820512820517,4469.2307692307695,4458.461538461539,4257.435897435898,4549.2307692307695,4485.641025641026,4417.435897435898,4408.717948717949,4744.102564102564,4322.051282051282,4262.051282051282,4206.153846153847,4460.000000000001
483.29034,0.17435193,0.6887515,0.4332516,0.7313214,0,0.0,0.0,0.34326357,0.0,0.0,0,0,0.0,0.0,0,0,85.0,0.0,498.0,4632.820512820514,3965.1282051282055,4456.410256410257,4437.948717948719,4229.74358974359,4511.794871794872,4462.051282051282,4388.717948717949,4375.384615384616,4702.564102564103,4295.384615384616,4235.8974358974365,4172.307692307693,4462.564102564103
483.54056,0.12730439,0.6573245,0.43109328,0.72780925,0,0.0,0.0,0.31460238,0.0,0.0,0,0,0.0,0.0,0,0,117.0,0.0,498.0,4631.794871794872,3901.538461538462,4440.512820512821,4405.128205128206,4208.717948717949,4457.435897435898,4434.871794871796,4384.615384615385,4352.820512820514,4637.435897435898,4233.846153846154,4176.923076923077,4158.974358974359,4465.641025641026
483.79077,0.12730439,0.6573245,0.43109328,0.72780925,0,0.0,0.0,0.24555916,0.0,0.0,0,0,0.0,0.0,0,0,20.0,0.0,0.0,4634.871794871796,3882.0512820512827,4432.820512820514,4387.179487179487,4221.025641025642,4411.794871794872,4427.179487179487,4354.871794871796,4340.000000000001,4644.102564102564,4242.564102564103,4108.717948717949,4171.282051282052,4473.333333333334
484.041,0.17406827,0.61070156,0.4255867,0.7246381,0,0.0,0.0,0.0,0.0,0.31917846,0,0,0.0,0.0,0,0,52.0,0.0,0.0,4597.948717948719,3886.666666666667,4424.615384615385,4397.948717948719,4241.025641025642,4411.282051282052,4448.205128205129,4369.2307692307695,4342.564102564103,4666.153846153847,4253.333333333334,4063.589743589744,4183.589743589744,4489.2307692307695
484.2912,0.17406827,0.61070156,0.4255867,0.7246381,0,0.0,0.0,0.21635106,0.0,0.0,0,0,0.0,0.0,0,0,84.0,0.0,538.0,4571.794871794872,3898.9743589743593,4417.948717948719,4422.051282051282,4274.358974358975,4459.48717948718,4462.564102564103,4409.743589743591,4369.743589743591,4707.179487179488,4289.74358974359,4058.9743589743593,4220.512820512821,4482.051282051282
484.5414,0.22805935,0.5677319,0.41488448,0.7224367,0,0.0,0.0,0.020260088,0.0,0.0,0,0,0.0,0.0,0,0,116.0,0.0,538.0,4569.2307692307695,3924.1025641025644,4418.461538461539,4454.358974358975,4291.794871794872,4494.871794871796,4462.051282051282,4450.256410256411,4393.333333333334,4758.974358974359,4372.820512820514,4118.461538461539,4300.000000000001,4531.282051282052
484.79163,0.22805935,0.5677319,0.41488448,0.7224367,0,0.0,0.0,0.0,0.0,0.18831454,0,0,0.0,0.0,0,1,19.0,0.0,0.0,4584.615384615385,3952.820512820513,4411.282051282052,4484.615384615385,4302.051282051282,4530.769230769231,4495.384615384616,4502.051282051282,4427.6923076923085,4826.666666666667,4463.589743589744,4202.051282051282,4394.871794871796,4569.2307692307695
485.1044,0.31796473,0.5351251,0.40185046,0.7205774,0,0.0,0.0,0.0,0.0,0.05048347,1,0,0.0,0.0,0,0,59.0,0.0,0.0,4522.564102564103,3917.435897435898,4392.307692307693,4466.666666666667,4341.025641025642,4602.564102564103,4521.538461538462,4683.076923076924,4432.820512820514,4801.025641025642,4325.641025641026,4128.717948717949,4110.769230769231,4364.102564102564
485.3546,0.31796473,0.5351251,0.40185046,0.7205774,0,0.0,0.0,0.04218641,0.0,0.0,0,0,0.0,0.0,0,1,91.0,0.0,523.0,4585.641025641026,3952.820512820513,4394.871794871796,4503.076923076924,4308.205128205129,4622.051282051282,4535.384615384616,4670.769230769231,4458.461538461539,4868.717948717949,4530.256410256411,4316.410256410257,4354.871794871796,4669.2307692307695
485.54227,0.2775953,0.50578177,0.39586502,0.71577144,0,0.0,0.0,0.0,0.0,0.23741688,0,0,0.0,0.0,0,1,115.0,0.0,523.0,4557.948717948719,3886.666666666667,4398.974358974359,4438.461538461539,4331.282051282052,4669.743589743591,4570.769230769231,4616.923076923077,4473.846153846154,4874.871794871796,4494.871794871796,4293.333333333334,4249.2307692307695,4522.051282051282
485.79248,0.2775953,0.50578177,0.39586502,0.71577144,0,0.0,0.0,0.0,0.0,0.21439476,0,0,0.0,0.0,0,1,18.0,0.0,0.0,4611.282051282052,3902.564102564103,4408.205128205129,4462.564102564103,4292.820512820514,4643.589743589744,4555.384615384616,4601.538461538462,4494.871794871796,4862.564102564103,4575.384615384616,4398.974358974359,4397.948717948719,4698.461538461539
486.0427,0.27816105,0.47937274,0.39047503,0.7114396,0,0.0,0.0,0.0,0.0,0.39381492,0,0,0.0,0.0,0,1,50.0,0.0,0.0,4584.615384615385,3890.2564102564106,4406.666666666667,4444.615384615385,4307.6923076923085,4645.128205128206,4520.000000000001,4573.333333333334,4471.282051282052,4786.153846153847,4423.589743589744,4325.641025641026,4169.74358974359,4465.641025641026
486.2929,0.27816105,0.47937274,0.39047503,0.7114396,0,0.0,0.0,0.0,0.0,0.34341338,0,0,0.0,0.0,0,0,82.0,0.0,563.0,4603.076923076924,3905.6410256410263,4409.743589743591,4450.256410256411,4301.025641025642,4635.384615384616,4494.871794871796,4534.871794871796,4472.820512820514,4707.179487179488,4343.076923076924,4293.333333333334,4095.3846153846157,4419.48717948718
486.54312,0.29687425,0.45560464,0.38893887,0.70753413,0,0.0,0.0,0.0,0.0,0.2879361,0,0,0.0,0.0,0,0,114.0,0.0,563.0,4629.2307692307695,3894.8717948717954,4418.974358974359,4444.102564102564,4304.102564102564,4641.025641025642,4514.358974358975,4512.307692307693,4469.2307692307695,4729.2307692307695,4375.384615384616,4306.153846153847,4098.461538461539,4431.794871794872
486.79333,0.29687425,0.45560464,0.38893887,0.70753413,0,0.0,0.0,0.0,0.0,0.15891156,0,0,0.0,0.0,0,0,17.0,0.0,0.0,4635.8974358974365,3909.2307692307695,4423.589743589744,4462.564102564103,4294.358974358975,4617.948717948719,4494.358974358975,4527.179487179488,4467.6923076923085,4742.564102564103,4385.641025641026,4330.769230769231,4124.615384615385,4485.128205128206
487.04355,0.21875992,0.43421334,0.40615538,0.6988797,0,0.0,0.0,0.0,0.0,0.0,0,0,0.0,0.6025212,0,1,49.0,0.0,0.0,4656.923076923077,3888.717948717949,4427.179487179487,4445.641025641026,4253.333333333334,4587.179487179488,4491.794871794872,4509.2307692307695,4454.358974358975,4769.2307692307695,4427.179487179487,4355.384615384616,4195.8974358974365,4526.666666666667
487.29376,0.21875992,0.43421334,0.40615538,0.6988797,0,0.0,0.0,0.0,0.0,0.0,0,0,0.0,0.7683396,0,0,81.0,0.0,498.0,4654.358974358975,3787.692307692308,4422.564102564103,4352.307692307693,4210.769230769231,4564.615384615385,4501.538461538462,4494.358974358975,4434.871794871796,4737.948717948719,4431.794871794872,4356.923076923077,4216.923076923077,4532.307692307693
487.54398,0.14861594,0.48996937,0.43188393,0.6910909,0,0.0,0.0,0.0,0.0,0.0,0,0,0.0,0.16830377,0,0,113.0,0.0,498.0,4648.205128205129,3783.589743589744,4421.538461538462,4338.974358974359,4206.153846153847,4536.410256410257,4486.153846153847,4443.589743589744,4430.256410256411,4733.333333333334,4412.307692307693,4337.948717948719,4189.74358974359,4521.538461538462
487.7942,0.14861594,0.48996937,0.43188393,0.6910909,0,0.0,0.0,0.0,0.0,0.0,0,0,0.0,0.29203972,0,0,16.0,0.0,0.0,4648.717948717949,3827.1794871794878,4430.256410256411,4368.205128205129,4232.820512820514,4537.435897435898,4494.358974358975,4448.205128205129,4414.871794871796,4715.384615384616,4393.846153846154,4315.8974358974365,4185.128205128206,4506.666666666667
488.0444,0.12511401,0.5094147,0.4550288,0.68407995,0,0.0,0.0,0.0,0.0,0.20430091,0,0,0.0,0.0,0,0,48.0,0.0,0.0,4633.333333333334,3881.0256410256416,4430.256410256411,4416.923076923077,4247.179487179487,4531.794871794872,4489.743589743591,4446.666666666667,4415.8974358974365,4727.6923076923085,4394.358974358975,4282.564102564103,4188.717948717949,4477.948717948719
488.29462,0.12511401,0.5094147,0.4550288,0.68407995,0,0.0,0.0,0.0,0.0,0.74833333,0,0,0.0,0.0,0,0,80.0,0.0,535.0,4617.435897435898,3891.7948717948725,4428.205128205129,4440.000000000001,4247.179487179487,4526.153846153847,4482.051282051282,4437.435897435898,4405.128205128206,4737.948717948719,4412.820512820514,4267.179487179487,4172.820512820514,4450.256410256411
488.54483,0.12333709,0.5017653,0.47584513,0.68280643,0,0.0,0.0,0.16440575,0.0,0.0,0,0,0.0,0.0,0,0,112.0,0.0,535.0,4600.512820512821,3805.6410256410263,4418.461538461539,4355.384615384616,4194.358974358975,4452.307692307693,4447.6923076923085,4393.846153846154,4358.974358974359,4685.128205128206,4365.128205128206,4238.974358974359,4124.615384615385,4394.871794871796
488.79507,0.12333709,0.5017653,0.47584513,0.68280643,0,0.0,0.0,0.08817255,0.0,0.0,0,0,0.0,0.0,0,0,15.0,0.0,524.0,4566.666666666667,3754.358974358975,4405.641025641026,4291.794871794872,4171.794871794872,4393.333333333334,4426.666666666667,4390.256410256411,4326.153846153847,4647.179487179488,4307.6923076923085,4147.179487179487,4124.102564102564,4349.743589743591
489.0453,0.3043362,0.47066206,0.49162415,0.6916759,0,0.0,0.0,0.13034502,0.0,0.0,0,0,0.0,0.0,0,0,47.0,0.0,0.0,4534.871794871796,3758.9743589743593,4403.589743589744,4275.384615384616,4200.000000000001,4391.794871794872,4412.307692307693,4386.153846153847,4307.6923076923085,4648.717948717949,4255.384615384616,4041.538461538462,4109.2307692307695,4316.923076923077
489.2955,0.3043362,0.47066206,0.49162415,0.6916759,0,0.0,0.0,0.0,0.0,0.3106101,0,0,0.0,0.0,0,0,79.0,0.0,528.0,4505.641025641026,3814.358974358975,4407.179487179487,4305.641025641026,4247.179487179487,4424.102564102564,4422.564102564103,4405.128205128206,4335.384615384616,4712.820512820514,4307.179487179487,4021.0256410256416,4160.512820512821,4345.128205128206
489.54572,0.42586023,0.42668605,0.4964202,0.70570534,0,0.0,0.0,0.0680337,0.0,0.0,0,0,0.0,0.0,0,0,111.0,0.0,528.0,4492.820512820514,3894.8717948717954,4422.051282051282,4368.205128205129,4300.512820512821,4482.564102564103,4446.153846153847,4365.641025641026,4348.717948717949,4790.769230769231,4351.794871794872,4040.0000000000005,4204.102564102564,4376.923076923077
489.79593,0.42586023,0.42668605,0.4964202,0.70570534,0,0.0,0.0,0.025804881,0.0,0.0,0,0,0.0,0.0,0,0,14.0,0.0,565.0,4492.307692307693,3960.0000000000005,4429.743589743591,4416.923076923077,4326.666666666667,4515.384615384616,4443.076923076924,4380.000000000001,4361.025641025642,4828.717948717949,4415.384615384616,4076.9230769230776,4231.794871794872,4401.025641025642
490.04614,0.47502607,0.38516203,0.4892146,0.7182952,0,0.0,0.0,0.010416113,0.0,0.0,0,0,0.0,0.0,0,0,46.0,0.0,0.0,4528.205128205129,4077.9487179487187,4454.871794871796,4513.333333333334,4335.384615384616,4528.205128205129,4418.974358974359,4334.358974358975,4373.846153846154,4854.871794871796,4472.307692307693,4172.307692307693,4330.256410256411,4544.615384615385
490.29636,0.47502607,0.38516203,0.4892146,0.7182952,0,0.0,0.0,0.029027518,0.0,0.0,0,0,0.0,0.0,0,0,78.0,0.0,565.0,4536.410256410257,4095.8974358974365,4468.205128205129,4533.333333333334,4348.717948717949,4585.128205128206,4439.48717948718,4346.153846153847,4387.6923076923085,4861.025641025642,4480.000000000001,4211.794871794872,4315.8974358974365,4531.794871794872
490.54657,0.5561418,0.35263065,0.47065958,0.7295863,0,0.0,0.0,0.0,0.0,0.17546669,0,0,0.0,0.0,0,0,110.0,0.0,565.0,4536.410256410257,4077.435897435898,4480.512820512821,4535.384615384616,4349.2307692307695,4599.48717948718,4433.333333333334,4368.205128205129,4381.538461538462,4857.948717948719,4501.538461538462,4253.333333333334,4270.769230769231,4513.846153846154
490.79678,0.5561418,0.35263065,0.47065958,0.7295863,0,0.0,0.0,0.0,0.0,0.04264796,0,0,0.0,0.0,0,0,13.0,0.0,499.0,4549.2307692307695,4052.820512820513,4476.410256410257,4524.102564102564,4342.051282051282,4635.384615384616,4465.641025641026,4391.794871794872,4407.179487179487,4866.153846153847,4492.820512820514,4307.179487179487,4250.256410256411,4531.282051282052
491.047,0.52859765,0.33568528,0.4506538,0.73909134,0,0.0,0.0,0.0,0.0,0.27340555,0,0,0.0,0.0,0,0,45.0,0.0,0.0,4558.974358974359,4034.358974358975,4475.384615384616,4532.307692307693,4334.358974358975,4644.615384615385,4476.923076923077,4397.948717948719,4408.717948717949,4854.871794871796,4477.435897435898,4340.000000000001,4242.564102564103,4572.307692307693
491.2972,0.52859765,0.33568528,0.4506538,0.73909134,0,0.0,0.0,0.33394238,0.0,0.0,0,0,0.0,0.0,0,0,77.0,0.0,499.0,4568.717948717949,4016.9230769230776,4476.923076923077,4529.2307692307695,4305.641025641026,4618.461538461539,4469.743589743591,4399.48717948718,4402.051282051282,4822.051282051282,4481.025641025642,4366.666666666667,4220.512820512821,4586.666666666667
491.54742,0.4543423,0.3241125,0.43069753,0.7476031,0,0.0,0.0,0.0,0.0,0.0,0,0,0.0,0.61947393,1,0,109.0,0.0,499.0,4597.435897435898,4062.0512820512827,4481.025641025642,4571.282051282052,4298.461538461539,4591.794871794872,4450.769230769231,4370.769230769231,4376.410256410257,4757.948717948719,4438.461538461539,4374.358974358975,4169.74358974359,4619.48717948718
491.79764,0.4543423,0.3241125,0.43069753,0.7476031,0,0.0,0.0,0.08531491,0.0,0.0,0,0,0.0,0.0,1,0,12.0,0.0,530.0,4569.743589743591,3945.6410256410263,4469.743589743591,4477.435897435898,4248.205128205129,4568.205128205129,4458.461538461539,4387.6923076923085,4369.2307692307695,4735.384615384616,4375.384615384616,4338.461538461539,4132.820512820514,4529.743589743591
492.04785,0.45141843,0.346312,0.41273415,0.75391954,0,0.0,0.0,0.010245696,0.0,0.0,0,0,0.0,0.0,0,0,44.0,0.0,0.0,4570.769230769231,3901.0256410256416,4459.48717948718,4440.000000000001,4243.076923076924,4547.6923076923085,4453.333333333334,4392.307692307693,4378.461538461539,4740.000000000001,4356.410256410257,4321.538461538462,4145.641025641026,4511.282051282052
492.29807,0.45141843,0.346312,0.41273415,0.75391954,0,0.0,0.0,0.0,0.0,0.059180327,0,0,0.0,0.0,0,0,76.0,0.0,530.0,4567.6923076923085,3907.1794871794878,4453.333333333334,4436.923076923077,4241.025641025642,4529.2307692307695,4451.282051282052,4394.871794871796,4377.948717948719,4713.333333333334,4342.564102564103,4292.307692307693,4138.974358974359,4503.589743589744
492.54828,0.43492946,0.344091,0.3976871,0.758868,0,0.0,0.0,0.024383217,0.0,0.0,0,0,0.0,0.0,0,0,108.0,0.0,530.0,4568.717948717949,3929.2307692307695,4459.48717948718,4446.153846153847,4254.871794871796,4541.538461538462,4464.615384615385,4436.923076923077,4384.615384615385,4736.923076923077,4328.717948717949,4282.051282051282,4166.153846153847,4531.282051282052
492.7985,0.43492946,0.344091,0.3976871,0.758868,0,0.0,0.0,0.056346536,0.0,0.0,0,0,0.0,0.0,0,0,11.0,0.0,521.0,4609.743589743591,4071.2820512820517,4481.538461538462,4568.205128205129,4271.794871794872,4516.410256410257,4445.641025641026,4377.948717948719,4361.538461538462,4704.102564102564,4351.282051282052,4308.205128205129,4216.923076923077,4689.2307692307695
493.0487,0.38241827,0.34757057,0.38600156,0.7635833,0,0.0,0.0,0.0,0.0,0.13808976,0,0,0.0,0.0,0,0,43.0,0.0,0.0,4567.179487179488,3978.461538461539,4480.000000000001,4470.256410256411,4263.589743589744,4529.743589743591,4451.282051282052,4394.358974358975,4376.410256410257,4713.333333333334,4292.820512820514,4220.512820512821,4146.153846153847,4536.923076923077
493.29892,0.38241827,0.34757057,0.38600156,0.7635833,0,0.0,0.0,0.0,0.0,0.15082827,0,0,0.0,0.0,0,0,75.0,0.0,521.0,4598.461538461539,4057.435897435898,4495.384615384616,4523.076923076924,4256.410256410257,4530.256410256411,4445.128205128206,4350.256410256411,4374.871794871796,4706.666666666667,4350.256410256411,4282.564102564103,4249.74358974359,4642.051282051282
493.54913,0.29029506,0.39320785,0.37548223,0.76495147,0,0.0,0.0,0.0,0.0,0.10258018,0,0,0.0,0.0,0,1,107.0,0.0,521.0,4600.512820512821,4070.7692307692314,4503.589743589744,4546.153846153847,4262.564102564103,4538.461538461539,4445.128205128206,4351.282051282052,4372.820512820514,4700.512820512821,4356.410256410257,4291.794871794872,4237.948717948719,4641.538461538462
493.79935,0.29029506,0.39320785,0.37548223,0.76495147,0,0.0,0.0,0.12571524,0.0,0.0,0,0,0.0,0.0,0,0,10.0,0.0,565.0,4602.564102564103,4010.7692307692314,4500.512820512821,4503.589743589744,4252.820512820514,4535.8974358974365,4451.794871794872,4358.974358974359,4376.923076923077,4732.307692307693,4364.102564102564,4305.641025641026,4254.871794871796,4640.000000000001
494.0496,0.22452816,0.4080052,0.36953554,0.7617995,0,0.0,0.0,0.036776815,0.0,0.0,0,0,0.0,0.0,0,0,42.0,0.0,0.0,4565.641025641026,3900.0000000000005,4493.846153846154,4377.948717948719,4218.974358974359,4549.743589743591,4471.282051282052,4441.538461538462,4394.871794871796,4713.846153846154,4305.641025641026,4248.717948717949,4170.769230769231,4473.846153846154
494.2998,0.22452816,0.4080052,0.36953554,0.7617995,0,0.0,0.0,0.012684893,0.0,0.0,0,0,0.0,0.0,0,0,74.0,0.0,565.0,4555.8974358974365,3899.48717948718,4502.051282051282,4354.871794871796,4188.717948717949,4518.461538461539,4452.820512820514,4402.051282051282,4375.384615384616,4667.6923076923085,4270.769230769231,4228.717948717949,4131.794871794872,4425.128205128206
494.55002,0.25585252,0.4204967,0.36869115,0.7572945,0,0.0,0.0,0.0,0.0,0.09875029,0,0,0.0,0.0,0,0,106.0,0.0,565.0,4567.6923076923085,3963.589743589744,4516.923076923077,4404.102564102564,4170.256410256411,4470.769230769231,4416.923076923077,4308.717948717949,4334.871794871796,4603.076923076924,4222.564102564103,4209.74358974359,4122.564102564103,4510.769230769231
494.80023,0.25585252,0.4204967,0.36869115,0.7572945,0,0.0,0.0,0.0,0.0,0.070015155,0,0,0.0,0.0,0,0,9.0,0.0,499.0,4541.025641025642,3923.589743589744,4511.794871794872,4357.948717948719,4183.589743589744,4458.461538461539,4406.666666666667,4295.384615384616,4317.435897435898,4582.051282051282,4184.615384615385,4136.923076923077,4088.717948717949,4467.6923076923085
495.05045,0.25281036,0.42202532,0.3705247,0.75105846,0,0.0,0.0,0.0,0.0,0.15812811,0,0,0.0,0.0,0,0,41.0,0.0,0.0,4518.974358974359,3904.1025641025644,4506.153846153847,4319.48717948718,4195.384615384616,4452.307692307693,4403.076923076924,4312.820512820514,4316.410256410257,4585.128205128206,4198.974358974359,4089.7435897435903,4070.2564102564106,4389.743589743591
495.30066,0.25281036,0.42202532,0.3705247,0.75105846,0,0.0,0.0,0.0,0.0,0.27533224,0,0,0.0,0.0,0,0,73.0,0.0,499.0,4505.641025641026,3981.538461538462,4514.871794871796,4363.076923076924,4215.8974358974365,4454.871794871796,4394.358974358975,4306.153846153847,4322.564102564103,4595.384615384616,4192.307692307693,4054.358974358975,4081.538461538462,4378.461538461539
