timestamp,excitement,frustration,meditation,engagementBoredom,blink,clench,laugh,smile,eyebrow,furrowBrow,lookLeft,lookRight,smirkLeft,smirkRight,winkLeft,winkRight,eeg0,eeg1,eeg2,eeg3,eeg4,eeg5,eeg6,eeg7,eeg8,eeg9,eeg10,eeg11,eeg12,eeg13,eeg14,eeg15,eeg16
5.629838,0.48245546,0.0,0.31891003,0.6592621,0,0.0,0.0,0.0,0.0,0.22275421,0,0,0.0,0.0,0,1,83.0,0.0,505.0,4587.179487179488,3940.5128205128212,4414.871794871796,4443.589743589744,4328.717948717949,4647.6923076923085,4522.051282051282,4514.871794871796,4446.153846153847,4890.769230769231,4552.820512820514,4298.461538461539,4381.025641025642,4550.769230769231
5.880053,0.48245546,0.0,0.31891003,0.6592621,0,0.0,0.0,0.0,0.0,0.41090846,0,0,0.0,0.0,0,0,115.0,0.0,505.0,4604.615384615385,3956.410256410257,4411.794871794872,4444.102564102564,4278.974358974359,4598.461538461539,4481.025641025642,4471.794871794872,4430.256410256411,4738.974358974359,4449.743589743591,4268.717948717949,4250.769230769231,4513.846153846154
6.005161,0.50076056,0.0,0.32885858,0.70107037,0,0.0,0.0,0.0,0.0,0.0,0,0,0.0,1.0,0,0,2.0,0.0,215.0,4624.615384615385,3962.564102564103,4415.8974358974365,4440.512820512821,4287.6923076923085,4628.205128205129,4506.666666666667,4495.384615384616,4436.410256410257,4765.641025641026,4423.589743589744,4257.948717948719,4260.512820512821,4521.025641025642
6.005161,0.50076056,0.0,0.32885858,0.70107037,0,0.0,0.0,0.0,0.0,0.0,0,0,0.0,1.0,0,0,2.0,0.0,215.0,4624.615384615385,3962.564102564103,4415.8974358974365,4440.512820512821,4287.6923076923085,4628.205128205129,4506.666666666667,4495.384615384616,4436.410256410257,4765.641025641026,4423.589743589744,4257.948717948719,4260.512820512821,4521.025641025642
6.5368676,0.4748751,0.0,0.33782417,0.73896056,0,0.0,0.0,0.0,0.0,0.0,0,0,0.0,1.0,0,0,70.0,0.0,543.0,4610.256410256411,3928.205128205129,4414.871794871796,4395.384615384616,4238.974358974359,4592.820512820514,4481.538461538462,4473.846153846154,4444.102564102564,4820.000000000001,4408.717948717949,4278.461538461539,4343.589743589744,4527.179487179488
6.8809133,0.4748751,0.0,0.33782417,0.73896056,0,0.0,0.0,0.0,0.0,0.0,0,0,0.0,0.3637462,0,0,114.0,0.0,541.0,4623.076923076924,3974.8717948717954,4428.205128205129,4438.974358974359,4222.051282051282,4560.512820512821,4454.871794871796,4438.974358974359,4428.205128205129,4780.512820512821,4423.076923076924,4315.384615384616,4312.307692307693,4647.6923076923085
7.1311283,0.45756716,0.0,0.34586352,0.77237403,0,0.0,0.0,0.0,0.0,0.35136944,0,0,0.0,0.0,0,1,17.0,0.0,0.0,4623.076923076924,3946.1538461538466,4449.743589743591,4435.8974358974365,4215.384615384616,4590.769230769231,4503.076923076924,4507.179487179488,4448.717948717949,4820.000000000001,4444.102564102564,4374.358974358975,4285.641025641026,4661.025641025642
7.3813434,0.45756716,0.0,0.34586352,0.77237403,0,0.0,0.0,0.0,0.0,0.10603117,0,0,0.0,0.0,0,0,49.0,0.0,0.0,4606.153846153847,3933.8461538461543,4447.179487179487,4422.051282051282,4232.307692307693,4571.282051282052,4470.769230769231,4477.948717948719,4427.179487179487,4783.076923076924,4419.48717948718,4352.307692307693,4251.794871794872,4614.358974358975
7.506451,0.4469961,0.0,0.3456022,0.77341366,0,0.0,0.0,0.0,0.0,1.0,0,0,0.0,0.0,0,0,65.0,0.0,517.0,4595.8974358974365,3955.8974358974365,4440.512820512821,4438.461538461539,4257.435897435898,4574.871794871796,4462.564102564103,4458.974358974359,4405.641025641026,4734.358974358975,4342.564102564103,4296.410256410257,4125.128205128206,4503.076923076924
7.8817735,0.4469961,0.0,0.3456022,0.77341366,0,0.0,0.0,0.0,0.0,0.7400678,0,0,0.0,0.0,0,0,113.0,0.0,491.0,4600.512820512821,3977.9487179487182,4453.846153846154,4451.794871794872,4292.820512820514,4582.051282051282,4476.410256410257,4462.051282051282,4417.948717948719,4755.384615384616,4363.076923076924,4304.615384615385,4164.615384615385,4527.6923076923085
8.131989,0.4615922,0.0,0.34434658,0.7507364,0,0.0,0.0,0.0,0.0,0.0,0,0,0.41471133,0.0,0,0,16.0,0.0,0.0,4602.051282051282,3986.666666666667,4463.589743589744,4499.48717948718,4277.948717948719,4577.948717948719,4479.48717948718,4465.128205128206,4430.769230769231,4769.743589743591,4377.435897435898,4310.769230769231,4183.076923076924,4541.025641025642
8.382203,0.4615922,0.0,0.34434658,0.7507364,0,0.0,0.0,0.0,0.0,0.0,0,0,0.6027379,0.0,0,0,48.0,0.0,0.0,4587.179487179488,3965.1282051282055,4464.102564102564,4467.6923076923085,4272.820512820514,4581.538461538462,4481.025641025642,4470.769230769231,4425.641025641026,4760.000000000001,4359.48717948718,4297.435897435898,4167.179487179487,4494.871794871796
8.632419,0.48199952,0.0,0.34321406,0.7304043,0,0.0,0.0,0.0,0.0,0.0,0,0,0.3197726,0.0,0,0,80.0,0.0,519.0,4590.256410256411,3956.410256410257,4462.051282051282,4455.8974358974365,4231.794871794872,4553.846153846154,4466.666666666667,4443.076923076924,4395.384615384616,4718.974358974359,4332.820512820514,4294.871794871796,4143.076923076924,4460.512820512821
8.882633,0.48199952,0.0,0.34321406,0.7304043,0,0.0,0.0,0.0,0.0,0.03234608,0,0,0.0,0.0,0,0,112.0,0.0,519.0,4589.743589743591,3866.666666666667,4450.256410256411,4373.846153846154,4196.410256410257,4532.820512820514,4493.846153846154,4453.846153846154,4352.820512820514,4598.974358974359,4258.974358974359,4257.435897435898,4083.589743589744,4415.384615384616
9.132849,0.49862772,0.0,0.34218672,0.7121581,0,0.0,0.11855474,0.0,0.0,0.0,0,0,0.0,0.0,0,0,15.0,0.0,510.0,4601.025641025642,3732.307692307693,4453.846153846154,4252.820512820514,4161.025641025642,4473.333333333334,4527.6923076923085,4466.666666666667,4303.589743589744,4519.48717948718,4193.333333333334,4211.282051282052,4029.23076923077,4404.615384615385
9.383063,0.49862772,0.0,0.34218672,0.7121581,0,0.0,0.0,0.0,0.0,0.0,0,0,0.1250064,0.0,0,0,47.0,0.0,0.0,4584.102564102564,3730.7692307692314,4459.48717948718,4229.2307692307695,4140.512820512821,4416.410256410257,4481.538461538462,4427.179487179487,4278.461538461539,4492.820512820514,4154.871794871796,4128.717948717949,4008.717948717949,4370.256410256411
9.633279,0.58172685,0.0,0.34126016,0.7268031,0,0.0,0.0,0.0,0.0,0.0,0,0,0.48988357,0.0,0,0,79.0,0.0,510.0,4563.589743589744,3784.615384615385,4485.128205128206,4256.923076923077,4211.794871794872,4490.256410256411,4486.153846153847,4440.512820512821,4322.564102564103,4591.794871794872,4200.000000000001,4089.23076923077,4089.7435897435903,4423.589743589744
9.883493,0.58172685,0.0,0.34126016,0.7268031,0,0.0,0.0,0.0,0.0,0.0,0,0,0.79538167,0.0,0,0,111.0,0.0,510.0,4536.923076923077,3845.6410256410263,4488.717948717949,4294.358974358975,4260.512820512821,4517.948717948719,4493.333333333334,4431.794871794872,4341.538461538462,4683.076923076924,4279.48717948718,4069.23076923077,4166.666666666667,4448.717948717949
10.008601,0.6319472,0.51832366,0.33867186,0.77884895,0,0.0,0.0,0.0,0.0,0.0,0,0,1.0,0.0,0,0,127.0,0.0,510.0,4516.410256410257,3834.8717948717954,4481.538461538462,4282.564102564103,4245.128205128206,4522.051282051282,4487.6923076923085,4445.641025641026,4348.717948717949,4703.589743589744,4294.358974358975,4045.1282051282055,4168.717948717949,4431.794871794872
10.383924,0.6319472,0.51832366,0.33867186,0.77884895,0,0.0,0.0,0.0,0.0,0.0,0,0,0.37858647,0.0,0,0,46.0,0.0,0.0,4504.102564102564,3847.692307692308,4488.717948717949,4309.2307692307695,4254.871794871796,4548.717948717949,4506.153846153847,4461.538461538462,4352.307692307693,4683.076923076924,4285.641025641026,4051.7948717948725,4144.102564102564,4403.589743589744
10.634139,0.6059638,0.53460956,0.3333223,0.83394647,0,0.0,0.0,0.0,0.0,0.0,0,0,0.1251441,0.0,0,0,78.0,0.0,549.0,4516.923076923077,3833.8461538461543,4461.538461538462,4395.8974358974365,4297.948717948719,4576.923076923077,4575.8974358974365,4490.769230769231,4372.307692307693,4702.051282051282,4263.589743589744,4023.589743589744,4091.2820512820517,4408.205128205129
10.884354,0.6059638,0.53460956,0.3333223,0.83394647,0,0.0,0.0,0.0,0.0,0.0,0,0,0.17135422,0.0,0,0,110.0,0.0,549.0,4490.256410256411,3794.8717948717954,4466.153846153847,4328.205128205129,4295.8974358974365,4594.358974358975,4585.128205128206,4469.743589743591,4397.435897435898,4718.974358974359,4240.000000000001,4027.692307692308,4128.205128205129,4422.051282051282
11.134569,0.6079731,0.5601038,0.3275662,0.8876718,0,0.0,0.0,0.0,0.0,0.0,0,0,0.08235191,0.0,0,0,13.0,0.0,494.0,4491.282051282052,3841.0256410256416,4480.000000000001,4353.846153846154,4341.538461538462,4635.384615384616,4601.538461538462,4434.871794871796,4423.076923076924,4755.8974358974365,4291.794871794872,4082.564102564103,4190.256410256411,4475.8974358974365
11.384784,0.6079731,0.5601038,0.3275662,0.8876718,0,0.0,0.0,0.0,0.0,0.0,0,0,0.071149655,0.0,0,0,45.0,0.0,0.0,4489.2307692307695,3854.358974358975,4482.051282051282,4356.410256410257,4357.948717948719,4615.384615384616,4598.974358974359,4498.461538461539,4435.8974358974365,4787.6923076923085,4348.205128205129,4123.076923076924,4216.410256410257,4512.307692307693
11.634999,0.64349437,0.60133743,0.3223868,0.9374618,0,0.0,0.0,0.0,0.0,0.02784194,0,0,0.0,0.0,0,0,77.0,0.0,494.0,4474.871794871796,3875.3846153846157,4467.179487179487,4372.307692307693,4350.256410256411,4582.051282051282,4593.846153846154,4525.641025641026,4431.794871794872,4765.641025641026,4378.974358974359,4059.48717948718,4213.846153846154,4504.102564102564
11.885214,0.64349437,0.60133743,0.3223868,0.9374618,0,0.0,0.0,0.0,0.0,0.0,0,0,0.030038765,0.0,0,0,109.0,0.0,494.0,4468.717948717949,3905.1282051282055,4466.153846153847,4398.974358974359,4356.923076923077,4571.282051282052,4558.461538461539,4558.974358974359,4442.051282051282,4790.769230769231,4441.538461538462,4145.641025641026,4230.769230769231,4523.589743589744
12.135429,0.6232422,0.6500177,0.3177276,0.98074085,0,0.0,0.0,0.0,0.0,0.0,0,0,0.086423874,0.0,0,0,12.0,0.0,519.0,4481.025641025642,3958.9743589743593,4456.410256410257,4452.820512820514,4386.153846153847,4580.512820512821,4562.564102564103,4620.000000000001,4454.358974358975,4823.076923076924,4513.846153846154,4277.948717948719,4261.538461538462,4548.717948717949
12.385644,0.6232422,0.6500177,0.3177276,0.98074085,1,0.0,0.0,0.0,0.0,0.0,0,0,0.37156963,0.0,0,0,44.0,0.0,0.0,4525.128205128206,3981.0256410256416,4469.2307692307695,4488.205128205129,4313.333333333334,4538.974358974359,4526.666666666667,4597.948717948719,4437.435897435898,4799.48717948718,4576.923076923077,4411.794871794872,4318.461538461539,4655.384615384616
12.635859,0.60866606,0.7054739,0.3160456,1.0,0,0.0,0.0,0.0,0.0,0.13010302,0,0,0.0,0.0,0,0,76.0,0.0,517.0,4593.846153846154,4110.769230769231,4503.076923076924,4622.051282051282,4336.923076923077,4555.8974358974365,4496.923076923077,4567.179487179488,4432.820512820514,4805.128205128206,4636.410256410257,4514.871794871796,4409.2307692307695,4804.615384615386
12.886074,0.60866606,0.7054739,0.3160456,1.0,1,0.0,0.0,0.0,0.0,0.06994556,0,0,0.0,0.0,0,0,108.0,0.0,517.0,4591.794871794872,4108.205128205129,4500.000000000001,4627.179487179488,4269.2307692307695,4530.769230769231,4423.076923076924,4443.589743589744,4368.205128205129,4703.076923076924,4552.820512820514,4511.794871794872,4325.641025641026,4749.743589743591
13.136289,0.58835185,0.7553845,0.31810576,1.0,0,0.0,0.0,0.0,0.0,0.12334123,0,0,0.0,0.0,0,0,11.0,0.0,504.0,4631.794871794872,4072.820512820513,4514.871794871796,4598.461538461539,4273.333333333334,4561.538461538462,4446.153846153847,4466.153846153847,4391.282051282052,4740.512820512821,4538.461538461539,4533.846153846154,4325.128205128206,4733.846153846154
13.386504,0.58835185,0.7553845,0.31810576,1.0,0,0.0,0.0,0.0,0.0,0.18891002,0,0,0.0,0.0,0,0,43.0,0.0,0.0,4618.461538461539,4085.1282051282055,4559.48717948718,4601.025641025642,4283.076923076924,4582.564102564103,4445.641025641026,4451.282051282052,4404.102564102564,4755.8974358974365,4525.641025641026,4542.564102564103,4305.641025641026,4685.641025641026
13.636719,0.5928991,0.80030406,0.3215881,1.0,0,0.0,0.0,0.0,0.0,0.0,0,0,0.07355638,0.0,0,0,75.0,0.0,504.0,4582.564102564103,3945.6410256410263,4528.205128205129,4477.435897435898,4234.871794871796,4590.256410256411,4458.461538461539,4465.128205128206,4391.282051282052,4698.461538461539,4447.6923076923085,4485.128205128206,4184.615384615385,4472.307692307693
13.886934,0.5928991,0.80030406,0.3215881,1.0,1,0.0,0.0,0.0,0.0,0.0,0,0,0.19631408,0.0,0,0,107.0,0.0,504.0,4615.8974358974365,3944.1025641025644,4525.128205128206,4470.256410256411,4253.846153846154,4600.512820512821,4462.564102564103,4462.051282051282,4386.153846153847,4636.410256410257,4397.948717948719,4468.717948717949,4187.179487179487,4492.307692307693
14.137149,0.5854762,0.8407316,0.32700726,1.0,0,0.0,0.0,0.108653605,0.0,0.0,0,0,0.0,0.0,0,0,10.0,0.0,547.0,4587.179487179488,3888.717948717949,4510.256410256411,4428.717948717949,4214.871794871796,4583.076923076924,4460.000000000001,4456.410256410257,4377.435897435898,4631.282051282052,4363.076923076924,4423.076923076924,4132.820512820514,4431.794871794872
14.387364,0.5854762,0.8407316,0.32700726,1.0,0,0.0,0.0,0.0,0.0,0.107035644,0,0,0.0,0.0,0,0,42.0,0.0,0.0,4584.102564102564,3843.076923076924,4492.820512820514,4376.410256410257,4174.871794871796,4539.48717948718,4418.461538461539,4413.333333333334,4351.794871794872,4618.461538461539,4336.410256410257,4411.282051282052,4118.461538461539,4416.923076923077
14.637579,0.60299575,0.87711644,0.33613992,1.0,0,0.0,0.0,0.0,0.0,0.0,0,0,0.27484632,0.0,0,0,74.0,0.0,547.0,4598.974358974359,3900.0000000000005,4499.48717948718,4429.2307692307695,4197.948717948719,4552.820512820514,4427.6923076923085,4442.051282051282,4365.641025641026,4646.153846153847,4347.6923076923085,4412.307692307693,4134.358974358975,4447.6923076923085
14.8877945,0.60299575,0.87711644,0.33613992,1.0,0,0.0,0.0,0.0,0.0,0.0,0,0,0.46884984,0.0,0,0,106.0,0.0,547.0,4586.666666666667,3883.589743589744,4491.282051282052,4416.410256410257,4203.076923076924,4570.256410256411,4429.2307692307695,4441.025641025642,4367.179487179487,4665.128205128206,4327.6923076923085,4362.051282051282,4132.820512820514,4454.871794871796
15.138009,0.64876354,0.9098628,0.34450358,1.0,0,0.0,0.0,0.0,0.0,0.0,0,0,0.19212742,0.0,0,1,9.0,0.0,482.0,4607.179487179488,3923.076923076924,4502.564102564103,4445.128205128206,4205.641025641026,4562.564102564103,4423.589743589744,4434.358974358975,4384.102564102564,4715.384615384616,4363.076923076924,4370.769230769231,4184.615384615385,4533.333333333334
15.388225,0.64876354,0.9098628,0.34450358,1.0,0,0.0,0.0,0.0,0.0,0.15828165,0,0,0.0,0.0,0,1,41.0,0.0,0.0,4604.615384615385,3913.8461538461543,4498.974358974359,4445.128205128206,4204.102564102564,4556.923076923077,4423.076923076924,4440.000000000001,4394.358974358975,4733.846153846154,4364.102564102564,4338.461538461539,4181.025641025642,4512.820512820514
15.638439,0.6161377,0.866111,0.35202864,1.0,0,0.0,0.0,0.0,0.0,0.2163408,0,0,0.0,0.0,0,1,73.0,0.0,482.0,4625.128205128206,3933.333333333334,4506.666666666667,4450.769230769231,4188.717948717949,4549.743589743591,4434.358974358975,4449.2307692307695,4403.076923076924,4740.512820512821,4381.538461538462,4337.435897435898,4212.307692307693,4538.974358974359
15.888655,0.6161377,0.866111,0.35202864,1.0,0,0.0,0.0,0.0,0.0,0.08522517,0,0,0.0,0.0,0,1,105.0,0.0,483.0,4661.538461538462,3849.7435897435903,4496.410256410257,4370.769230769231,4129.74358974359,4507.179487179488,4440.000000000001,4418.461538461539,4358.461538461539,4642.051282051282,4316.923076923077,4309.743589743591,4171.794871794872,4524.102564102564
16.13887,0.59784645,0.8430199,0.35879734,0.99549246,1,0.0,0.0,0.0,0.0,0.09556587,0,0,0.0,0.0,0,0,8.0,0.0,396.0,4638.974358974359,3754.8717948717954,4488.717948717949,4282.051282051282,4140.000000000001,4499.48717948718,4494.871794871796,4442.051282051282,4360.000000000001,4644.102564102564,4213.333333333334,4360.000000000001,4125.128205128206,4484.102564102564
16.389084,0.59784645,0.8430199,0.35879734,0.99549246,0,0.0,0.0,0.0,0.0,0.02516788,0,0,0.0,0.0,0,0,40.0,0.0,0.0,4626.666666666667,3738.461538461539,4485.128205128206,4251.282051282052,4135.384615384616,4463.589743589744,4501.025641025642,4429.2307692307695,4347.6923076923085,4614.358974358975,4200.512820512821,4332.820512820514,4103.589743589744,4466.153846153847
16.6393,0.5768942,0.8370192,0.3605353,0.9882415,0,0.0,0.0,0.0,0.0,0.0,0,0,0.71534157,0.0,0,0,72.0,0.0,396.0,4602.051282051282,3769.7435897435903,4493.846153846154,4280.000000000001,4171.282051282052,4480.512820512821,4528.205128205129,4436.410256410257,4344.615384615385,4637.948717948719,4229.74358974359,4293.846153846154,4121.538461538462,4459.48717948718
16.889515,0.5768942,0.8370192,0.3605353,0.9882415,0,0.0,0.0,0.0,0.0,0.19856499,0,0,0.0,0.0,0,0,104.0,0.0,520.0,4616.410256410257,3797.9487179487182,4511.794871794872,4307.179487179487,4206.666666666667,4514.871794871796,4561.025641025642,4448.205128205129,4353.333333333334,4622.564102564103,4237.948717948719,4288.717948717949,4124.615384615385,4499.48717948718
17.13973,0.61054,0.86416197,0.35987535,0.9880727,0,0.0,0.0,0.0,0.0,0.08635272,0,0,0.0,0.0,0,0,7.0,0.0,462.0,4631.794871794872,3858.9743589743593,4529.743589743591,4357.435897435898,4244.102564102564,4525.128205128206,4578.974358974359,4436.923076923077,4348.717948717949,4622.051282051282,4233.846153846154,4245.641025641026,4153.846153846154,4596.410256410257
17.389944,0.61054,0.86416197,0.35987535,0.9880727,0,0.0,0.0,0.0,0.0,0.0,0,0,0.3435079,0.0,0,0,39.0,0.0,0.0,4583.589743589744,3811.7948717948725,4514.358974358975,4307.6923076923085,4274.358974358975,4549.2307692307695,4581.025641025642,4444.615384615385,4365.641025641026,4657.435897435898,4230.769230769231,4108.205128205129,4125.641025641026,4479.48717948718
17.64016,0.5830414,0.8809534,0.35888025,0.987521,0,0.0,0.0,0.0,0.0,0.43588844,0,0,0.0,0.0,0,0,71.0,0.0,462.0,4554.358974358975,3820.0000000000005,4513.333333333334,4314.871794871796,4264.615384615385,4538.974358974359,4544.102564102564,4416.410256410257,4371.282051282052,4675.8974358974365,4263.076923076924,4090.2564102564106,4134.871794871796,4460.512820512821
17.890375,0.5830414,0.8809534,0.35888025,0.987521,0,0.0,0.0,0.0,0.0,0.02024387,0,0,0.0,0.0,0,0,103.0,0.0,504.0,4551.282051282052,3879.48717948718,4511.282051282052,4360.000000000001,4287.179487179487,4550.256410256411,4508.205128205129,4422.564102564103,4381.025641025642,4714.871794871796,4320.512820512821,4122.051282051282,4182.051282051282,4463.589743589744
18.140589,0.56717944,0.84774494,0.3579795,0.98663795,0,0.0,0.0,0.0,0.0,0.029510863,0,0,0.0,0.0,0,0,6.0,0.0,539.0,4538.974358974359,3920.5128205128212,4507.179487179488,4400.000000000001,4297.948717948719,4542.564102564103,4479.48717948718,4427.6923076923085,4370.769230769231,4700.000000000001,4314.358974358975,4145.128205128206,4169.74358974359,4441.025641025642
18.390804,0.56717944,0.84774494,0.3579795,0.98663795,0,0.0,0.0,0.0,0.0,0.0,0,0,0.057774294,0.0,0,0,38.0,0.0,0.0,4540.512820512821,3956.410256410257,4515.8974358974365,4417.948717948719,4287.6923076923085,4548.205128205129,4460.000000000001,4426.666666666667,4388.205128205129,4727.6923076923085,4353.333333333334,4185.128205128206,4189.2307692307695,4459.48717948718
18.64102,0.5552302,0.8184422,0.35694578,0.9854691,0,0.0,0.0,0.0,0.0,0.0,0,0,0.05617429,0.0,0,0,70.0,0.0,539.0,4537.948717948719,3956.9230769230776,4500.512820512821,4430.256410256411,4299.48717948718,4555.8974358974365,4441.538461538462,4436.923076923077,4393.333333333334,4756.410256410257,4385.128205128206,4216.410256410257,4201.025641025642,4443.076923076924
18.891235,0.5552302,0.8184422,0.35694578,0.9854691,0,0.0,0.0,0.0,0.0,0.0,0,0,0.28424925,0.0,0,0,102.0,0.0,547.0,4554.358974358975,3961.538461538462,4502.051282051282,4441.025641025642,4288.717948717949,4556.923076923077,4430.769230769231,4455.384615384616,4398.974358974359,4758.974358974359,4412.307692307693,4265.128205128206,4220.000000000001,4481.025641025642
19.141449,0.5503903,0.78061277,0.35467973,0.9849638,0,0.0,0.0,0.0,0.0,0.0,0,0,0.65389514,0.0,0,0,5.0,0.0,572.0,4568.205128205129,3976.9230769230776,4508.717948717949,4457.948717948719,4257.948717948719,4543.076923076924,4414.358974358975,4449.2307692307695,4397.435897435898,4752.820512820514,4417.948717948719,4293.846153846154,4216.923076923077,4492.820512820514
19.391665,0.5503903,0.78061277,0.35467973,0.9849638,0,0.0,0.0,0.0,0.0,0.0,0,0,0.72741765,0.0,0,0,37.0,0.0,0.0,4601.025641025642,4033.333333333334,4517.435897435898,4519.48717948718,4232.820512820514,4536.923076923077,4393.846153846154,4438.461538461539,4383.589743589744,4713.846153846154,4423.076923076924,4331.282051282052,4245.641025641026,4586.153846153847
19.64188,0.5261918,0.743648,0.35262764,0.9782493,1,0.0,0.0,0.0,0.0,0.0,0,0,0.27386016,0.0,0,0,69.0,0.0,572.0,4586.666666666667,3985.6410256410263,4502.564102564103,4478.974358974359,4231.282051282052,4540.000000000001,4386.153846153847,4424.102564102564,4396.923076923077,4723.076923076924,4422.051282051282,4315.384615384616,4231.282051282052,4530.769230769231
19.892096,0.5261918,0.743648,0.35262764,0.9782493,0,0.0,0.0,0.0,0.0,0.19695182,0,0,0.0,0.0,0,0,101.0,0.0,491.0,4575.8974358974365,3932.307692307693,4488.205128205129,4437.435897435898,4231.794871794872,4550.256410256411,4409.743589743591,4446.153846153847,4406.153846153847,4728.717948717949,4398.974358974359,4309.743589743591,4195.8974358974365,4474.871794871796
20.14231,0.49244675,0.72825944,0.34922042,0.9748361,0,0.0,0.0,0.0,0.0,0.0,0,0,0.14053182,0.0,0,0,4.0,0.0,574.0,4567.6923076923085,3893.8461538461543,4476.410256410257,4394.871794871796,4207.6923076923085,4543.076923076924,4397.948717948719,4427.179487179487,4404.615384615385,4722.051282051282,4384.102564102564,4293.333333333334,4195.8974358974365,4468.717948717949
20.392525,0.49244675,0.72825944,0.34922042,0.9748361,0,0.0,0.0,0.0,0.0,0.04910059,0,0,0.0,0.0,0,0,36.0,0.0,0.0,4555.8974358974365,3867.1794871794878,4471.794871794872,4370.256410256411,4195.8974358974365,4555.8974358974365,4408.205128205129,4427.179487179487,4410.256410256411,4734.358974358975,4395.384615384616,4281.538461538462,4220.000000000001,4462.564102564103
20.64274,0.4756194,0.71765083,0.3456913,0.9770382,0,0.0,0.0,0.0,0.0,0.0,0,0,0.46496466,0.0,0,0,68.0,0.0,574.0,4568.205128205129,3887.1794871794878,4486.153846153847,4384.102564102564,4221.025641025642,4553.846153846154,4414.358974358975,4431.794871794872,4423.076923076924,4724.615384615386,4389.743589743591,4280.000000000001,4217.948717948719,4472.307692307693
20.892956,0.4756194,0.71765083,0.3456913,0.9770382,0,0.0,0.0,0.0,0.0,0.0,0,0,0.16183512,0.0,0,0,100.0,0.0,520.0,4570.256410256411,3877.435897435898,4500.512820512821,4390.769230769231,4213.846153846154,4554.871794871796,4418.974358974359,4385.128205128206,4423.589743589744,4733.846153846154,4409.2307692307695,4289.74358974359,4232.820512820514,4489.743589743591
21.14317,0.4444852,0.7056083,0.34251258,0.97859,0,0.0,0.0,0.0,0.0,0.0,0,0,0.13335684,0.0,0,0,3.0,0.0,555.0,4569.743589743591,3869.7435897435903,4497.435897435898,4385.641025641026,4191.794871794872,4541.025641025642,4400.512820512821,4395.384615384616,4399.48717948718,4697.948717948719,4357.948717948719,4258.974358974359,4183.589743589744,4432.307692307693
21.393385,0.4444852,0.7056083,0.34251258,0.97859,0,0.0,0.0,0.0,0.0,0.0,0,0,0.26843432,0.0,0,0,35.0,0.0,0.0,4571.282051282052,3897.9487179487182,4511.282051282052,4408.717948717949,4213.333333333334,4550.256410256411,4408.205128205129,4393.333333333334,4400.000000000001,4706.666666666667,4356.410256410257,4264.615384615385,4188.205128205129,4434.871794871796
21.6436,0.43126452,0.6627245,0.3396499,0.9738418,0,0.0,0.0,0.0,0.0,0.0,0,0,0.76520544,0.0,0,0,67.0,0.0,555.0,4571.794871794872,3917.9487179487182,4513.846153846154,4429.2307692307695,4198.461538461539,4533.333333333334,4402.564102564103,4369.2307692307695,4375.8974358974365,4665.128205128206,4302.051282051282,4243.589743589744,4127.6923076923085,4410.256410256411
21.893816,0.43126452,0.6627245,0.3396499,0.9738418,0,0.0,0.0,0.0,0.0,0.0,0,0,0.5573699,0.0,0,0,99.0,0.0,506.0,4585.128205128206,3930.2564102564106,4520.512820512821,4432.307692307693,4198.974358974359,4532.307692307693,4413.846153846154,4385.128205128206,4382.051282051282,4664.615384615386,4301.538461538462,4252.820512820514,4118.461538461539,4417.435897435898
22.14403,0.42446542,0.63010764,0.33684507,0.9651444,0,0.0,0.0,0.0,0.0,0.3033214,0,0,0.0,0.0,0,0,2.0,0.0,215.0,4576.923076923077,3904.1025641025644,4524.615384615385,4406.153846153847,4189.74358974359,4526.666666666667,4410.256410256411,4370.256410256411,4366.153846153847,4643.076923076924,4281.025641025642,4248.717948717949,4098.974358974359,4447.179487179487
22.394245,0.42446542,0.63010764,0.33684507,0.9651444,0,0.0,0.0,0.0,0.0,0.3668789,0,0,0.0,0.0,0,0,34.0,0.0,0.0,4585.128205128206,3926.666666666667,4542.051282051282,4428.205128205129,4217.948717948719,4557.435897435898,4429.743589743591,4384.615384615385,4360.000000000001,4645.641025641026,4288.205128205129,4283.076923076924,4112.307692307693,4489.743589743591
22.64446,0.43755415,0.61333257,0.33455557,0.96260923,0,0.0,0.0,0.0,0.0,0.090903446,0,0,0.0,0.0,0,0,66.0,0.0,215.0,4587.6923076923085,3908.717948717949,4544.615384615385,4408.205128205129,4187.6923076923085,4534.358974358975,4434.871794871796,4394.871794871796,4347.6923076923085,4629.743589743591,4295.8974358974365,4295.8974358974365,4115.384615384616,4488.717948717949
22.894674,0.43755415,0.61333257,0.33455557,0.96260923,0,0.0,0.0,0.0,0.0,0.0,0,0,0.29946643,0.0,0,0,98.0,0.0,549.0,4596.410256410257,3883.589743589744,4547.179487179488,4382.051282051282,4182.564102564103,4522.051282051282,4444.102564102564,4390.769230769231,4339.48717948718,4616.410256410257,4282.564102564103,4280.512820512821,4125.641025641026,4490.769230769231
23.14489,0.41704264,0.6117536,0.3331932,0.9600576,0,0.0,0.0,0.0,0.0,0.0,0,0,0.08899835,0.0,0,0,1.0,0.0,517.0,4593.333333333334,3804.615384615385,4537.435897435898,4300.000000000001,4144.102564102564,4488.205128205129,4455.384615384616,4390.256410256411,4321.025641025642,4590.256410256411,4261.025641025642,4229.74358974359,4105.128205128206,4456.923076923077
23.395105,0.41704264,0.6117536,0.3331932,0.9600576,0,0.0,0.0,0.0,0.0,0.0,0,0,0.23246792,0.0,0,0,33.0,0.0,0.0,4584.615384615385,3848.717948717949,4531.794871794872,4321.538461538462,4154.358974358975,4456.410256410257,4445.641025641026,4372.307692307693,4308.205128205129,4583.589743589744,4268.205128205129,4150.769230769231,4098.461538461539,4424.615384615385
23.520212,0.4438009,0.61927956,0.33272156,0.95766234,0,0.0,0.0,0.0,0.0,0.0,0,0,1.0,0.0,0,0,49.0,0.0,0.0,4584.615384615385,3846.666666666667,4534.358974358975,4327.179487179487,4166.666666666667,4461.025641025642,4447.6923076923085,4373.846153846154,4303.589743589744,4605.128205128206,4281.025641025642,4106.666666666667,4105.128205128206,4421.538461538462
23.895535,0.4438009,0.61927956,0.33272156,0.95766234,0,0.0,0.0,0.0,0.0,0.0,0,0,0.115984865,0.0,0,0,97.0,0.0,491.0,4586.666666666667,3825.1282051282055,4533.846153846154,4299.48717948718,4186.153846153847,4482.564102564103,4480.512820512821,4404.102564102564,4303.589743589744,4590.256410256411,4256.923076923077,4104.102564102564,4094.358974358975,4395.384615384616
24.14575,0.44365057,0.60781467,0.33234578,0.9619618,0,0.0,0.0,0.0,0.0,0.0,0,0,0.05551218,0.0,0,0,0.0,0.0,279.0,4583.589743589744,3760.512820512821,4531.794871794872,4245.128205128206,4141.025641025642,4469.743589743591,4493.846153846154,4394.871794871796,4278.974358974359,4556.410256410257,4222.564102564103,4077.435897435898,4068.717948717949,4336.923076923077
24.395966,0.44365057,0.60781467,0.33234578,0.9619618,0,0.0,0.0,0.0,0.0,0.0,0,0,0.09430961,0.0,0,0,32.0,0.0,0.0,4573.846153846154,3785.1282051282055,4546.666666666667,4254.871794871796,4151.794871794872,4460.000000000001,4508.717948717949,4417.948717948719,4300.512820512821,4592.307692307693,4240.000000000001,4072.820512820513,4091.7948717948725,4324.615384615385
24.646181,0.4704478,0.58570784,0.3308835,0.97399396,0,0.0,0.0,0.0,0.0,0.07828939,0,0,0.0,0.0,0,0,64.0,0.0,279.0,4554.871794871796,3817.9487179487182,4549.2307692307695,4277.435897435898,4185.641025641026,4470.769230769231,4500.512820512821,4388.717948717949,4309.2307692307695,4632.307692307693,4262.051282051282,4063.589743589744,4129.2307692307695,4322.051282051282
24.896395,0.4704478,0.58570784,0.3308835,0.97399396,0,0.0,0.0,0.0,0.0,0.059457958,0,0,0.0,0.0,0,0,96.0,0.0,521.0,4567.6923076923085,3878.9743589743593,4561.538461538462,4338.461538461539,4228.205128205129,4501.025641025642,4507.179487179488,4398.461538461539,4327.179487179487,4696.923076923077,4337.948717948719,4113.333333333334,4196.923076923077,4383.589743589744
25.14661,0.47828227,0.5682368,0.3295679,0.99109757,0,0.0,0.0,0.0,0.0,0.0,0,0,0.6109528,0.0,0,0,128.0,0.0,521.0,4552.307692307693,3892.307692307693,4556.923076923077,4352.820512820514,4265.128205128206,4533.333333333334,4529.2307692307695,4435.384615384616,4359.48717948718,4747.179487179488,4373.333333333334,4165.641025641026,4205.128205128206,4348.205128205129
25.396826,0.47828227,0.5682368,0.3295679,0.99109757,1,0.0,0.0,0.0,0.0,0.0,0,0,0.19592707,0.0,0,0,31.0,0.0,0.0,4550.769230769231,3987.692307692308,4565.128205128206,4443.589743589744,4289.2307692307695,4540.512820512821,4505.641025641026,4477.948717948719,4365.641025641026,4752.307692307693,4390.769230769231,4235.384615384616,4190.256410256411,4390.256410256411
25.647041,0.49270898,0.5809773,0.328053,0.99954456,0,0.0,0.0,0.0,0.0,0.0,0,0,0.4715195,0.0,0,0,63.0,0.0,0.0,4537.948717948719,3971.2820512820517,4545.641025641026,4440.000000000001,4289.74358974359,4552.307692307693,4494.871794871796,4488.205128205129,4387.6923076923085,4796.410256410257,4417.948717948719,4287.179487179487,4200.512820512821,4402.564102564103
25.897255,0.49270898,0.5809773,0.328053,0.99954456,0,0.0,0.0,0.0,0.0,0.0,0,0,0.055858932,0.0,0,0,95.0,0.0,511.0,4546.153846153847,3989.7435897435903,4545.641025641026,4468.717948717949,4310.256410256411,4557.435897435898,4475.8974358974365,4570.769230769231,4400.000000000001,4792.820512820514,4441.025641025642,4344.102564102564,4219.48717948718,4414.358974358975
26.14747,0.4867127,0.60979855,0.32711452,0.99724525,0,0.0,0.0,0.0,0.0,0.0010071802,0,0,0.0,0.0,0,0,127.0,0.0,511.0,4554.358974358975,4000.5128205128212,4545.641025641026,4490.769230769231,4286.666666666667,4562.564102564103,4460.000000000001,4541.538461538462,4410.256410256411,4793.846153846154,4461.025641025642,4390.769230769231,4229.74358974359,4444.615384615385
26.397686,0.4867127,0.60979855,0.32711452,0.99724525,0,0.0,0.0,0.0,0.0,0.022270396,0,0,0.0,0.0,0,0,30.0,0.0,0.0,4560.512820512821,4002.564102564103,4529.743589743591,4499.48717948718,4267.6923076923085,4566.666666666667,4450.256410256411,4501.538461538462,4408.205128205129,4795.8974358974365,4457.435897435898,4397.435897435898,4223.589743589744,4474.358974358975
26.647902,0.5286748,0.6341171,0.32627106,0.9878463,0,0.0,0.0,0.0,0.0,0.15725468,0,0,0.0,0.0,0,0,62.0,0.0,0.0,4565.641025641026,4000.5128205128212,4518.461538461539,4506.153846153847,4252.820512820514,4568.717948717949,4446.153846153847,4453.846153846154,4401.025641025642,4765.128205128206,4425.641025641026,4384.615384615385,4211.794871794872,4500.512820512821
26.898115,0.5286748,0.6341171,0.32627106,0.9878463,0,0.0,0.0,0.0,0.0,0.16304184,0,0,0.0,0.0,0,0,94.0,0.0,549.0,4575.8974358974365,3983.076923076924,4515.8974358974365,4485.128205128206,4253.333333333334,4570.769230769231,4430.769230769231,4461.025641025642,4409.743589743591,4774.358974358975,4429.2307692307695,4386.666666666667,4218.974358974359,4513.846153846154
27.14833,0.5511395,0.6303418,0.3254424,0.9610952,0,0.0,0.0,0.0,0.0,0.12377563,0,0,0.0,0.0,0,0,126.0,0.0,549.0,4583.076923076924,3970.7692307692314,4501.538461538462,4478.974358974359,4237.948717948719,4568.205128205129,4418.974358974359,4441.025641025642,4401.538461538462,4746.666666666667,4410.769230769231,4363.589743589744,4203.076923076924,4491.794871794872
27.398546,0.5511395,0.6303418,0.3254424,0.9610952,0,0.0,0.0,0.0,0.0,0.26112866,0,0,0.0,0.0,0,0,29.0,0.0,0.0,4601.025641025642,3980.5128205128212,4500.512820512821,4487.179487179488,4220.000000000001,4559.48717948718,4412.820512820514,4438.461538461539,4410.769230769231,4768.205128205129,4455.8974358974365,4387.179487179487,4284.615384615385,4564.102564102564
27.64876,0.54861766,0.60166174,0.3246981,0.92746484,0,0.0,0.0,0.0,0.0,0.24681632,0,0,0.0,0.0,0,0,61.0,0.0,0.0,4596.923076923077,3982.564102564103,4495.8974358974365,4487.6923076923085,4220.000000000001,4583.076923076924,4429.2307692307695,4457.435897435898,4424.102564102564,4769.743589743591,4432.820512820514,4352.820512820514,4253.846153846154,4504.615384615385
27.898975,0.54861766,0.60166174,0.3246981,0.92746484,0,0.0,0.0,0.0,0.0,0.18697537,0,0,0.0,0.0,0,0,93.0,0.0,490.0,4602.564102564103,3946.666666666667,4484.615384615385,4452.820512820514,4210.256410256411,4568.205128205129,4424.615384615385,4432.820512820514,4407.6923076923085,4740.000000000001,4373.846153846154,4340.000000000001,4217.948717948719,4486.153846153847
28.14919,0.54860735,0.56540096,0.32402983,0.8954907,0,0.0,0.0,0.0,0.0,0.0,0,0,0.43259257,0.0,0,0,125.0,0.0,490.0,4615.384615384616,3935.8974358974365,4483.589743589744,4446.153846153847,4210.256410256411,4565.128205128206,4416.923076923077,4424.102564102564,4400.512820512821,4714.358974358975,4347.179487179487,4316.923076923077,4210.769230769231,4496.410256410257
28.399406,0.54860735,0.56540096,0.32402983,0.8954907,0,0.0,0.0,0.0,0.0,0.0,0,0,0.6564916,0.0,0,0,28.0,0.0,0.0,4609.743589743591,3926.666666666667,4482.564102564103,4424.615384615385,4188.717948717949,4549.2307692307695,4425.128205128206,4413.333333333334,4386.666666666667,4671.282051282052,4314.871794871796,4316.923076923077,4188.205128205129,4500.512820512821
28.64962,0.5215676,0.5311349,0.32477614,0.8658316,0,0.0,0.0,0.0,0.0,0.0,0,0,0.4100654,0.0,0,0,60.0,0.0,0.0,4607.179487179488,3914.8717948717954,4487.6923076923085,4416.410256410257,4195.384615384616,4546.153846153847,4422.564102564103,4416.923076923077,4384.615384615385,4676.410256410257,4311.282051282052,4311.794871794872,4163.076923076924,4476.923076923077
28.899836,0.5215676,0.5311349,0.32477614,0.8658316,0,0.0,0.0,0.0,0.0,0.0,0,0,0.14902134,0.0,0,0,92.0,0.0,521.0,4607.179487179488,3905.1282051282055,4487.6923076923085,4404.102564102564,4218.974358974359,4566.666666666667,4445.128205128206,4451.282051282052,4386.666666666667,4688.205128205129,4316.923076923077,4308.205128205129,4162.564102564103,4474.358974358975
29.150051,0.48263872,0.50345683,0.3233912,0.840582,0,0.0,0.0,0.0,0.0,0.05019505,0,0,0.0,0.0,0,0,124.0,0.0,521.0,4604.102564102564,3906.666666666667,4485.128205128206,4411.282051282052,4202.051282051282,4539.48717948718,4421.025641025642,4414.358974358975,4376.923076923077,4692.820512820514,4328.205128205129,4295.8974358974365,4164.615384615385,4491.282051282052
29.400267,0.48263872,0.50345683,0.3233912,0.840582,0,0.0,0.0,0.0,0.0,0.04299182,0,0,0.0,0.0,0,0,27.0,0.0,0.0,4607.6923076923085,3937.435897435898,4493.846153846154,4438.461538461539,4234.358974358975,4558.974358974359,4441.025641025642,4426.666666666667,4395.8974358974365,4713.846153846154,4345.128205128206,4286.153846153847,4176.923076923077,4491.282051282052
29.65048,0.45710483,0.48935598,0.31991535,0.8180221,0,0.0,0.0,0.0,0.0,0.0,0,0,0.21428502,0.0,0,0,59.0,0.0,0.0,4613.846153846154,3955.3846153846157,4499.48717948718,4454.871794871796,4230.769230769231,4566.153846153847,4441.538461538462,4413.846153846154,4396.923076923077,4729.743589743591,4363.589743589744,4283.589743589744,4194.358974358975,4489.2307692307695
29.900696,0.45710483,0.48935598,0.31991535,0.8180221,0,0.0,0.0,0.0,0.0,0.0,0,0,0.18456548,0.0,0,0,91.0,0.0,508.0,4615.8974358974365,3946.666666666667,4502.564102564103,4453.333333333334,4255.8974358974365,4583.076923076924,4452.307692307693,4410.769230769231,4398.974358974359,4743.589743589744,4358.974358974359,4276.410256410257,4183.076923076924,4469.2307692307695
30.150911,0.4291155,0.48378298,0.31678954,0.809864,0,0.0,0.0,0.0,0.0,0.0,0,0,0.37594834,0.0,0,0,123.0,0.0,508.0,4619.48717948718,3956.9230769230776,4506.666666666667,4461.025641025642,4244.102564102564,4575.384615384616,4436.923076923077,4409.743589743591,4396.923076923077,4748.717948717949,4362.051282051282,4268.205128205129,4189.2307692307695,4460.512820512821
30.401127,0.4291155,0.48378298,0.31678954,0.809864,0,0.0,0.0,0.0,0.0,0.0,0,0,0.3503659,0.0,0,0,26.0,0.0,0.0,4628.717948717949,3958.9743589743593,4513.333333333334,4457.948717948719,4234.358974358975,4571.282051282052,4439.48717948718,4428.205128205129,4407.179487179487,4748.717948717949,4382.564102564103,4276.923076923077,4210.256410256411,4489.2307692307695
30.65134,0.4064802,0.48391244,0.31397933,0.81405604,0,0.0,0.0,0.0,0.0,0.0,0,0,0.42365253,0.0,0,0,58.0,0.0,0.0,4633.846153846154,3990.2564102564106,4528.717948717949,4485.128205128206,4262.564102564103,4600.512820512821,4461.025641025642,4433.333333333334,4416.410256410257,4768.205128205129,4394.871794871796,4283.589743589744,4245.128205128206,4510.256410256411
30.901556,0.4064802,0.48391244,0.31397933,0.81405604,0,0.0,0.0,0.0,0.0,0.2805815,0,0,0.0,0.0,0,0,90.0,0.0,549.0,4680.000000000001,4087.1794871794878,4554.358974358975,4569.743589743591,4250.769230769231,4569.743589743591,4442.564102564103,4415.384615384616,4393.846153846154,4738.974358974359,4411.794871794872,4315.8974358974365,4301.025641025642,4640.000000000001
31.151772,0.38472015,0.47923344,0.31099477,0.82303196,1,0.0,0.0,0.0,0.0,0.2538462,0,0,0.0,0.0,0,0,122.0,0.0,549.0,4685.641025641026,4085.1282051282055,4551.794871794872,4573.846153846154,4235.8974358974365,4563.589743589744,4430.769230769231,4396.410256410257,4390.769230769231,4743.076923076924,4421.025641025642,4319.48717948718,4301.538461538462,4655.8974358974365
31.401987,0.38472015,0.47923344,0.31099477,0.82303196,0,0.0,0.0,0.0,0.0,0.08734392,0,0,0.0,0.0,0,0,25.0,0.0,0.0,4680.512820512821,4072.820512820513,4552.307692307693,4556.923076923077,4254.358974358975,4569.2307692307695,4440.000000000001,4407.179487179487,4394.871794871796,4734.871794871796,4398.461538461539,4309.2307692307695,4272.307692307693,4610.256410256411
31.6522,0.37614226,0.47319224,0.3083128,0.8395776,0,0.0,0.0,0.0,0.0,0.15646178,0,0,0.0,0.0,0,0,55.0,0.0,0.0,4678.974358974359,4046.666666666667,4541.538461538462,4545.641025641026,4246.153846153847,4582.051282051282,4470.769230769231,4431.282051282052,4396.923076923077,4732.820512820514,4382.564102564103,4301.538461538462,4232.307692307693,4551.794871794872
31.902416,0.37614226,0.47319224,0.3083128,0.8395776,0,0.0,0.0,0.0,0.0,0.06720356,0,0,0.0,0.0,0,0,87.0,0.0,504.0,4669.743589743591,3996.9230769230776,4529.2307692307695,4493.333333333334,4213.846153846154,4566.666666666667,4480.512820512821,4451.282051282052,4398.461538461539,4714.871794871796,4374.871794871796,4283.076923076924,4212.307692307693,4523.076923076924
32.15263,0.3764691,0.47029954,0.30604494,0.8545387,0,0.0,0.0,0.0,0.0,0.008726818,0,0,0.0,0.0,0,0,115.0,0.0,504.0,4662.564102564103,3893.8461538461543,4520.512820512821,4400.512820512821,4206.666666666667,4553.846153846154,4491.794871794872,4441.538461538462,4369.743589743591,4648.717948717949,4312.307692307693,4275.8974358974365,4155.384615384616,4481.025641025642
32.402847,0.3764691,0.47029954,0.30604494,0.8545387,0,0.0,0.0,0.0,0.0,0.009331572,0,0,0.0,0.0,0,0,22.0,0.0,0.0,4649.2307692307695,3778.9743589743593,4511.794871794872,4297.435897435898,4173.846153846154,4508.205128205129,4530.769230769231,4478.974358974359,4344.615384615385,4593.846153846154,4255.384615384616,4281.025641025642,4081.0256410256416,4420.000000000001
32.65306,0.41277695,0.46593344,0.30494708,0.8628363,0,0.0,0.0,0.0,0.0,0.0,0,0,0.09388311,0.0,0,0,53.0,0.0,0.0,4633.333333333334,3776.9230769230776,4516.410256410257,4283.076923076924,4187.6923076923085,4474.871794871796,4529.2307692307695,4482.051282051282,4345.641025641026,4609.2307692307695,4276.923076923077,4280.512820512821,4104.102564102564,4430.769230769231
32.903275,0.41277695,0.46593344,0.30494708,0.8628363,0,0.0,0.0,0.0,0.0,0.041592807,0,0,0.0,0.0,0,0,87.0,0.0,504.0,4630.769230769231,3837.435897435898,4534.358974358975,4327.6923076923085,4206.666666666667,4472.307692307693,4515.8974358974365,4455.8974358974365,4325.641025641026,4601.025641025642,4274.358974358975,4232.820512820514,4083.076923076924,4413.846153846154
33.153492,0.45112923,0.4545683,0.3040895,0.8643783,0,0.0,0.0,0.0,0.0,0.046042085,0,0,0.0,0.0,0,0,120.0,0.0,521.0,4622.564102564103,3866.666666666667,4541.538461538462,4350.769230769231,4217.435897435898,4497.948717948719,4525.128205128206,4463.589743589744,4355.384615384616,4658.974358974359,4330.256410256411,4233.333333333334,4148.205128205129,4460.000000000001
33.403706,0.45112923,0.4545683,0.3040895,0.8643783,0,0.0,0.0,0.0,0.0,0.10705789,0,0,0.0,0.0,0,0,19.0,0.0,0.0,4615.384615384616,3875.3846153846157,4535.384615384616,4362.564102564103,4226.666666666667,4505.641025641026,4518.974358974359,4475.384615384616,4370.769230769231,4692.307692307693,4357.435897435898,4217.948717948719,4166.153846153847,4441.025641025642
33.653923,0.4634275,0.44507688,0.3061533,0.84018654,0,0.0,0.0,0.0,0.0,0.026111186,0,0,0.0,0.0,0,0,52.0,0.0,0.0,4616.410256410257,3927.1794871794878,4531.282051282052,4414.358974358975,4248.205128205129,4524.102564102564,4508.205128205129,4430.256410256411,4372.820512820514,4688.717948717949,4350.769230769231,4197.435897435898,4188.717948717949,4435.8974358974365
33.904137,0.4634275,0.44507688,0.3061533,0.84018654,0,0.0,0.0,0.0,0.0,0.42531797,0,0,0.0,0.0,0,0,85.0,0.0,490.0,4605.128205128206,3976.410256410257,4530.769230769231,4464.102564102564,4273.846153846154,4559.48717948718,4527.6923076923085,4457.948717948719,4398.974358974359,4715.8974358974365,4419.48717948718,4207.179487179487,4281.025641025642,4440.512820512821
34.15435,0.46516174,0.44055885,0.30803385,0.81538385,0,0.0,0.0,0.0,0.0,0.0,0,0,0.0,0.5276529,0,0,119.0,0.0,504.0,4596.923076923077,3969.2307692307695,4520.512820512821,4458.461538461539,4275.384615384616,4568.717948717949,4505.641025641026,4454.871794871796,4416.923076923077,4707.6923076923085,4433.846153846154,4208.205128205129,4260.512820512821,4448.205128205129
34.404568,0.46516174,0.44055885,0.30803385,0.81538385,0,0.0,0.0,0.0,0.0,0.0,0,0,0.0,0.30268633,0,0,22.0,0.0,0.0,4589.2307692307695,3971.7948717948725,4513.333333333334,4457.948717948719,4261.025641025642,4568.717948717949,4477.435897435898,4427.6923076923085,4412.820512820514,4703.589743589744,4434.358974358975,4214.871794871796,4219.48717948718,4463.076923076924
34.65478,0.4587051,0.44632092,0.31117037,0.7931964,0,0.0,0.0,0.0,0.0,0.0,0,0,0.0,0.30448005,0,0,54.0,0.0,0.0,4602.564102564103,4022.564102564103,4515.384615384616,4503.589743589744,4253.846153846154,4576.410256410257,4456.923076923077,4440.512820512821,4414.358974358975,4726.666666666667,4433.846153846154,4233.333333333334,4272.820512820514,4567.179487179488
34.904995,0.4587051,0.44632092,0.31117037,0.7931964,0,0.0,0.0,0.0,0.0,0.0,0,0,0.0,0.21800038,0,0,84.0,0.0,518.0,4601.538461538462,4013.8461538461543,4517.435897435898,4496.923076923077,4265.128205128206,4595.8974358974365,4464.102564102564,4454.871794871796,4432.820512820514,4741.025641025642,4422.564102564103,4239.48717948718,4266.666666666667,4555.8974358974365
35.030106,0.46838766,0.4471463,0.3152721,0.7733242,0,0.0,0.0,0.0,0.0,0.0,0,0,0.0,0.36081317,0,0,102.0,0.0,547.0,4603.076923076924,4001.0256410256416,4511.794871794872,4491.282051282052,4264.102564102564,4590.769230769231,4448.717948717949,4428.717948717949,4421.538461538462,4750.256410256411,4489.2307692307695,4272.307692307693,4257.948717948719,4569.743589743591
35.28032,0.46838766,0.4471463,0.3152721,0.7733242,0,0.0,0.0,0.0,0.0,0.0,0,0,0.0,0.14727956,0,1,5.0,0.0,571.0,4613.846153846154,3991.2820512820517,4513.333333333334,4480.000000000001,4262.564102564103,4594.358974358975,4445.128205128206,4430.256410256411,4442.564102564103,4773.846153846154,4430.256410256411,4263.589743589744,4293.846153846154,4568.717948717949
35.655643,0.44172692,0.44783917,0.31760135,0.7834882,0,0.0,0.0,0.0,0.0,0.0,0,0,0.0,0.24481004,0,0,53.0,0.0,0.0,4600.000000000001,3971.7948717948725,4501.538461538462,4459.48717948718,4256.923076923077,4603.589743589744,4453.846153846154,4428.205128205129,4441.025641025642,4791.794871794872,4405.641025641026,4257.948717948719,4260.000000000001,4499.48717948718
35.78075,0.44172692,0.44783917,0.31760135,0.7834882,0,0.0,0.0,0.0,0.0,0.0,0,0,0.0,0.49118465,0,0,69.0,0.0,571.0,4601.025641025642,3956.9230769230776,4501.538461538462,4450.769230769231,4242.051282051282,4593.846153846154,4444.615384615385,4425.128205128206,4443.589743589744,4742.564102564103,4422.051282051282,4253.333333333334,4253.846153846154,4493.846153846154
36.030964,0.45463857,0.43448842,0.31724352,0.80690515,0,0.0,0.0,0.0,0.0,0.0,0,0,0.0,1.0,0,0,101.0,0.0,490.0,4605.641025641026,3937.9487179487182,4501.538461538462,4434.358974358975,4221.538461538462,4574.358974358975,4447.179487179487,4415.384615384616,4423.589743589744,4760.000000000001,4371.282051282052,4249.74358974359,4217.948717948719,4479.48717948718
36.40629,0.45463857,0.43448842,0.31724352,0.80690515,0,0.0,0.0,0.0,0.0,0.0,0,0,0.0,0.393223,0,0,17.0,0.0,0.0,4617.435897435898,3877.9487179487182,4498.974358974359,4385.128205128206,4194.871794871796,4544.615384615385,4456.410256410257,4421.538461538462,4396.410256410257,4655.8974358974365,4318.461538461539,4262.051282051282,4167.179487179487,4474.358974358975
36.531395,0.44811457,0.4248555,0.31547385,0.84897083,0,0.0,0.0,0.0,0.0,0.0,0,0,0.0,0.33689585,0,0,36.0,0.0,0.0,4632.307692307693,3845.6410256410263,4499.48717948718,4350.256410256411,4187.6923076923085,4522.051282051282,4472.307692307693,4437.948717948719,4380.000000000001,4594.871794871796,4264.615384615385,4280.512820512821,4133.846153846154,4483.076923076924
36.906715,0.44811457,0.4248555,0.31547385,0.84897083,0,0.0,0.0,0.0,0.0,0.0,0,0,0.0,0.24686037,0,0,84.0,0.0,517.0,4640.000000000001,3848.205128205129,4521.538461538462,4344.102564102564,4191.282051282052,4490.256410256411,4481.538461538462,4448.205128205129,4368.717948717949,4595.384615384616,4283.076923076924,4268.205128205129,4144.615384615385,4465.128205128206
37.156933,0.47002786,0.4118151,0.31297198,0.9015468,0,0.0,0.0,0.0,0.0,0.0,0,0,0.0,0.4972627,0,0,116.0,0.0,517.0,4637.435897435898,3860.0000000000005,4540.000000000001,4352.307692307693,4207.6923076923085,4502.051282051282,4499.48717948718,4470.769230769231,4390.769230769231,4624.102564102564,4298.461538461539,4249.2307692307695,4147.6923076923085,4471.282051282052
37.407146,0.47002786,0.4118151,0.31297198,0.9015468,0,0.0,0.0,0.0,0.0,0.0,0,0,0.0,0.1613726,0,0,19.0,0.0,0.0,4637.435897435898,3927.1794871794878,4568.205128205129,4389.2307692307695,4248.717948717949,4524.102564102564,4496.923076923077,4437.435897435898,4398.461538461539,4667.6923076923085,4333.846153846154,4234.358974358975,4187.6923076923085,4476.923076923077
37.65736,0.48724037,0.3955232,0.3088721,0.9486016,0,0.0,0.0,0.0,0.0,0.0,0,0,0.0,0.34866324,0,0,48.0,0.0,0.0,4633.846153846154,3945.1282051282055,4565.128205128206,4416.923076923077,4268.205128205129,4540.000000000001,4505.128205128206,4457.435897435898,4417.948717948719,4702.564102564103,4379.48717948718,4225.641025641026,4205.641025641026,4482.051282051282
37.907578,0.48724037,0.3955232,0.3088721,0.9486016,0,0.0,0.0,0.0,0.0,0.0,0,0,0.0,0.7684318,0,0,83.0,0.0,504.0,4615.384615384616,3957.9487179487182,4553.846153846154,4427.179487179487,4264.102564102564,4531.282051282052,4481.025641025642,4453.846153846154,4425.641025641026,4733.846153846154,4394.358974358975,4202.051282051282,4224.615384615385,4481.025641025642
38.15779,0.47223496,0.38092914,0.3047026,0.9895435,0,0.0,0.0,0.0,0.0,0.0,0,0,0.0,0.2205304,0,0,108.0,0.0,523.0,4611.282051282052,3958.461538461539,4545.641025641026,4429.743589743591,4274.358974358975,4541.538461538462,4480.000000000001,4450.256410256411,4428.717948717949,4748.205128205129,4393.846153846154,4202.051282051282,4251.282051282052,4497.435897435898
38.40801,0.47223496,0.38092914,0.3047026,0.9895435,0,0.0,0.0,0.0,0.0,0.0,0,0,0.0,0.54615444,0,0,17.0,0.0,0.0,4601.025641025642,3940.5128205128212,4532.307692307693,4397.948717948719,4251.794871794872,4538.974358974359,4467.6923076923085,4427.6923076923085,4412.307692307693,4728.717948717949,4383.076923076924,4174.871794871796,4219.48717948718,4471.794871794872
38.658222,0.47084132,0.3715937,0.30095518,1.0,0,0.0,0.0,0.0,0.0,0.0,0,0,0.0,0.33756113,0,0,50.0,0.0,0.0,4587.179487179488,3954.8717948717954,4516.923076923077,4400.512820512821,4242.564102564103,4535.384615384616,4437.948717948719,4407.6923076923085,4405.128205128206,4721.025641025642,4357.435897435898,4143.076923076924,4199.48717948718,4445.641025641026
38.908436,0.47084132,0.3715937,0.30095518,1.0,0,0.0,0.0,0.0,0.0,0.0,0,0,0.0,0.5720059,0,0,81.0,0.0,491.0,4587.6923076923085,3961.0256410256416,4511.794871794872,4407.6923076923085,4237.435897435898,4527.179487179488,4434.871794871796,4412.820512820514,4410.769230769231,4729.2307692307695,4375.384615384616,4153.333333333334,4195.8974358974365,4457.948717948719
39.158653,0.4525245,0.35527024,0.29740816,1.0,0,0.0,0.0,0.0,0.0,0.0,0,0,0.0,0.5770485,0,0,112.0,0.0,523.0,4583.076923076924,3969.7435897435903,4502.051282051282,4410.256410256411,4238.974358974359,4534.871794871796,4424.615384615385,4396.923076923077,4403.076923076924,4719.48717948718,4366.666666666667,4137.435897435898,4183.076923076924,4441.025641025642
39.408867,0.4525245,0.35527024,0.29740816,1.0,0,0.0,0.0,0.0,0.0,0.0,0,0,0.0,0.17509255,0,0,9.0,0.0,478.0,4585.641025641026,3992.307692307693,4513.846153846154,4440.000000000001,4254.358974358975,4557.948717948719,4427.179487179487,4406.666666666667,4413.846153846154,4724.102564102564,4369.2307692307695,4173.846153846154,4197.435897435898,4459.48717948718
39.533974,0.44546437,0.3259286,0.2941703,1.0,0,0.0,0.0,0.0,0.0,0.0,0,0,0.0,0.08590283,0,0,33.0,0.0,0.0,4599.48717948718,4039.48717948718,4528.717948717949,4490.769230769231,4253.846153846154,4539.48717948718,4411.794871794872,4380.512820512821,4410.769230769231,4742.051282051282,4357.948717948719,4198.461538461539,4180.000000000001,4490.769230769231
39.909298,0.44546437,0.3259286,0.2941703,1.0,0,0.0,0.0,0.1081135,0.0,0.0,0,0,0.0,0.0,0,0,76.0,0.0,516.0,4602.564102564103,4076.9230769230776,4546.153846153847,4526.666666666667,4261.025641025642,4555.384615384616,4414.871794871796,4405.641025641026,4423.076923076924,4770.256410256411,4373.333333333334,4246.153846153847,4204.102564102564,4516.923076923077
40.034405,0.4183414,0.34409425,0.29126328,1.0,0,0.0,0.0,0.11754843,0.0,0.0,0,0,0.0,0.0,0,1,97.0,0.0,491.0,4600.000000000001,4069.23076923077,4549.743589743591,4522.051282051282,4246.666666666667,4551.794871794872,4412.820512820514,4404.615384615385,4412.820512820514,4729.743589743591,4360.000000000001,4262.051282051282,4169.74358974359,4473.333333333334
40.34717,0.4183414,0.34409425,0.29126328,1.0,0,0.0,0.0,0.04488034,0.0,0.0,0,0,0.0,0.0,0,0,8.0,0.0,397.0,4600.512820512821,4016.410256410257,4545.641025641026,4490.256410256411,4247.179487179487,4569.2307692307695,4443.076923076924,4444.615384615385,4432.307692307693,4729.2307692307695,4352.307692307693,4279.48717948718,4182.564102564103,4457.948717948719
40.534836,0.39900914,0.35713702,0.28889143,1.0,0,0.0,0.0,0.17383295,0.0,0.0,0,0,0.0,0.0,0,0,32.0,0.0,0.0,4605.128205128206,3989.23076923077,4549.743589743591,4467.6923076923085,4229.74358974359,4566.153846153847,4442.564102564103,4427.179487179487,4412.820512820514,4684.615384615386,4336.923076923077,4276.410256410257,4169.2307692307695,4457.948717948719
40.78505,0.39900914,0.35713702,0.28889143,1.0,0,0.0,0.0,0.38787335,0.0,0.0,0,0,0.0,0.0,0,0,64.0,0.0,276.0,4609.2307692307695,3956.410256410257,4562.564102564103,4440.000000000001,4215.8974358974365,4552.307692307693,4446.153846153847,4434.358974358975,4413.333333333334,4682.564102564103,4344.102564102564,4290.256410256411,4163.076923076924,4466.666666666667
41.035263,0.38964355,0.39037478,0.28680164,1.0,0,0.0,0.0,0.0,0.0,0.0,0,0,0.0,0.53626937,0,0,96.0,0.0,517.0,4613.333333333334,3966.1538461538466,4558.974358974359,4447.6923076923085,4218.974358974359,4551.282051282052,4444.615384615385,4426.153846153847,4404.102564102564,4707.179487179488,4331.282051282052,4276.410256410257,4152.820512820514,4457.435897435898
41.160374,0.38964355,0.39037478,0.28680164,1.0,0,0.0,0.0,0.0,0.0,0.0,0,0,0.0,1.0,0,0,112.0,0.0,517.0,4618.974358974359,3970.2564102564106,4563.589743589744,4460.512820512821,4242.051282051282,4557.948717948719,4459.48717948718,4429.743589743591,4404.615384615385,4698.461538461539,4333.333333333334,4296.923076923077,4165.128205128206,4464.102564102564
41.535694,0.36254072,0.40917188,0.2870164,1.0,0,0.0,0.0,0.0,0.0,0.0,0,0,0.0,0.8148013,0,0,31.0,0.0,0.0,4614.871794871796,3937.435897435898,4545.128205128206,4410.769230769231,4215.8974358974365,4532.820512820514,4446.153846153847,4424.615384615385,4388.717948717949,4669.2307692307695,4335.384615384616,4282.564102564103,4134.871794871796,4438.974358974359
41.78591,0.36254072,0.40917188,0.2870164,1.0,0,0.0,0.0,0.0,0.0,0.0,0,0,0.0,0.16954724,0,0,63.0,0.0,0.0,4626.666666666667,3876.9230769230776,4545.641025641026,4365.128205128206,4191.282051282052,4501.538461538462,4471.794871794872,4424.102564102564,4367.6923076923085,4621.538461538462,4283.589743589744,4245.128205128206,4116.410256410257,4447.6923076923085
42.036125,0.37833637,0.395883,0.28730875,1.0,0,0.0,0.0,0.0,0.0,0.0,0,0,0.0,0.16508977,0,0,95.0,0.0,504.0,4633.333333333334,3847.1794871794878,4544.102564102564,4329.743589743591,4182.564102564103,4443.076923076924,4460.512820512821,4428.717948717949,4350.256410256411,4650.256410256411,4282.051282051282,4200.512820512821,4106.666666666667,4452.820512820514
42.28634,0.37833637,0.395883,0.28730875,1.0,0,0.0,0.0,0.0,0.0,0.0,0,0,0.0,0.68188906,0,0,127.0,0.0,504.0,4632.820512820514,3869.7435897435903,4544.615384615385,4342.051282051282,4200.512820512821,4427.179487179487,4459.48717948718,4429.743589743591,4352.307692307693,4678.974358974359,4288.717948717949,4137.948717948719,4142.564102564103,4459.48717948718
42.536556,0.39410198,0.3861072,0.28757977,1.0,0,0.0,0.0,0.0,0.0,0.0,0,0,0.0,0.43659627,0,0,30.0,0.0,0.0,4616.410256410257,3885.6410256410263,4530.256410256411,4348.205128205129,4210.769230769231,4438.461538461539,4451.794871794872,4391.794871794872,4350.256410256411,4704.615384615386,4315.384615384616,4102.564102564103,4155.384615384616,4460.000000000001
42.78677,0.39410198,0.3861072,0.28757977,1.0,0,0.0,0.0,0.12826836,0.0,0.0,0,0,0.0,0.0,0,0,62.0,0.0,0.0,4585.128205128206,3869.2307692307695,4506.153846153847,4329.743589743591,4248.717948717949,4474.358974358975,4460.000000000001,4386.666666666667,4375.384615384616,4738.974358974359,4342.051282051282,4096.410256410257,4152.820512820514,4375.8974358974365
43.036983,0.3574705,0.36320475,0.28801364,1.0,0,0.0,0.0,0.4639577,0.0,0.0,0,0,0.0,0.0,0,0,94.0,0.0,545.0,4569.743589743591,3898.9743589743593,4501.025641025642,4353.333333333334,4254.871794871796,4501.538461538462,4448.205128205129,4381.025641025642,4381.025641025642,4739.48717948718,4320.000000000001,4113.333333333334,4131.794871794872,4348.717948717949
43.2872,0.3574705,0.36320475,0.28801364,1.0,0,0.0,0.0,0.0,0.0,0.0,0,0,0.0,0.10784502,0,0,126.0,0.0,545.0,4569.743589743591,3938.461538461539,4483.076923076924,4392.307692307693,4259.48717948718,4513.333333333334,4426.153846153847,4371.794871794872,4370.769230769231,4763.076923076924,4310.769230769231,4163.076923076924,4123.076923076924,4330.769230769231
43.537415,0.35425234,0.34785774,0.286181,1.0,0,0.0,0.0,0.0,0.0,0.0,0,0,0.0,1.0,0,0,29.0,0.0,0.0,4575.384615384616,3934.8717948717954,4481.025641025642,4396.410256410257,4246.153846153847,4535.8974358974365,4442.564102564103,4392.820512820514,4370.256410256411,4703.589743589744,4327.179487179487,4229.74358974359,4121.025641025642,4351.794871794872
43.537415,0.35425234,0.34785774,0.286181,1.0,0,0.0,0.0,0.0,0.0,0.0,0,0,0.0,1.0,0,0,29.0,0.0,0.0,4575.384615384616,3934.8717948717954,4481.025641025642,4396.410256410257,4246.153846153847,4535.8974358974365,4442.564102564103,4392.820512820514,4370.256410256411,4703.589743589744,4327.179487179487,4229.74358974359,4121.025641025642,4351.794871794872
44.037846,0.397275,0.33211628,0.28403443,1.0,0,0.0,0.0,0.0,0.0,0.0,0,0,0.0,1.0,0,0,93.0,0.0,491.0,4580.512820512821,3847.692307692308,4466.666666666667,4315.8974358974365,4169.74358974359,4495.8974358974365,4407.6923076923085,4326.153846153847,4300.000000000001,4580.512820512821,4212.820512820514,4217.948717948719,4068.717948717949,4346.666666666667
44.28806,0.397275,0.33211628,0.28403443,1.0,0,0.0,0.0,0.0,0.0,0.0,0,0,0.0,0.23898031,0,0,125.0,0.0,491.0,4572.307692307693,3823.589743589744,4466.153846153847,4292.820512820514,4171.282051282052,4508.205128205129,4393.846153846154,4344.615384615385,4308.717948717949,4612.307692307693,4235.384615384616,4213.333333333334,4127.6923076923085,4385.641025641026
44.538277,0.42307135,0.31821334,0.281509,1.0,0,0.0,0.0,0.0,0.0,0.0,0,0,0.0,0.42324382,0,0,28.0,0.0,0.0,4562.051282051282,3853.8461538461543,4466.153846153847,4310.256410256411,4188.205128205129,4509.2307692307695,4397.435897435898,4360.000000000001,4321.538461538462,4640.000000000001,4282.564102564103,4223.076923076924,4165.641025641026,4423.589743589744
44.78849,0.42307135,0.31821334,0.281509,1.0,0,0.0,0.0,0.0,0.0,0.0,0,0,0.0,0.6566368,0,0,60.0,0.0,0.0,4555.384615384616,3932.307692307693,4473.333333333334,4383.589743589744,4231.282051282052,4536.923076923077,4404.102564102564,4382.564102564103,4336.923076923077,4699.48717948718,4321.025641025642,4248.717948717949,4181.538461538462,4471.794871794872
45.038704,0.4590151,0.31236634,0.2792453,1.0,0,0.0,0.0,0.0,0.0,0.0,0,0,0.0,0.3683747,0,0,92.0,0.0,517.0,4553.846153846154,3953.8461538461543,4471.282051282052,4405.128205128206,4247.6923076923085,4542.051282051282,4402.564102564103,4412.307692307693,4352.307692307693,4760.000000000001,4347.6923076923085,4262.051282051282,4196.410256410257,4489.743589743591
45.41403,0.4590151,0.31236634,0.2792453,1.0,0,0.0,0.0,0.3544061,0.0,0.0,0,0,0.0,0.0,0,0,11.0,0.0,508.0,4568.205128205129,3992.307692307693,4482.564102564103,4452.820512820514,4282.051282051282,4574.358974358975,4421.025641025642,4455.8974358974365,4395.8974358974365,4798.974358974359,4433.846153846154,4303.589743589744,4248.717948717949,4504.615384615385
45.539135,0.5287352,0.3014652,0.27753988,1.0,0,0.0,0.0,0.4128485,0.0,0.0,0,0,0.0,0.0,0,0,27.0,0.0,0.0,4571.282051282052,3994.358974358975,4482.051282051282,4460.512820512821,4280.512820512821,4570.256410256411,4414.871794871796,4451.794871794872,4393.846153846154,4798.461538461539,4424.102564102564,4307.179487179487,4232.307692307693,4494.871794871796
45.78935,0.5287352,0.3014652,0.27753988,1.0,0,0.0,0.0,0.39703858,0.0,0.0,0,0,0.0,0.0,0,0,59.0,0.0,0.0,4573.333333333334,3979.48717948718,4472.307692307693,4452.307692307693,4260.000000000001,4581.538461538462,4416.410256410257,4444.615384615385,4396.923076923077,4803.589743589744,4429.2307692307695,4308.205128205129,4220.000000000001,4502.564102564103
46.039566,0.5156364,0.2937848,0.27584186,1.0,0,0.0,0.0,0.23291387,0.0,0.0,0,0,0.0,0.0,0,0,91.0,0.0,508.0,4576.410256410257,3991.7948717948725,4470.256410256411,4463.589743589744,4255.384615384616,4587.6923076923085,4435.8974358974365,4447.179487179487,4388.717948717949,4730.769230769231,4374.871794871796,4293.846153846154,4150.256410256411,4448.205128205129
46.28978,0.5156364,0.2937848,0.27584186,1.0,0,0.0,0.0,0.17676477,0.0,0.0,0,0,0.0,0.0,0,0,123.0,0.0,508.0,4590.769230769231,3986.1538461538466,4485.128205128206,4469.743589743591,4253.846153846154,4583.076923076924,4436.410256410257,4442.051282051282,4392.820512820514,4738.974358974359,4382.564102564103,4304.615384615385,4172.820512820514,4462.564102564103
46.539997,0.48946103,0.30120605,0.27492797,1.0,0,0.0,0.0,0.0,0.0,0.0,0,0,0.0,0.5550174,0,0,26.0,0.0,0.0,4599.48717948718,3971.2820512820517,4486.666666666667,4451.282051282052,4251.794871794872,4588.717948717949,4451.282051282052,4484.615384615385,4409.743589743591,4768.205128205129,4414.358974358975,4327.6923076923085,4222.564102564103,4505.641025641026
46.79021,0.48946103,0.30120605,0.27492797,1.0,0,0.0,0.0,0.0,0.0,0.0,0,0,0.0,0.5477623,0,0,58.0,0.0,0.0,4598.974358974359,3971.2820512820517,4488.205128205129,4457.435897435898,4248.717948717949,4580.512820512821,4442.051282051282,4454.871794871796,4398.461538461539,4749.743589743591,4406.666666666667,4318.974358974359,4213.846153846154,4502.564102564103
47.134254,0.5079695,0.3073372,0.2753088,1.0,1,0.0,0.0,0.0,0.0,0.0,0,0,0.0,0.08178701,0,0,102.0,0.0,549.0,4658.974358974359,4089.23076923077,4528.205128205129,4565.641025641026,4217.948717948719,4552.820512820514,4433.333333333334,4422.051282051282,4392.820512820514,4753.846153846154,4439.48717948718,4376.923076923077,4281.538461538462,4657.948717948719
47.29064,0.5079695,0.3073372,0.2753088,1.0,0,0.0,0.0,0.11462084,0.0,0.0,0,0,0.0,0.0,0,0,122.0,0.0,549.0,4632.307692307693,3988.717948717949,4501.538461538462,4485.641025641026,4197.435897435898,4543.076923076924,4435.8974358974365,4451.282051282052,4381.538461538462,4737.435897435898,4397.435897435898,4330.769230769231,4215.384615384616,4552.307692307693
47.540855,0.50592166,0.3455455,0.27708498,1.0,0,0.0,0.0,0.020479314,0.0,0.0,0,0,0.0,0.0,0,0,25.0,0.0,0.0,4634.871794871796,3945.1282051282055,4510.256410256411,4445.641025641026,4192.820512820514,4542.051282051282,4430.256410256411,4450.769230769231,4375.384615384616,4706.153846153847,4391.794871794872,4324.102564102564,4209.2307692307695,4549.2307692307695
47.79107,0.50592166,0.3455455,0.27708498,1.0,0,0.0,0.0,0.0,0.0,0.0,0,0,0.0,1.0,0,0,57.0,0.0,0.0,4644.102564102564,3925.1282051282055,4522.564102564103,4426.153846153847,4199.48717948718,4535.8974358974365,4440.000000000001,4456.410256410257,4370.256410256411,4684.615384615386,4398.974358974359,4333.846153846154,4211.282051282052,4553.333333333334
48.041286,0.47826856,0.3877064,0.28122061,1.0,0,0.0,0.0,0.0,0.0,0.0,0,0,0.0,0.36325166,0,0,89.0,0.0,490.0,4643.076923076924,3927.1794871794878,4530.769230769231,4428.205128205129,4205.128205128206,4522.564102564103,4431.794871794872,4449.743589743591,4368.205128205129,4689.2307692307695,4392.307692307693,4327.179487179487,4208.205128205129,4542.051282051282
48.2915,0.47826856,0.3877064,0.28122061,1.0,0,0.0,0.0,0.0,0.0,0.0,0,0,0.0,0.48992717,0,0,121.0,0.0,490.0,4633.846153846154,3924.1025641025644,4531.794871794872,4418.461538461539,4197.435897435898,4520.512820512821,4436.410256410257,4436.923076923077,4363.589743589744,4677.948717948719,4375.8974358974365,4310.256410256411,4184.615384615385,4517.435897435898
48.635548,0.4524283,0.4175515,0.2883554,1.0,1,0.0,0.0,0.0,0.0,0.0,0,0,0.0,0.1874432,0,0,36.0,0.0,0.0,4648.205128205129,3931.7948717948725,4544.615384615385,4421.538461538462,4186.666666666667,4511.282051282052,4447.6923076923085,4413.333333333334,4354.871794871796,4690.769230769231,4344.102564102564,4309.743589743591,4176.923076923077,4552.820512820514
48.79193,0.4524283,0.4175515,0.2883554,1.0,0,0.0,0.0,0.12239597,0.0,0.0,0,0,0.0,0.0,0,0,56.0,0.0,0.0,4631.794871794872,3890.2564102564106,4529.743589743591,4373.333333333334,4200.000000000001,4511.794871794872,4461.025641025642,4415.8974358974365,4362.564102564103,4691.282051282052,4343.076923076924,4288.205128205129,4143.589743589744,4488.205128205129
49.042145,0.40342128,0.46498498,0.2947835,1.0,0,0.0,0.0,0.23677722,0.0,0.0,0,0,0.0,0.0,0,0,88.0,0.0,522.0,4625.128205128206,3930.2564102564106,4528.717948717949,4402.051282051282,4220.512820512821,4509.743589743591,4445.641025641026,4397.948717948719,4355.384615384616,4672.307692307693,4296.410256410257,4246.666666666667,4084.1025641025644,4425.128205128206
49.292362,0.40342128,0.46498498,0.2947835,1.0,0,0.0,0.0,0.2807019,0.0,0.0,0,0,0.0,0.0,0,0,120.0,0.0,522.0,4617.948717948719,3940.0000000000005,4515.8974358974365,4408.717948717949,4237.435897435898,4524.102564102564,4449.743589743591,4393.846153846154,4362.564102564103,4718.461538461539,4320.512820512821,4235.384615384616,4127.6923076923085,4460.512820512821
49.542576,0.42573434,0.46781626,0.30057472,1.0,0,0.0,0.0,0.0,0.0,0.0,0,0,0.0,0.4616923,0,0,23.0,0.0,0.0,4614.871794871796,3953.8461538461543,4513.846153846154,4415.384615384616,4243.589743589744,4534.358974358975,4447.179487179487,4388.717948717949,4368.717948717949,4716.410256410257,4326.153846153847,4226.666666666667,4135.384615384616,4482.051282051282
49.79279,0.42573434,0.46781626,0.30057472,1.0,0,0.0,0.0,0.0,0.0,0.0,0,0,0.0,0.23321639,0,0,55.0,0.0,0.0,4604.615384615385,3969.2307692307695,4510.769230769231,4426.153846153847,4249.2307692307695,4535.384615384616,4438.974358974359,4368.717948717949,4361.025641025642,4724.615384615386,4325.641025641026,4219.48717948718,4152.820512820514,4492.820512820514
50.043007,0.38238367,0.46283138,0.30579188,1.0,0,0.0,0.0,0.0,0.0,0.0,0,0,0.0,0.27930713,0,0,87.0,0.0,507.0,4600.512820512821,3962.564102564103,4500.000000000001,4430.769230769231,4248.717948717949,4532.820512820514,4425.641025641026,4364.102564102564,4353.846153846154,4717.948717948719,4331.282051282052,4212.820512820514,4153.333333333334,4504.102564102564
50.29322,0.38238367,0.46283138,0.30579188,1.0,0,0.0,0.0,0.0,0.0,0.0,0,1,0.0,1.0,0,0,119.0,0.0,507.0,4600.000000000001,3913.333333333334,4498.974358974359,4396.923076923077,4241.025641025642,4554.358974358975,4453.846153846154,4395.384615384616,4386.153846153847,4773.846153846154,4417.948717948719,4252.307692307693,4286.153846153847,4560.512820512821
50.543434,0.3887539,0.46881416,0.31005523,1.0,0,0.0,0.0,0.0,0.0,0.0,0,1,0.0,0.67972445,0,0,22.0,0.0,0.0,4593.333333333334,3898.9743589743593,4487.179487179488,4381.025641025642,4208.717948717949,4534.871794871796,4441.538461538462,4389.743589743591,4375.384615384616,4740.512820512821,4368.205128205129,4231.282051282052,4240.512820512821,4523.076923076924
50.79365,0.3887539,0.46881416,0.31005523,1.0,0,0.0,0.0,0.0,0.0,0.0,0,1,0.0,0.326022,0,0,54.0,0.0,0.0,4594.358974358975,3854.8717948717954,4481.538461538462,4342.564102564103,4161.025641025642,4509.743589743591,4462.051282051282,4383.589743589744,4363.589743589744,4701.538461538462,4363.076923076924,4238.974358974359,4222.051282051282,4533.846153846154
51.043865,0.4107097,0.48056415,0.3138959,1.0,0,0.0,0.0,0.0,0.0,0.0,0,1,0.0,0.1515204,0,0,86.0,0.0,545.0,4588.717948717949,3824.1025641025644,4491.794871794872,4300.512820512821,4144.102564102564,4455.384615384616,4471.282051282052,4360.000000000001,4320.000000000001,4629.743589743591,4278.461538461539,4200.000000000001,4164.615384615385,4501.025641025642
51.294083,0.4107097,0.48056415,0.3138959,1.0,0,0.0,0.0,0.0,0.0,0.0,0,1,0.0,0.3268365,0,0,118.0,0.0,545.0,4569.2307692307695,3810.2564102564106,4492.307692307693,4275.8974358974365,4154.358974358975,4433.333333333334,4456.923076923077,4327.6923076923085,4308.717948717949,4616.923076923077,4245.641025641026,4128.205128205129,4128.717948717949,4465.128205128206
51.544296,0.43685198,0.4815187,0.31798738,1.0,0,0.0,0.0,0.0,0.0,0.0,0,1,0.0,1.0,0,0,21.0,0.0,0.0,4548.205128205129,3849.2307692307695,4490.769230769231,4301.025641025642,4182.051282051282,4440.512820512821,4440.512820512821,4308.717948717949,4295.384615384616,4594.871794871796,4232.307692307693,4076.9230769230776,4114.871794871796,4440.000000000001
51.79451,0.43685198,0.4815187,0.31798738,1.0,0,0.0,0.0,0.0,0.0,0.0,0,1,0.0,0.6297405,0,0,53.0,0.0,0.0,4525.641025641026,3876.410256410257,4496.923076923077,4316.923076923077,4203.076923076924,4473.846153846154,4442.051282051282,4324.615384615385,4315.384615384616,4646.153846153847,4268.205128205129,4070.2564102564106,4144.102564102564,4417.435897435898
52.044727,0.4498015,0.46708474,0.32167217,1.0,0,0.0,0.0,0.0,0.0,0.0,0,1,0.0,0.24201989,0,0,85.0,0.0,490.0,4508.205128205129,3887.1794871794878,4477.948717948719,4328.717948717949,4211.794871794872,4483.589743589744,4415.384615384616,4331.282051282052,4324.102564102564,4652.820512820514,4291.282051282052,4084.1025641025644,4148.205128205129,4408.205128205129
52.29494,0.4498015,0.46708474,0.32167217,1.0,0,0.0,0.0,0.0,0.0,0.0,0,1,0.0,0.12100756,0,0,117.0,0.0,490.0,4509.2307692307695,3931.7948717948725,4469.743589743591,4381.025641025642,4248.717948717949,4507.6923076923085,4403.076923076924,4370.256410256411,4347.179487179487,4722.564102564103,4341.025641025642,4135.384615384616,4187.179487179487,4417.948717948719
52.545155,0.46047735,0.4368314,0.32499036,1.0,0,0.0,0.0,0.0,0.0,0.0,0,1,0.0,0.044045635,0,0,20.0,0.0,0.0,4512.820512820514,3970.2564102564106,4455.384615384616,4422.051282051282,4258.461538461539,4535.384615384616,4398.461538461539,4407.179487179487,4360.512820512821,4726.153846153847,4365.128205128206,4183.589743589744,4198.461538461539,4450.256410256411
52.795372,0.46047735,0.4368314,0.32499036,1.0,0,0.0,0.0,0.0,0.0,0.0,0,1,0.0,0.16567716,0,0,52.0,0.0,0.0,4523.076923076924,3954.358974358975,4440.000000000001,4414.358974358975,4232.307692307693,4524.615384615385,4403.589743589744,4443.589743589744,4373.333333333334,4732.307692307693,4384.102564102564,4252.307692307693,4165.128205128206,4441.025641025642
53.045586,0.43437782,0.4133665,0.32443637,1.0,0,0.0,0.0,0.0,0.0,0.0,0,1,0.0,0.66738707,0,0,84.0,0.0,519.0,4537.435897435898,3876.9230769230776,4446.666666666667,4351.794871794872,4180.000000000001,4524.615384615385,4421.025641025642,4392.820512820514,4333.846153846154,4624.102564102564,4324.102564102564,4271.282051282052,4124.615384615385,4434.871794871796
53.295803,0.43437782,0.4133665,0.32443637,1.0,0,0.0,0.0,0.0,0.0,0.0,0,1,0.0,0.17474005,0,0,116.0,0.0,519.0,4535.8974358974365,3811.7948717948725,4450.256410256411,4295.384615384616,4137.435897435898,4488.205128205129,4445.128205128206,4395.384615384616,4316.923076923077,4562.051282051282,4246.666666666667,4224.102564102564,4093.333333333334,4414.871794871796
53.546017,0.4860037,0.40325782,0.32239628,1.0,0,0.0,0.0,0.0,0.0,0.0,0,1,0.0,0.051383533,0,0,19.0,0.0,0.0,4507.6923076923085,3826.666666666667,4453.333333333334,4300.000000000001,4164.615384615385,4508.717948717949,4477.435897435898,4410.769230769231,4326.153846153847,4605.128205128206,4246.666666666667,4185.128205128206,4128.717948717949,4424.615384615385
53.79623,0.4860037,0.40325782,0.32239628,1.0,1,0.0,0.0,0.0,0.0,0.0,0,0,0.0,0.08576844,0,0,51.0,0.0,0.0,4518.461538461539,3911.2820512820517,4470.769230769231,4375.8974358974365,4192.307692307693,4507.6923076923085,4448.205128205129,4403.076923076924,4322.051282051282,4630.769230769231,4253.333333333334,4170.256410256411,4140.512820512821,4489.743589743591
54.046448,0.49124068,0.42247608,0.3196175,1.0,0,0.0,0.0,0.0,0.0,0.0,0,0,0.0,0.38615653,0,0,83.0,0.0,507.0,4506.153846153847,3912.307692307693,4463.589743589744,4372.820512820514,4238.974358974359,4534.871794871796,4463.589743589744,4449.2307692307695,4347.6923076923085,4683.589743589744,4293.846153846154,4156.410256410257,4133.333333333334,4431.282051282052
54.29666,0.49124068,0.42247608,0.3196175,1.0,0,0.0,0.0,0.0,0.0,0.0,0,0,0.0,0.45430043,0,0,115.0,0.0,507.0,4516.923076923077,3961.0256410256416,4477.948717948719,4415.384615384616,4275.384615384616,4555.8974358974365,4479.48717948718,4482.564102564103,4382.564102564103,4745.641025641026,4327.179487179487,4189.2307692307695,4174.871794871796,4481.025641025642
54.546875,0.53050107,0.4463287,0.31711873,1.0,0,0.0,0.0,0.0,0.0,0.0,0,0,0.0,0.1497794,0,0,18.0,0.0,0.0,4527.179487179488,3984.615384615385,4481.025641025642,4443.589743589744,4281.538461538462,4553.333333333334,4426.666666666667,4459.48717948718,4377.435897435898,4765.641025641026,4393.846153846154,4230.256410256411,4205.641025641026,4490.769230769231
54.797092,0.53050107,0.4463287,0.31711873,1.0,0,0.0,0.0,0.0,0.0,0.0,0,0,0.0,0.024056546,0,0,50.0,0.0,0.0,4539.48717948718,4011.7948717948725,4484.615384615385,4475.8974358974365,4318.461538461539,4583.076923076924,4448.717948717949,4467.179487179487,4412.307692307693,4821.538461538462,4437.948717948719,4284.102564102564,4237.435897435898,4494.871794871796
55.047306,0.52159256,0.4777042,0.31524393,1.0,0,0.0,0.0,0.15724008,0.0,0.0,0,0,0.0,0.0,0,0,82.0,0.0,545.0,4566.153846153847,4060.5128205128212,4500.512820512821,4526.666666666667,4318.974358974359,4592.307692307693,4433.846153846154,4464.615384615385,4406.666666666667,4813.846153846154,4446.153846153847,4312.820512820514,4237.948717948719,4505.128205128206
55.29752,0.52159256,0.4777042,0.31524393,1.0,0,0.0,0.0,0.0,0.0,0.0,0,0,0.0,0.40182093,0,0,114.0,0.0,545.0,4585.641025641026,4076.9230769230776,4509.743589743591,4548.717948717949,4296.923076923077,4587.6923076923085,4422.051282051282,4467.6923076923085,4398.974358974359,4764.615384615386,4451.282051282052,4337.435897435898,4169.74358974359,4471.282051282052
55.547737,0.5475262,0.5336096,0.31355944,0.9893474,0,0.0,0.0,0.0,0.0,0.0,0,0,0.0,0.30311778,0,0,17.0,0.0,0.0,4598.974358974359,4062.564102564103,4511.282051282052,4540.000000000001,4274.871794871796,4572.307692307693,4413.333333333334,4450.256410256411,4394.358974358975,4743.076923076924,4434.871794871796,4348.205128205129,4174.871794871796,4474.358974358975
55.79795,0.5475262,0.5336096,0.31355944,0.9893474,0,0.0,0.0,0.31276232,0.0,0.0,0,0,0.0,0.0,0,0,49.0,0.0,0.0,4614.358974358975,3990.2564102564106,4512.307692307693,4484.615384615385,4235.384615384616,4569.743589743591,4408.205128205129,4414.358974358975,4382.051282051282,4700.000000000001,4378.461538461539,4347.6923076923085,4155.384615384616,4475.8974358974365
56.04817,0.5403467,0.5686949,0.31343415,0.9827047,0,0.0,0.0,0.19278964,0.0,0.0,0,0,0.0,0.0,0,0,81.0,0.0,490.0,4615.384615384616,3929.2307692307695,4513.846153846154,4429.743589743591,4184.102564102564,4529.2307692307695,4427.179487179487,4390.769230769231,4355.384615384616,4644.615384615385,4318.974358974359,4344.102564102564,4111.282051282052,4473.846153846154
56.29838,0.5403467,0.5686949,0.31343415,0.9827047,0,0.0,0.0,0.0,0.0,0.0,0,0,0.0,0.100787885,0,0,113.0,0.0,490.0,4614.871794871796,3875.8974358974365,4511.794871794872,4365.641025641026,4178.461538461539,4489.2307692307695,4429.2307692307695,4369.2307692307695,4338.974358974359,4616.923076923077,4283.589743589744,4261.025641025642,4111.794871794872,4507.6923076923085
56.548595,0.51518625,0.59435964,0.31577456,0.9803203,0,0.0,0.0,0.0,0.0,0.0,0,0,0.0,0.21180804,0,0,16.0,0.0,0.0,4598.974358974359,3854.8717948717954,4508.717948717949,4331.794871794872,4184.102564102564,4461.538461538462,4434.358974358975,4392.307692307693,4337.948717948719,4629.743589743591,4260.000000000001,4168.717948717949,4125.641025641026,4522.564102564103
56.798813,0.51518625,0.59435964,0.31577456,0.9803203,0,0.0,0.0,0.0,0.0,0.0,0,0,0.0,0.62507427,0,0,48.0,0.0,0.0,4590.256410256411,3903.076923076924,4515.8974358974365,4349.2307692307695,4215.384615384616,4479.48717948718,4427.6923076923085,4413.333333333334,4354.871794871796,4680.000000000001,4291.794871794872,4122.051282051282,4166.666666666667,4530.256410256411
57.049026,0.50057924,0.5847095,0.31788364,0.9778987,0,0.0,0.0,0.0,0.0,0.0,0,0,0.0,0.78609645,0,0,80.0,0.0,519.0,4570.769230769231,3946.666666666667,4514.871794871796,4379.48717948718,4243.589743589744,4517.948717948719,4438.974358974359,4436.923076923077,4361.538461538462,4717.948717948719,4343.589743589744,4123.589743589744,4197.948717948719,4511.794871794872
57.174133,0.50057924,0.5847095,0.31788364,0.9778987,0,0.0,0.0,0.0,0.0,0.0,0,0,0.0,1.0,0,0,96.0,0.0,519.0,4570.256410256411,3948.717948717949,4507.179487179488,4385.128205128206,4251.794871794872,4523.076923076924,4438.461538461539,4446.153846153847,4368.717948717949,4731.794871794872,4363.589743589744,4135.8974358974365,4218.461538461539,4523.589743589744
57.549458,0.50122046,0.54933864,0.31701392,0.97544974,0,0.0,0.0,0.0,0.0,0.0,0,0,0.0,0.9422138,0,0,15.0,0.0,506.0,4572.307692307693,3981.538461538462,4496.410256410257,4420.000000000001,4269.2307692307695,4541.025641025642,4434.871794871796,4458.461538461539,4370.769230769231,4779.48717948718,4401.538461538462,4184.102564102564,4205.641025641026,4522.051282051282
57.79967,0.50122046,0.54933864,0.31701392,0.97544974,0,0.0,0.0,0.0,0.0,0.0,0,0,0.0,0.5005351,0,0,47.0,0.0,0.0,4585.128205128206,3971.2820512820517,4489.2307692307695,4423.589743589744,4254.871794871796,4563.076923076924,4443.076923076924,4454.358974358975,4368.205128205129,4745.128205128206,4409.743589743591,4211.794871794872,4189.74358974359,4523.076923076924
58.04989,0.5114604,0.51314735,0.3134789,0.97242993,0,0.0,0.0,0.0,0.0,0.0,0,0,0.0,0.6057995,0,0,79.0,0.0,506.0,4596.410256410257,3913.8461538461543,4473.333333333334,4397.435897435898,4205.128205128206,4544.102564102564,4440.512820512821,4444.615384615385,4349.743589743591,4675.384615384616,4373.846153846154,4215.384615384616,4146.153846153847,4474.358974358975
58.300102,0.5114604,0.51314735,0.3134789,0.97242993,0,0.0,0.0,0.0,0.0,0.0,0,0,0.0,0.31770927,0,0,111.0,0.0,506.0,4600.000000000001,3826.666666666667,4468.205128205129,4325.641025641026,4165.641025641026,4519.48717948718,4472.820512820514,4430.769230769231,4320.000000000001,4614.358974358975,4265.128205128206,4241.538461538462,4089.23076923077,4423.589743589744
58.550316,0.5449483,0.49396396,0.31003267,0.9681323,0,0.0,0.0,0.08857911,0.0,0.0,0,0,0.0,0.0,0,0,14.0,0.0,546.0,4592.820512820514,3820.0000000000005,4469.2307692307695,4314.358974358975,4167.6923076923085,4511.794871794872,4474.871794871796,4428.205128205129,4303.589743589744,4581.538461538462,4205.128205128206,4233.846153846154,4076.9230769230776,4416.410256410257
58.800533,0.5449483,0.49396396,0.31003267,0.9681323,0,0.0,0.0,0.0,0.0,0.0,0,0,0.0,0.37694648,0,0,46.0,0.0,0.0,4583.589743589744,3848.205128205129,4460.000000000001,4325.128205128206,4192.307692307693,4524.102564102564,4473.846153846154,4475.8974358974365,4333.846153846154,4626.153846153847,4261.538461538462,4202.051282051282,4097.948717948719,4447.179487179487
59.050747,0.5920683,0.47580144,0.30660817,0.9640567,0,0.0,0.0,0.0,0.0,0.0,0,0,0.0,0.41187796,0,0,78.0,0.0,546.0,4573.846153846154,3886.666666666667,4463.076923076924,4360.000000000001,4219.48717948718,4529.743589743591,4462.051282051282,4450.256410256411,4334.358974358975,4660.512820512821,4282.564102564103,4182.564102564103,4136.923076923077,4459.48717948718
59.30096,0.5920683,0.47580144,0.30660817,0.9640567,0,0.0,0.0,0.0,0.0,0.0,0,0,0.0,0.3876151,0,0,110.0,0.0,546.0,4571.282051282052,3921.0256410256416,4460.000000000001,4389.2307692307695,4242.051282051282,4545.128205128206,4473.846153846154,4476.923076923077,4367.6923076923085,4706.153846153847,4337.948717948719,4161.025641025642,4181.538461538462,4467.179487179487
59.551178,0.620989,0.45219082,0.30331516,0.9601829,0,0.0,0.0,0.0,0.0,0.0,0,0,0.0,0.5606422,0,0,13.0,0.0,492.0,4576.410256410257,3996.9230769230776,4471.794871794872,4444.615384615385,4286.153846153847,4572.307692307693,4478.461538461539,4495.384615384616,4391.282051282052,4797.948717948719,4395.384615384616,4170.769230769231,4235.384615384616,4500.000000000001
59.80139,0.620989,0.45219082,0.30331516,0.9601829,0,0.0,0.0,0.051206864,0.0,0.0,0,0,0.0,0.0,0,0,45.0,0.0,0.0,4569.2307692307695,3970.2564102564106,4447.6923076923085,4430.256410256411,4243.589743589744,4531.794871794872,4412.307692307693,4469.743589743591,4373.846153846154,4762.564102564103,4409.743589743591,4184.102564102564,4196.410256410257,4507.6923076923085
60.05161,0.6253744,0.43615878,0.30019638,0.9613297,0,0.0,0.0,0.0,0.0,0.0,0,0,0.0,0.0755772,0,0,77.0,0.0,492.0,4595.8974358974365,4016.9230769230776,4457.435897435898,4488.205128205129,4297.948717948719,4587.179487179488,4441.538461538462,4526.153846153847,4411.282051282052,4829.743589743591,4493.846153846154,4284.615384615385,4248.205128205129,4555.384615384616
60.301823,0.6253744,0.43615878,0.30019638,0.9613297,0,0.0,0.0,0.0,0.0,0.0,0,0,0.0,0.36958092,0,0,109.0,0.0,492.0,4605.641025641026,4005.1282051282055,4463.589743589744,4490.256410256411,4277.435897435898,4596.410256410257,4435.384615384616,4527.6923076923085,4413.846153846154,4834.358974358975,4510.256410256411,4328.717948717949,4236.923076923077,4533.333333333334
60.552036,0.70109516,0.43138272,0.29682988,0.9676414,0,0.0,0.0,0.0,0.0,0.0,0,0,0.0,0.7435456,0,0,12.0,0.0,515.0,4617.435897435898,3983.589743589744,4464.615384615385,4480.512820512821,4265.128205128206,4602.564102564103,4442.051282051282,4507.179487179488,4398.974358974359,4800.000000000001,4481.025641025642,4385.128205128206,4220.000000000001,4533.333333333334
60.677143,0.70109516,0.43138272,0.29682988,0.9676414,0,0.0,0.0,0.0,0.0,0.0,0,0,0.0,1.0,0,0,28.0,0.0,0.0,4624.102564102564,3980.5128205128212,4469.743589743591,4485.641025641026,4258.461538461539,4597.948717948719,4430.769230769231,4505.641025641026,4397.948717948719,4792.820512820514,4481.025641025642,4413.846153846154,4219.48717948718,4539.48717948718
61.052467,0.6764045,0.44262612,0.29365873,0.9728775,0,0.0,0.0,0.35690516,0.0,0.0,0,0,0.0,0.0,0,0,76.0,0.0,515.0,4628.717948717949,3969.7435897435903,4467.6923076923085,4472.307692307693,4251.282051282052,4600.512820512821,4444.102564102564,4505.128205128206,4398.461538461539,4778.974358974359,4459.48717948718,4427.179487179487,4217.435897435898,4542.564102564103
61.30268,0.6764045,0.44262612,0.29365873,0.9728775,0,0.0,0.0,0.0,0.0,0.0,0,0,0.0,0.14897966,0,0,108.0,0.0,515.0,4630.769230769231,3974.8717948717954,4468.205128205129,4487.179487179488,4264.102564102564,4602.051282051282,4413.846153846154,4491.282051282052,4401.025641025642,4762.564102564103,4434.358974358975,4421.025641025642,4232.820512820514,4552.307692307693
61.5529,0.6642113,0.4580222,0.29081094,0.97715694,0,0.0,0.0,0.0,0.0,0.0,0,0,0.0,0.08835499,0,0,11.0,0.0,506.0,4634.871794871796,3970.7692307692314,4465.128205128206,4479.48717948718,4238.974358974359,4582.051282051282,4410.256410256411,4470.256410256411,4397.435897435898,4763.076923076924,4435.8974358974365,4400.000000000001,4216.410256410257,4542.564102564103
61.803112,0.6642113,0.4580222,0.29081094,0.97715694,0,0.0,0.0,0.0,0.0,0.0,0,0,0.0,0.23067011,0,0,43.0,0.0,0.0,4632.820512820514,3973.8461538461543,4462.051282051282,4490.769230769231,4246.153846153847,4581.538461538462,4421.025641025642,4462.564102564103,4403.589743589744,4762.051282051282,4416.923076923077,4377.435897435898,4214.871794871796,4530.256410256411
62.053326,0.5988346,0.4553394,0.28825462,0.97816384,0,0.0,0.0,0.0,0.0,0.0,0,0,0.0,0.044334974,0,0,75.0,0.0,506.0,4633.846153846154,3967.692307692308,4463.589743589744,4486.153846153847,4238.974358974359,4584.102564102564,4434.871794871796,4467.6923076923085,4409.2307692307695,4770.769230769231,4420.512820512821,4361.025641025642,4217.435897435898,4516.923076923077
62.303543,0.5988346,0.4553394,0.28825462,0.97816384,0,0.0,0.0,0.021357913,0.0,0.0,0,0,0.0,0.0,0,0,107.0,0.0,506.0,4635.8974358974365,3956.9230769230776,4468.205128205129,4474.358974358975,4214.358974358975,4555.8974358974365,4442.051282051282,4447.179487179487,4400.000000000001,4748.717948717949,4407.179487179487,4364.102564102564,4190.256410256411,4515.384615384616
62.553757,0.5609215,0.44512048,0.28596097,0.97590744,0,0.0,0.0,0.13934197,0.0,0.0,0,0,0.0,0.0,0,0,10.0,0.0,546.0,4651.794871794872,3882.0512820512827,4470.256410256411,4412.307692307693,4171.282051282052,4549.743589743591,4457.435897435898,4465.128205128206,4357.948717948719,4644.102564102564,4336.923076923077,4341.025641025642,4149.2307692307695,4508.205128205129
62.803974,0.5609215,0.44512048,0.28596097,0.97590744,0,0.0,0.0,0.19826762,0.0,0.0,0,0,0.0,0.0,0,0,42.0,0.0,0.0,4665.128205128206,3822.564102564103,4476.923076923077,4351.794871794872,4121.025641025642,4480.512820512821,4460.512820512821,4445.641025641026,4325.128205128206,4577.435897435898,4284.615384615385,4297.435897435898,4120.512820512821,4511.794871794872
63.054188,0.60653144,0.4327343,0.28449097,0.97090125,0,0.0,0.0,0.0,0.0,0.0,0,0,0.0,0.21646069,0,0,74.0,0.0,546.0,4658.461538461539,3812.820512820513,4476.410256410257,4322.051282051282,4128.205128205129,4453.846153846154,4458.461538461539,4428.205128205129,4324.615384615385,4577.435897435898,4278.461538461539,4263.076923076924,4114.871794871796,4534.358974358975
63.3044,0.60653144,0.4327343,0.28449097,0.97090125,0,0.0,0.0,0.0,0.0,0.0,0,0,0.0,1.0,0,0,106.0,0.0,546.0,4634.871794871796,3864.615384615385,4470.256410256411,4348.717948717949,4170.256410256411,4476.410256410257,4468.717948717949,4445.641025641026,4338.461538461539,4609.743589743591,4285.128205128206,4268.205128205129,4137.435897435898,4514.358974358975
63.55462,0.6225896,0.4142325,0.28348216,0.9654214,0,0.0,0.0,0.0,0.0,0.0,0,0,0.0,0.73842037,0,0,9.0,0.0,481.0,4615.384615384616,3904.1025641025644,4458.461538461539,4378.974358974359,4217.435897435898,4494.358974358975,4448.205128205129,4421.025641025642,4337.435897435898,4660.000000000001,4297.948717948719,4236.923076923077,4145.641025641026,4483.589743589744
63.804832,0.6225896,0.4142325,0.28348216,0.9654214,0,0.0,0.0,0.20142338,0.0,0.0,0,0,0.0,0.0,0,0,41.0,0.0,0.0,4614.871794871796,3951.7948717948725,4453.846153846154,4416.410256410257,4255.8974358974365,4519.48717948718,4447.6923076923085,4418.461538461539,4359.48717948718,4710.256410256411,4310.256410256411,4230.769230769231,4194.358974358975,4490.256410256411
64.055046,0.5421741,0.3993217,0.28258184,0.96031517,0,0.0,0.0,0.134366,0.0,0.0,0,0,0.0,0.0,0,0,73.0,0.0,481.0,4603.076923076924,3972.820512820513,4437.435897435898,4427.6923076923085,4260.512820512821,4508.205128205129,4414.358974358975,4406.153846153847,4378.461538461539,4729.743589743591,4356.410256410257,4203.589743589744,4185.128205128206,4454.358974358975
64.30526,0.5421741,0.3993217,0.28258184,0.96031517,0,0.0,0.0,0.0,0.0,0.0,0,0,0.0,0.50428265,0,0,105.0,0.0,489.0,4616.410256410257,3995.3846153846157,4434.871794871796,4464.615384615385,4273.333333333334,4526.153846153847,4422.051282051282,4407.179487179487,4388.717948717949,4758.461538461539,4404.102564102564,4217.948717948719,4200.000000000001,4469.743589743591
64.55548,0.5837866,0.38085508,0.28089777,0.95631826,0,0.0,0.0,0.24087366,0.0,0.0,0,0,0.0,0.0,0,0,8.0,0.0,397.0,4617.435897435898,3978.9743589743593,4427.179487179487,4460.000000000001,4249.2307692307695,4537.948717948719,4438.461538461539,4400.512820512821,4390.769230769231,4748.205128205129,4396.923076923077,4218.974358974359,4185.641025641026,4434.358974358975
64.805695,0.5837866,0.38085508,0.28089777,0.95631826,0,0.0,0.0,0.0,0.0,0.0,0,0,0.0,0.26805517,0,0,40.0,0.0,0.0,4629.2307692307695,3912.307692307693,4428.717948717949,4413.846153846154,4215.384615384616,4546.153846153847,4453.846153846154,4382.564102564103,4369.2307692307695,4673.846153846154,4318.974358974359,4218.461538461539,4120.512820512821,4405.128205128206
65.05591,0.56985444,0.37059894,0.27835333,0.95622796,0,0.0,0.0,0.0,0.0,0.0,0,0,0.0,0.1941144,0,0,72.0,0.0,397.0,4629.743589743591,3887.1794871794878,4437.948717948719,4386.153846153847,4197.435897435898,4527.179487179488,4461.538461538462,4394.358974358975,4364.102564102564,4661.025641025642,4289.2307692307695,4229.74358974359,4122.564102564103,4412.307692307693
65.30612,0.56985444,0.37059894,0.27835333,0.95622796,0,0.0,0.0,0.0,0.0,0.0,0,0,0.0,0.32882798,0,0,104.0,0.0,519.0,4617.435897435898,3910.7692307692314,4441.025641025642,4392.307692307693,4213.333333333334,4526.666666666667,4464.615384615385,4398.974358974359,4382.564102564103,4677.948717948719,4306.666666666667,4230.769230769231,4144.615384615385,4426.153846153847
65.556335,0.5932507,0.3685194,0.27682903,0.95600516,0,0.0,0.0,0.0,0.0,0.0,0,0,0.0,0.3638865,0,0,7.0,0.0,462.0,4615.8974358974365,3932.820512820513,4451.794871794872,4413.846153846154,4223.589743589744,4537.948717948719,4467.6923076923085,4407.179487179487,4395.384615384616,4696.410256410257,4350.256410256411,4223.589743589744,4172.820512820514,4460.512820512821
65.80655,0.5932507,0.3685194,0.27682903,0.95600516,0,0.0,0.0,0.0,0.0,0.0,0,0,0.0,0.09813633,0,0,39.0,0.0,0.0,4615.384615384616,3953.333333333334,4461.025641025642,4430.769230769231,4244.615384615385,4536.410256410257,4460.000000000001,4349.2307692307695,4408.717948717949,4720.000000000001,4361.538461538462,4214.871794871796,4180.512820512821,4463.076923076924
66.05677,0.5499373,0.3588984,0.2749624,0.95553595,0,0.0,0.0,0.028879665,0.0,0.0,0,0,0.0,0.0,0,0,71.0,0.0,462.0,4613.333333333334,3979.48717948718,4475.384615384616,4462.051282051282,4248.205128205129,4526.153846153847,4446.153846153847,4370.769230769231,4406.666666666667,4737.948717948719,4383.076923076924,4185.641025641026,4187.179487179487,4469.743589743591
66.306984,0.5499373,0.3588984,0.2749624,0.95553595,0,0.0,0.0,0.1020079,0.0,0.0,0,0,0.0,0.0,0,0,103.0,0.0,506.0,4610.256410256411,4010.2564102564106,4486.666666666667,4488.717948717949,4267.6923076923085,4567.6923076923085,4445.128205128206,4392.307692307693,4430.256410256411,4782.051282051282,4394.358974358975,4179.48717948718,4213.846153846154,4483.589743589744
66.5572,0.57229125,0.3685801,0.2731406,0.95485145,0,0.0,0.0,0.089726925,0.0,0.0,0,0,0.0,0.0,0,0,6.0,0.0,541.0,4598.974358974359,4016.9230769230776,4494.871794871796,4499.48717948718,4271.282051282052,4562.564102564103,4434.358974358975,4388.717948717949,4426.153846153847,4791.794871794872,4413.846153846154,4231.794871794872,4227.6923076923085,4500.000000000001
66.80741,0.57229125,0.3685801,0.2731406,0.95485145,0,0.0,0.0,0.30685103,0.0,0.0,0,0,0.0,0.0,0,0,38.0,0.0,0.0,4610.256410256411,4010.7692307692314,4498.974358974359,4496.410256410257,4249.2307692307695,4552.307692307693,4435.8974358974365,4392.820512820514,4415.384615384616,4772.307692307693,4405.641025641026,4293.333333333334,4203.589743589744,4478.974358974359
67.057625,0.5608249,0.38775977,0.27196914,0.94693047,0,0.0,0.0,0.0,0.0,0.0,0,0,0.0,1.0,0,0,70.0,0.0,541.0,4615.8974358974365,3950.7692307692314,4504.102564102564,4461.538461538462,4200.512820512821,4521.025641025642,4427.6923076923085,4366.153846153847,4382.564102564103,4674.358974358975,4366.153846153847,4312.820512820514,4172.820512820514,4480.512820512821
67.307846,0.5608249,0.38775977,0.27196914,0.94693047,0,0.0,0.0,0.292674,0.0,0.0,0,0,0.0,0.0,0,0,102.0,0.0,548.0,4627.6923076923085,3860.0000000000005,4502.051282051282,4395.8974358974365,4146.666666666667,4480.000000000001,4442.564102564103,4350.769230769231,4331.282051282052,4574.358974358975,4266.666666666667,4252.820512820514,4102.051282051282,4455.8974358974365
67.55806,0.5997931,0.42173842,0.27092415,0.93970174,0,0.0,0.0,0.033697568,0.0,0.0,0,0,0.0,0.0,0,0,5.0,0.0,571.0,4614.358974358975,3830.7692307692314,4503.076923076924,4354.871794871796,4135.384615384616,4448.205128205129,4450.256410256411,4375.384615384616,4324.102564102564,4567.6923076923085,4215.384615384616,4214.358974358975,4087.1794871794878,4449.2307692307695
67.80827,0.5997931,0.42173842,0.27092415,0.93970174,0,0.0,0.0,0.0,0.0,0.0,0,0,0.0,0.27382684,0,0,37.0,0.0,0.0,4596.410256410257,3850.2564102564106,4498.974358974359,4354.358974358975,4171.282051282052,4480.512820512821,4443.589743589744,4390.769230769231,4347.6923076923085,4611.282051282052,4236.923076923077,4165.128205128206,4136.923076923077,4466.666666666667
68.05849,0.6466476,0.4391234,0.26999316,0.9298304,0,0.0,0.0,0.0,0.0,0.0,0,0,0.0,0.62300617,0,0,69.0,0.0,571.0,4583.076923076924,3883.589743589744,4498.461538461539,4369.2307692307695,4213.333333333334,4494.871794871796,4433.333333333334,4415.384615384616,4367.179487179487,4654.871794871796,4273.846153846154,4129.2307692307695,4161.538461538462,4478.974358974359
68.3087,0.6466476,0.4391234,0.26999316,0.9298304,0,0.0,0.0,0.0,0.0,0.0,0,0,0.0,0.75335556,0,0,101.0,0.0,489.0,4584.102564102564,3926.1538461538466,4496.923076923077,4395.8974358974365,4232.820512820514,4518.461538461539,4441.025641025642,4442.051282051282,4374.871794871796,4681.538461538462,4327.179487179487,4109.2307692307695,4172.820512820514,4474.871794871796
68.55892,0.61179495,0.42082658,0.26916483,0.91912705,0,0.0,0.0,0.0,0.0,0.0,0,0,1.0,0.0,0,0,4.0,0.0,571.0,4582.564102564103,3934.8717948717954,4494.358974358975,4406.153846153847,4248.717948717949,4516.410256410257,4443.589743589744,4446.153846153847,4387.6923076923085,4748.717948717949,4357.948717948719,4061.0256410256416,4201.538461538462,4472.820512820514
68.55892,0.61179495,0.42082658,0.26916483,0.91912705,0,0.0,0.0,0.0,0.0,0.0,0,0,1.0,0.0,0,0,4.0,0.0,571.0,4582.564102564103,3934.8717948717954,4494.358974358975,4406.153846153847,4248.717948717949,4516.410256410257,4443.589743589744,4446.153846153847,4387.6923076923085,4748.717948717949,4357.948717948719,4061.0256410256416,4201.538461538462,4472.820512820514
69.05935,0.6248448,0.39581698,0.26878837,0.9080045,0,0.0,0.0,0.0,0.0,0.0,0,0,0.0,0.6056613,0,0,68.0,0.0,571.0,4584.102564102564,3956.410256410257,4484.102564102564,4396.410256410257,4266.666666666667,4554.871794871796,4460.512820512821,4446.153846153847,4413.333333333334,4774.358974358975,4394.358974358975,4172.307692307693,4201.538461538462,4491.282051282052
69.30956,0.6248448,0.39581698,0.26878837,0.9080045,0,0.0,0.0,0.0,0.0,0.0,0,0,0.0,0.34487373,0,0,100.0,0.0,521.0,4599.48717948718,3975.8974358974365,4485.641025641026,4432.307692307693,4262.564102564103,4560.512820512821,4462.564102564103,4470.769230769231,4427.179487179487,4791.282051282052,4436.410256410257,4278.974358974359,4213.846153846154,4522.564102564103
69.55978,0.6106879,0.37881377,0.269197,0.8997396,0,0.0,0.0,0.21521522,0.0,0.0,0,0,0.0,0.0,0,0,3.0,0.0,552.0,4601.025641025642,3944.615384615385,4482.564102564103,4449.743589743591,4260.000000000001,4571.282051282052,4463.076923076924,4463.589743589744,4428.205128205129,4793.846153846154,4444.615384615385,4336.923076923077,4202.051282051282,4505.641025641026
69.80999,0.6106879,0.37881377,0.269197,0.8997396,0,0.0,0.0,0.56738615,0.0,0.0,0,0,0.0,0.0,0,0,35.0,0.0,0.0,4605.128205128206,3933.333333333334,4487.6923076923085,4458.974358974359,4248.205128205129,4564.615384615385,4449.2307692307695,4453.333333333334,4412.820512820514,4751.794871794872,4428.717948717949,4360.512820512821,4210.769230769231,4506.666666666667
70.06021,0.6013571,0.36094725,0.26922223,0.8973657,0,0.0,0.0,0.55165774,0.0,0.0,0,0,0.0,0.0,0,0,67.0,0.0,552.0,4599.48717948718,3910.7692307692314,4484.615384615385,4432.307692307693,4212.307692307693,4549.743589743591,4447.179487179487,4441.538461538462,4384.615384615385,4694.358974358975,4385.641025641026,4327.179487179487,4166.153846153847,4503.589743589744
70.310425,0.6013571,0.36094725,0.26922223,0.8973657,0,0.0,0.0,0.047128763,0.0,0.0,0,0,0.0,0.0,0,0,99.0,0.0,506.0,4598.461538461539,3884.615384615385,4490.256410256411,4413.333333333334,4198.974358974359,4532.307692307693,4450.256410256411,4376.923076923077,4371.282051282052,4666.153846153847,4361.025641025642,4268.717948717949,4173.333333333334,4540.000000000001
70.56064,0.54963887,0.34069377,0.26953033,0.89509106,0,0.0,0.0,0.024939882,0.0,0.0,0,0,0.0,0.0,0,0,2.0,0.0,216.0,4590.769230769231,3911.2820512820517,4498.461538461539,4431.282051282052,4206.666666666667,4538.974358974359,4461.025641025642,4400.000000000001,4377.948717948719,4689.743589743591,4353.333333333334,4230.769230769231,4197.435897435898,4541.025641025642
70.81085,0.54963887,0.34069377,0.26953033,0.89509106,0,0.0,0.0,0.059161283,0.0,0.0,0,0,0.0,0.0,0,0,34.0,0.0,0.0,4585.641025641026,3925.1282051282055,4497.948717948719,4437.948717948719,4206.666666666667,4522.564102564103,4440.512820512821,4380.512820512821,4368.205128205129,4711.794871794872,4378.974358974359,4278.461538461539,4193.846153846154,4542.564102564103
71.061066,0.48938447,0.3263877,0.27005368,0.8914171,0,0.0,0.0,0.0,0.0,0.0,0,0,0.0,0.34680557,0,0,66.0,0.0,216.0,4576.923076923077,3946.666666666667,4496.410256410257,4452.307692307693,4216.923076923077,4524.615384615385,4452.307692307693,4393.846153846154,4383.076923076924,4741.025641025642,4378.461538461539,4286.153846153847,4186.666666666667,4519.48717948718
71.31129,0.48938447,0.3263877,0.27005368,0.8914171,0,0.0,0.0,0.0,0.0,0.0,0,0,0.0,0.53290856,0,0,98.0,0.0,547.0,4584.102564102564,3936.410256410257,4501.025641025642,4444.615384615385,4200.512820512821,4520.512820512821,4456.923076923077,4396.923076923077,4387.179487179487,4722.051282051282,4384.615384615385,4207.6923076923085,4163.589743589744,4481.538461538462
71.5615,0.4483633,0.30557302,0.27161193,0.8879983,0,0.0,0.0,0.072415195,0.0,0.0,0,0,0.0,0.0,0,0,1.0,0.0,517.0,4592.820512820514,3857.9487179487182,4496.923076923077,4382.564102564103,4150.256410256411,4503.589743589744,4457.948717948719,4360.512820512821,4354.358974358975,4622.564102564103,4294.358974358975,4169.2307692307695,4121.538461538462,4458.974358974359
71.811714,0.4483633,0.30557302,0.27161193,0.8879983,0,0.0,0.0,0.1253998,0.0,0.0,0,0,0.0,0.0,0,0,33.0,0.0,0.0,4601.538461538462,3782.0512820512827,4500.512820512821,4314.358974358975,4086.666666666667,4455.384615384616,4487.6923076923085,4398.461538461539,4325.641025641026,4551.282051282052,4239.48717948718,4168.717948717949,4088.717948717949,4437.435897435898
72.06193,0.49854895,0.28551775,0.27462375,0.8933781,0,0.0,0.0,0.034632493,0.0,0.0,0,0,0.0,0.0,0,0,65.0,0.0,517.0,4588.205128205129,3787.692307692308,4499.48717948718,4309.2307692307695,4105.128205128206,4447.6923076923085,4478.974358974359,4389.2307692307695,4345.128205128206,4549.743589743591,4221.025641025642,4145.128205128206,4095.8974358974365,4438.974358974359
72.31214,0.49854895,0.28551775,0.27462375,0.8933781,0,0.0,0.0,0.11529667,0.0,0.0,0,0,0.0,0.0,0,0,97.0,0.0,489.0,4578.974358974359,3841.0256410256416,4496.923076923077,4338.974358974359,4153.333333333334,4474.871794871796,4467.6923076923085,4452.820512820514,4357.948717948719,4616.410256410257,4225.641025641026,4152.307692307693,4131.794871794872,4443.589743589744
72.562355,0.5660513,0.2704434,0.2781935,0.89668447,0,0.0,0.0,0.09260333,0.0,0.0,0,0,0.0,0.0,0,0,0.0,0.0,278.0,4568.717948717949,3881.0256410256416,4493.333333333334,4372.307692307693,4211.282051282052,4487.6923076923085,4407.6923076923085,4441.538461538462,4366.666666666667,4658.974358974359,4291.282051282052,4176.923076923077,4139.48717948718,4436.410256410257
72.81258,0.5660513,0.2704434,0.2781935,0.89668447,0,0.0,0.0,0.070936464,0.0,0.0,0,0,0.0,0.0,0,0,32.0,0.0,0.0,4571.282051282052,3910.7692307692314,4496.923076923077,4397.435897435898,4249.74358974359,4515.8974358974365,4408.205128205129,4429.743589743591,4374.358974358975,4704.102564102564,4325.128205128206,4205.641025641026,4186.153846153847,4461.538461538462
73.06279,0.5401039,0.25690654,0.2826044,0.89203644,0,0.0,0.0,0.046055615,0.0,0.0,0,0,0.0,0.0,0,0,64.0,0.0,278.0,4581.538461538462,3964.615384615385,4500.512820512821,4440.000000000001,4294.358974358975,4539.48717948718,4409.2307692307695,4431.794871794872,4397.435897435898,4741.538461538462,4380.000000000001,4226.666666666667,4226.666666666667,4498.461538461539
73.313,0.5401039,0.25690654,0.2826044,0.89203644,0,0.0,0.0,0.09374074,0.0,0.0,0,0,0.0,0.0,0,0,96.0,0.0,518.0,4570.769230769231,4005.6410256410263,4501.538461538462,4474.871794871796,4313.846153846154,4559.48717948718,4414.358974358975,4447.179487179487,4423.076923076924,4796.410256410257,4413.333333333334,4248.717948717949,4233.846153846154,4509.743589743591
73.56322,0.5952205,0.2784987,0.28658098,0.88775504,0,0.0,0.0,0.0,0.0,0.0,0,0,0.0,0.16461329,0,0,128.0,0.0,518.0,4585.641025641026,4029.23076923077,4502.051282051282,4507.179487179488,4329.2307692307695,4566.153846153847,4414.871794871796,4448.205128205129,4418.974358974359,4795.8974358974365,4455.8974358974365,4285.641025641026,4235.384615384616,4546.666666666667
73.81343,0.5952205,0.2784987,0.28658098,0.88775504,0,0.0,0.0,0.0,0.0,0.0,0,0,0.0,0.43173257,0,0,31.0,0.0,0.0,4589.743589743591,4033.8461538461543,4502.051282051282,4522.051282051282,4325.128205128206,4586.666666666667,4405.641025641026,4451.794871794872,4430.769230769231,4809.2307692307695,4481.538461538462,4324.615384615385,4255.8974358974365,4567.179487179488
74.06365,0.5957401,0.32435247,0.2899106,0.8881779,0,0.0,0.0,0.0,0.0,0.0,0,0,0.0,0.1960809,0,0,63.0,0.0,0.0,4599.48717948718,4030.7692307692314,4506.153846153847,4518.974358974359,4308.717948717949,4582.564102564103,4430.769230769231,4454.871794871796,4427.6923076923085,4795.384615384616,4452.307692307693,4324.102564102564,4238.974358974359,4564.615384615385
74.313866,0.5957401,0.32435247,0.2899106,0.8881779,0,0.0,0.0,0.0,0.0,0.0,0,0,0.0,0.11123669,0,0,95.0,0.0,506.0,4602.051282051282,4019.48717948718,4518.974358974359,4521.025641025642,4292.820512820514,4573.846153846154,4450.769230769231,4466.153846153847,4438.974358974359,4811.282051282052,4461.538461538462,4355.8974358974365,4237.435897435898,4562.564102564103
74.56408,0.61998236,0.3563953,0.29291314,0.8883931,0,0.0,0.0,0.0,0.0,0.0,0,0,0.0,0.4542723,0,0,127.0,0.0,506.0,4603.076923076924,4021.0256410256416,4518.974358974359,4521.538461538462,4281.025641025642,4580.000000000001,4455.384615384616,4461.025641025642,4435.384615384616,4798.974358974359,4430.256410256411,4349.2307692307695,4214.358974358975,4533.333333333334
74.81429,0.61998236,0.3563953,0.29291314,0.8883931,0,0.0,0.0,0.0,0.0,0.0,0,0,0.0,0.3624802,0,0,30.0,0.0,0.0,4613.846153846154,3999.48717948718,4523.589743589744,4508.717948717949,4257.948717948719,4566.153846153847,4459.48717948718,4446.666666666667,4427.179487179487,4766.666666666667,4410.256410256411,4361.025641025642,4210.256410256411,4534.358974358975
75.06451,0.6384399,0.39230102,0.29456878,0.88407683,0,0.0,0.0,0.0,0.0,0.0,0,0,0.0,0.2218759,0,0,62.0,0.0,0.0,4621.538461538462,3994.358974358975,4520.512820512821,4507.6923076923085,4241.538461538462,4551.282051282052,4442.051282051282,4420.512820512821,4418.974358974359,4751.282051282052,4403.076923076924,4364.102564102564,4200.000000000001,4532.820512820514
75.31472,0.6384399,0.39230102,0.29456878,0.88407683,0,0.0,0.0,0.0,0.0,0.0,0,0,0.0,0.37667397,0,0,94.0,0.0,546.0,4618.461538461539,3992.820512820513,4520.000000000001,4507.6923076923085,4228.717948717949,4543.076923076924,4442.564102564103,4424.615384615385,4417.948717948719,4741.538461538462,4391.282051282052,4368.205128205129,4196.923076923077,4509.2307692307695
75.56494,0.591466,0.4176754,0.29486683,0.880245,0,0.0,0.0,0.0,0.0,0.0,0,0,0.0,0.6518448,0,0,126.0,0.0,546.0,4620.512820512821,3973.333333333334,4521.025641025642,4493.846153846154,4209.74358974359,4539.48717948718,4443.076923076924,4418.974358974359,4404.102564102564,4727.179487179488,4362.051282051282,4358.974358974359,4188.717948717949,4508.717948717949
75.815155,0.591466,0.4176754,0.29486683,0.880245,0,0.0,0.0,0.0,0.0,0.0,0,0,0.0,0.24369767,0,0,29.0,0.0,0.0,4633.846153846154,3936.410256410257,4518.974358974359,4458.974358974359,4188.717948717949,4525.641025641026,4451.794871794872,4428.717948717949,4394.871794871796,4694.358974358975,4343.076923076924,4329.743589743591,4148.205128205129,4525.128205128206
76.06537,0.56771225,0.42997277,0.29395482,0.8810224,0,0.0,0.0,0.12979475,0.0,0.0,0,0,0.0,0.0,0,0,61.0,0.0,0.0,4632.307692307693,3804.615384615385,4512.820512820514,4353.333333333334,4122.051282051282,4492.820512820514,4462.051282051282,4424.615384615385,4364.615384615385,4625.641025641026,4295.8974358974365,4303.589743589744,4120.000000000001,4532.820512820514
76.31558,0.56771225,0.42997277,0.29395482,0.8810224,0,0.0,0.0,0.10036766,0.0,0.0,0,0,0.0,0.0,0,0,93.0,0.0,489.0,4632.307692307693,3805.1282051282055,4517.948717948719,4332.307692307693,4092.307692307693,4441.538461538462,4474.871794871796,4430.769230769231,4351.794871794872,4583.589743589744,4271.794871794872,4285.641025641026,4110.256410256411,4571.282051282052
76.565796,0.59308,0.4440613,0.29251808,0.8815624,0,0.0,0.0,0.1342552,0.0,0.0,0,0,0.0,0.0,0,0,125.0,0.0,489.0,4613.846153846154,3825.6410256410263,4521.025641025642,4340.512820512821,4120.512820512821,4426.153846153847,4478.461538461539,4446.153846153847,4356.410256410257,4611.282051282052,4262.564102564103,4249.74358974359,4122.564102564103,4588.717948717949
76.81602,0.59308,0.4440613,0.29251808,0.8815624,0,0.0,0.0,0.0,0.0,0.0,0,0,0.0,0.4331609,0,0,28.0,0.0,0.0,4600.512820512821,3883.076923076924,4534.358974358975,4386.666666666667,4170.769230769231,4462.051282051282,4474.871794871796,4444.102564102564,4372.307692307693,4648.717948717949,4300.000000000001,4249.74358974359,4164.102564102564,4590.769230769231
77.06623,0.58836704,0.44135478,0.2902762,0.8831897,0,0.0,0.0,0.25821292,0.0,0.0,0,0,0.0,0.0,0,0,60.0,0.0,0.0,4599.48717948718,3912.307692307693,4542.051282051282,4409.743589743591,4198.461538461539,4487.6923076923085,4475.8974358974365,4438.974358974359,4366.153846153847,4661.538461538462,4319.48717948718,4230.256410256411,4153.333333333334,4517.435897435898
77.316444,0.58836704,0.44135478,0.2902762,0.8831897,0,0.0,0.0,0.2300908,0.0,0.0,0,0,0.0,0.0,0,0,92.0,0.0,520.0,4595.8974358974365,3925.1282051282055,4542.051282051282,4426.153846153847,4218.461538461539,4501.025641025642,4454.871794871796,4433.333333333334,4374.358974358975,4673.846153846154,4336.923076923077,4210.769230769231,4161.538461538462,4511.282051282052
77.56666,0.49752408,0.42166013,0.28826466,0.88448054,0,0.0,0.0,0.0,0.0,0.0,0,0,0.0,0.2996037,0,0,124.0,0.0,520.0,4599.48717948718,3934.358974358975,4547.6923076923085,4426.153846153847,4230.769230769231,4523.589743589744,4461.025641025642,4425.641025641026,4365.128205128206,4647.6923076923085,4337.948717948719,4221.025641025642,4163.589743589744,4482.051282051282
77.81687,0.49752408,0.42166013,0.28826466,0.88448054,0,0.0,0.0,0.0,0.0,0.0,0,0,0.0,0.6304746,0,0,27.0,0.0,0.0,4602.564102564103,3969.7435897435903,4553.846153846154,4462.051282051282,4265.128205128206,4549.2307692307695,4465.641025641026,4419.48717948718,4364.102564102564,4656.923076923077,4344.615384615385,4199.48717948718,4168.205128205129,4474.871794871796
78.06709,0.4437214,0.3924486,0.28646067,0.8866838,0,0.0,0.0,0.1345305,0.0,0.0,0,0,0.0,0.0,0,0,59.0,0.0,0.0,4595.384615384616,3975.8974358974365,4547.6923076923085,4472.820512820514,4250.256410256411,4547.6923076923085,4440.512820512821,4399.48717948718,4361.538461538462,4662.564102564103,4349.2307692307695,4194.358974358975,4175.8974358974365,4474.871794871796
78.31731,0.4437214,0.3924486,0.28646067,0.8866838,0,0.0,0.0,0.15134603,0.0,0.0,0,0,0.0,0.0,0,0,91.0,0.0,504.0,4597.948717948719,3987.692307692308,4549.743589743591,4487.6923076923085,4265.641025641026,4569.743589743591,4444.102564102564,4399.48717948718,4363.076923076924,4702.051282051282,4349.2307692307695,4198.974358974359,4196.923076923077,4466.666666666667
78.56752,0.46423656,0.37914217,0.28505623,0.8892809,0,0.0,0.0,0.0,0.0,0.0,0,0,0.0,0.34568772,0,0,123.0,0.0,504.0,4588.717948717949,3977.9487179487182,4542.564102564103,4476.410256410257,4262.564102564103,4567.6923076923085,4423.589743589744,4449.2307692307695,4366.153846153847,4728.205128205129,4379.48717948718,4198.461538461539,4190.256410256411,4468.717948717949
78.81773,0.46423656,0.37914217,0.28505623,0.8892809,0,0.0,0.0,0.0,0.0,0.0,0,0,0.0,0.2025272,0,0,26.0,0.0,0.0,4601.538461538462,4006.666666666667,4554.358974358975,4502.564102564103,4276.410256410257,4576.923076923077,4437.948717948719,4468.717948717949,4389.743589743591,4772.307692307693,4375.384615384616,4230.769230769231,4211.794871794872,4494.358974358975
79.06795,0.51984566,0.37388366,0.284637,0.8914233,0,0.0,0.0,0.0,0.0,0.0,0,0,0.0,0.81292903,0,0,58.0,0.0,0.0,4605.641025641026,3986.666666666667,4553.333333333334,4489.743589743591,4273.333333333334,4572.307692307693,4436.410256410257,4483.076923076924,4406.666666666667,4822.564102564103,4406.153846153847,4264.615384615385,4234.358974358975,4500.000000000001
79.31816,0.51984566,0.37388366,0.284637,0.8914233,0,0.0,0.0,0.0,0.0,0.0,0,0,0.0,0.9543347,0,0,90.0,0.0,546.0,4613.846153846154,4008.205128205129,4558.461538461539,4510.769230769231,4258.461538461539,4565.128205128206,4432.820512820514,4456.410256410257,4395.384615384616,4811.794871794872,4401.025641025642,4277.435897435898,4229.74358974359,4501.538461538462
79.56838,0.47128525,0.3842016,0.28508982,0.8920245,0,0.0,0.0,0.0,0.0,0.0,0,0,0.0,0.4261636,0,0,122.0,0.0,546.0,4618.461538461539,3997.9487179487182,4561.025641025642,4508.717948717949,4268.717948717949,4574.871794871796,4451.282051282052,4472.820512820514,4410.256410256411,4788.205128205129,4387.6923076923085,4292.820512820514,4223.076923076924,4534.358974358975
79.818596,0.47128525,0.3842016,0.28508982,0.8920245,0,0.0,0.0,0.0,0.0,0.0,0,0,0.0,0.74079245,0,0,25.0,0.0,0.0,4635.8974358974365,3986.1538461538466,4571.794871794872,4500.000000000001,4260.512820512821,4584.102564102564,4456.923076923077,4462.564102564103,4407.179487179487,4764.615384615386,4402.564102564103,4313.846153846154,4227.6923076923085,4533.846153846154
80.13136,0.41301984,0.43731573,0.28604016,0.8916032,1,0.0,0.0,0.0,0.0,0.0,0,0,0.0,0.3404472,0,0,65.0,0.0,516.0,4678.974358974359,4057.9487179487182,4598.461538461539,4558.461538461539,4222.564102564103,4544.102564102564,4430.769230769231,4413.846153846154,4384.102564102564,4712.820512820514,4388.717948717949,4350.256410256411,4267.179487179487,4688.205128205129
80.31902,0.41301984,0.43731573,0.28604016,0.8916032,0,0.0,0.0,0.065610684,0.0,0.0,0,0,0.0,0.0,0,0,89.0,0.0,490.0,4649.2307692307695,3929.7435897435903,4584.615384615385,4450.256410256411,4211.282051282052,4546.153846153847,4451.794871794872,4426.666666666667,4379.48717948718,4692.820512820514,4333.846153846154,4298.974358974359,4175.384615384616,4550.769230769231
80.56924,0.4195342,0.4776664,0.28722847,0.8910691,0,0.0,0.0,0.024870964,0.0,0.0,0,0,0.0,0.0,0,0,121.0,0.0,490.0,4647.179487179488,3931.7948717948725,4583.076923076924,4446.153846153847,4217.948717948719,4549.743589743591,4460.000000000001,4445.641025641026,4387.6923076923085,4662.564102564103,4322.051282051282,4282.564102564103,4152.820512820514,4526.153846153847
80.81946,0.4195342,0.4776664,0.28722847,0.8910691,0,0.0,0.0,0.0,0.0,0.0,0,0,0.0,0.5024162,0,0,24.0,0.0,0.0,4649.743589743591,3948.717948717949,4586.153846153847,4458.974358974359,4240.000000000001,4554.871794871796,4461.025641025642,4456.923076923077,4405.128205128206,4716.410256410257,4347.6923076923085,4288.717948717949,4172.820512820514,4524.615384615385
81.06967,0.41810557,0.5071976,0.2889324,0.8912236,0,0.0,0.0,0.0,0.0,0.0,0,0,0.0,0.7614096,0,0,56.0,0.0,0.0,4630.769230769231,3959.48717948718,4576.410256410257,4463.589743589744,4237.948717948719,4547.179487179488,4470.256410256411,4446.666666666667,4393.846153846154,4670.256410256411,4312.820512820514,4253.846153846154,4146.666666666667,4457.948717948719
81.319885,0.41810557,0.5071976,0.2889324,0.8912236,0,0.0,0.0,0.0,0.0,0.0,0,0,0.0,0.36380675,0,0,88.0,0.0,519.0,4648.717948717949,4009.7435897435903,4574.358974358975,4508.717948717949,4239.48717948718,4549.743589743591,4461.025641025642,4434.358974358975,4398.974358974359,4709.2307692307695,4332.820512820514,4279.48717948718,4182.051282051282,4515.8974358974365
81.60138,0.3224871,0.5279338,0.29047188,0.89236784,0,0.0,0.0,0.0,0.0,0.17088364,0,0,0.0,0.0,0,1,124.0,0.0,519.0,4665.641025641026,4043.076923076924,4576.410256410257,4538.461538461539,4222.051282051282,4524.102564102564,4422.564102564103,4397.948717948719,4390.256410256411,4740.000000000001,4392.820512820514,4307.6923076923085,4287.6923076923085,4640.000000000001
81.82031,0.3224871,0.5279338,0.29047188,0.89236784,0,0.0,0.0,0.0,0.0,0.18665147,0,0,0.0,0.0,0,1,23.0,0.0,0.0,4625.641025641026,3921.538461538462,4543.589743589744,4429.743589743591,4231.794871794872,4569.2307692307695,4474.871794871796,4454.871794871796,4415.384615384616,4782.564102564103,4373.333333333334,4270.769230769231,4210.769230769231,4454.871794871796
82.070526,0.28666288,0.5470186,0.29186305,0.8932204,0,0.0,0.0,0.0,0.0,0.14237782,0,0,0.0,0.0,0,0,55.0,0.0,0.0,4621.025641025642,3892.307692307693,4533.333333333334,4408.205128205129,4215.8974358974365,4562.051282051282,4474.871794871796,4462.564102564103,4405.128205128206,4769.743589743591,4382.564102564103,4283.076923076924,4217.948717948719,4462.564102564103
82.32075,0.28666288,0.5470186,0.29186305,0.8932204,0,0.0,0.0,0.0,0.0,0.0,0,0,0.0,0.38825384,0,0,87.0,0.0,503.0,4629.743589743591,3906.666666666667,4529.2307692307695,4419.48717948718,4217.948717948719,4565.128205128206,4469.2307692307695,4454.358974358975,4398.974358974359,4772.307692307693,4398.461538461539,4293.846153846154,4245.128205128206,4484.615384615385
82.57096,0.28330225,0.5709092,0.29253453,0.89345753,0,0.0,0.0,0.0,0.0,0.0,0,0,0.0,0.26775295,0,0,119.0,0.0,503.0,4631.794871794872,3911.7948717948725,4527.179487179488,4420.512820512821,4206.666666666667,4554.358974358975,4448.205128205129,4433.846153846154,4390.769230769231,4738.461538461539,4376.410256410257,4274.358974358975,4202.564102564103,4474.358974358975
82.821175,0.28330225,0.5709092,0.29253453,0.89345753,0,0.0,0.0,0.0,0.0,0.0,0,0,0.0,1.0,0,0,22.0,0.0,0.0,4631.282051282052,3940.0000000000005,4533.846153846154,4444.102564102564,4218.974358974359,4554.358974358975,4454.358974358975,4436.410256410257,4385.641025641026,4740.000000000001,4363.589743589744,4271.794871794872,4182.051282051282,4454.358974358975
83.07139,0.2676597,0.5884745,0.29285017,0.8973061,0,0.0,0.0,0.49926805,0.0,0.0,0,0,0.0,0.0,0,0,54.0,0.0,0.0,4622.051282051282,3927.1794871794878,4532.307692307693,4440.512820512821,4199.48717948718,4541.538461538462,4443.076923076924,4418.974358974359,4375.8974358974365,4687.6923076923085,4328.205128205129,4264.615384615385,4151.282051282052,4449.743589743591
83.3216,0.2676597,0.5884745,0.29285017,0.8973061,0,0.0,0.0,0.0,0.0,0.0,0,0,0.0,0.5754731,0,0,86.0,0.0,546.0,4629.743589743591,3906.666666666667,4523.589743589744,4421.538461538462,4190.256410256411,4538.974358974359,4457.435897435898,4440.512820512821,4394.358974358975,4699.48717948718,4321.538461538462,4276.923076923077,4159.48717948718,4473.333333333334
83.57182,0.22830513,0.5612718,0.29249528,0.90344787,0,0.0,0.0,0.0,0.0,0.0,0,0,0.0,0.3665794,0,0,118.0,0.0,546.0,4626.153846153847,3882.0512820512827,4511.794871794872,4398.974358974359,4179.48717948718,4527.179487179488,4452.820512820514,4421.025641025642,4396.410256410257,4705.641025641026,4304.615384615385,4272.820512820514,4163.589743589744,4492.820512820514
83.82204,0.22830513,0.5612718,0.29249528,0.90344787,0,0.0,0.0,0.0,0.0,0.0,0,0,0.0,0.48660922,0,0,21.0,0.0,0.0,4628.717948717949,3875.3846153846157,4500.000000000001,4385.641025641026,4175.384615384616,4503.589743589744,4443.076923076924,4426.153846153847,4406.153846153847,4708.205128205129,4343.589743589744,4287.179487179487,4175.384615384616,4495.384615384616
84.07225,0.20042154,0.5202826,0.29122713,0.9087078,0,0.0,0.0,0.0,0.0,0.0,0,0,0.0,0.3671857,0,0,53.0,0.0,0.0,4615.8974358974365,3893.333333333334,4487.6923076923085,4404.615384615385,4189.2307692307695,4501.538461538462,4431.282051282052,4400.512820512821,4393.846153846154,4690.769230769231,4325.128205128206,4269.74358974359,4171.282051282052,4466.666666666667
84.322464,0.20042154,0.5202826,0.29122713,0.9087078,0,0.0,0.0,0.13066997,0.0,0.0,0,0,0.0,0.0,0,0,85.0,0.0,490.0,4606.153846153847,3921.538461538462,4485.641025641026,4422.051282051282,4203.589743589744,4497.948717948719,4443.589743589744,4397.948717948719,4395.8974358974365,4696.923076923077,4329.743589743591,4264.615384615385,4185.641025641026,4473.846153846154
84.57268,0.16836095,0.47528875,0.28992394,0.91137266,0,0.0,0.0,0.10128617,0.0,0.0,0,0,0.0,0.0,0,0,117.0,0.0,490.0,4608.205128205129,3925.6410256410263,4480.000000000001,4424.102564102564,4195.384615384616,4492.307692307693,4442.051282051282,4388.205128205129,4389.743589743591,4678.974358974359,4332.820512820514,4264.102564102564,4160.000000000001,4469.743589743591
84.8229,0.16836095,0.47528875,0.28992394,0.91137266,0,0.0,0.0,0.0,0.0,0.0,0,0,0.0,1.0,0,0,20.0,0.0,0.0,4602.051282051282,3970.7692307692314,4489.743589743591,4465.128205128206,4227.6923076923085,4512.307692307693,4442.564102564103,4381.538461538462,4393.333333333334,4674.358974358975,4307.6923076923085,4258.461538461539,4158.461538461539,4486.666666666667
85.07311,0.12316741,0.4298157,0.28858447,0.91354394,0,0.0,0.0,0.0,0.0,0.0,0,0,0.0,0.4000644,0,0,52.0,0.0,0.0,4601.538461538462,3966.1538461538466,4487.6923076923085,4462.051282051282,4232.820512820514,4523.076923076924,4432.820512820514,4384.615384615385,4387.6923076923085,4671.794871794872,4313.846153846154,4234.871794871796,4157.435897435898,4481.538461538462
85.323326,0.12316741,0.4298157,0.28858447,0.91354394,0,0.0,0.0,0.0,0.0,0.0,0,0,0.0,0.041485384,0,0,84.0,0.0,521.0,4601.538461538462,3977.9487179487182,4495.8974358974365,4464.102564102564,4230.769230769231,4524.615384615385,4394.871794871796,4377.435897435898,4390.769230769231,4680.000000000001,4315.384615384616,4228.205128205129,4154.871794871796,4476.923076923077
85.57354,0.1420144,0.39307854,0.2872305,0.9170503,0,0.0,0.0,0.0,0.0,0.0,0,0,0.0,0.14069717,0,0,116.0,0.0,521.0,4601.538461538462,3975.8974358974365,4498.461538461539,4460.512820512821,4233.333333333334,4529.743589743591,4400.000000000001,4374.358974358975,4382.564102564103,4656.923076923077,4291.794871794872,4212.820512820514,4145.641025641026,4456.923076923077
85.82375,0.1420144,0.39307854,0.2872305,0.9170503,0,0.0,0.0,0.0,0.0,0.0,0,0,0.0,0.3721157,0,1,19.0,0.0,0.0,4616.410256410257,3947.1794871794878,4501.538461538462,4447.179487179487,4216.923076923077,4542.564102564103,4417.435897435898,4398.461538461539,4407.179487179487,4720.512820512821,4387.179487179487,4271.794871794872,4256.410256410257,4536.923076923077
86.10525,0.13692759,0.40477434,0.28601813,0.9253296,0,0.0,0.0,0.06744324,0.0,0.0,0,0,0.0,0.0,0,0,55.0,0.0,0.0,4609.743589743591,3895.3846153846157,4489.743589743591,4408.205128205129,4182.564102564103,4525.641025641026,4425.128205128206,4406.666666666667,4389.2307692307695,4695.384615384616,4336.410256410257,4232.820512820514,4163.589743589744,4440.000000000001
86.32419,0.13692759,0.40477434,0.28601813,0.9253296,0,0.0,0.0,0.0,0.0,0.0,0,0,0.0,1.0,0,0,83.0,0.0,505.0,4632.307692307693,3886.666666666667,4497.435897435898,4386.666666666667,4186.666666666667,4538.974358974359,4443.076923076924,4431.794871794872,4400.512820512821,4663.589743589744,4395.384615384616,4282.564102564103,4304.102564102564,4545.641025641026
86.5744,0.1342299,0.4539293,0.28526717,0.92619294,0,0.0,0.0,0.1309124,0.0,0.0,0,0,0.0,0.0,0,0,115.0,0.0,505.0,4623.076923076924,3771.2820512820517,4491.794871794872,4291.794871794872,4122.051282051282,4475.8974358974365,4460.512820512821,4427.6923076923085,4344.615384615385,4544.615384615385,4288.717948717949,4249.74358974359,4147.6923076923085,4438.461538461539
86.824615,0.1342299,0.4539293,0.28526717,0.92619294,0,0.0,0.0,0.05148907,0.0,0.0,0,0,0.0,0.0,0,0,18.0,0.0,0.0,4628.717948717949,3773.333333333334,4488.717948717949,4270.769230769231,4105.641025641026,4394.871794871796,4430.769230769231,4396.410256410257,4298.974358974359,4536.923076923077,4269.2307692307695,4221.538461538462,4140.000000000001,4449.2307692307695
87.07483,0.21182169,0.5525461,0.28489587,0.9266217,0,0.0,0.0,0.0,0.0,0.0,0,0,0.0,0.41355342,0,0,50.0,0.0,0.0,4619.48717948718,3796.9230769230776,4493.846153846154,4285.128205128206,4143.076923076924,4363.076923076924,4400.000000000001,4383.076923076924,4282.564102564103,4553.846153846154,4301.538461538462,4177.435897435898,4135.8974358974365,4451.794871794872
87.32504,0.21182169,0.5525461,0.28489587,0.9266217,0,0.0,0.0,0.0,0.0,0.0,0,0,0.6659312,0.0,0,0,82.0,0.0,543.0,4608.205128205129,3868.205128205129,4496.923076923077,4336.923076923077,4184.102564102564,4393.333333333334,4393.846153846154,4374.358974358975,4294.871794871796,4613.846153846154,4312.307692307693,4121.025641025642,4150.769230769231,4436.923076923077
87.575264,0.21379954,0.6327849,0.28743806,0.9267939,0,0.0,0.0,0.0,0.0,0.35648477,0,0,0.0,0.0,0,0,114.0,0.0,543.0,4583.076923076924,3887.1794871794878,4492.820512820514,4349.743589743591,4227.179487179487,4442.051282051282,4409.743589743591,4395.384615384616,4325.128205128206,4686.153846153847,4347.179487179487,4090.7692307692314,4183.589743589744,4423.589743589744
87.82548,0.21379954,0.6327849,0.28743806,0.9267939,0,0.0,0.0,0.0,0.0,0.0,0,0,0.0,1.0,0,0,17.0,0.0,0.0,4568.205128205129,3931.2820512820517,4493.333333333334,4394.358974358975,4249.74358974359,4464.615384615385,4411.282051282052,4389.2307692307695,4328.717948717949,4727.179487179488,4374.358974358975,4121.025641025642,4193.333333333334,4425.641025641026
88.07569,0.26820034,0.61408144,0.29268846,0.92224705,0,0.0,0.0,0.0,0.0,0.0,0,0,0.0,0.2876034,0,0,49.0,0.0,0.0,4568.717948717949,4062.0512820512827,4512.307692307693,4514.358974358975,4284.102564102564,4470.256410256411,4376.923076923077,4324.615384615385,4294.358974358975,4650.256410256411,4251.282051282052,4069.23076923077,4020.5128205128212,4387.6923076923085
