timestamp,excitement,frustration,meditation,engagementBoredom,blink,clench,laugh,smile,eyebrow,furrowBrow,lookLeft,lookRight,smirkLeft,smirkRight,winkLeft,winkRight,eeg0,eeg1,eeg2,eeg3,eeg4,eeg5,eeg6,eeg7,eeg8,eeg9,eeg10,eeg11,eeg12,eeg13,eeg14,eeg15,eeg16
1027.8911,0.53630084,0.4894797,0.33333334,0.5522388,0,0.0,0.0,0.0,0.0,0.0,0,0,0.062350146,0.0,0,1,68.0,0.0,553.0,4456.923076923077,3766.666666666667,4572.820512820514,4275.384615384616,4174.358974358975,4490.769230769231,4397.435897435898,4372.820512820514,4315.8974358974365,4674.871794871796,4296.410256410257,4054.8717948717954,4167.179487179487,4461.538461538462
1028.1414,0.53630084,0.4894797,0.33333334,0.5522388,0,0.0,0.0,0.0,0.0,0.0,0,0,0.059665058,0.0,1,0,105.0,0.0,495.0,4645.128205128206,4857.948717948719,4585.641025641026,5305.128205128206,4603.589743589744,4851.794871794872,4695.8974358974365,4760.512820512821,4525.641025641026,5075.8974358974365,4690.256410256411,4416.923076923077,4667.6923076923085,4937.948717948719
1028.2665,0.53630084,0.4894797,0.33333334,0.5522388,0,0.0,0.0,0.0,0.0,0.0,0,0,0.13978478,0.0,1,0,121.0,0.0,495.0,4595.384615384616,4549.2307692307695,4575.384615384616,5056.410256410257,4566.153846153847,4855.384615384616,4703.076923076924,4774.358974358975,4528.717948717949,5085.128205128206,4657.435897435898,4379.48717948718,4556.410256410257,4792.307692307693
1028.6418,0.6819447,0.47098747,0.33333334,0.5522388,0,0.0,0.0,0.0,0.0,0.0,0,0,0.12829071,0.0,0,0,40.0,0.0,0.0,4620.512820512821,4309.2307692307695,4548.205128205129,4861.538461538462,4455.8974358974365,4752.820512820514,4578.974358974359,4652.820512820514,4488.717948717949,4962.564102564103,4649.743589743591,4378.974358974359,4531.794871794872,4917.948717948719
1028.767,0.6819447,0.47098747,0.33333334,0.5522388,0,0.0,0.0,0.0,0.0,0.0,0,0,0.20168062,0.0,0,1,56.0,0.0,0.0,4584.615384615385,4109.2307692307695,4529.2307692307695,4697.435897435898,4455.384615384616,4765.641025641026,4591.282051282052,4658.974358974359,4507.179487179488,4962.051282051283,4606.153846153847,4366.153846153847,4446.153846153847,4775.8974358974365
1029.1422,0.8101113,0.45434448,0.33333334,0.5522388,0,0.0,0.0,0.0,0.0,0.0,0,0,0.26323405,0.0,0,0,104.0,0.0,518.0,4597.948717948719,3972.307692307693,4522.051282051282,4571.282051282052,4425.641025641026,4732.820512820514,4567.179487179488,4618.461538461539,4508.205128205129,4930.769230769231,4565.641025641026,4330.256410256411,4370.769230769231,4643.076923076924
1029.2673,0.8101113,0.45434448,0.33333334,0.5522388,0,0.0,0.0,0.0,0.0,0.0,0,0,0.3665958,0.0,0,0,120.0,0.0,518.0,4603.589743589744,3945.1282051282055,4523.076923076924,4552.307692307693,4403.076923076924,4715.8974358974365,4538.974358974359,4588.717948717949,4503.589743589744,4921.538461538462,4587.179487179488,4369.743589743591,4419.48717948718,4674.871794871796
1029.6427,0.9228979,0.43936577,0.33333334,0.5522388,0,0.0,0.0,0.0,0.0,0.0,0,0,1.0,0.0,0,0,32.0,0.0,0.0,4593.846153846154,3885.6410256410263,4512.820512820514,4477.948717948719,4320.000000000001,4645.128205128206,4485.128205128206,4528.717948717949,4475.8974358974365,4837.948717948719,4509.743589743591,4344.102564102564,4318.461538461539,4614.358974358975
1029.8303,0.9228979,0.43936577,0.33333334,0.5522388,1,0.0,0.0,0.0,0.0,0.0,0,0,0.3589195,0.0,0,0,63.0,0.0,0.0,4599.48717948718,3929.2307692307695,4506.153846153847,4508.205128205129,4300.000000000001,4628.717948717949,4446.153846153847,4472.820512820514,4458.461538461539,4795.384615384616,4454.358974358975,4455.8974358974365,4294.871794871796,4685.128205128206
1030.1431,0.9123497,0.42588493,0.33333334,0.5522388,0,0.0,0.0,0.0,0.0,0.19753557,0,0,0.0,0.0,0,0,102.0,0.0,544.0,4608.205128205129,3894.358974358975,4506.153846153847,4472.820512820514,4288.205128205129,4639.48717948718,4467.179487179487,4461.025641025642,4452.307692307693,4789.743589743591,4417.948717948719,4447.179487179487,4262.051282051282,4603.589743589744
1030.3933,0.85182345,0.4137522,0.33333334,0.5522388,0,0.0,0.0,0.0,0.0,0.43711948,0,0,0.0,0.0,0,0,1.0,0.0,517.0,4606.153846153847,3901.0256410256416,4504.102564102564,4480.000000000001,4265.641025641026,4635.8974358974365,4463.076923076924,4440.512820512821,4444.102564102564,4766.666666666667,4387.6923076923085,4443.589743589744,4251.282051282052,4584.615384615385
1030.5184,0.85182345,0.4137522,0.33333334,0.5522388,0,0.0,0.0,0.0,0.0,0.2961513,0,0,0.0,0.0,0,0,22.0,0.0,0.0,4608.205128205129,3885.6410256410263,4502.564102564103,4455.8974358974365,4261.538461538462,4624.102564102564,4458.974358974359,4443.076923076924,4442.051282051282,4754.358974358975,4376.410256410257,4417.435897435898,4212.307692307693,4538.461538461539
1030.7687,0.85182345,0.4137522,0.33333334,0.5522388,0,0.0,0.0,0.0,0.0,0.0,0,0,0.0,0.08696879,0,0,54.0,0.0,0.0,4614.871794871796,3890.7692307692314,4495.8974358974365,4457.435897435898,4260.512820512821,4607.6923076923085,4471.282051282052,4463.076923076924,4445.641025641026,4760.512820512821,4373.333333333334,4416.410256410257,4208.717948717949,4542.564102564103
1031.0188,0.7614242,0.40283272,0.33333334,0.5522388,0,0.0,0.0,0.0,0.0,0.0,0,0,0.49653256,0.0,0,0,86.0,0.0,546.0,4620.000000000001,3888.717948717949,4491.282051282052,4455.384615384616,4245.641025641026,4589.743589743591,4458.974358974359,4435.384615384616,4425.641025641026,4740.512820512821,4353.333333333334,4395.8974358974365,4194.871794871796,4554.358974358975
1031.269,0.7614242,0.40283272,0.33333334,0.5522388,0,0.0,0.0,0.0,0.0,0.0,0,0,0.258012,0.0,0,0,118.0,0.0,546.0,4614.871794871796,3869.2307692307695,4484.102564102564,4434.871794871796,4246.666666666667,4590.256410256411,4485.641025641026,4459.48717948718,4431.794871794872,4755.8974358974365,4357.435897435898,4398.974358974359,4204.615384615385,4568.717948717949
1031.5193,0.7471754,0.40704924,0.33333334,0.5522388,0,0.0,0.0,0.0,0.0,0.0,0,0,0.33026782,0.0,0,1,21.0,0.0,0.0,4616.923076923077,3894.358974358975,4480.512820512821,4448.205128205129,4243.076923076924,4588.717948717949,4489.743589743591,4430.256410256411,4424.615384615385,4741.025641025642,4342.564102564103,4377.948717948719,4197.435897435898,4579.48717948718
1031.8008,0.7471754,0.40704924,0.33333334,0.5522388,0,0.0,0.0,0.0,0.0,0.20642488,0,0,0.0,0.0,0,0,57.0,0.0,0.0,4616.923076923077,3872.820512820513,4480.512820512821,4440.000000000001,4241.025641025642,4590.256410256411,4498.974358974359,4443.589743589744,4425.641025641026,4746.153846153847,4340.000000000001,4369.743589743591,4200.512820512821,4563.076923076924
1032.0197,0.6290907,0.39586842,0.33333334,0.5522388,0,0.0,0.0,0.0,0.0,0.08011502,0,0,0.0,0.0,0,0,85.0,0.0,492.0,4618.461538461539,3872.820512820513,4482.051282051282,4455.384615384616,4247.6923076923085,4585.128205128206,4501.538461538462,4463.589743589744,4430.769230769231,4764.102564102564,4367.179487179487,4380.512820512821,4217.435897435898,4582.051282051282
1032.2699,0.6290907,0.39586842,0.33333334,0.5522388,0,0.0,0.0,0.0,0.0,0.0,0,0,0.57948124,0.0,0,0,117.0,0.0,492.0,4615.384615384616,3880.512820512821,4481.025641025642,4449.2307692307695,4246.666666666667,4585.128205128206,4496.410256410257,4452.307692307693,4411.282051282052,4746.153846153847,4348.717948717949,4363.076923076924,4199.48717948718,4548.717948717949
1032.5201,0.5939168,0.39223304,0.33333334,0.5522388,1,0.0,0.0,0.0,0.0,0.0,0,0,0.21957718,0.0,0,0,20.0,0.0,0.0,4637.948717948719,3977.435897435898,4496.410256410257,4525.641025641026,4244.102564102564,4566.153846153847,4485.128205128206,4427.6923076923085,4408.717948717949,4725.128205128206,4343.076923076924,4368.205128205129,4210.769230769231,4638.974358974359
1032.7704,0.5939168,0.39223304,0.33333334,0.5522388,0,0.0,0.0,0.0,0.0,0.0,0,0,0.26212573,0.0,0,0,52.0,0.0,0.0,4615.8974358974365,3889.2307692307695,4484.615384615385,4432.820512820514,4248.205128205129,4579.48717948718,4489.743589743591,4432.820512820514,4408.205128205129,4740.512820512821,4312.307692307693,4321.538461538462,4165.128205128206,4497.435897435898
1033.0831,0.5466594,0.40188304,0.33333334,0.5522388,0,0.0,0.0,0.0,0.0,0.0,0,0,0.15980175,0.0,0,1,92.0,0.0,522.0,4623.589743589744,3932.307692307693,4500.000000000001,4455.384615384616,4252.820512820514,4582.564102564103,4490.256410256411,4442.051282051282,4413.333333333334,4754.358974358975,4340.000000000001,4328.717948717949,4204.102564102564,4550.256410256411
1033.2708,0.5466594,0.40188304,0.33333334,0.5522388,0,0.0,0.0,0.0,0.0,0.0,0,0,0.1787051,0.0,0,1,116.0,0.0,522.0,4611.794871794872,3866.666666666667,4494.358974358975,4396.923076923077,4251.282051282052,4578.974358974359,4492.820512820514,4446.666666666667,4414.871794871796,4746.666666666667,4320.512820512821,4303.589743589744,4157.435897435898,4498.461538461539
1033.521,0.44465497,0.4310871,0.33333334,0.5522388,0,0.0,0.0,0.0,0.0,0.11655024,0,0,0.0,0.0,0,0,19.0,0.0,0.0,4605.641025641026,3858.461538461539,4496.410256410257,4401.025641025642,4250.256410256411,4578.974358974359,4487.179487179488,4435.384615384616,4412.307692307693,4750.769230769231,4327.179487179487,4303.589743589744,4171.794871794872,4473.333333333334
1033.7712,0.44465497,0.4310871,0.33333334,0.5522388,0,0.0,0.0,0.0,0.0,0.61552835,0,0,0.0,0.0,0,0,51.0,0.0,0.0,4593.846153846154,3843.589743589744,4486.666666666667,4370.769230769231,4237.948717948719,4571.794871794872,4483.076923076924,4442.564102564103,4414.871794871796,4753.333333333334,4311.282051282052,4268.205128205129,4134.871794871796,4392.307692307693
1034.0215,0.3636884,0.45392442,0.33333334,0.5522388,0,0.0,0.0,0.0,0.0,0.16427302,0,0,0.0,0.0,0,0,83.0,0.0,509.0,4606.666666666667,3882.0512820512827,4483.589743589744,4396.923076923077,4270.256410256411,4591.282051282052,4491.282051282052,4456.923076923077,4420.000000000001,4764.102564102564,4311.794871794872,4272.820512820514,4136.923076923077,4402.564102564103
1034.2716,0.3636884,0.45392442,0.33333334,0.5522388,0,0.0,0.0,0.0,0.0,0.2423645,0,0,0.0,0.0,0,1,115.0,0.0,509.0,4633.333333333334,3981.538461538462,4495.384615384616,4491.794871794872,4224.615384615385,4547.6923076923085,4475.384615384616,4433.846153846154,4398.974358974359,4728.205128205129,4364.102564102564,4345.641025641026,4226.153846153847,4575.8974358974365
1034.5845,0.3023148,0.5289343,0.33333334,0.5522388,0,0.0,0.0,0.0,0.0,0.19169697,0,0,0.0,0.0,0,0,26.0,0.0,0.0,4604.615384615385,3885.1282051282055,4483.589743589744,4396.410256410257,4226.666666666667,4561.025641025642,4485.128205128206,4444.615384615385,4394.358974358975,4710.256410256411,4307.6923076923085,4287.6923076923085,4154.871794871796,4442.564102564103
1034.7721,0.3023148,0.5289343,0.33333334,0.5522388,0,0.0,0.0,0.0,0.0,0.10574276,0,0,0.0,0.0,0,0,50.0,0.0,0.0,4622.051282051282,3929.2307692307695,4490.769230769231,4429.743589743591,4234.871794871796,4556.923076923077,4475.8974358974365,4431.794871794872,4387.179487179487,4698.461538461539,4323.589743589744,4310.769230769231,4210.256410256411,4543.076923076924
1035.0223,0.2696251,0.5777185,0.33333334,0.5522388,0,0.0,0.0,0.0,0.0,0.3318649,0,0,0.0,0.0,0,1,82.0,0.0,549.0,4587.179487179488,3848.717948717949,4488.205128205129,4348.205128205129,4237.435897435898,4546.153846153847,4473.846153846154,4426.153846153847,4378.461538461539,4690.256410256411,4303.076923076924,4276.410256410257,4165.641025641026,4443.589743589744
1035.2725,0.2696251,0.5777185,0.33333334,0.5522388,0,0.0,0.0,0.0,0.0,0.2182598,0,0,0.0,0.0,0,0,114.0,0.0,549.0,4578.461538461539,3884.1025641025644,4491.794871794872,4376.923076923077,4252.820512820514,4553.846153846154,4484.615384615385,4456.410256410257,4390.256410256411,4709.743589743591,4332.307692307693,4271.282051282052,4172.820512820514,4487.6923076923085
1035.5227,0.24579217,0.5968866,0.33333334,0.5522388,0,0.0,0.0,0.0,0.0,0.12081201,0,0,0.0,0.0,0,0,17.0,0.0,0.0,4581.538461538462,3903.076923076924,4487.6923076923085,4388.205128205129,4251.282051282052,4552.820512820514,4474.358974358975,4440.000000000001,4394.871794871796,4726.153846153847,4346.666666666667,4268.205128205129,4180.512820512821,4490.769230769231
1035.773,0.24579217,0.5968866,0.33333334,0.5522388,0,0.0,0.0,0.0,0.0,0.09561458,0,0,0.0,0.0,0,0,49.0,0.0,0.0,4567.6923076923085,3936.410256410257,4483.589743589744,4424.615384615385,4254.871794871796,4556.923076923077,4462.564102564103,4418.974358974359,4380.512820512821,4688.205128205129,4317.948717948719,4243.589743589744,4133.846153846154,4451.794871794872
1036.0232,0.19359154,0.6901434,0.33333334,0.5522388,0,0.0,0.0,0.0,0.0,0.0,0,0,0.32645547,0.0,0,0,81.0,0.0,492.0,4561.025641025642,3889.2307692307695,4479.48717948718,4389.2307692307695,4252.820512820514,4553.333333333334,4459.48717948718,4426.666666666667,4383.589743589744,4704.615384615386,4330.256410256411,4239.48717948718,4132.307692307693,4430.256410256411
1036.2733,0.19359154,0.6901434,0.33333334,0.5522388,0,0.0,0.0,0.0,0.0,0.0,0,0,1.0,0.0,0,0,113.0,0.0,492.0,4563.589743589744,3901.538461538462,4483.076923076924,4403.589743589744,4245.128205128206,4560.000000000001,4484.102564102564,4453.846153846154,4395.8974358974365,4734.871794871796,4349.2307692307695,4249.74358974359,4164.102564102564,4451.282051282052
1036.4298,0.20809881,0.66772527,0.33333334,0.5522388,0,0.0,0.0,0.0,0.0,0.0,0,0,1.0,0.0,0,0,4.0,0.0,578.0,4566.153846153847,3880.512820512821,4480.512820512821,4385.128205128206,4242.564102564103,4554.358974358975,4482.051282051282,4462.051282051282,4396.923076923077,4743.589743589744,4383.589743589744,4274.358974358975,4222.564102564103,4483.076923076924
1036.7738,0.20809881,0.66772527,0.33333334,0.5522388,0,0.0,0.0,0.0,0.0,0.0,0,0,0.31748176,0.0,0,0,48.0,0.0,0.0,4503.076923076924,3824.615384615385,4477.948717948719,4337.435897435898,4217.948717948719,4528.205128205129,4469.743589743591,4432.820512820514,4373.846153846154,4694.358974358975,4334.358974358975,4221.025641025642,4167.6923076923085,4431.282051282052
1037.024,0.2404937,0.63943005,0.33333334,0.5522388,0,0.0,0.0,0.0,0.0,0.0,0,0,0.26239684,0.0,0,0,80.0,0.0,526.0,4539.48717948718,3938.9743589743593,4503.076923076924,4431.282051282052,4220.512820512821,4490.256410256411,4441.538461538462,4424.615384615385,4362.564102564103,4686.666666666667,4375.384615384616,4267.6923076923085,4259.48717948718,4607.6923076923085
1037.2742,0.2404937,0.63943005,0.33333334,0.5522388,0,0.0,0.0,0.0,0.0,0.0,0,0,0.1931632,0.0,0,0,112.0,0.0,526.0,4531.794871794872,4189.74358974359,4497.435897435898,4622.564102564103,4298.461538461539,4523.076923076924,4461.538461538462,4438.461538461539,4381.025641025642,4735.8974358974365,4364.102564102564,4256.923076923077,4240.000000000001,4588.717948717949
1037.5244,0.19244695,0.6437425,0.33333334,0.5522388,0,0.0,0.0,0.0,0.0,0.18726481,0,0,0.0,0.0,0,0,15.0,0.0,509.0,4478.461538461539,3815.3846153846157,4496.410256410257,4324.102564102564,4262.564102564103,4515.384615384616,4456.923076923077,4439.48717948718,4369.2307692307695,4726.666666666667,4318.461538461539,4175.8974358974365,4156.923076923077,4416.923076923077
1037.7747,0.19244695,0.6437425,0.33333334,0.5522388,0,0.0,0.0,0.0,0.0,0.029386146,0,0,0.0,0.0,0,0,47.0,0.0,0.0,4468.717948717949,3814.358974358975,4506.666666666667,4327.179487179487,4289.74358974359,4553.846153846154,4471.282051282052,4419.48717948718,4389.2307692307695,4752.820512820514,4352.820512820514,4156.410256410257,4187.179487179487,4415.8974358974365
1038.0249,0.14327075,0.6289293,0.33333334,0.5522388,0,0.0,0.0,0.0,0.0,0.32021558,0,0,0.0,0.0,0,0,79.0,0.0,511.0,4458.461538461539,3755.3846153846157,4483.589743589744,4262.051282051282,4224.615384615385,4508.205128205129,4426.666666666667,4377.435897435898,4366.153846153847,4686.153846153847,4283.076923076924,4089.7435897435903,4081.0256410256416,4331.282051282052
1038.275,0.14327075,0.6289293,0.33333334,0.5522388,0,0.0,0.0,0.0,0.0,0.0,0,0,0.0,0.1308387,0,0,111.0,0.0,511.0,4484.102564102564,3835.8974358974365,4494.871794871796,4343.589743589744,4282.051282051282,4560.512820512821,4468.717948717949,4397.435897435898,4390.769230769231,4735.384615384616,4377.435897435898,4176.410256410257,4157.435897435898,4436.923076923077
1038.4315,0.27243277,0.6167994,0.33333334,0.5522388,0,0.0,0.0,0.0,0.0,0.0,0,0,0.0,0.0,0,0,2.0,0.0,169.0,4480.512820512821,3871.7948717948725,4492.820512820514,4373.846153846154,4300.000000000001,4574.358974358975,4464.615384615385,4297.435897435898,4392.307692307693,4746.153846153847,4395.384615384616,4187.6923076923085,4178.461538461539,4437.435897435898
1038.7755,0.27243277,0.6167994,0.33333334,0.5522388,0,0.0,0.0,0.0,0.0,0.0,0,0,0.0,0.07803884,0,0,46.0,0.0,0.0,4482.051282051282,3906.1538461538466,4490.769230769231,4412.307692307693,4301.025641025642,4588.205128205129,4451.794871794872,4343.076923076924,4409.743589743591,4758.461538461539,4404.615384615385,4222.051282051282,4204.102564102564,4462.564102564103
1039.0258,0.26686594,0.60555196,0.33333334,0.5522388,0,0.0,0.0,0.0,0.0,0.0,0,0,0.0,0.11064514,0,0,78.0,0.0,549.0,4488.205128205129,3932.820512820513,4486.666666666667,4433.846153846154,4280.000000000001,4569.743589743591,4428.717948717949,4354.871794871796,4407.6923076923085,4772.307692307693,4409.2307692307695,4241.025641025642,4213.333333333334,4477.435897435898
1039.276,0.26686594,0.60555196,0.33333334,0.5522388,0,0.0,0.0,0.0,0.0,0.0,0,0,0.0,0.30724418,0,0,110.0,0.0,549.0,4491.282051282052,3955.8974358974365,4484.102564102564,4453.333333333334,4278.974358974359,4573.846153846154,4434.358974358975,4371.282051282052,4415.8974358974365,4773.846153846154,4414.871794871796,4254.358974358975,4220.000000000001,4496.410256410257
1039.5261,0.25118724,0.5831658,0.33333334,0.5522388,0,0.0,0.0,0.0,0.0,0.0,0,0,0.0,0.2394963,0,0,13.0,0.0,493.0,4493.333333333334,3965.1282051282055,4484.615384615385,4460.000000000001,4263.076923076924,4576.410256410257,4441.025641025642,4396.923076923077,4426.153846153847,4777.435897435898,4404.615384615385,4271.794871794872,4211.794871794872,4500.512820512821
1039.7764,0.25118724,0.5831658,0.33333334,0.5522388,0,0.0,0.0,0.15486419,0.0,0.0,0,0,0.0,0.0,0,1,45.0,0.0,0.0,4511.282051282052,4007.692307692308,4489.743589743591,4506.153846153847,4232.820512820514,4553.333333333334,4429.743589743591,4415.384615384616,4424.102564102564,4785.128205128206,4413.846153846154,4326.153846153847,4261.025641025642,4621.538461538462
1040.0579,0.21504207,0.5788084,0.33333334,0.5522388,0,0.0,0.0,0.0,0.0,0.2545011,0,0,0.0,0.0,0,0,81.0,0.0,493.0,4529.743589743591,4016.9230769230776,4495.384615384616,4519.48717948718,4234.358974358975,4565.128205128206,4438.974358974359,4415.384615384616,4419.48717948718,4768.717948717949,4439.48717948718,4338.461538461539,4290.256410256411,4631.794871794872
1040.2769,0.21504207,0.5788084,0.33333334,0.5522388,0,0.0,0.0,0.0,0.0,0.28091884,0,0,0.0,0.0,0,0,109.0,0.0,493.0,4522.051282051282,3986.1538461538466,4492.307692307693,4488.205128205129,4253.846153846154,4570.769230769231,4461.025641025642,4442.051282051282,4428.717948717949,4789.743589743591,4421.025641025642,4333.333333333334,4271.794871794872,4580.000000000001
1040.527,0.21204606,0.61379683,0.33333334,0.5522388,0,0.0,0.0,0.0,0.0,0.0,0,0,0.22123045,0.0,0,0,12.0,0.0,525.0,4529.743589743591,3961.0256410256416,4482.564102564103,4463.589743589744,4235.384615384616,4574.358974358975,4462.051282051282,4437.948717948719,4432.820512820514,4793.846153846154,4410.256410256411,4328.205128205129,4271.282051282052,4563.076923076924
1040.7772,0.21204606,0.61379683,0.33333334,0.5522388,0,0.0,0.0,0.0,0.0,0.0,0,0,0.46807605,0.0,0,0,44.0,0.0,0.0,4527.6923076923085,3967.1794871794878,4492.820512820514,4478.974358974359,4252.307692307693,4572.307692307693,4456.410256410257,4407.179487179487,4412.820512820514,4760.512820512821,4375.384615384616,4301.538461538462,4231.282051282052,4533.846153846154
1041.0275,0.21003912,0.65925914,0.33333334,0.5522388,0,0.0,0.0,0.0,0.0,0.0,0,0,0.91826016,0.0,0,0,76.0,0.0,525.0,4535.8974358974365,3954.8717948717954,4487.179487179488,4462.051282051282,4242.051282051282,4560.000000000001,4454.871794871796,4418.461538461539,4413.333333333334,4745.128205128206,4343.589743589744,4305.128205128206,4213.333333333334,4524.615384615385
1041.2777,0.21003912,0.65925914,0.33333334,0.5522388,0,0.0,0.0,0.0,0.0,0.0,0,0,0.6033526,0.0,0,0,108.0,0.0,525.0,4547.179487179488,3952.307692307693,4485.128205128206,4465.641025641026,4255.8974358974365,4568.205128205129,4458.461538461539,4430.256410256411,4416.923076923077,4762.051282051282,4355.8974358974365,4313.333333333334,4225.641025641026,4561.538461538462
1041.5278,0.19024158,0.6809855,0.33333334,0.5522388,0,0.0,0.0,0.0,0.0,0.0,0,0,0.3217,0.0,0,0,11.0,0.0,510.0,4561.538461538462,3977.435897435898,4481.538461538462,4488.717948717949,4210.256410256411,4519.48717948718,4414.871794871796,4357.435897435898,4376.923076923077,4692.820512820514,4314.358974358975,4281.538461538462,4201.538461538462,4591.282051282052
1041.8093,0.19024158,0.6809855,0.33333334,0.5522388,0,0.0,0.0,0.0,0.0,0.0,0,0,0.30796343,0.0,0,0,47.0,0.0,0.0,4540.000000000001,3908.205128205129,4467.179487179487,4427.6923076923085,4242.051282051282,4544.615384615385,4445.128205128206,4383.589743589744,4391.282051282052,4683.076923076924,4281.025641025642,4252.820512820514,4124.102564102564,4494.358974358975
1042.0596,0.20857558,0.67698085,0.33333334,0.5522388,1,0.0,0.0,0.0,0.0,0.0,0,0,0.21304807,0.0,0,0,79.0,0.0,510.0,4554.358974358975,3950.2564102564106,4480.000000000001,4463.589743589744,4232.820512820514,4547.179487179488,4440.000000000001,4381.025641025642,4385.128205128206,4669.2307692307695,4293.333333333334,4268.717948717949,4161.025641025642,4528.717948717949
1042.2786,0.20857558,0.67698085,0.33333334,0.5522388,0,0.0,0.0,0.0,0.0,0.0,0,0,0.24012174,0.0,0,0,107.0,0.0,510.0,4550.769230769231,3907.692307692308,4469.2307692307695,4421.538461538462,4240.000000000001,4568.717948717949,4466.666666666667,4437.948717948719,4415.8974358974365,4714.871794871796,4319.48717948718,4275.384615384616,4171.794871794872,4495.384615384616
1042.5287,0.19950137,0.6892884,0.33333334,0.5522388,0,0.0,0.0,0.0,0.0,0.0,0,0,0.18637232,0.0,0,0,10.0,0.0,551.0,4551.282051282052,3916.410256410257,4471.794871794872,4429.2307692307695,4247.6923076923085,4570.769230769231,4460.512820512821,4433.846153846154,4408.205128205129,4723.076923076924,4321.025641025642,4268.717948717949,4174.871794871796,4489.2307692307695
1042.7789,0.19950137,0.6892884,0.33333334,0.5522388,0,0.0,0.0,0.0,0.0,0.0,0,0,0.45002055,0.0,0,0,42.0,0.0,0.0,4553.333333333334,3948.717948717949,4474.871794871796,4455.384615384616,4263.589743589744,4572.307692307693,4467.179487179487,4436.923076923077,4412.307692307693,4731.282051282052,4316.410256410257,4280.000000000001,4167.179487179487,4489.2307692307695
1043.0292,0.16182153,0.7022855,0.33333334,0.5522388,0,0.0,0.0,0.0,0.0,0.0,0,0,0.83526015,0.0,0,0,74.0,0.0,551.0,4552.820512820514,3931.7948717948725,4478.461538461539,4435.8974358974365,4253.846153846154,4560.000000000001,4469.2307692307695,4442.051282051282,4411.794871794872,4749.743589743591,4350.256410256411,4283.076923076924,4208.205128205129,4504.102564102564
1043.2794,0.16182153,0.7022855,0.33333334,0.5522388,0,0.0,0.0,0.0,0.0,0.0,0,0,0.59489965,0.0,0,0,106.0,0.0,551.0,4556.410256410257,3940.5128205128212,4486.153846153847,4446.666666666667,4248.205128205129,4563.589743589744,4473.846153846154,4442.051282051282,4395.8974358974365,4741.538461538462,4347.6923076923085,4280.512820512821,4210.256410256411,4509.743589743591
1043.5295,0.12445127,0.7180608,0.33333334,0.5522388,0,0.0,0.0,0.0,0.0,0.0,0,0,0.29878074,0.0,0,0,9.0,0.0,485.0,4555.8974358974365,3951.7948717948725,4491.282051282052,4448.205128205129,4269.2307692307695,4575.8974358974365,4487.179487179488,4451.794871794872,4415.384615384616,4750.769230769231,4353.846153846154,4283.076923076924,4201.025641025642,4510.769230769231
1043.7798,0.12445127,0.7180608,0.33333334,0.5522388,0,0.0,0.0,0.0,0.0,0.0,0,0,0.8479023,0.0,0,0,41.0,0.0,0.0,4554.358974358975,3917.9487179487182,4483.076923076924,4420.000000000001,4242.564102564103,4554.871794871796,4473.846153846154,4439.48717948718,4397.435897435898,4728.717948717949,4331.794871794872,4251.794871794872,4180.000000000001,4492.307692307693
1044.03,0.122069806,0.6664699,0.33333334,0.5522388,0,0.0,0.0,0.0,0.0,0.0,0,0,0.63590366,0.0,0,0,73.0,0.0,486.0,4550.769230769231,3932.820512820513,4484.102564102564,4427.179487179487,4246.666666666667,4553.846153846154,4475.384615384616,4448.205128205129,4414.358974358975,4740.512820512821,4339.48717948718,4269.2307692307695,4206.666666666667,4518.974358974359
1044.2803,0.122069806,0.6664699,0.33333334,0.5522388,0,0.0,0.0,0.0,0.0,0.0,0,0,0.4719937,0.0,0,0,105.0,0.0,493.0,4554.358974358975,3921.0256410256416,4484.615384615385,4415.8974358974365,4226.666666666667,4550.256410256411,4470.769230769231,4438.974358974359,4404.102564102564,4732.820512820514,4330.769230769231,4265.128205128206,4182.564102564103,4508.205128205129
1044.5305,0.10510166,0.6010851,0.33333334,0.5522388,0,0.0,0.0,0.0,0.0,0.0,0,0,0.8617248,0.0,0,0,8.0,0.0,389.0,4555.384615384616,3928.717948717949,4484.615384615385,4417.435897435898,4232.307692307693,4546.153846153847,4469.2307692307695,4431.794871794872,4401.025641025642,4715.8974358974365,4341.538461538462,4271.794871794872,4194.871794871796,4489.2307692307695
1044.7806,0.10510166,0.6010851,0.33333334,0.5522388,0,0.0,0.0,0.0,0.0,0.0,0,0,0.61342627,0.0,0,0,40.0,0.0,0.0,4555.384615384616,3940.5128205128212,4488.205128205129,4429.2307692307695,4242.051282051282,4555.8974358974365,4473.333333333334,4436.410256410257,4405.641025641026,4703.076923076924,4305.128205128206,4250.769230769231,4154.871794871796,4448.205128205129
1045.0309,0.09567842,0.5291585,0.33333334,0.5522388,0,0.0,0.0,0.0,0.0,0.0,0,0,0.45398596,0.0,0,0,72.0,0.0,389.0,4562.051282051282,3931.7948717948725,4488.717948717949,4422.051282051282,4226.153846153847,4535.8974358974365,4462.051282051282,4417.948717948719,4396.410256410257,4703.589743589744,4310.256410256411,4252.307692307693,4170.256410256411,4464.102564102564
1045.2811,0.09567842,0.5291585,0.33333334,0.5522388,0,0.0,0.0,0.0,0.0,0.0,0,0,0.33500344,0.0,0,0,104.0,0.0,525.0,4562.051282051282,3924.615384615385,4482.051282051282,4416.410256410257,4227.6923076923085,4531.794871794872,4454.358974358975,4410.769230769231,4389.2307692307695,4714.358974358975,4310.769230769231,4243.076923076924,4173.846153846154,4480.512820512821
1045.5314,0.052199777,0.47018486,0.33333334,0.5522388,0,0.0,0.0,0.0,0.0,0.0,0,0,0.61003923,0.0,0,0,7.0,0.0,466.0,4564.615384615385,3912.307692307693,4481.538461538462,4407.6923076923085,4234.871794871796,4539.48717948718,4448.205128205129,4411.794871794872,4385.128205128206,4708.717948717949,4309.743589743591,4241.025641025642,4177.435897435898,4489.743589743591
1045.7815,0.052199777,0.47018486,0.33333334,0.5522388,0,0.0,0.0,0.0,0.0,0.0,0,0,0.42695504,0.0,0,0,39.0,0.0,0.0,4569.2307692307695,3952.820512820513,4484.615384615385,4441.025641025642,4247.179487179487,4547.6923076923085,4457.948717948719,4424.615384615385,4383.589743589744,4712.307692307693,4302.051282051282,4224.102564102564,4149.74358974359,4508.717948717949
1046.0317,0.05000602,0.42597014,0.33333334,0.5522388,0,0.0,0.0,0.0,0.0,0.0,0,0,0.31538752,0.0,0,0,71.0,0.0,466.0,4566.153846153847,3962.0512820512827,4484.102564102564,4447.179487179487,4245.128205128206,4548.205128205129,4449.2307692307695,4423.076923076924,4389.2307692307695,4724.615384615386,4312.820512820514,4227.179487179487,4159.48717948718,4526.666666666667
1046.282,0.05000602,0.42597014,0.33333334,0.5522388,0,0.0,0.0,0.0,0.0,0.0,0,0,0.62462187,0.0,0,0,103.0,0.0,510.0,4559.48717948718,3933.8461538461543,4484.102564102564,4425.128205128206,4228.205128205129,4544.102564102564,4453.333333333334,4421.025641025642,4378.461538461539,4730.256410256411,4313.846153846154,4228.717948717949,4161.025641025642,4511.794871794872
1046.5322,0.0,0.3963767,0.33333334,0.5522388,1,0.0,0.0,0.0,0.0,0.0,0,0,0.21313922,0.0,0,0,6.0,0.0,546.0,4582.051282051282,4036.410256410257,4495.384615384616,4508.717948717949,4241.538461538462,4534.871794871796,4438.461538461539,4402.051282051282,4371.794871794872,4715.384615384616,4331.282051282052,4252.820512820514,4200.000000000001,4611.794871794872
1046.7823,0.0,0.3963767,0.33333334,0.5522388,0,0.0,0.0,0.0,0.0,0.0,0,0,0.21638012,0.0,0,0,38.0,0.0,0.0,4560.000000000001,3936.9230769230776,4480.512820512821,4424.102564102564,4238.461538461539,4546.666666666667,4455.8974358974365,4420.512820512821,4375.8974358974365,4710.769230769231,4302.051282051282,4209.2307692307695,4127.6923076923085,4473.846153846154
1047.0326,0.0,0.3910827,0.33333334,0.5522388,0,0.0,0.0,0.0,0.0,0.0,0,0,0.12416326,0.0,0,0,70.0,0.0,546.0,4552.307692307693,3933.333333333334,4483.589743589744,4417.435897435898,4247.179487179487,4554.871794871796,4452.307692307693,4418.974358974359,4376.410256410257,4725.128205128206,4301.025641025642,4195.8974358974365,4136.410256410257,4473.846153846154
1047.2828,0.0,0.3910827,0.33333334,0.5522388,0,0.0,0.0,0.0,0.0,0.0,0,0,0.18940969,0.0,0,0,102.0,0.0,551.0,4565.641025641026,3961.538461538462,4492.820512820514,4443.076923076924,4237.948717948719,4550.256410256411,4454.358974358975,4418.461538461539,4373.333333333334,4723.589743589744,4299.48717948718,4206.153846153847,4150.769230769231,4501.538461538462
1047.5331,0.0,0.39382792,0.33333334,0.5522388,0,0.0,0.0,0.0,0.0,0.0,0,0,0.34763795,0.0,0,0,5.0,0.0,573.0,4566.153846153847,3959.48717948718,4490.256410256411,4445.128205128206,4252.307692307693,4558.461538461539,4454.358974358975,4415.8974358974365,4378.461538461539,4733.333333333334,4303.589743589744,4204.615384615385,4144.615384615385,4512.307692307693
1047.7832,0.0,0.39382792,0.33333334,0.5522388,0,0.0,0.0,0.0,0.0,0.0,0,0,0.6038437,0.0,0,0,37.0,0.0,0.0,4568.205128205129,3942.0512820512827,4482.051282051282,4436.410256410257,4232.820512820514,4540.512820512821,4441.538461538462,4401.025641025642,4365.128205128206,4728.717948717949,4304.615384615385,4211.282051282052,4142.051282051282,4508.205128205129
1048.0334,0.0,0.39263582,0.33333334,0.5522388,0,0.0,0.0,0.0,0.0,0.0,0,0,0.2799471,0.0,0,0,69.0,0.0,576.0,4568.717948717949,3946.666666666667,4481.538461538462,4435.8974358974365,4236.923076923077,4543.589743589744,4453.846153846154,4400.512820512821,4364.615384615385,4713.333333333334,4302.051282051282,4207.179487179487,4138.461538461539,4480.000000000001
1048.2837,0.0,0.39263582,0.33333334,0.5522388,0,0.0,0.0,0.0,0.0,0.0,0,0,1.0,0.0,0,0,101.0,0.0,494.0,4577.435897435898,3907.692307692308,4487.179487179488,4407.179487179487,4236.410256410257,4564.615384615385,4475.384615384616,4430.256410256411,4382.564102564103,4764.615384615386,4365.128205128206,4253.846153846154,4227.179487179487,4531.794871794872
1048.5339,0.0,0.37789705,0.33333334,0.5522388,0,0.0,0.0,0.0,0.0,0.0,0,0,0.98916835,0.0,0,0,4.0,0.0,578.0,4571.282051282052,3910.7692307692314,4486.666666666667,4403.589743589744,4233.333333333334,4557.948717948719,4476.410256410257,4436.410256410257,4382.564102564103,4772.307692307693,4365.641025641026,4242.051282051282,4229.2307692307695,4521.538461538462
1048.784,0.0,0.37789705,0.33333334,0.5522388,0,0.0,0.0,0.0,0.0,0.0,0,0,0.5695329,0.0,0,0,36.0,0.0,0.0,4568.717948717949,3917.435897435898,4488.717948717949,4413.333333333334,4243.076923076924,4549.743589743591,4473.333333333334,4424.102564102564,4382.051282051282,4758.974358974359,4355.8974358974365,4238.461538461539,4203.589743589744,4520.000000000001
1049.0343,0.02412553,0.33523387,0.33333334,0.5522388,0,0.0,0.0,0.0,0.0,0.0,0,0,0.5917948,0.0,0,0,68.0,0.0,578.0,4561.538461538462,3908.717948717949,4486.666666666667,4409.743589743591,4225.128205128206,4546.666666666667,4469.743589743591,4405.128205128206,4356.923076923077,4729.2307692307695,4316.923076923077,4230.256410256411,4169.2307692307695,4473.333333333334
1049.2845,0.02412553,0.33523387,0.33333334,0.5522388,0,0.0,0.0,0.0,0.0,0.0,0,0,0.58745843,0.0,0,0,100.0,0.0,525.0,4551.282051282052,3922.0512820512827,4488.205128205129,4423.076923076924,4242.051282051282,4540.512820512821,4475.384615384616,4430.256410256411,4367.179487179487,4739.48717948718,4331.282051282052,4231.794871794872,4185.641025641026,4506.666666666667
1049.5348,0.0,0.3023226,0.33333334,0.5522388,0,0.0,0.0,0.0,0.0,0.03483223,0,0,0.0,0.0,0,0,3.0,0.0,559.0,4540.512820512821,3890.2564102564106,4490.769230769231,4390.769230769231,4236.410256410257,4548.717948717949,4480.512820512821,4391.794871794872,4357.435897435898,4690.256410256411,4305.641025641026,4213.846153846154,4177.435897435898,4492.307692307693
1049.785,0.0,0.3023226,0.33333334,0.5522388,0,0.0,0.0,0.0,0.0,0.020687101,0,0,0.0,0.0,0,0,35.0,0.0,0.0,4520.512820512821,3861.0256410256416,4498.974358974359,4366.666666666667,4228.717948717949,4524.102564102564,4472.820512820514,4383.589743589744,4342.051282051282,4666.153846153847,4300.000000000001,4196.410256410257,4160.000000000001,4482.051282051282
1050.0352,0.035435632,0.27957654,0.33333334,0.5522388,0,0.0,0.0,0.0,0.0,0.0,0,0,0.7517349,0.0,0,0,67.0,0.0,559.0,4504.102564102564,3892.820512820513,4514.871794871796,4392.820512820514,4240.000000000001,4528.717948717949,4465.128205128206,4373.333333333334,4329.2307692307695,4668.717948717949,4302.051282051282,4174.358974358975,4145.641025641026,4485.128205128206
1050.2854,0.035435632,0.27957654,0.33333334,0.5522388,0,0.0,0.0,0.0,0.0,0.12509342,0,0,0.0,0.0,0,0,99.0,0.0,510.0,4510.256410256411,4206.153846153847,4528.205128205129,4649.2307692307695,4314.871794871796,4571.282051282052,4513.846153846154,4447.6923076923085,4385.641025641026,4819.48717948718,4450.256410256411,4246.666666666667,4314.358974358975,4569.743589743591
1050.5356,0.13305692,0.25777632,0.33333334,0.5522388,0,0.0,0.0,0.0,0.0,0.18723622,0,0,0.0,0.0,0,0,2.0,0.0,169.0,4507.179487179488,4063.076923076924,4526.153846153847,4537.435897435898,4297.435897435898,4553.846153846154,4486.666666666667,4435.8974358974365,4367.179487179487,4773.846153846154,4415.8974358974365,4227.179487179487,4248.717948717949,4546.666666666667
1050.7859,0.13305692,0.25777632,0.33333334,0.5522388,0,0.0,0.0,0.0,0.0,0.0,0,0,0.22460915,0.0,0,1,34.0,0.0,0.0,4507.179487179488,3971.2820512820517,4528.717948717949,4469.743589743591,4283.589743589744,4566.153846153847,4490.256410256411,4447.179487179487,4372.820512820514,4768.205128205129,4425.128205128206,4232.307692307693,4222.051282051282,4532.820512820514
1051.036,0.18165702,0.24991186,0.33333334,0.5522388,0,0.0,0.0,0.0,0.0,0.0,0,0,0.122155845,0.0,0,0,66.0,0.0,169.0,4504.615384615385,3907.1794871794878,4525.128205128206,4420.000000000001,4267.179487179487,4547.6923076923085,4476.410256410257,4421.538461538462,4352.820512820514,4714.871794871796,4377.435897435898,4214.358974358975,4163.589743589744,4511.794871794872
1051.2863,0.18165702,0.24991186,0.33333334,0.5522388,0,0.0,0.0,0.0,0.0,0.0,0,0,0.54181397,0.0,0,0,98.0,0.0,552.0,4508.717948717949,3914.8717948717954,4529.2307692307695,4429.743589743591,4248.205128205129,4526.153846153847,4475.384615384616,4423.589743589744,4346.666666666667,4695.384615384616,4386.153846153847,4221.538461538462,4166.666666666667,4525.641025641026
1051.5365,0.19995198,0.24644206,0.33333334,0.5522388,0,0.0,0.0,0.0,0.0,0.0,0,0,0.5456953,0.0,0,0,1.0,0.0,522.0,4507.179487179488,3907.692307692308,4527.6923076923085,4422.564102564103,4267.179487179487,4536.410256410257,4473.333333333334,4416.410256410257,4355.384615384616,4714.871794871796,4402.051282051282,4240.512820512821,4170.769230769231,4505.641025641026
1051.7867,0.19995198,0.24644206,0.33333334,0.5522388,0,0.0,0.0,0.0,0.0,0.0,0,0,0.38205522,0.0,0,0,33.0,0.0,0.0,4506.666666666667,3913.333333333334,4530.256410256411,4429.743589743591,4259.48717948718,4527.179487179488,4457.948717948719,4408.717948717949,4350.769230769231,4715.384615384616,4374.871794871796,4246.153846153847,4155.8974358974365,4492.307692307693
1052.0369,0.11394115,0.23260388,0.33333334,0.5522388,0,0.0,0.0,0.0,0.0,0.16847989,0,0,0.0,0.0,0,0,65.0,0.0,522.0,4510.769230769231,3928.205128205129,4522.564102564103,4439.48717948718,4268.205128205129,4540.000000000001,4466.153846153847,4422.564102564103,4363.589743589744,4715.8974358974365,4385.128205128206,4256.410256410257,4170.256410256411,4476.923076923077
1052.2871,0.11394115,0.23260388,0.33333334,0.5522388,0,0.0,0.0,0.0,0.0,0.2060042,0,0,0.0,0.0,0,0,97.0,0.0,494.0,4502.564102564103,3901.538461538462,4522.564102564103,4415.8974358974365,4250.769230769231,4535.384615384616,4457.948717948719,4414.358974358975,4346.153846153847,4692.820512820514,4339.48717948718,4232.820512820514,4138.461538461539,4435.8974358974365
1052.5374,0.109687604,0.20283797,0.33333334,0.5522388,0,0.0,0.0,0.0,0.0,0.0,0,0,0.28551176,0.0,0,0,0.0,0.0,242.0,4491.282051282052,3870.7692307692314,4522.564102564103,4392.307692307693,4253.846153846154,4531.282051282052,4470.256410256411,4409.743589743591,4336.923076923077,4683.589743589744,4319.48717948718,4197.948717948719,4143.589743589744,4438.974358974359
1052.8188,0.109687604,0.20283797,0.33333334,0.5522388,0,0.0,0.0,0.0,0.0,0.0,0,0,0.15554371,0.0,0,1,36.0,0.0,0.0,4481.025641025642,3892.820512820513,4532.820512820514,4394.871794871796,4248.205128205129,4502.564102564103,4439.48717948718,4387.6923076923085,4330.769230769231,4673.333333333334,4308.205128205129,4183.076923076924,4161.025641025642,4480.512820512821
1053.0377,0.05861986,0.18415667,0.33333334,0.5522388,0,0.0,0.0,0.0,0.0,0.0,0,0,0.3264048,0.0,0,1,64.0,0.0,242.0,4463.076923076924,3877.9487179487182,4522.564102564103,4364.615384615385,4257.948717948719,4515.8974358974365,4446.666666666667,4407.179487179487,4342.564102564103,4700.000000000001,4330.256410256411,4162.051282051282,4165.641025641026,4437.948717948719
1053.288,0.05861986,0.18415667,0.33333334,0.5522388,0,0.0,0.0,0.0,0.0,0.14901774,0,0,0.0,0.0,0,1,96.0,0.0,525.0,4470.769230769231,3897.435897435898,4521.538461538462,4383.589743589744,4255.8974358974365,4498.461538461539,4421.538461538462,4393.846153846154,4343.076923076924,4698.974358974359,4358.974358974359,4163.076923076924,4185.641025641026,4448.205128205129
1053.5695,0.02264062,0.20204541,0.33333334,0.5522388,0,0.0,0.0,0.0,0.0,0.0,0,0,0.36617577,0.0,0,0,3.0,0.0,560.0,4458.974358974359,3907.1794871794878,4511.282051282052,4393.846153846154,4250.769230769231,4514.871794871796,4418.974358974359,4407.6923076923085,4360.512820512821,4745.128205128206,4387.179487179487,4173.333333333334,4204.102564102564,4434.871794871796
1053.7885,0.02264062,0.20204541,0.33333334,0.5522388,0,0.0,0.0,0.0,0.0,0.0,0,0,0.44077757,0.0,0,0,31.0,0.0,0.0,4469.743589743591,3914.8717948717954,4508.205128205129,4410.256410256411,4249.74358974359,4513.846153846154,4415.8974358974365,4415.384615384616,4373.846153846154,4758.974358974359,4419.48717948718,4204.102564102564,4220.000000000001,4474.871794871796
1054.0386,0.084202394,0.22624399,0.33333334,0.5522388,0,0.0,0.0,0.0,0.0,0.0,0,0,0.38456377,0.0,0,0,63.0,0.0,0.0,4470.256410256411,3920.5128205128212,4500.000000000001,4415.384615384616,4245.128205128206,4513.846153846154,4411.282051282052,4405.641025641026,4368.205128205129,4747.179487179488,4407.6923076923085,4227.179487179487,4200.512820512821,4458.974358974359
1054.2888,0.084202394,0.22624399,0.33333334,0.5522388,0,0.0,0.0,0.0,0.0,0.0,0,0,0.602977,0.0,0,0,95.0,0.0,510.0,4491.282051282052,3960.0000000000005,4505.641025641026,4450.256410256411,4248.205128205129,4543.076923076924,4429.2307692307695,4420.512820512821,4385.128205128206,4760.000000000001,4434.871794871796,4273.846153846154,4215.8974358974365,4477.948717948719
1054.5391,0.09023544,0.2775241,0.33333334,0.5522388,0,0.0,0.0,0.0,0.0,0.0,0,0,0.9961686,0.0,0,0,127.0,0.0,510.0,4504.615384615385,3942.564102564103,4501.025641025642,4442.051282051282,4237.435897435898,4541.538461538462,4420.512820512821,4407.6923076923085,4387.179487179487,4765.128205128206,4384.102564102564,4289.74358974359,4220.512820512821,4493.333333333334
1054.7893,0.09023544,0.2775241,0.33333334,0.5522388,0,0.0,0.0,0.0,0.0,0.0,0,0,0.50664616,0.0,0,0,30.0,0.0,0.0,4503.076923076924,3940.0000000000005,4494.358974358975,4437.435897435898,4237.435897435898,4543.589743589744,4444.102564102564,4425.128205128206,4394.358974358975,4761.538461538462,4398.461538461539,4309.743589743591,4209.2307692307695,4482.564102564103
1055.0396,0.08175646,0.288117,0.33333334,0.5522388,0,0.0,0.0,0.0,0.0,0.0,0,0,0.40933552,0.0,0,0,62.0,0.0,0.0,4522.051282051282,3971.7948717948725,4499.48717948718,4472.820512820514,4248.717948717949,4547.179487179488,4440.512820512821,4419.48717948718,4395.384615384616,4754.358974358975,4409.743589743591,4323.076923076924,4228.205128205129,4533.846153846154
1055.2897,0.08175646,0.288117,0.33333334,0.5522388,0,0.0,0.0,0.0,0.0,0.0,0,0,1.0,0.0,0,0,94.0,0.0,552.0,4529.743589743591,3963.589743589744,4502.564102564103,4465.641025641026,4250.256410256411,4553.846153846154,4446.666666666667,4419.48717948718,4392.307692307693,4753.846153846154,4398.974358974359,4316.410256410257,4203.589743589744,4544.615384615385
1055.5399,0.04051487,0.28695717,0.33333334,0.5522388,0,0.0,0.0,0.0,0.0,0.0,0,0,0.31137663,0.0,0,0,126.0,0.0,552.0,4522.564102564103,3928.717948717949,4500.512820512821,4428.205128205129,4264.615384615385,4568.205128205129,4462.564102564103,4438.461538461539,4409.743589743591,4764.102564102564,4392.820512820514,4296.410256410257,4202.564102564103,4490.769230769231
1055.7902,0.04051487,0.28695717,0.33333334,0.5522388,0,0.0,0.0,0.0,0.0,0.17768301,0,0,0.0,0.0,0,0,29.0,0.0,0.0,4523.589743589744,3941.0256410256416,4508.717948717949,4436.923076923077,4248.717948717949,4553.846153846154,4449.743589743591,4416.923076923077,4401.025641025642,4744.102564102564,4369.743589743591,4290.256410256411,4189.74358974359,4481.025641025642
1056.0404,0.004376856,0.28009537,0.33333334,0.5522388,0,0.0,0.0,0.0,0.0,0.0,0,0,0.6937053,0.0,0,0,61.0,0.0,0.0,4525.641025641026,3934.8717948717954,4513.846153846154,4435.8974358974365,4255.384615384616,4577.948717948719,4470.769230769231,4431.794871794872,4405.128205128206,4745.128205128206,4373.846153846154,4305.641025641026,4205.641025641026,4504.615384615385
1056.2905,0.004376856,0.28009537,0.33333334,0.5522388,0,0.0,0.0,0.0,0.0,0.080564655,0,0,0.0,0.0,0,0,93.0,0.0,494.0,4535.8974358974365,3955.3846153846157,4516.923076923077,4452.820512820514,4250.256410256411,4551.794871794872,4453.846153846154,4403.076923076924,4391.282051282052,4732.307692307693,4361.538461538462,4302.051282051282,4185.641025641026,4485.128205128206
1056.5408,0.0,0.27024606,0.33333334,0.5522388,0,0.0,0.0,0.0,0.0,0.0,0,0,0.47977495,0.0,0,0,125.0,0.0,494.0,4528.205128205129,3952.820512820513,4514.871794871796,4439.48717948718,4252.307692307693,4561.538461538462,4460.512820512821,4425.128205128206,4399.48717948718,4747.6923076923085,4371.282051282052,4305.641025641026,4205.641025641026,4492.307692307693
1056.791,0.0,0.27024606,0.33333334,0.5522388,0,0.0,0.0,0.0,0.0,0.0,0,0,0.32690397,0.0,0,0,28.0,0.0,0.0,4522.051282051282,3930.7692307692314,4510.769230769231,4423.076923076924,4239.48717948718,4543.589743589744,4449.2307692307695,4403.589743589744,4387.179487179487,4737.948717948719,4341.538461538462,4273.846153846154,4183.589743589744,4490.256410256411
1057.0413,0.0,0.26751047,0.33333334,0.5522388,0,0.0,0.0,0.0,0.0,0.0,0,0,0.40594462,0.0,0,0,60.0,0.0,0.0,4522.051282051282,3952.820512820513,4501.025641025642,4437.435897435898,4248.717948717949,4554.358974358975,4456.923076923077,4407.6923076923085,4392.307692307693,4728.205128205129,4344.102564102564,4276.410256410257,4173.333333333334,4506.666666666667
1057.2914,0.0,0.26751047,0.33333334,0.5522388,0,0.0,0.0,0.0,0.0,0.0,0,0,0.42484683,0.0,0,0,92.0,0.0,525.0,4517.435897435898,3908.205128205129,4487.179487179488,4392.820512820514,4199.48717948718,4510.256410256411,4412.307692307693,4376.410256410257,4369.2307692307695,4691.794871794872,4310.256410256411,4235.384615384616,4153.846153846154,4447.6923076923085
1057.5416,0.09880264,0.26638982,0.33333334,0.5522388,0,0.0,0.0,0.0,0.0,0.21929745,0,0,0.0,0.0,0,0,124.0,0.0,525.0,4508.717948717949,3901.538461538462,4490.256410256411,4388.205128205129,4204.102564102564,4508.717948717949,4416.923076923077,4365.641025641026,4364.102564102564,4675.384615384616,4287.179487179487,4220.512820512821,4131.282051282052,4434.871794871796
1057.7919,0.09880264,0.26638982,0.33333334,0.5522388,0,0.0,0.0,0.0,0.0,0.0,0,0,0.0,0.0,0,0,27.0,0.0,0.0,4515.384615384616,3915.3846153846157,4493.846153846154,4402.051282051282,4214.358974358975,4517.948717948719,4423.589743589744,4388.717948717949,4374.871794871796,4692.307692307693,4309.743589743591,4238.461538461539,4150.256410256411,4453.333333333334
1058.0421,0.20222966,0.27091745,0.33333334,0.5522388,0,0.0,0.0,0.0,0.0,0.0,0,0,0.2996374,0.0,0,0,59.0,0.0,0.0,4523.076923076924,3969.2307692307695,4501.025641025642,4443.076923076924,4222.051282051282,4527.6923076923085,4440.512820512821,4400.000000000001,4380.000000000001,4692.820512820514,4314.871794871796,4246.666666666667,4171.794871794872,4495.8974358974365
1058.2922,0.20222966,0.27091745,0.33333334,0.5522388,0,0.0,0.0,0.0,0.0,0.0,0,0,0.21042396,0.0,0,0,91.0,0.0,510.0,4519.48717948718,3933.8461538461543,4497.948717948719,4407.179487179487,4232.307692307693,4544.102564102564,4447.6923076923085,4400.000000000001,4389.2307692307695,4707.179487179488,4315.8974358974365,4233.846153846154,4156.410256410257,4446.153846153847
1058.5425,0.13871607,0.27882722,0.33333334,0.5522388,0,0.0,0.0,0.0,0.0,0.09590894,0,0,0.0,0.0,0,0,123.0,0.0,510.0,4510.769230769231,3921.538461538462,4490.256410256411,4394.871794871796,4225.641025641026,4529.2307692307695,4440.512820512821,4377.435897435898,4377.435897435898,4702.051282051282,4281.025641025642,4214.358974358975,4133.846153846154,4410.256410256411
1058.7927,0.13871607,0.27882722,0.33333334,0.5522388,0,0.0,0.0,0.0,0.0,0.0,0,0,0.5430385,0.0,0,1,26.0,0.0,0.0,4521.025641025642,3916.9230769230776,4500.000000000001,4397.948717948719,4222.051282051282,4534.358974358975,4450.256410256411,4405.641025641026,4394.871794871796,4735.384615384616,4342.564102564103,4250.256410256411,4216.923076923077,4474.871794871796
1059.1055,0.12942685,0.32588062,0.33333334,0.5522388,0,0.0,0.0,0.0,0.0,0.0,0,0,0.42117235,0.0,0,0,66.0,0.0,171.0,4523.076923076924,3926.1538461538466,4507.179487179488,4408.717948717949,4230.256410256411,4542.051282051282,4450.256410256411,4403.076923076924,4402.051282051282,4741.538461538462,4343.076923076924,4247.6923076923085,4203.076923076924,4462.051282051282
1059.2931,0.12942685,0.32588062,0.33333334,0.5522388,0,0.0,0.0,0.0,0.0,0.0,0,0,0.7082614,0.0,0,0,90.0,0.0,552.0,4524.615384615385,3927.692307692308,4510.256410256411,4402.051282051282,4234.358974358975,4546.666666666667,4460.000000000001,4408.717948717949,4395.384615384616,4726.153846153847,4327.179487179487,4237.435897435898,4179.48717948718,4456.410256410257
1059.5433,0.06689141,0.358778,0.33333334,0.5522388,0,0.0,0.0,0.0,0.0,0.0,0,0,1.0,0.0,0,0,122.0,0.0,552.0,4524.102564102564,3980.5128205128212,4509.2307692307695,4451.282051282052,4227.179487179487,4525.128205128206,4440.512820512821,4376.410256410257,4369.2307692307695,4666.153846153847,4260.512820512821,4208.205128205129,4095.3846153846157,4436.923076923077
1059.7936,0.06689141,0.358778,0.33333334,0.5522388,0,0.0,0.0,0.19881125,0.0,0.0,0,0,0.0,0.0,0,0,25.0,0.0,0.0,4524.615384615385,3975.3846153846157,4516.923076923077,4446.153846153847,4231.794871794872,4524.102564102564,4453.333333333334,4398.461538461539,4378.461538461539,4671.282051282052,4251.794871794872,4212.307692307693,4075.8974358974365,4419.48717948718
1060.0438,0.053106967,0.3844944,0.33333334,0.5522388,0,0.0,0.0,0.10151139,0.0,0.0,0,0,0.0,0.0,0,0,57.0,0.0,0.0,4521.538461538462,3922.0512820512827,4517.948717948719,4394.871794871796,4233.333333333334,4530.256410256411,4458.974358974359,4389.743589743591,4369.2307692307695,4647.6923076923085,4232.820512820514,4186.666666666667,4083.589743589744,4395.8974358974365
1060.2941,0.053106967,0.3844944,0.33333334,0.5522388,0,0.0,0.0,0.0,0.0,0.0,0,0,0.08896968,0.0,0,0,89.0,0.0,494.0,4493.846153846154,3830.7692307692314,4518.461538461539,4315.8974358974365,4213.333333333334,4490.256410256411,4466.153846153847,4377.948717948719,4332.307692307693,4610.769230769231,4216.923076923077,4147.179487179487,4057.435897435898,4389.743589743591
1060.5442,0.11033699,0.35723546,0.33333334,0.5522388,0,0.0,0.0,0.0,0.0,0.0,0,0,0.18187118,0.0,0,0,121.0,0.0,494.0,4469.2307692307695,3780.0000000000005,4519.48717948718,4260.000000000001,4217.948717948719,4426.153846153847,4433.333333333334,4360.512820512821,4298.974358974359,4589.743589743591,4214.871794871796,4108.717948717949,4046.666666666667,4398.461538461539
1060.7944,0.11033699,0.35723546,0.33333334,0.5522388,0,0.0,0.0,0.0,0.0,0.0,0,0,0.30771714,0.0,0,0,24.0,0.0,0.0,4460.512820512821,3762.0512820512827,4530.256410256411,4233.333333333334,4221.538461538462,4388.717948717949,4426.153846153847,4395.8974358974365,4308.205128205129,4635.8974358974365,4245.128205128206,4079.48717948718,4097.948717948719,4421.538461538462
1061.0447,0.15993185,0.32139993,0.33333334,0.5522388,0,0.0,0.0,0.0,0.0,0.0,0,0,0.40709943,0.0,0,0,56.0,0.0,0.0,4456.923076923077,3804.1025641025644,4529.2307692307695,4260.512820512821,4217.435897435898,4375.8974358974365,4422.564102564103,4359.48717948718,4309.2307692307695,4640.512820512821,4262.051282051282,4076.410256410257,4124.102564102564,4437.435897435898
1061.2949,0.15993185,0.32139993,0.33333334,0.5522388,0,0.0,0.0,0.0,0.0,0.0,0,0,0.117958836,0.0,0,0,88.0,0.0,525.0,4450.769230769231,3849.2307692307695,4533.846153846154,4302.564102564103,4235.384615384616,4389.2307692307695,4409.2307692307695,4360.512820512821,4325.128205128206,4675.384615384616,4304.615384615385,4070.2564102564106,4153.333333333334,4421.538461538462
1061.545,0.18768597,0.29260972,0.33333334,0.5522388,0,0.0,0.0,0.0,0.0,0.0,0,0,0.027081877,0.0,0,0,120.0,0.0,525.0,4460.512820512821,3932.307692307693,4542.564102564103,4384.615384615385,4267.6923076923085,4434.358974358975,4407.6923076923085,4412.307692307693,4342.564102564103,4698.461538461539,4361.025641025642,4112.307692307693,4201.025641025642,4465.641025641026
1061.7953,0.18768597,0.29260972,0.33333334,0.5522388,0,0.0,0.0,0.0,0.0,0.032240722,0,0,0.0,0.0,0,0,23.0,0.0,0.0,4459.48717948718,3909.7435897435903,4532.307692307693,4372.820512820514,4257.435897435898,4470.769230769231,4405.128205128206,4430.256410256411,4371.794871794872,4757.435897435898,4454.871794871796,4163.076923076924,4292.307692307693,4503.076923076924
1062.0455,0.21400557,0.26265213,0.33333334,0.5522388,0,0.0,0.0,0.0,0.0,0.11009299,0,0,0.0,0.0,0,0,55.0,0.0,0.0,4457.948717948719,3935.8974358974365,4528.205128205129,4405.641025641026,4273.846153846154,4515.384615384616,4409.743589743591,4433.333333333334,4398.974358974359,4787.179487179488,4490.769230769231,4186.666666666667,4300.000000000001,4504.102564102564
1062.2958,0.21400557,0.26265213,0.33333334,0.5522388,0,0.0,0.0,0.0,0.0,0.08838536,0,0,0.0,0.0,0,0,87.0,0.0,513.0,4463.076923076924,3974.8717948717954,4535.8974358974365,4446.153846153847,4282.564102564103,4548.717948717949,4415.384615384616,4431.794871794872,4402.564102564103,4784.615384615386,4472.820512820514,4210.769230769231,4277.948717948719,4507.179487179488
1062.6085,0.16671605,0.23983213,0.33333334,0.5522388,0,0.0,0.0,0.0,0.0,0.0,1,0,0.553215,0.0,0,0,127.0,0.0,513.0,4471.282051282052,4041.0256410256416,4535.8974358974365,4511.794871794872,4278.461538461539,4558.461538461539,4397.435897435898,4389.2307692307695,4385.128205128206,4719.48717948718,4394.358974358975,4204.102564102564,4175.384615384616,4473.333333333334
1062.7961,0.16671605,0.23983213,0.33333334,0.5522388,0,0.0,0.0,0.0,0.0,0.11719017,1,0,0.0,0.0,0,0,22.0,0.0,0.0,4484.615384615385,4037.435897435898,4540.000000000001,4519.48717948718,4266.153846153847,4551.794871794872,4401.025641025642,4386.153846153847,4381.025641025642,4712.307692307693,4375.384615384616,4226.666666666667,4162.564102564103,4474.358974358975
1063.0464,0.17880617,0.23124261,0.33333334,0.5522388,0,0.0,0.0,0.0,0.0,0.17308168,1,0,0.0,0.0,0,0,54.0,0.0,0.0,4492.307692307693,4030.7692307692314,4530.256410256411,4509.2307692307695,4248.717948717949,4561.538461538462,4409.2307692307695,4386.153846153847,4383.589743589744,4721.538461538462,4385.128205128206,4253.333333333334,4178.974358974359,4485.128205128206
1063.2966,0.17880617,0.23124261,0.33333334,0.5522388,0,0.0,0.0,0.0,0.0,0.0,1,0,1.0,0.0,0,0,86.0,0.0,552.0,4505.641025641026,4010.7692307692314,4535.8974358974365,4493.333333333334,4242.051282051282,4581.025641025642,4429.2307692307695,4396.923076923077,4390.256410256411,4728.205128205129,4387.6923076923085,4263.076923076924,4198.461538461539,4489.2307692307695
1063.5468,0.16590148,0.24072221,0.33333334,0.5522388,0,0.0,0.0,0.1320783,0.0,0.0,1,0,0.0,0.0,0,0,118.0,0.0,552.0,4511.282051282052,4003.076923076924,4535.8974358974365,4492.307692307693,4243.589743589744,4575.8974358974365,4435.8974358974365,4388.205128205129,4387.179487179487,4728.205128205129,4372.307692307693,4266.153846153847,4192.820512820514,4482.564102564103
1063.797,0.16590148,0.24072221,0.33333334,0.5522388,0,0.0,0.0,0.0,0.0,0.41051918,1,0,0.0,0.0,0,0,21.0,0.0,0.0,4521.025641025642,4001.0256410256416,4537.435897435898,4487.179487179488,4229.74358974359,4551.794871794872,4422.051282051282,4368.205128205129,4372.820512820514,4703.589743589744,4350.256410256411,4261.538461538462,4168.717948717949,4521.538461538462
1064.0472,0.15984404,0.25380325,0.33333334,0.5522388,0,0.0,0.0,0.0,0.0,0.35604578,0,0,0.0,0.0,0,0,53.0,0.0,0.0,4530.769230769231,3982.0512820512827,4535.384615384616,4472.820512820514,4237.948717948719,4577.948717948719,4446.153846153847,4386.153846153847,4383.589743589744,4725.128205128206,4350.256410256411,4270.769230769231,4178.461538461539,4486.153846153847
1064.2975,0.15984404,0.25380325,0.33333334,0.5522388,0,0.0,0.0,0.0,0.0,0.39600143,0,0,0.0,0.0,0,0,85.0,0.0,494.0,4535.8974358974365,3979.48717948718,4528.205128205129,4467.179487179487,4230.769230769231,4564.615384615385,4447.179487179487,4390.256410256411,4392.307692307693,4731.794871794872,4336.410256410257,4269.74358974359,4180.512820512821,4470.769230769231
1064.5476,0.09537978,0.2559958,0.33333334,0.5522388,1,0.0,0.0,0.0,0.0,0.0,0,0,0.43983924,0.0,0,0,117.0,0.0,494.0,4549.2307692307695,3993.8461538461543,4532.820512820514,4487.6923076923085,4232.820512820514,4563.076923076924,4452.820512820514,4400.000000000001,4388.205128205129,4722.564102564103,4348.205128205129,4278.461538461539,4189.2307692307695,4490.769230769231
1064.7979,0.09537978,0.2559958,0.33333334,0.5522388,0,0.0,0.0,0.0,0.0,0.0,0,0,0.28118417,0.0,0,0,20.0,0.0,0.0,4537.948717948719,3958.9743589743593,4519.48717948718,4452.307692307693,4220.512820512821,4540.512820512821,4435.8974358974365,4377.435897435898,4378.974358974359,4701.538461538462,4301.025641025642,4232.820512820514,4149.2307692307695,4451.282051282052
1065.0481,0.11108452,0.2571894,0.33333334,0.5522388,0,0.0,0.0,0.0,0.0,0.0,0,0,0.313024,0.0,0,0,52.0,0.0,0.0,4547.6923076923085,3941.0256410256416,4515.384615384616,4433.333333333334,4213.846153846154,4536.410256410257,4436.410256410257,4387.6923076923085,4387.179487179487,4709.2307692307695,4325.128205128206,4241.025641025642,4181.538461538462,4477.435897435898
1065.2983,0.11108452,0.2571894,0.33333334,0.5522388,0,0.0,0.0,0.0,0.0,0.21993168,0,0,0.0,0.0,0,0,84.0,0.0,525.0,4554.358974358975,3945.6410256410263,4513.846153846154,4435.8974358974365,4222.564102564103,4531.794871794872,4434.358974358975,4381.025641025642,4385.641025641026,4706.153846153847,4318.974358974359,4233.333333333334,4167.6923076923085,4480.512820512821
1065.5486,0.07627772,0.25602332,0.33333334,0.5522388,0,0.0,0.0,0.0,0.0,0.0,0,0,0.27483085,0.0,0,0,116.0,0.0,525.0,4566.153846153847,3917.435897435898,4507.179487179488,4413.846153846154,4212.820512820514,4540.000000000001,4445.128205128206,4400.000000000001,4400.000000000001,4740.512820512821,4360.512820512821,4257.948717948719,4220.512820512821,4509.743589743591
1065.7987,0.07627772,0.25602332,0.33333334,0.5522388,0,0.0,0.0,0.0,0.0,0.0,0,0,0.7277858,0.0,0,0,19.0,0.0,0.0,4567.6923076923085,3929.2307692307695,4502.051282051282,4429.2307692307695,4233.333333333334,4535.8974358974365,4442.564102564103,4382.051282051282,4387.6923076923085,4729.2307692307695,4303.076923076924,4239.48717948718,4194.358974358975,4466.666666666667
1066.049,0.066651404,0.25343424,0.33333334,0.5522388,0,0.0,0.0,0.0,0.0,0.0,0,0,0.42731255,0.0,0,0,51.0,0.0,0.0,4573.333333333334,3949.2307692307695,4505.641025641026,4437.948717948719,4234.358974358975,4555.384615384616,4455.8974358974365,4402.051282051282,4398.461538461539,4737.948717948719,4362.051282051282,4236.410256410257,4189.2307692307695,4484.102564102564
1066.2992,0.066651404,0.25343424,0.33333334,0.5522388,0,0.0,0.0,0.29294947,0.0,0.0,0,0,0.0,0.0,0,0,83.0,0.0,513.0,4570.769230769231,3943.076923076924,4500.000000000001,4438.974358974359,4246.153846153847,4558.974358974359,4454.871794871796,4400.000000000001,4397.948717948719,4717.435897435898,4330.256410256411,4212.307692307693,4137.435897435898,4472.307692307693
1066.5494,0.040667377,0.24797474,0.33333334,0.5522388,0,0.0,0.0,0.0,0.0,0.091392316,0,0,0.0,0.0,0,0,115.0,0.0,513.0,4572.820512820514,3933.8461538461543,4496.923076923077,4427.6923076923085,4237.948717948719,4553.333333333334,4448.205128205129,4392.820512820514,4396.410256410257,4714.358974358975,4312.307692307693,4212.820512820514,4142.051282051282,4459.48717948718
1066.7996,0.040667377,0.24797474,0.33333334,0.5522388,0,0.0,0.0,0.0,0.0,0.0,0,0,0.50385314,0.0,0,1,18.0,0.0,0.0,4580.512820512821,3929.7435897435903,4498.461538461539,4422.051282051282,4228.205128205129,4553.846153846154,4462.564102564103,4404.615384615385,4400.512820512821,4739.48717948718,4367.6923076923085,4239.48717948718,4210.769230769231,4511.282051282052
1067.1437,0.043446463,0.22888106,0.33333334,0.5522388,0,0.0,0.0,0.0,0.0,0.0,0,0,0.46756342,0.0,0,0,62.0,0.0,0.0,4575.384615384616,3928.717948717949,4498.461538461539,4426.666666666667,4246.666666666667,4562.564102564103,4448.717948717949,4382.564102564103,4394.871794871796,4725.128205128206,4326.153846153847,4218.461538461539,4164.102564102564,4477.948717948719
1067.3,0.043446463,0.22888106,0.33333334,0.5522388,0,0.0,0.0,0.0,0.0,0.08264523,0,0,0.0,0.0,0,0,82.0,0.0,552.0,4578.461538461539,3951.2820512820517,4496.410256410257,4438.974358974359,4246.666666666667,4547.6923076923085,4446.153846153847,4388.717948717949,4400.512820512821,4733.333333333334,4337.948717948719,4232.307692307693,4175.8974358974365,4507.179487179488
1067.5503,0.014312546,0.23050258,0.33333334,0.5522388,0,0.0,0.0,0.0,0.0,0.09076701,0,0,0.0,0.0,0,0,114.0,0.0,552.0,4570.769230769231,3944.1025641025644,4487.6923076923085,4432.820512820514,4243.589743589744,4556.923076923077,4443.589743589744,4384.615384615385,4393.846153846154,4725.128205128206,4307.6923076923085,4210.769230769231,4158.461538461539,4487.6923076923085
1067.8004,0.014312546,0.23050258,0.33333334,0.5522388,0,0.0,0.0,0.0,0.0,0.0,0,0,0.45180473,0.0,0,0,17.0,0.0,0.0,4569.2307692307695,3943.589743589744,4490.769230769231,4440.000000000001,4227.6923076923085,4541.025641025642,4434.871794871796,4381.538461538462,4386.153846153847,4711.794871794872,4301.538461538462,4212.307692307693,4136.923076923077,4484.615384615385
1068.0507,0.0,0.23407094,0.33333334,0.5522388,0,0.0,0.0,0.0,0.0,0.0,0,0,0.7382085,0.0,0,0,49.0,0.0,0.0,4569.743589743591,3927.692307692308,4496.923076923077,4430.256410256411,4236.410256410257,4555.384615384616,4458.461538461539,4406.153846153847,4409.743589743591,4734.358974358975,4331.282051282052,4224.102564102564,4180.000000000001,4504.615384615385
1068.3009,0.0,0.23407094,0.33333334,0.5522388,0,0.0,0.0,0.0,0.0,0.0,0,0,0.5588797,0.0,0,0,81.0,0.0,494.0,4573.333333333334,3941.0256410256416,4485.128205128206,4438.461538461539,4251.794871794872,4558.461538461539,4457.948717948719,4382.564102564103,4399.48717948718,4719.48717948718,4305.641025641026,4209.74358974359,4152.820512820514,4479.48717948718
1068.5511,0.0,0.23223764,0.33333334,0.5522388,0,0.0,0.0,0.0,0.0,0.0,0,0,1.0,0.0,0,0,113.0,0.0,494.0,4568.717948717949,3970.2564102564106,4487.6923076923085,4459.48717948718,4248.205128205129,4552.820512820514,4450.769230769231,4370.256410256411,4387.179487179487,4704.615384615386,4282.564102564103,4197.948717948719,4117.435897435898,4448.205128205129
1068.8013,0.0,0.23223764,0.33333334,0.5522388,0,0.0,0.0,0.0,0.0,0.1308936,0,0,0.0,0.0,0,0,16.0,0.0,0.0,4568.717948717949,3969.2307692307695,4486.666666666667,4460.000000000001,4242.051282051282,4538.974358974359,4441.025641025642,4361.025641025642,4382.564102564103,4690.256410256411,4277.435897435898,4191.282051282052,4112.820512820514,4444.102564102564
1069.1454,0.0,0.2243813,0.33333334,0.5522388,0,0.0,0.0,0.0,0.0,0.0,0,0,0.41543603,0.0,0,1,60.0,0.0,0.0,4578.461538461539,3912.307692307693,4480.000000000001,4398.974358974359,4222.051282051282,4536.923076923077,4463.076923076924,4409.743589743591,4415.8974358974365,4779.48717948718,4392.307692307693,4249.74358974359,4250.769230769231,4561.025641025642
1069.3018,0.0,0.2243813,0.33333334,0.5522388,0,0.0,0.0,0.0,0.0,0.0,0,0,0.90873414,0.0,0,1,80.0,0.0,526.0,4568.717948717949,3913.8461538461543,4479.48717948718,4405.641025641026,4236.410256410257,4560.000000000001,4471.794871794872,4397.948717948719,4407.6923076923085,4763.589743589744,4369.2307692307695,4238.974358974359,4235.8974358974365,4532.820512820514
1069.552,0.018938765,0.22440276,0.33333334,0.5522388,0,0.0,0.0,0.0,0.0,0.3602184,0,0,0.0,0.0,0,0,112.0,0.0,526.0,4569.2307692307695,3927.1794871794878,4477.948717948719,4415.8974358974365,4246.153846153847,4542.564102564103,4458.974358974359,4390.256410256411,4397.435897435898,4714.358974358975,4297.948717948719,4193.333333333334,4134.358974358975,4485.128205128206
1069.8021,0.018938765,0.22440276,0.33333334,0.5522388,0,0.0,0.0,0.0,0.0,0.20148236,0,0,0.0,0.0,0,0,15.0,0.0,513.0,4569.2307692307695,3937.9487179487182,4480.512820512821,4420.000000000001,4240.000000000001,4540.512820512821,4460.000000000001,4383.076923076924,4385.641025641026,4695.8974358974365,4289.2307692307695,4187.179487179487,4128.717948717949,4474.871794871796
1070.0524,7.8854465E-4,0.22961305,0.33333334,0.5522388,0,0.0,0.0,0.0,0.0,0.18407626,0,0,0.0,0.0,0,0,47.0,0.0,0.0,4569.2307692307695,3936.9230769230776,4482.564102564103,4421.025641025642,4256.923076923077,4554.871794871796,4468.205128205129,4392.307692307693,4388.205128205129,4712.307692307693,4280.512820512821,4180.512820512821,4111.794871794872,4456.410256410257
1070.3026,7.8854465E-4,0.22961305,0.33333334,0.5522388,0,0.0,0.0,0.0,0.0,0.0,0,0,0.3393004,0.0,0,0,79.0,0.0,513.0,4568.205128205129,3931.2820512820517,4484.615384615385,4414.871794871796,4245.641025641026,4536.410256410257,4458.461538461539,4381.025641025642,4379.48717948718,4707.179487179488,4280.000000000001,4176.923076923077,4105.641025641026,4451.794871794872
1070.5529,0.0,0.21628469,0.33333334,0.5522388,0,0.0,0.0,0.0,0.0,0.0,0,0,0.47259575,0.0,0,0,111.0,0.0,513.0,4570.769230769231,3960.5128205128212,4484.102564102564,4440.000000000001,4247.6923076923085,4546.666666666667,4457.435897435898,4388.205128205129,4387.6923076923085,4715.384615384616,4295.384615384616,4188.205128205129,4134.871794871796,4475.8974358974365
1070.803,0.0,0.21628469,0.33333334,0.5522388,0,0.0,0.0,0.0,0.0,0.0,0,0,1.0,0.0,0,0,14.0,0.0,552.0,4569.743589743591,3933.8461538461543,4483.589743589744,4414.358974358975,4233.846153846154,4546.153846153847,4474.358974358975,4395.384615384616,4388.205128205129,4720.512820512821,4309.743589743591,4204.615384615385,4150.769230769231,4489.743589743591
1071.0532,0.0,0.19392784,0.33333334,0.5522388,0,0.0,0.0,0.0,0.0,0.0,0,0,0.0,0.0,0,0,46.0,0.0,0.0,4570.769230769231,3920.5128205128212,4480.512820512821,4405.641025641026,4226.666666666667,4532.307692307693,4457.435897435898,4398.974358974359,4389.2307692307695,4717.435897435898,4310.769230769231,4213.333333333334,4164.102564102564,4484.615384615385
1071.3035,0.0,0.19392784,0.33333334,0.5522388,0,0.0,0.0,0.0,0.0,0.0,0,0,0.37598336,0.0,0,0,78.0,0.0,552.0,4577.948717948719,3938.461538461539,4488.717948717949,4417.435897435898,4234.871794871796,4539.48717948718,4463.589743589744,4403.589743589744,4382.564102564103,4708.205128205129,4319.48717948718,4232.307692307693,4170.769230769231,4517.948717948719
1071.5537,0.0,0.17060634,0.33333334,0.5522388,0,0.0,0.0,0.0,0.0,0.0,0,0,0.48703536,0.0,0,0,110.0,0.0,552.0,4574.358974358975,3949.7435897435903,4487.6923076923085,4426.666666666667,4232.307692307693,4538.974358974359,4466.153846153847,4394.358974358975,4377.948717948719,4712.307692307693,4303.589743589744,4212.307692307693,4153.846153846154,4519.48717948718
1071.804,0.0,0.17060634,0.33333334,0.5522388,0,0.0,0.0,0.0,0.0,0.0,0,0,0.54663426,0.0,0,0,13.0,0.0,494.0,4581.538461538462,3947.1794871794878,4489.743589743591,4428.205128205129,4221.538461538462,4531.282051282052,4467.179487179487,4409.2307692307695,4388.205128205129,4705.128205128206,4314.871794871796,4226.666666666667,4157.948717948719,4525.641025641026
1072.0541,0.0,0.1634736,0.33333334,0.5522388,0,0.0,0.0,0.0,0.0,0.0,0,0,0.4945487,0.0,0,0,45.0,0.0,0.0,4580.000000000001,3950.7692307692314,4489.743589743591,4437.948717948719,4231.282051282052,4534.871794871796,4463.589743589744,4407.179487179487,4391.794871794872,4730.769230769231,4318.461538461539,4238.461538461539,4176.923076923077,4518.974358974359
1072.3043,0.0,0.1634736,0.33333334,0.5522388,0,0.0,0.0,0.0,0.0,0.0,0,0,0.36180556,0.0,0,0,77.0,0.0,494.0,4583.076923076924,3931.2820512820517,4490.256410256411,4417.435897435898,4232.820512820514,4541.538461538462,4468.717948717949,4418.974358974359,4386.666666666667,4726.153846153847,4335.384615384616,4246.666666666667,4195.8974358974365,4526.666666666667
1072.5546,0.0,0.16798389,0.33333334,0.5522388,0,0.0,0.0,0.0,0.0,0.0,0,0,0.534989,0.0,0,0,109.0,0.0,494.0,4585.128205128206,4005.1282051282055,4489.2307692307695,4474.358974358975,4253.846153846154,4534.358974358975,4454.871794871796,4402.564102564103,4385.641025641026,4719.48717948718,4308.205128205129,4229.74358974359,4152.307692307693,4518.461538461539
1072.8048,0.0,0.16798389,0.33333334,0.5522388,0,0.0,0.0,0.17083049,0.0,0.0,0,0,0.0,0.0,0,0,12.0,0.0,526.0,4577.435897435898,3935.3846153846157,4493.333333333334,4423.076923076924,4233.333333333334,4541.538461538462,4476.410256410257,4421.025641025642,4392.820512820514,4734.871794871796,4306.153846153847,4225.128205128206,4162.051282051282,4497.948717948719
1073.0549,0.0,0.17614412,0.33333334,0.5522388,0,0.0,0.0,0.0,0.0,0.0,0,0,0.67549723,0.0,0,0,44.0,0.0,0.0,4583.589743589744,3940.0000000000005,4490.769230769231,4428.205128205129,4229.74358974359,4538.974358974359,4464.615384615385,4418.974358974359,4384.615384615385,4722.564102564103,4328.717948717949,4243.076923076924,4182.564102564103,4504.615384615385
1073.3052,0.0,0.17614412,0.33333334,0.5522388,0,0.0,0.0,0.0,0.0,0.0,0,0,0.28034788,0.0,0,0,76.0,0.0,526.0,4580.512820512821,3942.0512820512827,4491.282051282052,4430.256410256411,4236.923076923077,4549.743589743591,4475.8974358974365,4420.512820512821,4383.589743589744,4729.743589743591,4327.179487179487,4240.512820512821,4186.666666666667,4489.743589743591
1073.5554,0.0,0.1831215,0.33333334,0.5522388,0,0.0,0.0,0.0,0.0,0.09809397,0,0,0.0,0.0,0,0,108.0,0.0,526.0,4580.512820512821,3935.3846153846157,4490.769230769231,4418.461538461539,4243.076923076924,4549.2307692307695,4471.794871794872,4424.102564102564,4378.461538461539,4720.000000000001,4313.333333333334,4227.179487179487,4180.000000000001,4468.205128205129
1073.8057,0.0,0.1831215,0.33333334,0.5522388,0,0.0,0.0,0.0,0.0,0.058426253,0,0,0.0,0.0,0,0,11.0,0.0,513.0,4571.282051282052,3943.589743589744,4481.025641025642,4425.641025641026,4237.435897435898,4539.48717948718,4449.743589743591,4395.8974358974365,4377.948717948719,4714.358974358975,4313.846153846154,4219.48717948718,4167.6923076923085,4475.8974358974365
1074.0558,0.0,0.18036237,0.33333334,0.5522388,0,0.0,0.0,0.0,0.0,0.0,0,0,0.17483689,0.0,0,0,43.0,0.0,0.0,4573.333333333334,3942.0512820512827,4493.333333333334,4429.2307692307695,4243.589743589744,4532.820512820514,4455.8974358974365,4396.923076923077,4381.538461538462,4727.179487179488,4295.8974358974365,4221.538461538462,4172.820512820514,4472.307692307693
1074.306,0.0,0.18036237,0.33333334,0.5522388,0,0.0,0.0,0.0,0.0,0.0,0,0,0.42972046,0.0,0,0,75.0,0.0,513.0,4582.051282051282,3940.0000000000005,4494.358974358975,4428.717948717949,4253.846153846154,4551.794871794872,4466.666666666667,4415.8974358974365,4388.717948717949,4734.358974358975,4308.717948717949,4222.564102564103,4189.2307692307695,4485.641025641026
1074.5563,0.0,0.17117955,0.33333334,0.5522388,0,0.0,0.0,0.0,0.0,0.30853158,0,0,0.0,0.0,0,0,107.0,0.0,513.0,4585.128205128206,3944.1025641025644,4494.358974358975,4429.2307692307695,4248.205128205129,4549.743589743591,4472.307692307693,4427.6923076923085,4396.923076923077,4745.641025641026,4321.025641025642,4230.256410256411,4198.974358974359,4516.410256410257
1074.8065,0.0,0.17117955,0.33333334,0.5522388,0,0.0,0.0,0.0,0.0,0.323347,0,0,0.0,0.0,0,0,10.0,0.0,552.0,4594.871794871796,3927.1794871794878,4498.974358974359,4420.000000000001,4244.102564102564,4555.8974358974365,4477.948717948719,4443.589743589744,4409.743589743591,4775.384615384616,4372.307692307693,4253.846153846154,4262.051282051282,4556.923076923077
1075.0566,0.012098625,0.16423555,0.33333334,0.5522388,0,0.0,0.0,0.0,0.0,0.112918444,0,0,0.0,0.0,0,0,42.0,0.0,0.0,4596.410256410257,3934.8717948717954,4495.384615384616,4434.871794871796,4245.128205128206,4546.666666666667,4457.435897435898,4419.48717948718,4394.871794871796,4758.461538461539,4350.769230769231,4242.051282051282,4229.74358974359,4547.6923076923085
1075.3069,0.012098625,0.16423555,0.33333334,0.5522388,0,0.0,0.0,0.0,0.0,0.14069812,0,0,0.0,0.0,0,0,74.0,0.0,552.0,4608.205128205129,3943.589743589744,4505.128205128206,4446.153846153847,4248.205128205129,4547.6923076923085,4471.282051282052,4432.307692307693,4403.589743589744,4771.794871794872,4343.589743589744,4263.589743589744,4238.974358974359,4575.384615384616
1075.5571,0.0,0.16362885,0.33333334,0.5522388,0,0.0,0.0,0.0,0.0,0.17670834,0,0,0.0,0.0,0,0,106.0,0.0,552.0,4601.025641025642,3946.666666666667,4499.48717948718,4438.461538461539,4236.923076923077,4538.461538461539,4461.025641025642,4421.025641025642,4393.333333333334,4749.743589743591,4360.000000000001,4248.717948717949,4191.794871794872,4552.307692307693
1075.8699,0.0,0.16362885,0.33333334,0.5522388,0,0.0,0.0,0.0,0.0,0.0,0,0,0.21822178,0.0,0,1,17.0,0.0,0.0,4602.051282051282,3943.589743589744,4492.820512820514,4439.48717948718,4232.307692307693,4534.358974358975,4453.333333333334,4409.2307692307695,4396.410256410257,4752.820512820514,4380.512820512821,4251.794871794872,4238.974358974359,4572.820512820514
1076.0575,0.0,0.17829667,0.33333334,0.5522388,0,0.0,0.0,0.0,0.0,0.2991446,0,0,0.0,0.0,0,1,41.0,0.0,0.0,4593.333333333334,3932.820512820513,4488.717948717949,4426.666666666667,4233.846153846154,4553.846153846154,4470.769230769231,4424.615384615385,4395.8974358974365,4748.205128205129,4356.923076923077,4243.076923076924,4203.589743589744,4504.102564102564
1076.3077,0.0,0.17829667,0.33333334,0.5522388,0,0.0,0.0,0.0,0.0,0.24910916,0,0,0.0,0.0,0,0,73.0,0.0,489.0,4618.974358974359,3999.48717948718,4506.666666666667,4487.179487179488,4240.000000000001,4542.051282051282,4462.051282051282,4420.512820512821,4400.512820512821,4747.6923076923085,4384.102564102564,4266.666666666667,4244.615384615385,4612.307692307693
1076.558,0.0,0.19930057,0.33333334,0.5522388,0,0.0,0.0,0.0,0.0,0.23641284,0,0,0.0,0.0,0,1,105.0,0.0,494.0,4594.871794871796,3933.8461538461543,4495.8974358974365,4416.923076923077,4235.8974358974365,4548.205128205129,4453.846153846154,4400.512820512821,4391.794871794872,4752.307692307693,4365.641025641026,4241.538461538462,4218.461538461539,4535.8974358974365
1076.8082,0.0,0.19930057,0.33333334,0.5522388,0,0.0,0.0,0.0,0.0,0.26441643,0,0,0.0,0.0,0,0,8.0,0.0,391.0,4585.128205128206,3905.1282051282055,4487.6923076923085,4389.2307692307695,4236.410256410257,4553.333333333334,4471.282051282052,4430.256410256411,4400.512820512821,4741.025641025642,4323.589743589744,4215.8974358974365,4161.025641025642,4451.794871794872
1077.0585,0.0,0.231585,0.33333334,0.5522388,0,0.0,0.0,0.0,0.0,0.08202366,0,0,0.0,0.0,0,0,40.0,0.0,0.0,4577.435897435898,3898.9743589743593,4489.743589743591,4389.2307692307695,4242.051282051282,4553.333333333334,4461.538461538462,4410.256410256411,4391.794871794872,4734.871794871796,4327.6923076923085,4212.307692307693,4168.205128205129,4467.6923076923085
1077.3086,0.0,0.231585,0.33333334,0.5522388,0,0.0,0.0,0.0,0.0,0.07134925,0,0,0.0,0.0,0,0,72.0,0.0,391.0,4573.846153846154,3948.717948717949,4484.615384615385,4431.794871794872,4233.333333333334,4542.051282051282,4446.666666666667,4397.948717948719,4375.8974358974365,4694.358974358975,4281.538461538462,4187.179487179487,4106.666666666667,4465.128205128206
1077.5588,0.012255218,0.2538887,0.33333334,0.5522388,0,0.0,0.0,0.0,0.0,0.0,0,0,0.4522073,0.0,0,0,104.0,0.0,526.0,4570.256410256411,3944.615384615385,4489.743589743591,4431.282051282052,4243.589743589744,4545.128205128206,4450.256410256411,4409.2307692307695,4380.512820512821,4699.48717948718,4291.282051282052,4196.923076923077,4136.410256410257,4486.666666666667
1077.8091,0.012255218,0.2538887,0.33333334,0.5522388,0,0.0,0.0,0.0,0.0,0.0,0,0,0.5640079,0.0,0,0,7.0,0.0,466.0,4570.256410256411,3921.538461538462,4489.743589743591,4413.846153846154,4229.74358974359,4537.435897435898,4449.2307692307695,4413.333333333334,4375.8974358974365,4706.666666666667,4310.256410256411,4216.410256410257,4149.74358974359,4506.153846153847
1078.0593,0.016185742,0.27255997,0.33333334,0.5522388,0,0.0,0.0,0.0,0.0,0.093473494,0,0,0.0,0.0,0,0,39.0,0.0,0.0,4575.384615384616,3917.9487179487182,4488.717948717949,4415.8974358974365,4232.307692307693,4546.666666666667,4460.512820512821,4428.717948717949,4382.051282051282,4736.923076923077,4332.820512820514,4232.820512820514,4180.512820512821,4524.615384615385
1078.3094,0.016185742,0.27255997,0.33333334,0.5522388,0,0.0,0.0,0.0,0.0,0.0,0,0,0.22982435,0.0,0,0,71.0,0.0,466.0,4595.8974358974365,4006.1538461538466,4503.589743589744,4490.769230769231,4241.025641025642,4538.461538461539,4436.923076923077,4398.974358974359,4371.794871794872,4704.615384615386,4309.743589743591,4232.820512820514,4166.153846153847,4574.358974358975
1078.5597,0.0,0.29791158,0.33333334,0.5522388,0,0.0,0.0,0.0,0.0,0.0,0,0,0.4078777,0.0,0,0,103.0,0.0,512.0,4568.205128205129,3949.7435897435903,4496.923076923077,4445.128205128206,4232.307692307693,4523.589743589744,4431.794871794872,4405.128205128206,4361.538461538462,4692.820512820514,4296.923076923077,4204.615384615385,4129.74358974359,4499.48717948718
1078.8099,0.0,0.29791158,0.33333334,0.5522388,0,0.0,0.0,0.0,0.0,0.1243693,0,0,0.0,0.0,0,0,6.0,0.0,546.0,4567.6923076923085,3944.615384615385,4502.564102564103,4437.435897435898,4230.256410256411,4533.333333333334,4449.2307692307695,4413.846153846154,4372.307692307693,4700.000000000001,4296.410256410257,4203.076923076924,4134.871794871796,4504.102564102564
1079.0602,0.0,0.3258028,0.33333334,0.5522388,0,0.0,0.0,0.0,0.0,0.06090425,0,0,0.0,0.0,0,0,38.0,0.0,0.0,4568.205128205129,3953.8461538461543,4501.538461538462,4442.564102564103,4231.794871794872,4524.102564102564,4430.256410256411,4391.794871794872,4359.48717948718,4691.794871794872,4288.205128205129,4211.282051282052,4133.846153846154,4498.974358974359
1079.3103,0.0,0.3258028,0.33333334,0.5522388,0,0.0,0.0,0.0,0.0,0.0,0,0,0.4205999,0.0,0,0,70.0,0.0,546.0,4568.717948717949,3955.3846153846157,4500.000000000001,4442.051282051282,4235.8974358974365,4530.256410256411,4438.461538461539,4394.871794871796,4366.666666666667,4708.205128205129,4296.410256410257,4204.102564102564,4146.153846153847,4521.025641025642
1079.5605,0.0,0.33246744,0.33333334,0.5522388,0,0.0,0.0,0.0,0.0,0.0,0,0,0.5242392,0.0,0,0,102.0,0.0,552.0,4567.179487179488,3946.666666666667,4494.871794871796,4432.307692307693,4232.820512820514,4537.435897435898,4437.435897435898,4401.025641025642,4375.384615384616,4718.461538461539,4291.282051282052,4216.923076923077,4165.641025641026,4517.948717948719
1079.8108,0.0,0.33246744,0.33333334,0.5522388,0,0.0,0.0,0.0,0.0,0.0,0,0,0.371741,0.0,0,0,5.0,0.0,577.0,4569.743589743591,3945.6410256410263,4495.384615384616,4435.8974358974365,4234.358974358975,4539.48717948718,4444.615384615385,4405.128205128206,4374.871794871796,4716.923076923077,4294.358974358975,4229.2307692307695,4172.307692307693,4518.974358974359
1080.061,0.0,0.31298515,0.33333334,0.5522388,0,0.0,0.0,0.0,0.0,0.0,0,0,0.4946016,0.0,0,0,37.0,0.0,0.0,4568.717948717949,3934.8717948717954,4493.846153846154,4413.333333333334,4229.74358974359,4538.974358974359,4443.076923076924,4402.564102564103,4374.358974358975,4715.8974358974365,4300.512820512821,4230.769230769231,4171.794871794872,4501.025641025642
1080.3112,0.0,0.31298515,0.33333334,0.5522388,0,0.0,0.0,0.0,0.0,0.0,0,0,0.753799,0.0,0,0,69.0,0.0,577.0,4572.307692307693,3945.6410256410263,4495.8974358974365,4432.820512820514,4230.256410256411,4533.333333333334,4443.076923076924,4412.307692307693,4382.051282051282,4737.435897435898,4319.48717948718,4241.025641025642,4193.333333333334,4535.8974358974365
1080.5614,0.0,0.27575824,0.33333334,0.5522388,0,0.0,0.0,0.0,0.0,0.0,0,0,0.4753257,0.0,0,0,101.0,0.0,494.0,4584.102564102564,3992.307692307693,4504.102564102564,4485.641025641026,4233.846153846154,4527.179487179488,4433.846153846154,4385.128205128206,4372.307692307693,4706.666666666667,4311.282051282052,4242.564102564103,4193.846153846154,4563.076923076924
1080.8116,0.0,0.27575824,0.33333334,0.5522388,0,0.0,0.0,0.0,0.0,0.0,0,0,0.4479342,0.0,0,0,4.0,0.0,579.0,4575.8974358974365,3967.692307692308,4504.615384615385,4459.48717948718,4244.615384615385,4535.8974358974365,4443.589743589744,4396.410256410257,4378.461538461539,4714.871794871796,4293.846153846154,4228.205128205129,4157.435897435898,4499.48717948718
1081.0619,0.0,0.25018847,0.33333334,0.5522388,0,0.0,0.0,0.0,0.0,0.0,0,0,0.13240835,0.0,0,0,36.0,0.0,0.0,4572.820512820514,3933.8461538461543,4498.461538461539,4438.461538461539,4249.74358974359,4544.615384615385,4448.717948717949,4429.2307692307695,4383.589743589744,4722.564102564103,4300.512820512821,4223.589743589744,4178.461538461539,4510.769230769231
1081.312,0.0,0.25018847,0.33333334,0.5522388,0,0.0,0.0,0.0,0.0,0.0,0,0,0.20350629,0.0,0,0,68.0,0.0,579.0,4577.435897435898,3947.1794871794878,4509.2307692307695,4441.538461538462,4242.051282051282,4533.333333333334,4453.333333333334,4438.461538461539,4388.205128205129,4738.461538461539,4309.2307692307695,4230.769230769231,4197.435897435898,4522.564102564103
1081.5623,0.0,0.24796045,0.33333334,0.5522388,0,0.0,0.0,0.0,0.0,0.0,0,0,0.30073547,0.0,0,0,100.0,0.0,527.0,4579.48717948718,3942.564102564103,4508.205128205129,4431.794871794872,4231.282051282052,4538.974358974359,4450.256410256411,4415.8974358974365,4381.025641025642,4737.948717948719,4312.307692307693,4226.666666666667,4194.358974358975,4508.717948717949
1081.8438,0.0,0.24796045,0.33333334,0.5522388,1,0.0,0.0,0.0,0.0,0.0,0,0,0.18918456,0.0,0,0,7.0,0.0,466.0,4598.461538461539,4051.7948717948725,4516.923076923077,4525.641025641026,4229.2307692307695,4526.153846153847,4421.025641025642,4367.179487179487,4365.641025641026,4707.179487179488,4291.794871794872,4258.974358974359,4226.153846153847,4617.948717948719
1082.0627,0.0,0.27626443,0.33333334,0.5522388,0,0.0,0.0,0.0,0.0,0.23467462,0,0,0.0,0.0,0,0,35.0,0.0,0.0,4566.666666666667,3975.8974358974365,4498.974358974359,4463.589743589744,4266.153846153847,4548.205128205129,4438.461538461539,4374.871794871796,4366.153846153847,4695.8974358974365,4221.538461538462,4185.128205128206,4103.076923076924,4409.2307692307695
1082.313,0.0,0.27626443,0.33333334,0.5522388,0,0.0,0.0,0.0,0.0,0.22195913,0,0,0.0,0.0,0,0,67.0,0.0,561.0,4554.358974358975,3926.1538461538466,4487.6923076923085,4421.538461538462,4257.948717948719,4551.794871794872,4443.076923076924,4398.974358974359,4378.461538461539,4708.205128205129,4225.641025641026,4180.512820512821,4090.7692307692314,4389.2307692307695
1082.6257,0.0,0.30539623,0.33333334,0.5522388,0,0.0,0.0,0.0,0.0,0.33896127,0,0,0.0,0.0,0,1,107.0,0.0,512.0,4576.923076923077,3926.666666666667,4506.666666666667,4425.128205128206,4234.871794871796,4547.179487179488,4463.589743589744,4428.717948717949,4400.000000000001,4758.974358974359,4332.820512820514,4262.051282051282,4227.6923076923085,4529.2307692307695
1082.8134,0.0,0.30539623,0.33333334,0.5522388,0,0.0,0.0,0.0,0.0,0.31325895,0,0,0.0,0.0,0,1,2.0,0.0,176.0,4570.256410256411,3901.0256410256416,4499.48717948718,4398.461538461539,4222.564102564103,4537.948717948719,4458.974358974359,4441.025641025642,4394.871794871796,4748.717948717949,4316.410256410257,4243.589743589744,4201.538461538462,4483.589743589744
1083.0636,0.0029021085,0.33234727,0.33333334,0.5522388,0,0.0,0.0,0.0,0.0,0.06104837,0,0,0.0,0.0,0,0,34.0,0.0,0.0,4568.717948717949,3904.615384615385,4500.000000000001,4414.871794871796,4215.8974358974365,4541.025641025642,4461.538461538462,4424.615384615385,4390.256410256411,4745.128205128206,4318.461538461539,4236.410256410257,4195.384615384616,4509.743589743591
1083.3138,0.0029021085,0.33234727,0.33333334,0.5522388,0,0.0,0.0,0.0,0.0,0.083169475,0,0,0.0,0.0,0,0,66.0,0.0,176.0,4569.2307692307695,3919.48717948718,4500.512820512821,4421.025641025642,4216.923076923077,4538.461538461539,4457.435897435898,4420.000000000001,4391.794871794872,4726.666666666667,4329.2307692307695,4242.564102564103,4195.8974358974365,4507.179487179488
1083.564,0.027338479,0.352419,0.33333334,0.5522388,0,0.0,0.0,0.0,0.0,0.0,0,0,0.3239703,0.0,0,0,98.0,0.0,552.0,4566.666666666667,3904.1025641025644,4496.923076923077,4406.153846153847,4218.974358974359,4538.974358974359,4456.923076923077,4409.743589743591,4393.333333333334,4744.102564102564,4348.205128205129,4234.358974358975,4244.102564102564,4527.179487179488
1083.8142,0.027338479,0.352419,0.33333334,0.5522388,0,0.0,0.0,0.0,0.0,0.0,0,0,0.90275854,0.0,0,0,1.0,0.0,523.0,4567.6923076923085,3909.2307692307695,4496.923076923077,4411.794871794872,4211.282051282052,4533.846153846154,4460.000000000001,4420.512820512821,4396.410256410257,4756.410256410257,4320.000000000001,4230.769230769231,4238.461538461539,4515.8974358974365
1084.0645,0.026265692,0.3301409,0.33333334,0.5522388,0,0.0,0.0,0.0,0.0,0.0,0,0,0.49971703,0.0,0,0,33.0,0.0,0.0,4585.641025641026,4051.2820512820517,4505.128205128206,4533.846153846154,4234.358974358975,4522.564102564103,4432.307692307693,4375.8974358974365,4371.794871794872,4696.410256410257,4272.820512820514,4218.461538461539,4171.794871794872,4561.538461538462
1084.3147,0.026265692,0.3301409,0.33333334,0.5522388,0,0.0,0.0,0.0,0.0,0.0,1,0,0.69633466,0.0,0,0,65.0,0.0,523.0,4561.538461538462,3954.8717948717954,4493.333333333334,4450.256410256411,4235.8974358974365,4536.410256410257,4441.025641025642,4390.769230769231,4384.102564102564,4710.769230769231,4331.794871794872,4206.666666666667,4151.282051282052,4472.820512820514
1084.5648,0.020787155,0.30748847,0.33333334,0.5522388,0,0.0,0.0,0.0,0.0,0.0,1,0,0.47143,0.0,0,0,97.0,0.0,494.0,4569.743589743591,3942.564102564103,4496.410256410257,4439.48717948718,4243.589743589744,4544.615384615385,4452.820512820514,4397.948717948719,4388.717948717949,4732.307692307693,4331.794871794872,4228.205128205129,4175.384615384616,4503.076923076924
1084.8151,0.020787155,0.30748847,0.33333334,0.5522388,0,0.0,0.0,0.20885031,0.0,0.0,1,0,0.0,0.0,0,0,0.0,0.0,247.0,4569.2307692307695,3932.820512820513,4495.384615384616,4428.205128205129,4226.153846153847,4537.948717948719,4441.538461538462,4391.282051282052,4380.512820512821,4708.717948717949,4319.48717948718,4218.461538461539,4163.589743589744,4489.743589743591
1085.0653,0.018735372,0.2829225,0.33333334,0.5522388,1,0.0,0.0,0.0,0.0,0.0,0,0,0.41850594,0.0,0,0,32.0,0.0,0.0,4602.051282051282,4087.692307692308,4511.282051282052,4570.256410256411,4220.000000000001,4514.358974358975,4419.48717948718,4351.282051282052,4355.8974358974365,4668.717948717949,4321.538461538462,4251.794871794872,4180.512820512821,4615.8974358974365
1085.3156,0.018735372,0.2829225,0.33333334,0.5522388,0,0.0,0.0,0.0,0.0,0.0,0,0,0.39389598,0.0,0,0,64.0,0.0,247.0,4557.435897435898,3920.5128205128212,4483.076923076924,4435.8974358974365,4227.6923076923085,4530.256410256411,4437.948717948719,4388.717948717949,4384.102564102564,4725.641025641026,4309.743589743591,4211.282051282052,4149.74358974359,4449.743589743591
1085.5657,0.0,0.2867132,0.33333334,0.5522388,0,0.0,0.0,0.0,0.0,0.13583538,0,0,0.0,0.0,0,0,96.0,0.0,527.0,4568.205128205129,3900.5128205128212,4495.384615384616,4406.666666666667,4234.358974358975,4544.102564102564,4449.2307692307695,4408.717948717949,4395.8974358974365,4747.6923076923085,4336.923076923077,4231.794871794872,4190.769230769231,4460.000000000001
1085.8159,0.0,0.2867132,0.33333334,0.5522388,0,0.0,0.0,0.0,0.0,0.10171241,0,0,0.0,0.0,0,0,128.0,0.0,527.0,4568.717948717949,3925.1282051282055,4503.589743589744,4435.384615384616,4250.256410256411,4553.333333333334,4451.794871794872,4395.384615384616,4391.794871794872,4733.333333333334,4325.641025641026,4230.256410256411,4176.410256410257,4471.282051282052
1086.0662,0.0,0.3270334,0.33333334,0.5522388,0,0.0,0.0,0.0,0.0,0.0,0,0,0.37774602,0.0,0,0,31.0,0.0,0.0,4567.6923076923085,3912.307692307693,4497.948717948719,4417.948717948719,4252.307692307693,4556.410256410257,4461.025641025642,4418.461538461539,4394.871794871796,4737.948717948719,4336.410256410257,4233.333333333334,4189.74358974359,4446.153846153847
1086.3164,0.0,0.3270334,0.33333334,0.5522388,0,0.0,0.0,0.0,0.0,0.0,0,0,0.2541333,0.0,0,0,63.0,0.0,0.0,4567.179487179488,3915.8974358974365,4489.743589743591,4419.48717948718,4235.8974358974365,4543.589743589744,4449.743589743591,4393.333333333334,4382.564102564103,4725.641025641026,4333.333333333334,4225.128205128206,4187.6923076923085,4442.564102564103
1086.5665,0.0,0.33658907,0.33333334,0.5522388,0,0.0,0.0,0.0,0.0,0.0,0,0,0.19747794,0.0,0,0,95.0,0.0,511.0,4568.717948717949,3915.8974358974365,4492.820512820514,4419.48717948718,4233.333333333334,4534.871794871796,4444.615384615385,4392.307692307693,4384.102564102564,4737.435897435898,4335.8974358974365,4234.871794871796,4185.128205128206,4466.666666666667
1086.8168,0.0,0.33658907,0.33333334,0.5522388,0,0.0,0.0,0.0,0.0,0.0,0,0,0.36400327,0.0,0,0,127.0,0.0,511.0,4565.641025641026,3923.076923076924,4497.435897435898,4420.000000000001,4231.282051282052,4534.871794871796,4457.435897435898,4412.307692307693,4385.128205128206,4730.256410256411,4307.6923076923085,4223.076923076924,4141.025641025642,4420.000000000001
1087.067,0.0,0.33802325,0.33333334,0.5522388,0,0.0,0.0,0.0,0.0,0.114562705,0,0,0.0,0.0,0,0,30.0,0.0,0.0,4557.435897435898,3903.589743589744,4495.8974358974365,4404.615384615385,4246.666666666667,4542.564102564103,4449.743589743591,4405.128205128206,4384.102564102564,4729.2307692307695,4302.564102564103,4215.384615384616,4153.846153846154,4444.102564102564
1087.3173,0.0,0.33802325,0.33333334,0.5522388,0,0.0,0.0,0.0,0.0,0.3124091,0,0,0.0,0.0,0,0,62.0,0.0,0.0,4566.153846153847,3892.820512820513,4497.948717948719,4394.358974358975,4248.205128205129,4542.051282051282,4445.128205128206,4395.8974358974365,4383.076923076924,4727.6923076923085,4308.717948717949,4217.948717948719,4191.282051282052,4498.974358974359
1087.5675,0.0,0.31668946,0.33333334,0.5522388,0,0.0,0.0,0.0,0.0,0.0,0,0,0.29797345,0.0,0,0,94.0,0.0,552.0,4560.512820512821,3883.589743589744,4501.025641025642,4383.076923076924,4236.410256410257,4535.384615384616,4448.205128205129,4391.282051282052,4377.948717948719,4725.641025641026,4323.589743589744,4230.769230769231,4212.307692307693,4520.512820512821
1087.8176,0.0,0.31668946,0.33333334,0.5522388,0,0.0,0.0,0.0,0.0,0.0,0,0,0.6184252,0.0,0,0,126.0,0.0,552.0,4553.846153846154,3912.820512820513,4506.153846153847,4407.6923076923085,4257.948717948719,4533.333333333334,4449.743589743591,4380.000000000001,4377.948717948719,4715.384615384616,4326.153846153847,4224.615384615385,4204.102564102564,4514.358974358975
1088.0679,0.0,0.28681955,0.33333334,0.5522388,0,0.0,0.0,0.0,0.0,0.0,0,0,0.5809925,0.0,0,0,29.0,0.0,0.0,4555.8974358974365,3903.076923076924,4503.589743589744,4396.923076923077,4264.615384615385,4521.538461538462,4438.974358974359,4380.000000000001,4390.256410256411,4731.794871794872,4347.179487179487,4230.256410256411,4220.512820512821,4518.974358974359
1088.3181,0.0,0.28681955,0.33333334,0.5522388,0,0.0,0.0,0.0,0.0,0.0,0,0,0.22482805,0.0,0,0,61.0,0.0,0.0,4553.846153846154,3878.461538461539,4508.717948717949,4369.2307692307695,4266.153846153847,4524.102564102564,4449.2307692307695,4389.743589743591,4383.076923076924,4729.743589743591,4358.974358974359,4238.974358974359,4243.076923076924,4521.538461538462
1088.5684,0.0,0.26936203,0.33333334,0.5522388,0,0.0,0.0,0.0,0.0,0.0,0,0,0.21391235,0.0,0,0,93.0,0.0,494.0,4552.820512820514,3873.333333333334,4510.256410256411,4367.6923076923085,4264.615384615385,4523.589743589744,4446.666666666667,4376.410256410257,4374.358974358975,4706.666666666667,4345.128205128206,4210.769230769231,4214.358974358975,4514.871794871796
1088.8185,0.0,0.26936203,0.33333334,0.5522388,0,0.0,0.0,0.0,0.0,0.0,0,0,0.92147493,0.0,0,0,125.0,0.0,494.0,4543.589743589744,3879.48717948718,4499.48717948718,4369.2307692307695,4272.307692307693,4517.948717948719,4443.076923076924,4382.564102564103,4367.6923076923085,4725.128205128206,4356.923076923077,4193.333333333334,4211.282051282052,4507.6923076923085
1089.0687,0.0,0.25883082,0.33333334,0.5522388,0,0.0,0.0,0.0,0.0,0.0,0,0,0.7472038,0.0,0,0,28.0,0.0,0.0,4543.589743589744,3882.564102564103,4508.717948717949,4382.564102564103,4275.8974358974365,4518.461538461539,4442.051282051282,4389.743589743591,4378.461538461539,4730.256410256411,4384.102564102564,4200.000000000001,4222.564102564103,4524.102564102564
1089.319,0.0,0.25883082,0.33333334,0.5522388,0,0.0,0.0,0.0,0.0,0.0,0,0,0.2819613,0.0,0,0,60.0,0.0,0.0,4540.512820512821,3906.666666666667,4506.153846153847,4393.333333333334,4264.102564102564,4509.743589743591,4436.923076923077,4385.641025641026,4377.435897435898,4734.871794871796,4402.051282051282,4192.820512820514,4241.025641025642,4517.948717948719
1089.5692,0.0,0.24762248,0.33333334,0.5522388,0,0.0,0.0,0.0,0.0,0.0,0,0,0.28798395,0.0,0,0,92.0,0.0,527.0,4546.666666666667,3934.358974358975,4504.102564102564,4417.948717948719,4263.589743589744,4516.923076923077,4435.384615384616,4382.051282051282,4384.102564102564,4746.666666666667,4412.307692307693,4198.974358974359,4246.153846153847,4536.410256410257
1089.8193,0.0,0.24762248,0.33333334,0.5522388,0,0.0,0.0,0.0,0.0,0.049606055,0,0,0.0,0.0,0,0,124.0,0.0,527.0,4552.307692307693,3965.6410256410263,4505.641025641026,4456.923076923077,4260.512820512821,4530.256410256411,4429.2307692307695,4383.076923076924,4385.641025641026,4736.410256410257,4398.974358974359,4206.153846153847,4231.282051282052,4532.307692307693
1090.0696,0.0,0.24369667,0.33333334,0.5522388,0,0.0,0.0,0.0,0.0,0.0,0,0,0.7410268,0.0,0,0,27.0,0.0,0.0,4549.2307692307695,3960.0000000000005,4500.512820512821,4443.076923076924,4234.871794871796,4508.717948717949,4425.641025641026,4368.717948717949,4382.564102564103,4722.051282051282,4370.256410256411,4203.076923076924,4181.025641025642,4509.2307692307695
1090.3198,0.0,0.24369667,0.33333334,0.5522388,0,0.0,0.0,0.0,0.0,0.0,0,0,0.8930213,0.0,0,0,59.0,0.0,0.0,4554.871794871796,3965.1282051282055,4500.512820512821,4444.102564102564,4223.076923076924,4507.179487179488,4421.538461538462,4381.025641025642,4386.666666666667,4728.205128205129,4382.564102564103,4219.48717948718,4227.179487179487,4513.333333333334
1090.5701,0.021752145,0.23935732,0.33333334,0.5522388,0,0.0,0.0,0.0,0.0,0.0,0,0,0.815785,0.0,0,0,91.0,0.0,511.0,4548.205128205129,3948.205128205129,4500.000000000001,4424.102564102564,4215.8974358974365,4506.153846153847,4427.179487179487,4377.435897435898,4379.48717948718,4728.717948717949,4363.589743589744,4229.74358974359,4212.307692307693,4522.564102564103
1090.8202,0.021752145,0.23935732,0.33333334,0.5522388,0,0.0,0.0,0.0,0.0,0.29067448,0,0,0.0,0.0,0,0,123.0,0.0,511.0,4537.435897435898,3930.2564102564106,4504.615384615385,4410.769230769231,4221.538461538462,4511.282051282052,4409.2307692307695,4367.6923076923085,4371.794871794872,4700.512820512821,4354.871794871796,4206.666666666667,4197.948717948719,4527.179487179488
1091.0704,0.0080477595,0.23541176,0.33333334,0.5522388,0,0.0,0.0,0.0,0.0,0.0,0,0,0.20567748,0.0,0,0,26.0,0.0,0.0,4530.769230769231,3914.8717948717954,4516.410256410257,4395.8974358974365,4214.871794871796,4504.615384615385,4407.179487179487,4358.461538461539,4358.974358974359,4692.307692307693,4351.282051282052,4196.410256410257,4194.358974358975,4533.846153846154
1091.3207,0.0080477595,0.23541176,0.33333334,0.5522388,0,0.0,0.0,0.0,0.0,0.0,0,0,0.11750427,0.0,0,0,58.0,0.0,0.0,4523.589743589744,3911.2820512820517,4522.051282051282,4396.923076923077,4234.871794871796,4509.2307692307695,4415.8974358974365,4365.641025641026,4363.589743589744,4694.358974358975,4346.666666666667,4187.6923076923085,4193.846153846154,4524.615384615385
1091.5709,0.0,0.2317273,0.33333334,0.5522388,0,0.0,0.0,0.0,0.0,0.16765866,0,0,0.0,0.0,0,0,90.0,0.0,552.0,4522.051282051282,3933.8461538461543,4533.333333333334,4412.820512820514,4258.461538461539,4509.743589743591,4426.153846153847,4367.179487179487,4365.128205128206,4684.615384615386,4341.538461538462,4168.205128205129,4173.333333333334,4503.076923076924
1091.821,0.0,0.2317273,0.33333334,0.5522388,0,0.0,0.0,0.0,0.0,0.0,0,0,0.5071476,0.0,0,0,122.0,0.0,552.0,4521.538461538462,3943.076923076924,4549.743589743591,4424.615384615385,4253.333333333334,4506.153846153847,4430.256410256411,4372.820512820514,4372.307692307693,4700.000000000001,4347.6923076923085,4186.153846153847,4176.410256410257,4512.307692307693
1092.0713,0.0,0.21538456,0.33333334,0.5522388,0,0.0,0.0,0.0,0.0,0.0,0,0,0.22639269,0.0,0,0,25.0,0.0,0.0,4521.025641025642,3962.0512820512827,4557.435897435898,4443.589743589744,4257.435897435898,4533.846153846154,4438.461538461539,4388.717948717949,4380.000000000001,4716.923076923077,4327.6923076923085,4202.051282051282,4185.641025641026,4519.48717948718
1092.3215,0.0,0.21538456,0.33333334,0.5522388,0,0.0,0.0,0.0,0.0,0.0,0,0,1.0,0.0,0,0,57.0,0.0,0.0,4530.769230769231,3920.0000000000005,4553.333333333334,4416.923076923077,4227.179487179487,4506.666666666667,4430.256410256411,4391.282051282052,4383.076923076924,4728.205128205129,4397.435897435898,4230.256410256411,4231.282051282052,4551.794871794872
1092.5718,0.0,0.18922788,0.33333334,0.5522388,0,0.0,0.0,0.3109721,0.0,0.0,0,0,0.0,0.0,0,0,89.0,0.0,495.0,4528.205128205129,3932.820512820513,4548.717948717949,4422.051282051282,4227.179487179487,4520.000000000001,4426.666666666667,4390.256410256411,4380.000000000001,4717.948717948719,4380.512820512821,4236.923076923077,4220.512820512821,4534.358974358975
1092.822,0.0,0.18922788,0.33333334,0.5522388,0,0.0,0.0,0.0,0.0,0.17280638,0,0,0.0,0.0,0,0,121.0,0.0,495.0,4537.948717948719,3943.076923076924,4543.076923076924,4438.461538461539,4217.435897435898,4517.435897435898,4430.769230769231,4411.282051282052,4391.794871794872,4738.974358974359,4400.000000000001,4264.615384615385,4233.333333333334,4530.769230769231
1093.0721,0.0,0.17648008,0.33333334,0.5522388,0,0.0,0.0,0.0,0.0,0.13200694,0,0,0.0,0.0,0,0,24.0,0.0,0.0,4536.410256410257,3954.358974358975,4529.2307692307695,4441.538461538462,4221.025641025642,4526.153846153847,4428.717948717949,4404.615384615385,4391.282051282052,4726.666666666667,4369.743589743591,4257.435897435898,4191.794871794872,4522.564102564103
1093.3224,0.0,0.17648008,0.33333334,0.5522388,0,0.0,0.0,0.0,0.0,0.12099538,0,0,0.0,0.0,0,0,56.0,0.0,0.0,4542.051282051282,3964.1025641025644,4513.846153846154,4450.256410256411,4220.000000000001,4528.205128205129,4433.846153846154,4403.589743589744,4388.205128205129,4728.717948717949,4363.076923076924,4262.564102564103,4191.282051282052,4510.769230769231
1093.5726,0.0,0.15470463,0.33333334,0.5522388,0,0.0,0.0,0.0,0.0,0.0,0,0,0.3458198,0.0,0,0,88.0,0.0,527.0,4552.307692307693,3967.1794871794878,4503.589743589744,4458.461538461539,4215.384615384616,4517.435897435898,4425.128205128206,4404.615384615385,4389.2307692307695,4728.205128205129,4363.076923076924,4269.2307692307695,4193.333333333334,4487.6923076923085
1093.8229,0.0,0.15470463,0.33333334,0.5522388,0,0.0,0.0,0.0,0.0,0.0,0,0,0.63449377,0.0,0,0,120.0,0.0,527.0,4552.820512820514,3959.48717948718,4500.512820512821,4456.923076923077,4217.948717948719,4522.051282051282,4429.2307692307695,4395.8974358974365,4380.512820512821,4714.871794871796,4345.128205128206,4253.333333333334,4175.8974358974365,4504.615384615385
1094.073,0.0,0.14678442,0.33333334,0.5522388,0,0.0,0.0,0.0,0.0,0.0,0,0,0.31098625,0.0,0,0,23.0,0.0,0.0,4556.923076923077,3956.410256410257,4493.846153846154,4449.743589743591,4214.358974358975,4534.358974358975,4437.948717948719,4402.564102564103,4381.025641025642,4731.794871794872,4335.384615384616,4256.923076923077,4168.205128205129,4500.000000000001
1094.3232,0.0,0.14678442,0.33333334,0.5522388,0,0.0,0.0,0.0,0.0,0.0,0,0,0.2367779,0.0,1,0,55.0,0.0,0.0,4601.025641025642,4247.179487179487,4502.564102564103,4696.923076923077,4247.6923076923085,4525.128205128206,4433.846153846154,4397.435897435898,4384.615384615385,4722.564102564103,4404.615384615385,4326.666666666667,4256.923076923077,4711.794871794872
1094.636,0.0,0.16325757,0.33333334,0.5522388,0,0.0,0.0,0.0,0.0,0.0,0,0,0.24387598,0.0,0,0,95.0,0.0,511.0,4563.589743589744,3979.48717948718,4480.512820512821,4463.589743589744,4213.333333333334,4530.769230769231,4451.282051282052,4419.48717948718,4382.564102564103,4718.974358974359,4325.128205128206,4240.512820512821,4147.179487179487,4458.974358974359
1094.8237,0.0,0.16325757,0.33333334,0.5522388,0,0.0,0.0,0.0,0.0,0.12931298,0,0,0.0,0.0,0,0,119.0,0.0,511.0,4568.717948717949,3947.692307692308,4481.025641025642,4447.6923076923085,4221.538461538462,4541.538461538462,4448.717948717949,4418.974358974359,4391.794871794872,4741.538461538462,4318.974358974359,4240.000000000001,4153.333333333334,4466.666666666667
1095.0739,0.009340585,0.1818211,0.33333334,0.5522388,0,0.0,0.0,0.0,0.0,0.06492973,0,0,0.0,0.0,0,0,22.0,0.0,0.0,4570.256410256411,3897.9487179487182,4473.333333333334,4400.512820512821,4210.256410256411,4535.8974358974365,4441.025641025642,4398.974358974359,4378.461538461539,4712.307692307693,4329.743589743591,4238.974358974359,4152.820512820514,4480.512820512821
1095.3241,0.009340585,0.1818211,0.33333334,0.5522388,0,0.0,0.0,0.0,0.0,0.0,0,0,0.4298418,0.0,0,0,54.0,0.0,0.0,4577.435897435898,3909.7435897435903,4475.8974358974365,4414.358974358975,4217.435897435898,4531.282051282052,4450.769230769231,4421.025641025642,4394.871794871796,4735.8974358974365,4344.615384615385,4253.333333333334,4175.8974358974365,4479.48717948718
1095.5743,0.0,0.20221844,0.33333334,0.5522388,0,0.0,0.0,0.0,0.0,0.0,0,0,0.70006275,0.0,0,0,86.0,0.0,552.0,4585.641025641026,3910.7692307692314,4471.794871794872,4414.871794871796,4228.205128205129,4537.948717948719,4444.615384615385,4410.256410256411,4388.205128205129,4723.589743589744,4340.512820512821,4246.666666666667,4163.589743589744,4482.564102564103
1095.8246,0.0,0.20221844,0.33333334,0.5522388,0,0.0,0.0,0.0,0.0,0.0,0,0,0.6420714,0.0,0,0,118.0,0.0,552.0,4584.102564102564,3913.8461538461543,4473.333333333334,4412.820512820514,4227.6923076923085,4528.717948717949,4444.615384615385,4407.179487179487,4384.102564102564,4725.128205128206,4340.512820512821,4234.358974358975,4166.153846153847,4471.794871794872
1096.0747,0.0,0.2161068,0.33333334,0.5522388,0,0.0,0.0,0.0,0.0,0.0,0,0,0.27117726,0.0,0,0,21.0,0.0,0.0,4584.102564102564,3912.307692307693,4480.000000000001,4409.2307692307695,4227.6923076923085,4538.974358974359,4443.589743589744,4408.717948717949,4387.179487179487,4735.384615384616,4345.128205128206,4237.948717948719,4185.641025641026,4470.256410256411
1096.3562,0.0,0.2161068,0.33333334,0.5522388,0,0.0,0.0,0.0,0.0,0.0,0,0,0.2946027,0.0,0,1,57.0,0.0,0.0,4601.538461538462,3973.8461538461543,4485.641025641026,4468.717948717949,4218.974358974359,4523.589743589744,4430.256410256411,4402.051282051282,4380.000000000001,4729.2307692307695,4360.512820512821,4258.461538461539,4219.48717948718,4550.256410256411
1096.5752,0.0,0.21790382,0.33333334,0.5522388,0,0.0,0.0,0.0,0.0,0.0,0,0,0.28575295,0.0,0,1,85.0,0.0,495.0,4584.102564102564,3910.2564102564106,4474.358974358975,4415.384615384616,4214.358974358975,4529.2307692307695,4439.48717948718,4416.923076923077,4386.153846153847,4730.769230769231,4340.000000000001,4225.128205128206,4160.512820512821,4449.2307692307695
1096.8567,0.0,0.21790382,0.33333334,0.5522388,0,0.0,0.0,0.0,0.0,0.0,0,0,0.28525928,0.0,0,1,121.0,0.0,495.0,4600.512820512821,3976.410256410257,4484.615384615385,4468.717948717949,4202.564102564103,4514.871794871796,4426.666666666667,4398.974358974359,4378.461538461539,4717.435897435898,4356.923076923077,4247.179487179487,4208.205128205129,4543.589743589744
1097.0756,0.0,0.25717685,0.33333334,0.5522388,0,0.0,0.0,0.0,0.0,0.0,0,0,0.22034143,0.0,0,1,20.0,0.0,0.0,4572.307692307693,3892.820512820513,4472.820512820514,4388.717948717949,4198.461538461539,4514.358974358975,4438.974358974359,4411.794871794872,4375.8974358974365,4713.333333333334,4309.2307692307695,4204.102564102564,4128.717948717949,4416.923076923077
1097.3258,0.0,0.25717685,0.33333334,0.5522388,0,0.0,0.0,0.0,0.0,0.0,0,0,0.13051482,0.0,0,0,52.0,0.0,0.0,4584.615384615385,3865.6410256410263,4473.846153846154,4367.6923076923085,4206.153846153847,4523.076923076924,4439.48717948718,4406.666666666667,4379.48717948718,4720.512820512821,4323.589743589744,4205.641025641026,4146.666666666667,4419.48717948718
1097.576,0.030978393,0.29960397,0.33333334,0.5522388,0,0.0,0.0,0.0,0.0,0.0,0,0,0.4094923,0.0,0,0,84.0,0.0,527.0,4581.538461538462,3877.435897435898,4480.000000000001,4377.948717948719,4209.2307692307695,4530.256410256411,4444.102564102564,4411.794871794872,4383.589743589744,4745.128205128206,4331.794871794872,4220.000000000001,4173.846153846154,4440.000000000001
1097.8263,0.030978393,0.29960397,0.33333334,0.5522388,0,0.0,0.0,0.0,0.0,0.0,0,0,0.3318812,0.0,0,0,116.0,0.0,527.0,4585.641025641026,3897.9487179487182,4481.538461538462,4395.384615384616,4215.8974358974365,4531.282051282052,4454.871794871796,4412.307692307693,4397.435897435898,4747.6923076923085,4351.794871794872,4229.74358974359,4188.205128205129,4474.358974358975
1098.0765,0.09542961,0.32771102,0.33333334,0.5522388,0,0.0,0.0,0.0,0.0,0.0,0,0,0.3115118,0.0,0,0,19.0,0.0,0.0,4592.307692307693,3916.410256410257,4483.076923076924,4407.6923076923085,4212.820512820514,4535.8974358974365,4449.743589743591,4404.102564102564,4383.076923076924,4732.820512820514,4324.615384615385,4223.589743589744,4165.128205128206,4462.051282051282
1098.3267,0.09542961,0.32771102,0.33333334,0.5522388,0,0.0,0.0,0.0,0.0,0.0,0,0,0.45086893,0.0,0,0,51.0,0.0,0.0,4601.538461538462,3897.435897435898,4493.333333333334,4397.948717948719,4215.8974358974365,4531.794871794872,4460.000000000001,4427.6923076923085,4380.000000000001,4727.179487179488,4331.794871794872,4239.48717948718,4165.641025641026,4469.2307692307695
1098.5769,0.058955856,0.32507417,0.33333334,0.5522388,0,0.0,0.0,0.0,0.0,0.0,0,0,0.4175809,0.0,0,0,83.0,0.0,511.0,4597.435897435898,3897.9487179487182,4487.6923076923085,4397.435897435898,4216.923076923077,4537.948717948719,4461.025641025642,4434.871794871796,4378.974358974359,4718.461538461539,4314.871794871796,4228.717948717949,4177.435897435898,4470.256410256411
1098.8271,0.058955856,0.32507417,0.33333334,0.5522388,0,0.0,0.0,0.0,0.0,0.0,0,0,0.17366123,0.0,0,0,115.0,0.0,511.0,4586.666666666667,3857.435897435898,4488.717948717949,4354.358974358975,4213.846153846154,4526.153846153847,4462.564102564103,4440.512820512821,4376.410256410257,4711.282051282052,4304.615384615385,4222.051282051282,4151.794871794872,4472.820512820514
1099.0774,0.004540392,0.299222,0.33333334,0.5522388,0,0.0,0.0,0.0,0.0,0.0,0,0,0.55510443,0.0,0,0,18.0,0.0,0.0,4582.051282051282,3864.615384615385,4492.307692307693,4362.051282051282,4234.358974358975,4522.051282051282,4458.974358974359,4431.282051282052,4375.384615384616,4710.769230769231,4300.512820512821,4213.333333333334,4148.205128205129,4486.153846153847
1099.3275,0.004540392,0.299222,0.33333334,0.5522388,0,0.0,0.0,0.0,0.0,0.0,0,0,0.9874627,0.0,0,0,50.0,0.0,0.0,4571.282051282052,3840.512820512821,4482.051282051282,4342.051282051282,4229.74358974359,4514.871794871796,4446.153846153847,4411.794871794872,4365.641025641026,4706.666666666667,4295.8974358974365,4193.333333333334,4152.820512820514,4482.051282051282
1099.5778,0.0,0.27476323,0.33333334,0.5522388,0,0.0,0.0,0.0,0.0,0.0752058,0,0,0.0,0.0,0,0,82.0,0.0,554.0,4568.717948717949,3872.307692307693,4488.205128205129,4361.538461538462,4250.256410256411,4515.8974358974365,4449.2307692307695,4410.769230769231,4375.384615384616,4729.2307692307695,4368.205128205129,4202.051282051282,4179.48717948718,4506.153846153847
1099.828,0.0,0.27476323,0.33333334,0.5522388,0,0.0,0.0,0.0,0.0,0.0,0,0,0.52384484,0.0,0,0,114.0,0.0,554.0,4565.641025641026,3890.2564102564106,4482.564102564103,4378.974358974359,4262.051282051282,4520.512820512821,4448.205128205129,4397.435897435898,4368.717948717949,4713.333333333334,4346.666666666667,4189.74358974359,4145.641025641026,4482.051282051282
1100.0782,0.0,0.25066152,0.33333334,0.5522388,0,0.0,0.0,0.0,0.0,0.07871892,0,0,0.0,0.0,0,0,17.0,0.0,0.0,4560.512820512821,3906.666666666667,4486.153846153847,4392.307692307693,4264.615384615385,4525.128205128206,4445.641025641026,4383.076923076924,4364.102564102564,4706.666666666667,4364.102564102564,4186.153846153847,4153.333333333334,4495.8974358974365
1100.3284,0.0,0.25066152,0.33333334,0.5522388,0,0.0,0.0,0.0,0.0,0.035790607,0,0,0.0,0.0,0,0,49.0,0.0,0.0,4568.205128205129,3920.0000000000005,4484.102564102564,4408.205128205129,4259.48717948718,4527.179487179488,4434.871794871796,4366.666666666667,4358.974358974359,4716.410256410257,4365.641025641026,4196.923076923077,4167.6923076923085,4478.461538461539
1100.5786,0.0,0.23032433,0.33333334,0.5522388,0,0.0,0.0,0.0,0.0,0.0,0,0,0.27839255,0.0,0,0,81.0,0.0,495.0,4566.666666666667,3917.9487179487182,4483.589743589744,4412.307692307693,4249.74358974359,4525.128205128206,4444.102564102564,4377.948717948719,4362.564102564103,4728.717948717949,4365.128205128206,4215.384615384616,4185.128205128206,4516.410256410257
1100.8289,0.0,0.23032433,0.33333334,0.5522388,0,0.0,0.0,0.0,0.0,0.0,0,0,0.2615008,0.0,0,0,113.0,0.0,495.0,4565.128205128206,3908.205128205129,4483.076923076924,4399.48717948718,4245.641025641026,4534.358974358975,4453.846153846154,4394.358974358975,4377.435897435898,4719.48717948718,4355.8974358974365,4212.820512820514,4181.538461538462,4488.205128205129
1101.0791,0.0,0.21688731,0.33333334,0.5522388,0,0.0,0.0,0.0,0.0,0.0,0,0,0.17641918,0.0,0,0,16.0,0.0,0.0,4553.846153846154,3884.1025641025644,4490.769230769231,4370.769230769231,4241.025641025642,4525.641025641026,4463.076923076924,4390.256410256411,4355.384615384616,4681.025641025642,4327.179487179487,4176.410256410257,4155.8974358974365,4498.974358974359
1101.3292,0.0,0.21688731,0.33333334,0.5522388,0,0.0,0.0,0.0,0.0,0.0,0,0,0.11333671,0.0,0,0,48.0,0.0,0.0,4537.435897435898,3845.6410256410263,4497.435897435898,4343.589743589744,4244.102564102564,4513.846153846154,4468.717948717949,4371.794871794872,4338.461538461539,4673.846153846154,4312.820512820514,4137.435897435898,4152.307692307693,4499.48717948718
1101.5795,0.0,0.21153353,0.33333334,0.5522388,0,0.0,0.0,0.0,0.0,0.0,0,0,0.23414797,0.0,0,0,80.0,0.0,527.0,4521.025641025642,3831.7948717948725,4504.615384615385,4318.974358974359,4242.564102564103,4480.000000000001,4467.179487179487,4368.717948717949,4329.743589743591,4688.717948717949,4328.205128205129,4132.820512820514,4183.589743589744,4501.025641025642
1101.8297,0.0,0.21153353,0.33333334,0.5522388,0,0.0,0.0,0.0,0.0,0.0,0,0,0.34226698,0.0,0,0,112.0,0.0,527.0,4505.641025641026,3822.0512820512827,4512.820512820514,4308.205128205129,4235.8974358974365,4464.615384615385,4452.820512820514,4365.128205128206,4334.871794871796,4692.307692307693,4357.435897435898,4111.794871794872,4197.948717948719,4531.794871794872
1102.08,0.005271989,0.20335123,0.33333334,0.5522388,0,0.0,0.0,0.0,0.0,0.0,0,0,0.10059551,0.0,0,0,15.0,0.0,511.0,4503.589743589744,3860.512820512821,4534.358974358975,4341.538461538462,4238.461538461539,4464.615384615385,4429.743589743591,4377.435897435898,4332.307692307693,4688.717948717949,4394.358974358975,4109.74358974359,4217.435897435898,4570.256410256411
1102.3301,0.005271989,0.20335123,0.33333334,0.5522388,0,0.0,0.0,0.0,0.0,0.0,0,0,0.042267516,0.0,0,0,47.0,0.0,0.0,4498.974358974359,3893.333333333334,4541.538461538462,4372.820512820514,4248.717948717949,4478.461538461539,4382.051282051282,4372.307692307693,4337.435897435898,4689.743589743591,4403.076923076924,4089.7435897435903,4198.974358974359,4558.974358974359
1102.5803,0.0,0.18609501,0.33333334,0.5522388,0,0.0,0.0,0.0,0.0,0.0,0,0,0.07055638,0.0,0,0,79.0,0.0,511.0,4492.307692307693,3929.7435897435903,4541.538461538462,4403.076923076924,4253.846153846154,4502.564102564103,4376.410256410257,4368.205128205129,4344.615384615385,4699.48717948718,4408.205128205129,4110.769230769231,4190.256410256411,4564.102564102564
1102.8306,0.0,0.18609501,0.33333334,0.5522388,0,0.0,0.0,0.0,0.0,0.0,0,0,0.26712778,0.0,0,0,111.0,0.0,511.0,4505.128205128206,3972.307692307693,4534.871794871796,4442.564102564103,4261.025641025642,4517.948717948719,4380.000000000001,4383.589743589744,4357.948717948719,4712.820512820514,4433.333333333334,4148.717948717949,4195.384615384616,4573.846153846154
1103.0808,0.08933815,0.17270605,0.33333334,0.5522388,0,0.0,0.0,0.0,0.0,0.0,0,0,1.0,0.0,0,0,14.0,0.0,554.0,4518.974358974359,3973.8461538461543,4518.974358974359,4450.769230769231,4245.641025641026,4528.205128205129,4390.769230769231,4383.589743589744,4368.717948717949,4721.025641025642,4450.256410256411,4192.820512820514,4218.974358974359,4575.384615384616
1103.3309,0.08933815,0.17270605,0.33333334,0.5522388,0,0.0,0.0,0.0,0.0,0.0,0,0,0.66222847,0.0,0,0,46.0,0.0,0.0,4527.6923076923085,3985.1282051282055,4517.948717948719,4466.666666666667,4247.179487179487,4547.179487179488,4408.205128205129,4397.435897435898,4384.102564102564,4751.794871794872,4451.794871794872,4229.74358974359,4231.794871794872,4578.974358974359
1103.5812,0.09058195,0.1708697,0.33333334,0.5522388,0,0.0,0.0,0.0,0.0,0.0,0,0,0.75030875,0.0,0,0,78.0,0.0,554.0,4539.48717948718,3991.2820512820517,4513.333333333334,4481.025641025642,4245.641025641026,4561.538461538462,4407.6923076923085,4392.820512820514,4388.205128205129,4751.282051282052,4444.615384615385,4252.820512820514,4229.74358974359,4570.256410256411
1103.8314,0.09058195,0.1708697,0.33333334,0.5522388,0,0.0,0.0,0.0,0.0,0.0,0,0,0.23676544,0.0,0,0,110.0,0.0,554.0,4552.820512820514,4009.7435897435903,4507.179487179488,4496.410256410257,4241.025641025642,4560.512820512821,4412.820512820514,4390.769230769231,4384.102564102564,4734.358974358975,4410.256410256411,4253.846153846154,4185.128205128206,4537.435897435898
1104.0817,0.09758431,0.18335122,0.33333334,0.5522388,0,0.0,0.0,0.0,0.0,0.0,0,0,0.30917388,0.0,0,0,13.0,0.0,497.0,4566.153846153847,4012.307692307693,4498.974358974359,4491.282051282052,4229.2307692307695,4548.205128205129,4424.102564102564,4401.538461538462,4380.000000000001,4724.615384615386,4396.923076923077,4272.307692307693,4184.102564102564,4551.282051282052
1104.3319,0.09758431,0.18335122,0.33333334,0.5522388,0,0.0,0.0,0.0,0.0,0.0,0,0,0.20506793,0.0,0,0,45.0,0.0,0.0,4568.205128205129,3984.1025641025644,4490.769230769231,4456.923076923077,4231.794871794872,4552.307692307693,4425.128205128206,4403.076923076924,4384.102564102564,4730.769230769231,4391.794871794872,4284.615384615385,4203.589743589744,4547.6923076923085
1104.582,0.08714038,0.20715556,0.33333334,0.5522388,0,0.0,0.0,0.0,0.0,0.0,0,0,0.36418203,0.0,0,0,77.0,0.0,497.0,4568.205128205129,3972.820512820513,4483.076923076924,4454.358974358975,4217.435897435898,4537.435897435898,4430.769230769231,4393.846153846154,4381.025641025642,4727.6923076923085,4370.256410256411,4281.025641025642,4187.179487179487,4533.333333333334
1104.8323,0.08714038,0.20715556,0.33333334,0.5522388,0,0.0,0.0,0.0,0.0,0.22077082,0,0,0.0,0.0,0,0,109.0,0.0,497.0,4568.205128205129,3969.7435897435903,4481.025641025642,4454.871794871796,4223.076923076924,4541.538461538462,4441.538461538462,4410.256410256411,4394.871794871796,4732.307692307693,4359.48717948718,4277.948717948719,4195.384615384616,4521.538461538462
1105.0825,0.10612526,0.22277401,0.33333334,0.5522388,0,0.0,0.0,0.0,0.0,0.114751846,0,0,0.0,0.0,0,0,12.0,0.0,527.0,4582.564102564103,4028.205128205129,4493.846153846154,4507.179487179488,4232.820512820514,4531.794871794872,4430.256410256411,4381.538461538462,4379.48717948718,4696.923076923077,4336.923076923077,4285.128205128206,4173.333333333334,4533.333333333334
1105.3328,0.10612526,0.22277401,0.33333334,0.5522388,0,0.0,0.0,0.0,0.0,0.0,0,0,0.25222692,0.0,0,0,44.0,0.0,0.0,4569.2307692307695,3978.461538461539,4501.025641025642,4461.025641025642,4221.538461538462,4531.282051282052,4435.384615384616,4388.717948717949,4376.923076923077,4698.461538461539,4306.153846153847,4247.179487179487,4128.205128205129,4472.820512820514
1105.5829,0.08700806,0.2476571,0.33333334,0.5522388,0,0.0,0.0,0.0,0.0,0.0,0,0,0.3935917,0.0,0,0,76.0,0.0,527.0,4569.2307692307695,3960.0000000000005,4523.589743589744,4448.205128205129,4217.948717948719,4516.923076923077,4431.282051282052,4380.000000000001,4383.589743589744,4705.641025641026,4310.256410256411,4249.74358974359,4143.076923076924,4466.666666666667
1105.8331,0.08700806,0.2476571,0.33333334,0.5522388,0,0.0,0.0,0.0,0.0,0.22933304,0,0,0.0,0.0,0,0,108.0,0.0,527.0,4570.769230769231,3966.1538461538466,4529.743589743591,4451.794871794872,4220.512820512821,4511.282051282052,4438.461538461539,4398.461538461539,4382.564102564103,4710.769230769231,4318.461538461539,4252.820512820514,4148.205128205129,4462.051282051282
1106.0834,0.06969292,0.24468954,0.33333334,0.5522388,0,0.0,0.0,0.0,0.0,0.08092802,0,0,0.0,0.0,0,0,11.0,0.0,511.0,4568.717948717949,3943.589743589744,4530.256410256411,4432.820512820514,4216.923076923077,4511.282051282052,4434.358974358975,4387.6923076923085,4370.256410256411,4709.2307692307695,4278.974358974359,4242.051282051282,4153.333333333334,4464.102564102564
1106.3336,0.06969292,0.24468954,0.33333334,0.5522388,0,0.0,0.0,0.0,0.0,0.0,0,0,0.53161126,0.0,0,0,43.0,0.0,0.0,4567.179487179488,3936.9230769230776,4526.153846153847,4426.153846153847,4215.8974358974365,4522.564102564103,4449.743589743591,4408.205128205129,4385.128205128206,4725.128205128206,4298.461538461539,4249.74358974359,4172.307692307693,4463.589743589744
1106.5837,0.07274255,0.2254881,0.33333334,0.5522388,0,0.0,0.0,0.0,0.0,0.0,0,0,0.5140409,0.0,0,0,75.0,0.0,511.0,4571.794871794872,3938.9743589743593,4530.769230769231,4424.615384615385,4218.974358974359,4524.615384615385,4456.923076923077,4422.051282051282,4391.282051282052,4735.8974358974365,4329.2307692307695,4268.717948717949,4197.435897435898,4489.2307692307695
1106.834,0.07274255,0.2254881,0.33333334,0.5522388,0,0.0,0.0,0.0,0.0,0.0,0,0,0.3694499,0.0,0,0,107.0,0.0,511.0,4572.307692307693,3940.5128205128212,4531.794871794872,4426.666666666667,4224.615384615385,4520.000000000001,4453.846153846154,4426.153846153847,4392.307692307693,4751.794871794872,4367.179487179487,4278.461538461539,4202.564102564103,4490.769230769231
1107.0842,0.034298442,0.20145887,0.33333334,0.5522388,0,0.0,0.0,0.0,0.0,0.0,0,0,0.3855737,0.0,0,0,10.0,0.0,554.0,4572.307692307693,3954.8717948717954,4526.153846153847,4438.461538461539,4213.846153846154,4508.205128205129,4446.666666666667,4427.179487179487,4389.2307692307695,4741.538461538462,4351.794871794872,4263.589743589744,4189.2307692307695,4467.179487179487
1107.3345,0.034298442,0.20145887,0.33333334,0.5522388,1,0.0,0.0,0.0,0.0,0.0,0,0,0.28340328,0.0,0,0,42.0,0.0,0.0,4603.589743589744,4116.923076923077,4537.948717948719,4580.512820512821,4219.48717948718,4493.846153846154,4428.717948717949,4396.410256410257,4370.769230769231,4700.000000000001,4352.307692307693,4300.000000000001,4229.2307692307695,4618.461538461539
1107.5846,0.0,0.18668762,0.33333334,0.5522388,0,0.0,0.0,0.0,0.0,0.0,0,0,0.23565114,0.0,0,0,74.0,0.0,554.0,4570.256410256411,3960.0000000000005,4517.435897435898,4437.948717948719,4217.435897435898,4515.384615384616,4443.076923076924,4407.6923076923085,4380.000000000001,4715.8974358974365,4319.48717948718,4246.153846153847,4167.6923076923085,4453.846153846154
1107.8348,0.0,0.18668762,0.33333334,0.5522388,0,0.0,0.0,0.0,0.0,0.0,0,0,0.12584096,0.0,0,0,106.0,0.0,554.0,4566.666666666667,3910.7692307692314,4508.717948717949,4391.794871794872,4224.102564102564,4540.512820512821,4464.615384615385,4444.102564102564,4397.948717948719,4734.871794871796,4306.153846153847,4234.871794871796,4143.076923076924,4429.2307692307695
1108.0851,0.0,0.19417475,0.33333334,0.5522388,0,0.0,0.0,0.0,0.0,0.0,0,0,0.12359164,0.0,0,0,9.0,0.0,490.0,4563.589743589744,3934.8717948717954,4511.282051282052,4409.2307692307695,4212.307692307693,4506.153846153847,4442.564102564103,4416.410256410257,4383.589743589744,4733.846153846154,4311.282051282052,4232.307692307693,4138.974358974359,4438.461538461539
1108.3353,0.0,0.19417475,0.33333334,0.5522388,1,0.0,0.0,0.0,0.0,0.0,0,0,0.3782301,0.0,0,0,41.0,0.0,0.0,4568.717948717949,3952.820512820513,4515.384615384616,4436.923076923077,4200.512820512821,4489.2307692307695,4447.6923076923085,4407.179487179487,4367.179487179487,4703.589743589744,4305.128205128206,4249.74358974359,4140.512820512821,4473.333333333334
1108.5854,0.0,0.232985,0.33333334,0.5522388,0,0.0,0.0,0.0,0.0,0.19862315,0,0,0.0,0.0,0,0,73.0,0.0,490.0,4553.333333333334,3881.538461538462,4511.282051282052,4368.205128205129,4198.461538461539,4509.2307692307695,4453.846153846154,4414.358974358975,4361.025641025642,4691.282051282052,4263.076923076924,4218.461538461539,4109.2307692307695,4384.615384615385
1108.8357,0.0,0.232985,0.33333334,0.5522388,0,0.0,0.0,0.0,0.0,0.05468075,0,0,0.0,0.0,0,0,105.0,0.0,497.0,4536.410256410257,3807.1794871794878,4500.512820512821,4300.000000000001,4194.871794871796,4495.384615384616,4453.846153846154,4386.666666666667,4337.435897435898,4653.846153846154,4238.461538461539,4200.512820512821,4103.076923076924,4355.384615384616
1109.0859,0.02349803,0.27232113,0.33333334,0.5522388,0,0.0,0.0,0.0,0.0,0.01787616,0,0,0.0,0.0,0,0,8.0,0.0,393.0,4511.282051282052,3766.666666666667,4506.666666666667,4261.538461538462,4208.717948717949,4466.666666666667,4466.153846153847,4372.820512820514,4309.2307692307695,4623.076923076924,4226.666666666667,4163.076923076924,4075.3846153846157,4353.333333333334
1109.3362,0.02349803,0.27232113,0.33333334,0.5522388,0,0.0,0.0,0.0,0.0,0.16196965,0,0,0.0,0.0,0,0,40.0,0.0,0.0,4489.2307692307695,3757.435897435898,4506.153846153847,4247.6923076923085,4201.538461538462,4426.666666666667,4449.2307692307695,4346.153846153847,4295.384615384616,4608.205128205129,4244.102564102564,4119.48717948718,4080.0000000000005,4372.820512820514
1109.5864,0.024518594,0.2933062,0.33333334,0.5522388,0,0.0,0.0,0.0,0.0,0.06382842,0,0,0.0,0.0,0,0,72.0,0.0,395.0,4483.076923076924,3767.692307692308,4515.384615384616,4251.794871794872,4215.8974358974365,4419.48717948718,4408.205128205129,4323.076923076924,4293.846153846154,4622.564102564103,4260.000000000001,4113.333333333334,4097.948717948719,4398.461538461539
1109.8365,0.024518594,0.2933062,0.33333334,0.5522388,1,0.0,0.0,0.0,0.0,0.09033637,0,0,0.0,0.0,0,0,104.0,0.0,529.0,4489.2307692307695,3829.7435897435903,4529.743589743591,4307.179487179487,4221.538461538462,4427.6923076923085,4394.358974358975,4334.358974358975,4305.641025641026,4647.179487179488,4308.717948717949,4126.666666666667,4139.48717948718,4458.461538461539
1110.0868,0.080627576,0.3183541,0.33333334,0.5522388,0,0.0,0.0,0.0,0.0,0.0,0,0,0.16979852,0.0,0,0,7.0,0.0,468.0,4476.923076923077,3865.6410256410263,4530.769230769231,4338.974358974359,4238.974358974359,4451.794871794872,4400.000000000001,4383.589743589744,4325.128205128206,4685.128205128206,4343.076923076924,4130.769230769231,4154.358974358975,4422.564102564103
