timestamp,excitement,frustration,meditation,engagementBoredom,blink,clench,laugh,smile,eyebrow,furrowBrow,lookLeft,lookRight,smirkLeft,smirkRight,winkLeft,winkRight,eeg0,eeg1,eeg2,eeg3,eeg4,eeg5,eeg6,eeg7,eeg8,eeg9,eeg10,eeg11,eeg12,eeg13,eeg14,eeg15,eeg16
1259.5825,0.8472332,0.90288764,0.36120412,0.60710245,0,0.0,0.0,0.0,0.0,0.275148,0,0,0.0,0.0,0,0,35.0,0.0,0.0,4747.179487179488,4213.846153846154,4656.410256410257,4721.025641025642,4435.8974358974365,4801.538461538462,4683.076923076924,4670.769230769231,4532.820512820514,4922.564102564103,4528.205128205129,4469.743589743591,4354.871794871796,4685.641025641026
1259.8326,0.8472332,0.90288764,0.36120412,0.60710245,0,0.0,0.0,0.0,0.0,0.0,0,0,0.19787021,0.0,1,0,67.0,0.0,556.0,4736.923076923077,4482.051282051282,4640.000000000001,4909.2307692307695,4376.410256410257,4742.051282051282,4632.820512820514,4659.48717948718,4527.6923076923085,4930.256410256411,4487.6923076923085,4409.743589743591,4400.512820512821,4593.846153846154
1260.1141,0.91236687,0.9134181,0.35840577,0.6015977,0,0.0,0.0,0.0,0.0,0.0,0,0,0.2887662,0.0,0,1,103.0,0.0,503.0,4737.435897435898,4190.769230769231,4627.6923076923085,4683.076923076924,4390.769230769231,4724.102564102564,4615.384615384616,4631.794871794872,4538.974358974359,4915.384615384616,4505.641025641026,4397.948717948719,4327.179487179487,4642.564102564103
1260.3331,0.91236687,0.9134181,0.35840577,0.6015977,0,0.0,0.0,0.0,0.0,0.2810964,0,0,0.0,0.0,0,1,2.0,0.0,195.0,4717.435897435898,3957.435897435898,4595.8974358974365,4491.282051282052,4329.743589743591,4700.000000000001,4586.153846153847,4589.743589743591,4515.384615384616,4873.846153846154,4446.666666666667,4344.615384615385,4250.769230769231,4565.128205128206
1260.5834,0.9449096,0.92289555,0.3558876,0.5966425,0,0.0,0.0,0.0,0.0,0.0,0,0,0.39264274,0.0,0,0,34.0,0.0,0.0,4724.102564102564,3957.9487179487182,4604.102564102564,4492.820512820514,4334.871794871796,4701.025641025642,4587.6923076923085,4557.435897435898,4523.076923076924,4885.641025641026,4458.974358974359,4362.564102564103,4266.153846153847,4591.794871794872
1260.8335,0.9449096,0.92289555,0.3558876,0.5966425,0,0.0,0.0,0.0,0.0,0.0,0,0,0.23405233,0.0,0,0,66.0,0.0,195.0,4701.538461538462,3932.307692307693,4592.307692307693,4461.538461538462,4316.923076923077,4673.333333333334,4558.461538461539,4535.384615384616,4507.6923076923085,4861.538461538462,4433.333333333334,4336.410256410257,4253.333333333334,4573.333333333334
1261.0837,0.9109089,0.9314252,0.35362142,0.5921834,0,0.0,0.0,0.0,0.0,0.0,0,0,0.40500322,0.0,0,0,98.0,0.0,544.0,4685.641025641026,3910.2564102564106,4568.717948717949,4445.641025641026,4284.102564102564,4637.948717948719,4541.025641025642,4484.615384615385,4463.076923076924,4801.538461538462,4372.820512820514,4298.461538461539,4186.153846153847,4502.564102564103
1261.334,0.9109089,0.9314252,0.35362142,0.5921834,0,0.0,0.0,0.0,0.0,0.0,0,0,0.31398928,0.0,0,1,1.0,0.0,517.0,4681.025641025642,3875.8974358974365,4562.051282051282,4406.666666666667,4280.512820512821,4620.512820512821,4527.179487179488,4484.615384615385,4475.384615384616,4814.358974358975,4383.076923076924,4312.820512820514,4229.74358974359,4522.564102564103
1261.6467,0.88851595,1.0,0.35158294,0.58817226,0,0.0,0.0,0.0,0.0,0.0,0,0,0.15772074,0.0,0,0,41.0,0.0,0.0,4653.846153846154,3769.2307692307695,4547.179487179488,4316.410256410257,4224.102564102564,4589.2307692307695,4509.743589743591,4447.179487179487,4436.923076923077,4718.461538461539,4330.769230769231,4276.410256410257,4169.2307692307695,4482.564102564103
1261.8344,0.88851595,1.0,0.35158294,0.58817226,0,0.0,0.0,0.0,0.0,0.0,0,0,0.546705,0.0,1,0,65.0,0.0,518.0,4665.641025641026,4069.7435897435903,4561.538461538462,4558.461538461539,4230.769230769231,4544.102564102564,4473.333333333334,4400.512820512821,4397.948717948719,4658.974358974359,4298.974358974359,4267.179487179487,4163.076923076924,4554.358974358975
1262.0846,0.8040628,1.0,0.35936522,0.5887795,0,0.0,0.0,0.0,0.0,0.0,0,0,0.32802933,0.0,1,0,97.0,0.0,490.0,4629.743589743591,3894.8717948717954,4541.538461538462,4393.333333333334,4243.076923076924,4543.076923076924,4494.358974358975,4434.358974358975,4409.2307692307695,4684.102564102564,4304.102564102564,4242.051282051282,4148.205128205129,4482.051282051282
1262.3348,0.8040628,1.0,0.35936522,0.5887795,0,0.0,0.0,0.0,0.0,0.0,0,0,0.24208692,0.0,0,0,0.0,0.0,263.0,4617.435897435898,3847.1794871794878,4530.769230769231,4355.8974358974365,4242.564102564103,4538.461538461539,4493.333333333334,4417.435897435898,4402.051282051282,4684.102564102564,4313.333333333334,4232.820512820514,4157.435897435898,4496.410256410257
1262.5851,0.8392691,0.98562783,0.37729287,0.5919808,0,0.0,0.0,0.0,0.0,0.0,0,0,1.0,0.0,0,0,32.0,0.0,0.0,4604.615384615385,3816.9230769230776,4516.410256410257,4333.333333333334,4210.256410256411,4534.358974358975,4475.8974358974365,4426.153846153847,4390.769230769231,4698.974358974359,4293.333333333334,4205.641025641026,4164.102564102564,4476.410256410257
1262.8352,0.8392691,0.98562783,0.37729287,0.5919808,0,0.0,0.0,0.0,0.0,0.0,0,0,0.16172321,0.0,0,0,64.0,0.0,263.0,4653.333333333334,4022.564102564103,4534.358974358975,4516.923076923077,4244.615384615385,4542.564102564103,4462.051282051282,4424.102564102564,4397.948717948719,4740.512820512821,4367.179487179487,4262.051282051282,4266.153846153847,4626.153846153847
1263.0854,0.8550286,1.0,0.39342582,0.59804755,0,0.0,0.0,0.0,0.0,0.0,0,0,0.1104657,0.0,1,0,96.0,0.0,522.0,4614.358974358975,3916.410256410257,4507.6923076923085,4405.641025641026,4234.871794871796,4555.8974358974365,4460.512820512821,4428.717948717949,4412.307692307693,4753.333333333334,4340.000000000001,4216.923076923077,4201.025641025642,4480.512820512821
1263.3357,0.8550286,1.0,0.39342582,0.59804755,0,0.0,0.0,0.0,0.0,0.0,0,0,0.48137692,0.0,0,0,128.0,0.0,522.0,4630.256410256411,3925.6410256410263,4498.974358974359,4428.717948717949,4242.051282051282,4553.333333333334,4456.410256410257,4440.512820512821,4407.179487179487,4763.589743589744,4357.435897435898,4228.717948717949,4201.025641025642,4474.871794871796
1263.5859,0.84860605,1.0,0.4079427,0.603596,0,0.0,0.0,0.0,0.0,0.0,0,0,0.4734481,0.0,0,0,31.0,0.0,0.0,4638.461538461539,3956.410256410257,4495.384615384616,4454.871794871796,4243.076923076924,4567.179487179488,4458.974358974359,4444.102564102564,4413.846153846154,4784.615384615386,4389.2307692307695,4254.871794871796,4221.538461538462,4483.076923076924
1263.836,0.84860605,1.0,0.4079427,0.603596,0,0.0,0.0,0.0,0.0,0.0,0,0,0.42610255,0.0,0,0,63.0,0.0,0.0,4637.435897435898,3937.435897435898,4483.589743589744,4442.051282051282,4222.051282051282,4578.461538461539,4454.358974358975,4424.615384615385,4409.2307692307695,4756.923076923077,4374.358974358975,4257.435897435898,4197.948717948719,4471.282051282052
1264.0863,0.8630071,0.9829673,0.41055655,0.60696185,0,0.0,0.0,0.0,0.0,0.0,0,0,0.95972675,0.0,0,0,95.0,0.0,508.0,4646.666666666667,3934.358974358975,4478.461538461539,4446.153846153847,4240.000000000001,4594.871794871796,4457.435897435898,4421.025641025642,4403.589743589744,4755.8974358974365,4380.512820512821,4280.000000000001,4206.153846153847,4497.948717948719
1264.3365,0.8630071,0.9829673,0.41055655,0.60696185,0,0.0,0.0,0.0,0.0,0.33088526,0,0,0.0,0.0,0,0,127.0,0.0,508.0,4648.205128205129,3906.666666666667,4467.6923076923085,4422.564102564103,4218.461538461539,4584.102564102564,4460.000000000001,4428.205128205129,4394.871794871796,4732.307692307693,4358.461538461539,4274.358974358975,4185.641025641026,4513.846153846154
1264.5868,0.7817685,0.939557,0.4018984,0.6105732,0,0.0,0.0,0.0,0.0,0.11634159,0,0,0.0,0.0,0,0,30.0,0.0,0.0,4647.6923076923085,3924.615384615385,4469.743589743591,4430.256410256411,4228.717948717949,4589.743589743591,4472.307692307693,4448.205128205129,4405.128205128206,4744.102564102564,4367.179487179487,4285.128205128206,4208.717948717949,4524.102564102564
1264.837,0.7817685,0.939557,0.4018984,0.6105732,0,0.0,0.0,0.0,0.0,0.0,0,0,0.56046295,0.0,0,0,62.0,0.0,0.0,4678.461538461539,3989.7435897435903,4475.384615384616,4492.820512820514,4230.769230769231,4560.512820512821,4453.333333333334,4439.48717948718,4402.564102564103,4740.512820512821,4397.948717948719,4315.8974358974365,4273.333333333334,4623.589743589744
1265.1184,0.69768286,0.9108555,0.38976175,0.61382097,0,0.0,0.0,0.0,0.0,0.0,0,0,0.24401638,0.0,0,0,98.0,0.0,549.0,4636.410256410257,3893.8461538461543,4452.820512820514,4408.717948717949,4204.102564102564,4554.871794871796,4455.384615384616,4406.666666666667,4393.846153846154,4726.666666666667,4347.179487179487,4272.307692307693,4192.307692307693,4495.8974358974365
1265.3374,0.69768286,0.9108555,0.38976175,0.61382097,0,0.0,0.0,0.0,0.0,0.21327588,0,0,0.0,0.0,0,0,126.0,0.0,549.0,4634.358974358975,3876.9230769230776,4458.461538461539,4394.871794871796,4219.48717948718,4567.6923076923085,4473.333333333334,4454.358974358975,4419.48717948718,4749.2307692307695,4367.6923076923085,4281.025641025642,4214.358974358975,4502.051282051282
1265.5876,0.6170626,0.8878937,0.37523183,0.6182775,0,0.0,0.0,0.0,0.0,0.041634876,0,0,0.0,0.0,0,0,29.0,0.0,0.0,4638.974358974359,3896.410256410257,4471.282051282052,4407.6923076923085,4248.205128205129,4581.025641025642,4489.2307692307695,4457.435897435898,4435.8974358974365,4764.102564102564,4379.48717948718,4292.307692307693,4225.641025641026,4527.6923076923085
1265.8379,0.6170626,0.8878937,0.37523183,0.6182775,0,0.0,0.0,0.0,0.0,0.0,0,0,0.58932036,0.0,0,0,61.0,0.0,0.0,4635.384615384616,3892.307692307693,4472.820512820514,4408.205128205129,4248.717948717949,4557.435897435898,4480.512820512821,4456.410256410257,4435.8974358974365,4765.641025641026,4392.820512820514,4307.6923076923085,4230.769230769231,4533.846153846154
1266.088,0.58694494,0.85371214,0.36215374,0.6207489,0,0.0,0.0,0.0,0.0,0.0,0,0,1.0,0.0,0,0,93.0,0.0,494.0,4617.435897435898,3905.1282051282055,4464.102564102564,4411.282051282052,4225.128205128206,4539.48717948718,4458.461538461539,4431.794871794872,4409.2307692307695,4734.871794871796,4351.794871794872,4265.641025641026,4184.615384615385,4485.128205128206
1266.3383,0.58694494,0.85371214,0.36215374,0.6207489,1,0.0,0.0,0.0,0.0,0.0,0,0,0.22263734,0.0,0,0,125.0,0.0,494.0,4643.589743589744,4043.589743589744,4491.794871794872,4535.384615384616,4229.74358974359,4524.615384615385,4428.717948717949,4383.589743589744,4392.820512820514,4698.461538461539,4351.282051282052,4290.256410256411,4220.512820512821,4606.153846153847
1266.5885,0.56509966,0.84912837,0.34805757,0.6218797,0,0.0,0.0,0.0,0.0,0.17802449,0,0,0.0,0.0,0,0,28.0,0.0,0.0,4615.8974358974365,3964.615384615385,4486.153846153847,4460.000000000001,4254.358974358975,4545.641025641026,4454.358974358975,4393.333333333334,4400.000000000001,4707.179487179488,4313.846153846154,4252.820512820514,4144.102564102564,4457.948717948719
1266.8387,0.56509966,0.84912837,0.34805757,0.6218797,0,0.0,0.0,0.0,0.0,0.15682113,0,0,0.0,0.0,0,0,60.0,0.0,0.0,4615.384615384616,3937.9487179487182,4495.8974358974365,4442.051282051282,4217.948717948719,4551.794871794872,4455.384615384616,4395.8974358974365,4403.589743589744,4718.974358974359,4321.025641025642,4258.974358974359,4155.384615384616,4455.384615384616
1267.0889,0.48782444,0.81544334,0.33537057,0.6266311,0,0.0,0.0,0.0,0.0,0.0,0,0,0.73865134,0.0,0,0,92.0,0.0,522.0,4600.512820512821,3941.0256410256416,4494.358974358975,4450.769230769231,4221.538461538462,4546.666666666667,4447.6923076923085,4397.435897435898,4397.948717948719,4706.666666666667,4301.025641025642,4251.282051282052,4141.538461538462,4433.846153846154
1267.3391,0.48782444,0.81544334,0.33537057,0.6266311,0,0.0,0.0,0.0,0.0,0.0,0,0,0.89624125,0.0,0,0,124.0,0.0,522.0,4606.666666666667,3906.666666666667,4502.051282051282,4418.974358974359,4213.333333333334,4556.410256410257,4464.615384615385,4421.538461538462,4415.384615384616,4752.307692307693,4363.076923076924,4283.076923076924,4203.589743589744,4434.871794871796
1267.5894,0.43134537,0.79520106,0.32774913,0.6288307,0,0.0,0.0,0.0,0.0,0.0,0,0,0.25059462,0.0,0,0,27.0,0.0,0.0,4606.666666666667,3873.8461538461543,4510.256410256411,4389.2307692307695,4225.641025641026,4556.923076923077,4483.076923076924,4432.307692307693,4405.128205128206,4728.717948717949,4340.000000000001,4284.615384615385,4173.846153846154,4400.512820512821
1267.8396,0.43134537,0.79520106,0.32774913,0.6288307,0,0.0,0.0,0.0,0.0,0.0,0,0,0.4283128,0.0,0,0,59.0,0.0,0.0,4600.000000000001,3767.692307692308,4501.025641025642,4294.358974358975,4163.076923076924,4507.179487179488,4488.205128205129,4410.769230769231,4361.025641025642,4634.358974358975,4274.871794871796,4257.435897435898,4113.333333333334,4403.076923076924
1268.0897,0.4803143,0.765716,0.32480937,0.6258272,0,0.0,0.13461873,0.0,0.0,0.0,0,0,0.0,0.0,0,0,91.0,0.0,510.0,4573.846153846154,3735.3846153846157,4513.333333333334,4254.358974358975,4175.384615384616,4463.589743589744,4513.333333333334,4420.512820512821,4338.461538461539,4585.128205128206,4237.435897435898,4223.589743589744,4092.820512820513,4421.025641025642
1268.34,0.4803143,0.765716,0.32480937,0.6258272,0,0.0,0.29981014,0.0,0.0,0.0,0,0,0.0,0.0,0,0,123.0,0.0,510.0,4540.512820512821,3734.8717948717954,4510.769230769231,4234.871794871796,4160.512820512821,4426.666666666667,4489.743589743591,4405.128205128206,4316.410256410257,4568.205128205129,4203.076923076924,4123.589743589744,4106.153846153847,4416.923076923077
1268.5902,0.532316,0.70592844,0.32386807,0.6231223,0,0.0,0.0,0.0,0.0,0.0,0,0,0.0,0.0,0,0,26.0,0.0,0.0,4508.717948717949,3760.512820512821,4510.256410256411,4250.769230769231,4171.282051282052,4433.333333333334,4464.102564102564,4361.025641025642,4310.256410256411,4589.743589743591,4229.2307692307695,4035.8974358974365,4126.153846153847,4431.794871794872
1268.5902,0.532316,0.70592844,0.32386807,0.6231223,0,0.0,0.0,0.0,0.0,0.0,0,0,0.0,0.0,0,0,26.0,0.0,0.0,4508.717948717949,3760.512820512821,4510.256410256411,4250.769230769231,4171.282051282052,4433.333333333334,4464.102564102564,4361.025641025642,4310.256410256411,4589.743589743591,4229.2307692307695,4035.8974358974365,4126.153846153847,4431.794871794872
1269.0906,0.6065028,0.6591733,0.32169947,0.61932516,0,0.0,0.0,0.0,0.0,0.09249852,0,0,0.0,0.0,0,1,90.0,0.0,549.0,4534.871794871796,4046.1538461538466,4556.923076923077,4485.641025641026,4256.410256410257,4448.205128205129,4431.794871794872,4358.974358974359,4344.102564102564,4685.128205128206,4368.205128205129,4078.461538461539,4311.282051282052,4632.820512820514
1269.3408,0.6065028,0.6591733,0.32169947,0.61932516,0,0.0,0.0,0.0,0.0,0.0,0,0,0.04223502,0.0,0,1,122.0,0.0,549.0,4505.128205128206,4045.1282051282055,4545.641025641026,4487.6923076923085,4278.974358974359,4463.076923076924,4392.307692307693,4353.846153846154,4346.666666666667,4703.589743589744,4382.051282051282,4047.692307692308,4289.74358974359,4603.076923076924
1269.5911,0.57070917,0.62969464,0.3197481,0.6127872,0,0.0,0.0,0.0,0.0,0.0,0,0,0.8058395,0.0,0,0,25.0,0.0,0.0,4473.846153846154,3978.461538461539,4525.641025641026,4422.564102564103,4276.410256410257,4488.717948717949,4383.076923076924,4370.769230769231,4363.589743589744,4758.974358974359,4396.923076923077,4074.8717948717954,4228.205128205129,4454.358974358975
1269.8413,0.57070917,0.62969464,0.3197481,0.6127872,0,0.0,0.0,0.0,0.0,0.0,0,0,0.23762865,0.0,0,0,57.0,0.0,0.0,4473.333333333334,3966.1538461538466,4515.384615384616,4423.589743589744,4296.410256410257,4518.974358974359,4415.8974358974365,4437.948717948719,4384.102564102564,4781.538461538462,4411.794871794872,4171.282051282052,4214.871794871796,4436.410256410257
1270.0914,0.529019,0.59650266,0.3189969,0.60689133,0,0.0,0.0,0.0,0.0,0.0,0,0,0.26652637,0.0,0,0,89.0,0.0,494.0,4484.615384615385,3976.410256410257,4509.2307692307695,4437.948717948719,4289.2307692307695,4551.794871794872,4415.384615384616,4413.333333333334,4376.923076923077,4762.051282051282,4403.589743589744,4213.846153846154,4192.307692307693,4435.384615384616
1270.2166,0.529019,0.59650266,0.3189969,0.60689133,0,0.0,0.0,0.0,0.0,0.0,0,0,0.0,0.0,0,0,105.0,0.0,494.0,4485.641025641026,3973.333333333334,4512.820512820514,4441.538461538462,4291.794871794872,4546.153846153847,4413.333333333334,4419.48717948718,4375.384615384616,4757.435897435898,4414.871794871796,4255.8974358974365,4194.358974358975,4425.128205128206
1270.5919,0.45229205,0.57793015,0.3183213,0.6008978,0,0.0,0.0,0.0,0.0,0.0,0,0,0.9880851,0.0,0,0,24.0,0.0,0.0,4497.948717948719,3895.8974358974365,4498.461538461539,4389.743589743591,4192.820512820514,4514.358974358975,4409.743589743591,4412.307692307693,4356.923076923077,4704.102564102564,4370.256410256411,4281.025641025642,4172.820512820514,4411.794871794872
1270.717,0.45229205,0.57793015,0.3183213,0.6008978,0,0.0,0.0,0.0,0.0,0.0,0,0,0.0,0.0,0,0,40.0,0.0,0.0,4507.6923076923085,3877.435897435898,4500.000000000001,4371.282051282052,4213.846153846154,4519.48717948718,4432.307692307693,4411.794871794872,4341.025641025642,4666.666666666667,4338.461538461539,4277.948717948719,4166.153846153847,4412.307692307693
1271.0924,0.49389648,0.54471,0.3194321,0.5955027,0,0.0,0.0,0.0,0.0,0.0,0,0,0.0,0.0,0,0,88.0,0.0,524.0,4472.820512820514,3770.2564102564106,4501.025641025642,4273.846153846154,4170.256410256411,4457.948717948719,4425.128205128206,4368.717948717949,4293.846153846154,4593.846153846154,4243.076923076924,4170.256410256411,4096.410256410257,4374.358974358975
1271.3425,0.49389648,0.54471,0.3194321,0.5955027,0,0.0,0.0,0.0,0.0,0.0,0,0,1.0,0.0,0,0,120.0,0.0,524.0,4461.025641025642,3821.0256410256416,4514.871794871796,4302.564102564103,4238.974358974359,4470.256410256411,4449.2307692307695,4380.000000000001,4317.948717948719,4652.820512820514,4267.6923076923085,4154.358974358975,4142.564102564103,4401.025641025642
1271.5928,0.5427097,0.51444376,0.31747532,0.59064627,0,0.0,0.0,0.0,0.0,0.0,0,0,0.54336095,0.0,0,0,23.0,0.0,0.0,4435.384615384616,3859.48717948718,4515.8974358974365,4325.641025641026,4235.8974358974365,4450.256410256411,4421.025641025642,4375.8974358974365,4326.153846153847,4684.615384615386,4285.641025641026,4153.846153846154,4152.307692307693,4392.820512820514
1271.843,0.5427097,0.51444376,0.31747532,0.59064627,1,0.0,0.0,0.0,0.0,0.0,0,0,0.10849991,0.0,0,0,55.0,0.0,0.0,4435.8974358974365,3917.9487179487182,4514.358974358975,4371.794871794872,4247.6923076923085,4460.000000000001,4396.923076923077,4359.48717948718,4325.128205128206,4684.615384615386,4297.435897435898,4169.74358974359,4172.307692307693,4414.871794871796
1272.0933,0.49740916,0.50150836,0.31571475,0.5862746,0,0.0,0.0,0.0,0.0,0.0,0,0,0.0,0.0,0,0,87.0,0.0,512.0,4430.256410256411,3888.717948717949,4515.384615384616,4345.128205128206,4262.051282051282,4490.769230769231,4396.923076923077,4401.025641025642,4354.871794871796,4731.282051282052,4340.512820512821,4203.589743589744,4187.179487179487,4365.641025641026
1272.3434,0.49740916,0.50150836,0.31571475,0.5862746,0,0.0,0.0,0.0,0.0,0.0,0,0,0.22190423,0.0,0,0,119.0,0.0,512.0,4441.538461538462,3937.435897435898,4514.358974358975,4395.384615384616,4275.384615384616,4509.743589743591,4381.025641025642,4395.384615384616,4344.102564102564,4733.846153846154,4356.923076923077,4233.333333333334,4176.923076923077,4391.282051282052
1272.5936,0.4973843,0.51623756,0.31964955,0.58539474,0,0.0,0.0,0.0,0.0,0.18512045,0,0,0.0,0.0,0,0,22.0,0.0,0.0,4436.923076923077,3937.435897435898,4516.923076923077,4397.948717948719,4271.282051282052,4539.48717948718,4408.717948717949,4425.128205128206,4347.179487179487,4733.846153846154,4372.307692307693,4257.948717948719,4120.000000000001,4308.205128205129
1272.8439,0.4973843,0.51623756,0.31964955,0.58539474,0,0.0,0.0,0.0,0.0,0.18885185,0,0,0.0,0.0,0,0,54.0,0.0,0.0,4457.948717948719,3892.820512820513,4515.8974358974365,4390.769230769231,4239.48717948718,4548.205128205129,4422.051282051282,4403.589743589744,4332.307692307693,4680.512820512821,4333.846153846154,4278.461538461539,4091.2820512820517,4302.564102564103
1273.0941,0.5333265,0.55647135,0.32877424,0.5846033,0,0.0,0.0,0.0,0.0,0.09189143,0,0,0.0,0.0,0,0,86.0,0.0,552.0,4475.384615384616,3862.564102564103,4521.025641025642,4354.871794871796,4217.948717948719,4538.974358974359,4441.538461538462,4378.974358974359,4308.205128205129,4625.128205128206,4277.948717948719,4303.589743589744,4054.358974358975,4292.820512820514
1273.3442,0.5333265,0.55647135,0.32877424,0.5846033,0,0.0,0.0,0.0,0.0,0.0,0,0,0.7952107,0.0,0,0,118.0,0.0,552.0,4487.6923076923085,3857.9487179487182,4525.128205128206,4346.153846153847,4204.102564102564,4524.615384615385,4446.666666666667,4387.179487179487,4312.307692307693,4638.461538461539,4305.641025641026,4330.256410256411,4104.615384615385,4315.384615384616
1273.5945,0.5400567,0.59970194,0.3379904,0.5881094,0,0.0,0.0,0.0,0.0,0.0,0,0,0.6221385,0.0,0,0,21.0,0.0,0.0,4490.256410256411,3882.564102564103,4522.051282051282,4361.538461538462,4203.076923076924,4529.743589743591,4453.333333333334,4381.538461538462,4317.948717948719,4654.358974358975,4303.076923076924,4321.025641025642,4112.820512820514,4333.333333333334
1273.8447,0.5400567,0.59970194,0.3379904,0.5881094,1,0.0,0.0,0.0,0.0,0.19028628,0,0,0.0,0.0,0,0,53.0,0.0,0.0,4517.435897435898,3971.7948717948725,4532.820512820514,4435.8974358974365,4210.769230769231,4513.333333333334,4427.6923076923085,4382.051282051282,4315.8974358974365,4663.076923076924,4340.000000000001,4364.102564102564,4169.2307692307695,4440.512820512821
1274.095,0.5134381,0.64793336,0.34645036,0.5963818,0,0.0,0.0,0.0,0.0,0.20707549,0,0,0.0,0.0,0,0,85.0,0.0,494.0,4510.256410256411,3971.2820512820517,4524.615384615385,4435.8974358974365,4229.2307692307695,4521.025641025642,4427.6923076923085,4402.051282051282,4331.282051282052,4692.307692307693,4354.358974358975,4339.48717948718,4174.358974358975,4413.846153846154
1274.4077,0.5134381,0.64793336,0.34645036,0.5963818,0,0.0,0.0,0.0,0.0,0.120218664,0,0,0.0,0.0,0,0,125.0,0.0,494.0,4516.923076923077,4013.333333333334,4525.128205128206,4476.923076923077,4259.48717948718,4525.641025641026,4413.333333333334,4402.051282051282,4333.846153846154,4708.717948717949,4350.769230769231,4322.051282051282,4161.025641025642,4413.846153846154
1274.5953,0.4059651,0.7276719,0.35709038,0.6038248,0,0.0,0.0,0.0,0.0,0.20048212,0,0,0.0,0.0,0,0,20.0,0.0,0.0,4524.615384615385,4024.1025641025644,4526.153846153847,4490.769230769231,4292.307692307693,4554.871794871796,4430.256410256411,4432.820512820514,4353.846153846154,4732.820512820514,4380.000000000001,4326.153846153847,4187.6923076923085,4461.025641025642
1274.8456,0.4059651,0.7276719,0.35709038,0.6038248,0,0.0,0.0,0.0,0.0,0.20953122,0,0,0.0,0.0,0,0,52.0,0.0,0.0,4528.205128205129,4030.7692307692314,4516.923076923077,4481.538461538462,4279.48717948718,4558.461538461539,4413.846153846154,4420.000000000001,4352.820512820514,4743.589743589744,4386.153846153847,4311.794871794872,4187.179487179487,4475.8974358974365
1275.0958,0.39398786,0.7925597,0.37073895,0.60540056,0,0.0,0.0,0.0,0.0,0.0,0,0,1.0,0.0,0,0,84.0,0.0,524.0,4540.512820512821,4011.7948717948725,4522.564102564103,4464.615384615385,4271.282051282052,4571.282051282052,4427.179487179487,4454.358974358975,4384.615384615385,4775.384615384616,4422.051282051282,4330.769230769231,4244.102564102564,4518.461538461539
1275.346,0.39398786,0.7925597,0.37073895,0.60540056,0,0.0,0.0,0.0,0.0,0.0,0,0,0.23879232,0.0,0,0,116.0,0.0,524.0,4550.256410256411,4090.2564102564106,4532.307692307693,4526.666666666667,4286.153846153847,4571.282051282052,4408.717948717949,4415.384615384616,4385.128205128206,4751.794871794872,4391.282051282052,4312.820512820514,4205.641025641026,4516.923076923077
1275.5962,0.39878428,0.932319,0.38533953,0.6056877,0,0.0,0.0,0.0,0.0,0.0,0,0,0.32603437,0.0,0,0,19.0,0.0,0.0,4538.461538461539,4017.435897435898,4528.205128205129,4456.410256410257,4284.615384615385,4583.589743589744,4437.435897435898,4451.282051282052,4408.717948717949,4763.589743589744,4368.205128205129,4284.102564102564,4155.8974358974365,4402.564102564103
1275.8464,0.39878428,0.932319,0.38533953,0.6056877,0,0.0,0.0,0.0,0.0,0.14280853,0,0,0.0,0.0,0,0,51.0,0.0,0.0,4554.358974358975,4045.1282051282055,4545.128205128206,4476.410256410257,4253.846153846154,4572.307692307693,4429.2307692307695,4434.358974358975,4397.948717948719,4782.051282051282,4386.666666666667,4307.179487179487,4218.461538461539,4448.205128205129
1276.0967,0.370782,0.9565444,0.39599165,0.6059444,0,0.0,0.0,0.0,0.0,0.09479629,0,0,0.0,0.0,0,0,83.0,0.0,512.0,4555.384615384616,4031.2820512820517,4548.205128205129,4474.871794871796,4237.435897435898,4559.48717948718,4431.282051282052,4422.564102564103,4393.333333333334,4752.820512820514,4363.589743589744,4299.48717948718,4182.564102564103,4438.974358974359
1276.3469,0.370782,0.9565444,0.39599165,0.6059444,0,0.0,0.0,0.0,0.0,0.22051953,0,0,0.0,0.0,0,0,115.0,0.0,512.0,4550.769230769231,3928.205128205129,4541.025641025642,4392.307692307693,4172.820512820514,4516.410256410257,4422.564102564103,4345.641025641026,4316.410256410257,4610.769230769231,4252.307692307693,4243.076923076924,4093.8461538461543,4430.256410256411
1276.597,0.4172516,0.9213673,0.405576,0.6003172,0,0.0,0.0,0.0,0.0,0.06916957,0,0,0.0,0.0,0,0,18.0,0.0,0.0,4551.794871794872,3796.9230769230776,4538.461538461539,4273.846153846154,4118.974358974359,4428.205128205129,4436.923076923077,4342.564102564103,4282.564102564103,4516.923076923077,4149.74358974359,4183.589743589744,4035.3846153846157,4362.564102564103
1276.8473,0.4172516,0.9213673,0.405576,0.6003172,0,0.0,0.0,0.0,0.0,0.025020346,0,0,0.0,0.0,0,0,50.0,0.0,0.0,4522.051282051282,3772.307692307693,4541.538461538462,4230.256410256411,4145.641025641026,4390.256410256411,4444.102564102564,4332.820512820514,4295.8974358974365,4525.641025641026,4140.512820512821,4092.820512820513,4054.358974358975,4332.307692307693
1277.0975,0.35790402,0.89009523,0.41419894,0.5952518,0,0.0,0.0,0.0,0.0,0.0,0,0,1.0,0.0,0,0,82.0,0.0,552.0,4482.564102564103,3790.7692307692314,4528.717948717949,4231.282051282052,4182.564102564103,4371.282051282052,4440.000000000001,4342.564102564103,4308.717948717949,4556.923076923077,4138.461538461539,4027.1794871794878,4057.435897435898,4302.051282051282
1277.3478,0.35790402,0.89009523,0.41419894,0.5952518,0,0.0,0.0,0.0,0.0,0.0,0,0,0.61339676,0.0,0,0,114.0,0.0,552.0,4440.000000000001,3820.0000000000005,4516.410256410257,4246.666666666667,4204.615384615385,4379.48717948718,4397.948717948719,4307.179487179487,4328.205128205129,4609.2307692307695,4167.6923076923085,4001.0256410256416,4100.512820512821,4300.512820512821
1277.5979,0.4152826,0.8619504,0.42124954,0.58809406,0,0.0,0.0,0.0,0.0,0.0,0,0,0.24848838,0.0,0,0,17.0,0.0,0.0,4428.717948717949,3866.1538461538466,4513.846153846154,4280.000000000001,4218.974358974359,4421.025641025642,4396.923076923077,4345.128205128206,4357.435897435898,4683.076923076924,4269.2307692307695,4057.435897435898,4189.2307692307695,4385.641025641026
1277.8481,0.4152826,0.8619504,0.42124954,0.58809406,0,0.0,0.0,0.0,0.0,0.0,0,0,0.16786551,0.0,0,0,49.0,0.0,0.0,4428.205128205129,3883.589743589744,4498.974358974359,4294.871794871796,4237.948717948719,4450.256410256411,4396.410256410257,4380.512820512821,4369.2307692307695,4686.153846153847,4301.025641025642,4074.8717948717954,4178.974358974359,4399.48717948718
1278.0984,0.40169984,0.8366201,0.4239405,0.580416,0,0.0,0.0,0.0,0.0,0.0,0,0,0.37912485,0.0,0,0,81.0,0.0,494.0,4433.333333333334,3933.333333333334,4502.564102564103,4355.8974358974365,4267.6923076923085,4505.641025641026,4394.358974358975,4390.769230769231,4366.153846153847,4671.794871794872,4296.410256410257,4078.461538461539,4121.538461538462,4352.820512820514
1278.3486,0.40169984,0.8366201,0.4239405,0.580416,0,0.0,0.0,0.0,0.0,0.0,0,0,0.44241065,0.0,0,0,113.0,0.0,494.0,4448.205128205129,3946.666666666667,4493.333333333334,4378.974358974359,4274.871794871796,4516.923076923077,4385.641025641026,4420.512820512821,4377.435897435898,4674.871794871796,4335.384615384616,4121.025641025642,4128.205128205129,4362.051282051282
1278.5988,0.39227626,0.81382275,0.42129612,0.57474095,0,0.0,0.0,0.0,0.0,0.041091748,0,0,0.0,0.0,0,0,16.0,0.0,0.0,4474.358974358975,3988.205128205129,4493.333333333334,4429.2307692307695,4288.717948717949,4562.564102564103,4411.794871794872,4433.846153846154,4388.717948717949,4691.282051282052,4373.846153846154,4180.512820512821,4124.615384615385,4405.641025641026
1278.7239,0.39227626,0.81382275,0.42129612,0.57474095,0,0.0,0.0,0.0,0.0,0.0,0,0,0.0,0.0,0,0,32.0,0.0,0.0,4487.179487179488,4008.205128205129,4486.153846153847,4448.205128205129,4273.333333333334,4555.8974358974365,4420.000000000001,4451.282051282052,4401.538461538462,4711.282051282052,4402.564102564103,4219.48717948718,4155.384615384616,4452.820512820514
1279.0992,0.38410205,0.7650279,0.4143446,0.5709775,0,0.0,0.0,0.0,0.0,0.32912028,0,0,0.0,0.0,0,0,80.0,0.0,524.0,4554.871794871796,4025.1282051282055,4503.589743589744,4490.256410256411,4251.794871794872,4561.025641025642,4418.974358974359,4450.256410256411,4419.48717948718,4786.666666666667,4550.256410256411,4389.2307692307695,4397.948717948719,4727.179487179488
1279.3495,0.38410205,0.7650279,0.4143446,0.5709775,0,0.0,0.0,0.0,0.0,0.37744227,0,0,0.0,0.0,0,1,112.0,0.0,524.0,4555.8974358974365,4017.9487179487182,4502.051282051282,4493.846153846154,4246.153846153847,4586.153846153847,4427.6923076923085,4438.974358974359,4425.641025641026,4820.512820512821,4508.205128205129,4389.2307692307695,4340.000000000001,4654.358974358975
1279.631,0.3987728,0.7430942,0.40711373,0.5693818,0,0.0,0.0,0.0,0.0,0.24310167,0,0,0.0,0.0,0,0,19.0,0.0,0.0,4570.769230769231,4017.435897435898,4496.923076923077,4502.564102564103,4226.153846153847,4578.974358974359,4421.538461538462,4414.871794871796,4416.923076923077,4783.076923076924,4471.282051282052,4388.205128205129,4273.846153846154,4610.769230769231
1279.8499,0.3987728,0.7430942,0.40711373,0.5693818,0,0.0,0.0,0.0,0.0,0.08111048,0,0,0.0,0.0,0,0,47.0,0.0,0.0,4583.076923076924,4022.564102564103,4497.435897435898,4505.128205128206,4241.538461538462,4586.666666666667,4421.538461538462,4409.2307692307695,4415.8974358974365,4768.717948717949,4481.538461538462,4384.102564102564,4263.076923076924,4605.128205128206
1280.1001,0.40089047,0.7551122,0.39971355,0.5676632,0,0.0,0.0,0.0,0.0,0.12091012,0,0,0.0,0.0,0,0,79.0,0.0,508.0,4601.538461538462,4120.000000000001,4508.717948717949,4560.000000000001,4180.000000000001,4575.384615384616,4409.743589743591,4433.333333333334,4424.615384615385,4759.48717948718,4526.666666666667,4356.923076923077,4738.461538461539,4581.025641025642
1280.3503,0.40089047,0.7551122,0.39971355,0.5676632,0,0.0,0.0,0.0,0.0,0.075232625,0,0,0.0,0.0,0,0,111.0,0.0,508.0,4648.717948717949,4366.666666666667,4536.923076923077,4760.000000000001,4168.717948717949,4562.051282051282,4391.282051282052,4394.871794871796,4409.2307692307695,4661.025641025642,4433.333333333334,4375.8974358974365,5033.846153846154,4645.641025641026
1280.6318,0.43474513,0.7660478,0.3930734,0.5661203,0,0.091198824,0.0,0.0,0.0,0.0,0,0,0.0,0.0,0,0,18.0,0.0,0.0,4641.538461538462,4047.1794871794878,4495.384615384616,4545.128205128206,4156.923076923077,4573.333333333334,4421.538461538462,4441.538461538462,4414.358974358975,4711.794871794872,4346.153846153847,4323.076923076924,4546.153846153847,4523.076923076924
1280.8507,0.43474513,0.7660478,0.3930734,0.5661203,0,0.075224884,0.0,0.0,0.0,0.0,0,0,0.0,0.0,0,0,46.0,0.0,0.0,4651.794871794872,4157.435897435898,4513.333333333334,4652.307692307693,4160.512820512821,4572.307692307693,4426.153846153847,4434.871794871796,4410.256410256411,4715.384615384616,4342.051282051282,4324.615384615385,4452.820512820514,4490.769230769231
1281.1322,0.38250315,0.7758898,0.38709727,0.5647322,0,0.21493131,0.0,0.0,0.0,0.0,0,0,0.0,0.0,0,0,82.0,0.0,549.0,4653.333333333334,4201.538461538462,4527.179487179488,4665.641025641026,4202.051282051282,4578.974358974359,4435.8974358974365,4429.743589743591,4412.307692307693,4730.256410256411,4347.179487179487,4313.333333333334,4466.666666666667,4488.205128205129
1281.3512,0.38250315,0.7758898,0.38709727,0.5647322,0,0.5193195,0.0,0.0,0.0,0.0,0,0,0.0,0.0,0,0,110.0,0.0,549.0,4656.923076923077,4092.820512820513,4526.153846153847,4573.333333333334,4166.153846153847,4571.794871794872,4447.179487179487,4462.051282051282,4440.000000000001,4771.282051282052,4431.794871794872,4354.358974358975,4428.205128205129,4537.948717948719
1281.6327,0.43086025,0.78474766,0.38171875,0.5634828,0,0.3765455,0.0,0.0,0.0,0.0,0,0,0.0,0.0,0,0,17.0,0.0,0.0,4676.410256410257,4121.025641025642,4531.794871794872,4578.461538461539,4223.076923076924,4620.000000000001,4472.820512820514,4476.410256410257,4446.666666666667,4815.384615384616,4410.256410256411,4337.948717948719,4422.051282051282,4556.410256410257
1281.8516,0.43086025,0.78474766,0.38171875,0.5634828,0,0.0,0.0,0.20701064,0.0,0.0,0,0,0.0,0.0,0,0,45.0,0.0,0.0,4681.538461538462,4259.48717948718,4550.256410256411,4664.102564102564,4231.794871794872,4621.538461538462,4458.461538461539,4465.641025641026,4444.102564102564,4789.2307692307695,4444.102564102564,4356.410256410257,4440.000000000001,4614.871794871796
1282.133,0.42124516,0.7927197,0.3768802,0.56235844,0,0.0,0.0,0.12309607,0.0,0.0,0,0,0.0,0.0,0,0,81.0,0.0,491.0,4686.666666666667,4176.410256410257,4552.820512820514,4622.051282051282,4224.102564102564,4600.512820512821,4454.871794871796,4450.769230769231,4432.307692307693,4771.282051282052,4435.384615384616,4354.358974358975,4358.974358974359,4664.102564102564
1282.352,0.42124516,0.7927197,0.3768802,0.56235844,0,0.0,0.0,0.0,0.0,0.8738027,0,0,0.0,0.0,0,0,109.0,0.0,491.0,4690.769230769231,4118.974358974359,4555.384615384616,4584.102564102564,4244.102564102564,4598.974358974359,4457.435897435898,4455.8974358974365,4434.871794871796,4771.794871794872,4429.2307692307695,4357.948717948719,4293.846153846154,4686.666666666667
1282.6023,0.5136429,0.7865571,0.3725128,0.56134397,0,0.0,0.0,0.0,0.0,0.0,0,0,0.29053628,0.0,0,0,12.0,0.0,525.0,4689.2307692307695,4065.1282051282055,4555.384615384616,4555.384615384616,4205.641025641026,4589.743589743591,4455.384615384616,4450.256410256411,4417.435897435898,4746.666666666667,4394.871794871796,4331.794871794872,4244.102564102564,4646.153846153847
1282.8524,0.5136429,0.7865571,0.3725128,0.56134397,0,0.0,0.0,0.0,0.0,0.0,0,0,0.23080325,0.0,0,0,44.0,0.0,0.0,4682.051282051282,4022.0512820512827,4548.205128205129,4516.923076923077,4221.025641025642,4602.051282051282,4460.512820512821,4457.948717948719,4429.2307692307695,4758.461538461539,4392.307692307693,4326.666666666667,4206.153846153847,4628.205128205129
1283.1027,0.47799572,0.7518748,0.3685809,0.5604307,0,0.0,0.0,0.0,0.0,0.0,0,0,0.5738971,0.0,0,0,76.0,0.0,525.0,4685.641025641026,3995.3846153846157,4550.769230769231,4500.000000000001,4209.74358974359,4589.743589743591,4457.435897435898,4457.948717948719,4422.051282051282,4757.435897435898,4383.076923076924,4323.076923076924,4191.794871794872,4593.333333333334
1283.3529,0.47799572,0.7518748,0.3685809,0.5604307,0,0.0,0.0,0.0,0.0,0.4960434,0,0,0.0,0.0,0,0,108.0,0.0,525.0,4684.615384615386,3983.589743589744,4548.205128205129,4492.307692307693,4240.512820512821,4589.2307692307695,4456.923076923077,4455.384615384616,4429.743589743591,4750.769230769231,4383.076923076924,4310.256410256411,4187.6923076923085,4585.641025641026
1283.6031,0.483449,0.7001118,0.3650411,0.5596086,0,0.0,0.0,0.0,0.0,0.12956777,0,0,0.0,0.0,0,0,11.0,0.0,504.0,4682.051282051282,3971.2820512820517,4543.589743589744,4480.000000000001,4203.589743589744,4572.307692307693,4445.128205128206,4413.846153846154,4405.641025641026,4706.153846153847,4336.923076923077,4285.641025641026,4129.2307692307695,4577.435897435898
1283.8533,0.483449,0.7001118,0.3650411,0.5596086,0,0.0,0.0,0.0,0.0,0.07130881,0,0,0.0,0.0,0,0,43.0,0.0,0.0,4680.512820512821,3965.1282051282055,4540.512820512821,4482.564102564103,4230.256410256411,4589.743589743591,4458.461538461539,4425.641025641026,4418.461538461539,4734.871794871796,4363.076923076924,4292.820512820514,4143.589743589744,4600.512820512821
1284.1035,0.41517922,0.64672536,0.36185434,0.5588687,0,0.0,0.0,0.0,0.0,0.0,0,0,0.6391616,0.0,0,0,75.0,0.0,504.0,4680.000000000001,3957.435897435898,4531.794871794872,4477.435897435898,4223.076923076924,4583.076923076924,4461.025641025642,4445.128205128206,4414.358974358975,4751.794871794872,4368.717948717949,4301.538461538462,4148.205128205129,4577.948717948719
1284.3538,0.41517922,0.64672536,0.36185434,0.5588687,1,0.0,0.0,0.0,0.0,0.0,0,0,0.5835456,0.0,0,0,107.0,0.0,504.0,4704.102564102564,4066.666666666667,4546.153846153847,4564.102564102564,4227.6923076923085,4549.743589743591,4427.179487179487,4405.128205128206,4381.025641025642,4673.846153846154,4309.743589743591,4294.358974358975,4070.7692307692314,4581.025641025642
1284.604,0.36323532,0.6247367,0.35898533,0.5582031,0,0.0,0.0,0.0,0.0,0.10871274,0,0,0.0,0.0,0,0,10.0,0.0,549.0,4683.076923076924,3978.9743589743593,4515.8974358974365,4482.051282051282,4228.717948717949,4573.333333333334,4451.794871794872,4446.153846153847,4379.48717948718,4667.179487179488,4293.333333333334,4264.102564102564,4030.7692307692314,4513.333333333334
1284.8541,0.36323532,0.6247367,0.35898533,0.5582031,0,0.0,0.0,0.0,0.0,0.25033706,0,0,0.0,0.0,0,1,42.0,0.0,0.0,4688.717948717949,3975.8974358974365,4526.666666666667,4472.307692307693,4201.538461538462,4535.8974358974365,4437.948717948719,4421.538461538462,4362.051282051282,4638.461538461539,4291.794871794872,4270.256410256411,4051.2820512820517,4567.6923076923085
1285.1356,0.3541704,0.64831024,0.3564037,0.5576039,0,0.0,0.0,0.0,0.0,0.27061874,0,0,0.0,0.0,0,0,78.0,0.0,549.0,4679.48717948718,3987.692307692308,4526.153846153847,4469.743589743591,4193.333333333334,4537.948717948719,4442.051282051282,4422.564102564103,4350.769230769231,4629.743589743591,4285.641025641026,4248.717948717949,4031.7948717948725,4561.025641025642
1285.3546,0.3541704,0.64831024,0.3564037,0.5576039,0,0.0,0.0,0.0,0.0,0.2655838,0,0,0.0,0.0,0,0,106.0,0.0,549.0,4650.769230769231,3893.8461538461543,4510.256410256411,4389.2307692307695,4240.000000000001,4554.871794871796,4461.538461538462,4441.538461538462,4377.948717948719,4671.282051282052,4307.6923076923085,4236.923076923077,4010.2564102564106,4469.2307692307695
1285.6049,0.30517468,0.78893846,0.3540819,0.5570645,0,0.0,0.0,0.0,0.0,0.0,0,0,0.879096,0.0,0,0,9.0,0.0,486.0,4641.538461538462,3913.333333333334,4503.076923076924,4396.410256410257,4241.025641025642,4557.948717948719,4456.923076923077,4421.025641025642,4366.666666666667,4680.512820512821,4315.8974358974365,4241.538461538462,4042.0512820512827,4452.820512820514
1285.855,0.30517468,0.78893846,0.3540819,0.5570645,1,0.0,0.0,0.0,0.0,0.089341596,0,0,0.0,0.0,0,0,41.0,0.0,0.0,4637.435897435898,3881.538461538462,4506.666666666667,4367.179487179487,4192.307692307693,4533.333333333334,4436.923076923077,4378.461538461539,4342.051282051282,4671.282051282052,4312.307692307693,4247.179487179487,4012.307692307693,4429.743589743591
1286.1052,0.24431436,1.0,0.356154,0.55637205,0,0.0,0.0,0.0,0.0,0.10225846,0,0,0.0,0.0,0,0,73.0,0.0,486.0,4637.948717948719,3870.7692307692314,4511.282051282052,4358.461538461539,4220.000000000001,4550.769230769231,4454.358974358975,4412.820512820514,4353.846153846154,4663.589743589744,4311.282051282052,4251.794871794872,4019.48717948718,4456.410256410257
1286.3555,0.24431436,1.0,0.356154,0.55637205,0,0.0,0.0,0.0,0.0,0.05519931,0,0,0.0,0.0,0,0,105.0,0.0,491.0,4631.282051282052,3797.9487179487182,4507.6923076923085,4295.8974358974365,4168.717948717949,4511.282051282052,4474.871794871796,4405.641025641026,4337.948717948719,4614.871794871796,4268.205128205129,4244.615384615385,3974.8717948717954,4437.435897435898
1286.6057,0.38238424,1.0,0.3693068,0.5522209,0,0.0,0.0,0.0,0.0,0.0,0,0,0.1374381,0.0,0,0,8.0,0.0,395.0,4621.025641025642,3794.358974358975,4513.333333333334,4289.74358974359,4173.333333333334,4493.846153846154,4477.435897435898,4406.153846153847,4322.564102564103,4615.8974358974365,4280.000000000001,4252.820512820514,4016.410256410257,4416.410256410257
1286.856,0.38238424,1.0,0.3693068,0.5522209,0,0.0,0.0,0.0,0.0,0.19099474,0,0,0.0,0.0,0,0,40.0,0.0,0.0,4632.307692307693,3815.8974358974365,4515.8974358974365,4310.769230769231,4184.615384615385,4471.282051282052,4484.102564102564,4430.256410256411,4345.641025641026,4670.769230769231,4325.128205128206,4270.256410256411,4117.948717948719,4470.256410256411
1287.1061,0.49118516,1.0,0.39079508,0.54284567,0,0.0,0.0,0.0,0.0,0.0,0,0,0.42192587,0.0,0,0,72.0,0.0,395.0,4615.8974358974365,3848.205128205129,4511.282051282052,4335.8974358974365,4207.6923076923085,4466.153846153847,4462.564102564103,4412.820512820514,4353.333333333334,4696.923076923077,4352.820512820514,4248.205128205129,4123.589743589744,4462.051282051282
1287.3563,0.49118516,1.0,0.39079508,0.54284567,0,0.0,0.0,0.0,0.0,0.0,0,0,0.110639654,0.0,0,0,104.0,0.0,524.0,4606.153846153847,3914.8717948717954,4512.307692307693,4394.358974358975,4227.179487179487,4484.615384615385,4454.871794871796,4381.025641025642,4348.717948717949,4695.384615384616,4337.435897435898,4222.564102564103,4130.256410256411,4482.051282051282
1287.6066,0.49403137,0.96784097,0.41013172,0.5344083,0,0.0,0.0,0.0,0.0,0.0,0,0,0.14907373,0.0,0,0,7.0,0.0,465.0,4610.256410256411,3942.564102564103,4504.615384615385,4412.820512820514,4266.666666666667,4511.282051282052,4465.128205128206,4387.6923076923085,4373.846153846154,4742.051282051282,4383.076923076924,4239.48717948718,4165.641025641026,4488.717948717949
1287.8568,0.49403137,0.96784097,0.41013172,0.5344083,0,0.0,0.0,0.0,0.0,0.0,0,0,0.33349144,0.0,0,0,39.0,0.0,0.0,4614.871794871796,3995.3846153846157,4520.512820512821,4472.307692307693,4300.512820512821,4561.025641025642,4499.48717948718,4435.8974358974365,4394.358974358975,4782.051282051282,4420.512820512821,4276.410256410257,4130.256410256411,4502.564102564103
1288.1069,0.5338834,0.92095554,0.42753077,0.5268153,0,0.0,0.0,0.0,0.0,0.0,0,0,0.3146268,0.0,0,0,71.0,0.0,465.0,4618.974358974359,3991.7948717948725,4513.333333333334,4474.871794871796,4269.74358974359,4557.948717948719,4475.384615384616,4411.282051282052,4371.282051282052,4735.8974358974365,4375.8974358974365,4257.948717948719,4106.153846153847,4489.743589743591
1288.3572,0.5338834,0.92095554,0.42753077,0.5268153,0,0.0,0.0,0.0,0.0,0.0,0,0,1.0,0.0,0,0,103.0,0.0,507.0,4634.358974358975,3929.2307692307695,4518.461538461539,4448.717948717949,4277.948717948719,4573.846153846154,4492.307692307693,4425.641025641026,4358.974358974359,4686.153846153847,4363.589743589744,4284.615384615385,4115.8974358974365,4525.128205128206
1288.6074,0.55787534,0.8806559,0.43270835,0.5260375,0,0.0,0.0,0.0,0.0,0.121629104,0,0,0.0,0.0,0,0,6.0,0.0,545.0,4617.948717948719,3876.410256410257,4510.256410256411,4394.871794871796,4239.48717948718,4534.871794871796,4469.2307692307695,4402.051282051282,4317.948717948719,4638.974358974359,4318.461538461539,4247.179487179487,4085.6410256410263,4497.948717948719
1288.8577,0.55787534,0.8806559,0.43270835,0.5260375,0,0.0,0.0,0.0,0.0,0.0,0,0,0.7430084,0.0,0,0,38.0,0.0,0.0,4614.871794871796,3882.0512820512827,4507.6923076923085,4389.2307692307695,4264.615384615385,4531.794871794872,4482.051282051282,4416.923076923077,4333.846153846154,4674.358974358975,4329.2307692307695,4240.512820512821,4114.871794871796,4516.410256410257
1289.1078,0.5422976,0.85912037,0.4258273,0.5339489,1,0.0,0.0,0.0,0.0,0.0,0,0,0.12000971,0.0,0,0,70.0,0.0,545.0,4640.512820512821,4096.923076923077,4537.948717948719,4563.589743589744,4273.333333333334,4510.256410256411,4451.794871794872,4381.025641025642,4312.820512820514,4662.051282051282,4363.076923076924,4280.000000000001,4195.8974358974365,4672.820512820514
1289.358,0.5422976,0.85912037,0.4258273,0.5339489,0,0.0,0.0,0.0,0.0,0.0,0,0,0.13791771,0.0,0,0,102.0,0.0,549.0,4631.794871794872,4005.1282051282055,4495.384615384616,4600.000000000001,4284.615384615385,4520.000000000001,4440.512820512821,4381.025641025642,4328.205128205129,4700.000000000001,4378.461538461539,4280.000000000001,4191.794871794872,4645.641025641026
1289.6083,0.43459377,0.86174977,0.41963178,0.5458978,0,0.0,0.0,0.0,0.0,0.0,0,0,0.5022699,0.0,0,0,5.0,0.0,573.0,4575.384615384616,3826.666666666667,4462.051282051282,4434.871794871796,4263.076923076924,4532.307692307693,4449.2307692307695,4407.6923076923085,4354.871794871796,4738.461538461539,4356.410256410257,4247.179487179487,4139.48717948718,4473.846153846154
1289.8585,0.43459377,0.86174977,0.41963178,0.5458978,0,0.0,0.0,0.0,0.0,0.0,0,0,0.3870923,0.0,0,0,37.0,0.0,0.0,4571.282051282052,3795.8974358974365,4466.153846153847,4389.743589743591,4282.564102564103,4561.025641025642,4474.358974358975,4449.743589743591,4401.538461538462,4791.282051282052,4411.794871794872,4279.48717948718,4198.974358974359,4480.512820512821
1290.1086,0.45141557,0.8667341,0.41405338,0.556652,0,0.0,0.0,0.0,0.0,0.0,0,0,0.26289126,0.0,0,0,69.0,0.0,573.0,4586.666666666667,3844.1025641025644,4472.820512820514,4426.666666666667,4295.384615384616,4580.000000000001,4471.282051282052,4445.641025641026,4418.974358974359,4812.820512820514,4417.948717948719,4287.6923076923085,4215.384615384616,4523.076923076924
1290.3589,0.45141557,0.8667341,0.41405338,0.556652,0,0.0,0.0,0.0,0.0,0.0,0,0,0.22979975,0.0,0,0,101.0,0.0,492.0,4593.333333333334,3870.2564102564106,4473.333333333334,4443.589743589744,4291.282051282052,4595.8974358974365,4458.974358974359,4432.307692307693,4420.000000000001,4815.384615384616,4416.923076923077,4294.871794871796,4217.435897435898,4525.128205128206
1290.6091,0.463092,0.8622774,0.41293332,0.5663307,0,0.0,0.0,0.0,0.0,0.0,0,0,0.0,0.0,0,0,4.0,0.0,577.0,4602.564102564103,3875.3846153846157,4471.282051282052,4443.589743589744,4268.205128205129,4583.076923076924,4446.666666666667,4420.000000000001,4414.358974358975,4799.48717948718,4412.820512820514,4308.205128205129,4222.564102564103,4537.435897435898
1290.8594,0.463092,0.8622774,0.41293332,0.5663307,0,0.0,0.0,0.0,0.0,0.5701796,0,0,0.0,0.0,0,0,36.0,0.0,0.0,4567.6923076923085,3888.205128205129,4476.410256410257,4444.615384615385,4264.615384615385,4578.461538461539,4436.923076923077,4408.717948717949,4413.846153846154,4780.512820512821,4377.948717948719,4286.153846153847,4193.333333333334,4524.102564102564
1291.1095,0.46657586,0.83589536,0.41192266,0.5699979,0,0.0,0.0,0.0,0.0,0.19659597,0,0,0.0,0.0,0,0,68.0,0.0,577.0,4571.282051282052,3895.8974358974365,4469.743589743591,4446.153846153847,4255.384615384616,4576.923076923077,4437.948717948719,4412.820512820514,4409.2307692307695,4751.794871794872,4350.256410256411,4280.000000000001,4180.000000000001,4509.2307692307695
1291.3597,0.46657586,0.83589536,0.41192266,0.5699979,0,0.0,0.0,0.0,0.0,0.0,0,0,1.0,0.0,0,0,100.0,0.0,524.0,4586.666666666667,3933.333333333334,4477.948717948719,4475.384615384616,4288.717948717949,4610.769230769231,4450.769230769231,4432.307692307693,4414.358974358975,4752.820512820514,4333.333333333334,4289.74358974359,4151.794871794872,4501.025641025642
1291.61,0.42151958,0.8248824,0.41101056,0.5732979,1,0.0,0.0,0.0,0.0,0.0,0,0,0.46829185,0.0,0,0,3.0,0.0,556.0,4591.794871794872,3938.9743589743593,4481.025641025642,4472.307692307693,4241.025641025642,4574.871794871796,4424.102564102564,4404.102564102564,4406.153846153847,4716.923076923077,4312.307692307693,4262.564102564103,4147.179487179487,4488.205128205129
1291.8602,0.42151958,0.8248824,0.41101056,0.5732979,0,0.0,0.0,0.0,0.0,0.0,0,0,0.23218827,0.0,0,0,35.0,0.0,0.0,4594.358974358975,3935.3846153846157,4480.000000000001,4467.6923076923085,4254.871794871796,4601.025641025642,4447.6923076923085,4444.102564102564,4415.384615384616,4745.128205128206,4326.153846153847,4263.589743589744,4157.435897435898,4448.717948717949
1292.1105,0.3528512,0.8521617,0.40681815,0.5755008,1,0.0,0.0,0.0,0.0,0.0,0,0,0.28294423,0.0,0,0,67.0,0.0,556.0,4608.205128205129,3975.3846153846157,4481.538461538462,4495.384615384616,4251.282051282052,4584.615384615385,4423.589743589744,4414.871794871796,4408.717948717949,4713.333333333334,4326.153846153847,4269.74358974359,4175.8974358974365,4513.333333333334
1292.3606,0.3528512,0.8521617,0.40681815,0.5755008,0,0.0,0.0,0.0,0.0,0.0,0,0,0.2824812,0.0,0,0,99.0,0.0,505.0,4599.48717948718,3898.9743589743593,4474.358974358975,4429.2307692307695,4259.48717948718,4596.923076923077,4438.974358974359,4449.2307692307695,4429.2307692307695,4759.48717948718,4349.743589743591,4269.74358974359,4170.769230769231,4464.615384615385
1292.6108,0.3132157,0.89521897,0.4049829,0.57473475,0,0.0,0.0,0.0,0.0,0.0,0,0,0.37813064,0.0,0,0,2.0,0.0,199.0,4591.282051282052,3879.48717948718,4462.564102564103,4396.410256410257,4220.512820512821,4555.384615384616,4408.205128205129,4410.256410256411,4404.615384615385,4711.794871794872,4306.666666666667,4232.820512820514,4133.846153846154,4445.641025641026
1292.8611,0.3132157,0.89521897,0.4049829,0.57473475,0,0.0,0.0,0.0,0.0,0.0,0,0,0.87686086,0.0,0,0,34.0,0.0,0.0,4598.974358974359,3887.692307692308,4465.641025641026,4408.205128205129,4223.589743589744,4576.923076923077,4431.794871794872,4417.948717948719,4411.794871794872,4711.282051282052,4313.846153846154,4241.538461538462,4145.641025641026,4465.128205128206
1293.1113,0.37570894,0.92645603,0.4057054,0.5740447,0,0.0,0.0,0.0,0.0,0.0,0,0,0.94965386,0.0,0,0,66.0,0.0,199.0,4599.48717948718,3857.9487179487182,4456.923076923077,4376.923076923077,4179.48717948718,4549.2307692307695,4419.48717948718,4400.000000000001,4386.666666666667,4686.666666666667,4298.461538461539,4251.282051282052,4111.794871794872,4463.589743589744
1293.3615,0.37570894,0.92645603,0.4057054,0.5740447,0,0.0,0.0,0.0,0.0,0.0,0,0,0.9327214,0.0,0,0,98.0,0.0,550.0,4603.589743589744,3833.333333333334,4467.6923076923085,4368.205128205129,4205.641025641026,4558.974358974359,4431.282051282052,4405.641025641026,4385.128205128206,4679.48717948718,4301.025641025642,4270.769230769231,4128.717948717949,4492.820512820514
1293.6117,0.38888666,0.89359784,0.40140122,0.5734231,0,0.0,0.0,0.0,0.0,0.031463962,0,0,0.0,0.0,0,0,1.0,0.0,521.0,4593.333333333334,3767.1794871794878,4461.538461538462,4302.051282051282,4182.051282051282,4520.512820512821,4444.102564102564,4421.538461538462,4360.512820512821,4625.641025641026,4278.974358974359,4271.794871794872,4098.461538461539,4457.948717948719
1293.8619,0.38888666,0.89359784,0.40140122,0.5734231,0,0.0,0.0,0.0,0.0,0.051590215,0,0,0.0,0.0,0,0,33.0,0.0,0.0,4585.128205128206,3764.615384615385,4455.384615384616,4286.153846153847,4184.102564102564,4497.435897435898,4436.923076923077,4397.435897435898,4330.769230769231,4601.025641025642,4278.461538461539,4273.846153846154,4092.820512820513,4461.538461538462
1294.1122,0.46554318,0.84009,0.39732978,0.5737576,0,0.0,0.0,0.0,0.0,0.0,0,0,0.201051,0.0,0,0,65.0,0.0,521.0,4585.641025641026,3827.1794871794878,4469.743589743591,4341.025641025642,4208.717948717949,4488.205128205129,4442.051282051282,4419.48717948718,4334.358974358975,4628.205128205129,4305.641025641026,4291.794871794872,4120.512820512821,4505.641025641026
1294.3623,0.46554318,0.84009,0.39732978,0.5737576,0,0.0,0.0,0.0,0.0,0.0,0,0,0.43807256,0.0,0,0,97.0,0.0,492.0,4567.179487179488,3830.7692307692314,4463.076923076924,4343.589743589744,4187.6923076923085,4487.6923076923085,4434.358974358975,4406.666666666667,4326.153846153847,4630.256410256411,4282.564102564103,4249.2307692307695,4108.205128205129,4465.641025641026
1294.6125,0.46579608,0.79410404,0.39366356,0.574058,0,0.0,0.0,0.0,0.0,0.26573262,0,0,0.0,0.0,0,0,0.0,0.0,267.0,4571.282051282052,3879.48717948718,4466.666666666667,4387.6923076923085,4234.871794871796,4505.641025641026,4440.000000000001,4407.179487179487,4334.871794871796,4644.102564102564,4290.769230769231,4250.769230769231,4149.2307692307695,4458.974358974359
1294.8628,0.46579608,0.79410404,0.39366356,0.574058,0,0.0,0.0,0.0,0.0,0.1864193,0,0,0.0,0.0,0,0,32.0,0.0,0.0,4567.6923076923085,3849.2307692307695,4466.153846153847,4366.666666666667,4218.974358974359,4508.717948717949,4440.000000000001,4396.923076923077,4341.538461538462,4670.256410256411,4315.8974358974365,4224.615384615385,4171.794871794872,4444.615384615385
1295.113,0.39626205,0.74837035,0.39194548,0.57432777,0,0.0,0.0,0.0,0.0,0.20769672,0,0,0.0,0.0,0,0,64.0,0.0,267.0,4554.358974358975,3880.512820512821,4480.512820512821,4395.384615384616,4250.256410256411,4522.564102564103,4452.820512820514,4404.102564102564,4348.205128205129,4680.000000000001,4347.6923076923085,4200.512820512821,4190.769230769231,4454.358974358975
1295.3632,0.39626205,0.74837035,0.39194548,0.57432777,0,0.0,0.0,0.0,0.0,0.0,0,0,0.3361327,0.0,0,0,96.0,0.0,524.0,4541.025641025642,3900.0000000000005,4481.538461538462,4401.538461538462,4244.615384615385,4512.820512820514,4430.769230769231,4407.6923076923085,4367.6923076923085,4714.871794871796,4385.128205128206,4187.6923076923085,4209.2307692307695,4479.48717948718
1295.6134,0.3571419,0.70114887,0.3836355,0.57626486,0,0.0,0.0,0.0,0.0,0.0,0,0,0.25090638,0.0,0,0,128.0,0.0,524.0,4539.48717948718,3944.1025641025644,4493.333333333334,4438.974358974359,4268.717948717949,4537.435897435898,4425.128205128206,4405.641025641026,4384.102564102564,4734.871794871796,4406.666666666667,4180.000000000001,4221.538461538462,4487.179487179488
1295.8636,0.3571419,0.70114887,0.3836355,0.57626486,0,0.0,0.0,0.0,0.0,0.0,0,0,0.4168035,0.0,0,0,31.0,0.0,0.0,4536.923076923077,3953.333333333334,4486.153846153847,4442.051282051282,4253.846153846154,4546.153846153847,4430.769230769231,4412.820512820514,4396.410256410257,4752.820512820514,4402.564102564103,4186.153846153847,4206.666666666667,4482.564102564103
1296.1139,0.32905304,0.6463804,0.37096223,0.5801588,0,0.0,0.0,0.0,0.0,0.0,0,0,0.50401926,0.0,0,0,63.0,0.0,0.0,4547.179487179488,3959.48717948718,4494.358974358975,4456.923076923077,4254.358974358975,4550.769230769231,4425.641025641026,4406.153846153847,4403.589743589744,4763.589743589744,4398.974358974359,4198.461538461539,4203.076923076924,4483.076923076924
1296.364,0.32905304,0.6463804,0.37096223,0.5801588,0,0.0,0.0,0.0,0.0,0.0,0,0,0.16797797,0.0,0,0,95.0,0.0,507.0,4552.307692307693,3989.7435897435903,4494.871794871796,4484.615384615385,4249.2307692307695,4551.282051282052,4420.000000000001,4369.743589743591,4401.025641025642,4752.820512820514,4373.333333333334,4188.717948717949,4187.6923076923085,4449.2307692307695
1296.6143,0.3248149,0.59424967,0.3530922,0.58908623,0,0.0,0.0,0.0,0.0,0.0,0,0,0.3218335,0.0,0,0,127.0,0.0,507.0,4565.128205128206,3998.9743589743593,4497.435897435898,4488.205128205129,4257.948717948719,4568.717948717949,4440.512820512821,4410.256410256411,4428.717948717949,4767.179487179488,4380.000000000001,4208.717948717949,4190.256410256411,4477.435897435898
1296.8645,0.3248149,0.59424967,0.3530922,0.58908623,0,0.0,0.0,0.0,0.0,0.0,0,0,1.0,0.0,0,0,30.0,0.0,0.0,4571.282051282052,4004.1025641025644,4496.923076923077,4492.307692307693,4241.538461538462,4565.641025641026,4440.512820512821,4408.205128205129,4420.512820512821,4757.435897435898,4363.589743589744,4216.410256410257,4180.000000000001,4493.846153846154
1297.1147,0.26693586,0.5532031,0.3375634,0.60243475,0,0.0,0.0,0.0,0.0,0.0,0,0,1.0,0.0,0,0,62.0,0.0,0.0,4570.256410256411,4011.7948717948725,4502.564102564103,4493.846153846154,4240.000000000001,4574.358974358975,4443.589743589744,4404.615384615385,4417.948717948719,4751.282051282052,4359.48717948718,4218.974358974359,4183.589743589744,4491.282051282052
1297.3649,0.26693586,0.5532031,0.3375634,0.60243475,1,0.0,0.0,0.0,0.0,0.0,0,0,0.37559184,0.0,0,0,94.0,0.0,548.0,4583.076923076924,4006.666666666667,4508.717948717949,4493.846153846154,4229.74358974359,4555.384615384616,4431.794871794872,4388.205128205129,4409.2307692307695,4733.846153846154,4341.025641025642,4214.871794871796,4175.384615384616,4482.051282051282
1297.6151,0.21404481,0.55778056,0.31831014,0.6144931,0,0.0,0.0,0.0,0.0,0.0,0,0,0.25195265,0.0,0,0,126.0,0.0,548.0,4608.717948717949,4057.9487179487182,4523.076923076924,4531.794871794872,4230.769230769231,4556.923076923077,4438.974358974359,4393.846153846154,4420.000000000001,4734.871794871796,4358.974358974359,4250.769230769231,4200.000000000001,4555.384615384616
1297.8966,0.21404481,0.55778056,0.31831014,0.6144931,0,0.0,0.0,0.0,0.0,0.0,0,0,0.3232241,0.0,0,0,33.0,0.0,0.0,4597.435897435898,3998.461538461539,4527.6923076923085,4485.128205128206,4246.666666666667,4576.410256410257,4449.743589743591,4398.974358974359,4416.410256410257,4733.846153846154,4348.205128205129,4243.076923076924,4181.538461538462,4499.48717948718
1298.1156,0.16493492,0.5931197,0.30098274,0.62608445,0,0.0,0.0,0.0,0.0,0.0,0,0,0.2632305,0.0,0,0,61.0,0.0,0.0,4588.205128205129,3945.1282051282055,4514.358974358975,4436.923076923077,4199.48717948718,4559.48717948718,4433.333333333334,4394.871794871796,4405.128205128206,4720.000000000001,4333.333333333334,4242.564102564103,4160.512820512821,4492.307692307693
1298.3658,0.16493492,0.5931197,0.30098274,0.62608445,0,0.0,0.0,0.0,0.0,0.0,0,0,0.3569276,0.0,0,0,93.0,0.0,492.0,4584.615384615385,3938.9743589743593,4516.923076923077,4439.48717948718,4208.717948717949,4553.333333333334,4441.538461538462,4385.641025641026,4408.205128205129,4720.512820512821,4311.282051282052,4217.435897435898,4140.000000000001,4456.410256410257
1298.616,0.15581293,0.62958544,0.28538936,0.6385118,0,0.0,0.0,0.0,0.0,0.0,0,0,0.29675475,0.0,0,0,125.0,0.0,492.0,4587.179487179488,3968.717948717949,4541.538461538462,4457.948717948719,4224.615384615385,4563.589743589744,4438.461538461539,4383.076923076924,4401.538461538462,4723.076923076924,4328.205128205129,4230.769230769231,4175.8974358974365,4502.051282051282
1298.8662,0.15581293,0.62958544,0.28538936,0.6385118,0,0.0,0.0,0.0,0.0,0.0,0,0,0.3567694,0.0,0,0,28.0,0.0,0.0,4593.846153846154,3989.23076923077,4544.102564102564,4464.615384615385,4240.512820512821,4570.256410256411,4445.641025641026,4401.025641025642,4413.333333333334,4734.871794871796,4341.025641025642,4250.256410256411,4194.871794871796,4510.256410256411
1299.1165,0.13968197,0.6536097,0.28034118,0.64968884,0,0.0,0.0,0.0,0.0,0.0,0,0,0.50211567,0.0,0,0,60.0,0.0,0.0,4593.846153846154,3989.23076923077,4553.333333333334,4467.179487179487,4235.384615384616,4571.794871794872,4445.641025641026,4407.6923076923085,4406.153846153847,4726.666666666667,4329.743589743591,4242.564102564103,4172.307692307693,4505.641025641026
1299.3667,0.13968197,0.6536097,0.28034118,0.64968884,0,0.0,0.0,0.0,0.0,0.0,0,0,0.14534163,0.0,0,0,92.0,0.0,524.0,4604.615384615385,3987.692307692308,4561.538461538462,4463.589743589744,4236.410256410257,4572.307692307693,4455.8974358974365,4459.48717948718,4415.384615384616,4741.538461538462,4341.538461538462,4252.820512820514,4204.615384615385,4548.717948717949
1299.6168,0.17292535,0.6332615,0.28059807,0.659411,0,0.0,0.0,0.0,0.0,0.0,0,0,0.22654927,0.0,0,0,124.0,0.0,524.0,4613.333333333334,3988.205128205129,4560.000000000001,4461.025641025642,4234.871794871796,4570.256410256411,4445.128205128206,4444.615384615385,4401.538461538462,4743.589743589744,4342.564102564103,4267.179487179487,4201.538461538462,4560.512820512821
1299.8671,0.17292535,0.6332615,0.28059807,0.659411,0,0.0,0.0,0.0,0.0,0.0,0,0,0.17238376,0.0,0,0,27.0,0.0,0.0,4607.179487179488,3980.0000000000005,4551.282051282052,4462.051282051282,4246.153846153847,4571.282051282052,4443.076923076924,4429.743589743591,4415.384615384616,4763.076923076924,4352.307692307693,4255.8974358974365,4208.205128205129,4555.384615384616
1300.1173,0.17793871,0.58395386,0.28083098,0.6681515,0,0.0,0.0,0.0,0.0,0.0,0,0,0.26145163,0.0,0,0,59.0,0.0,0.0,4610.769230769231,3976.9230769230776,4551.282051282052,4464.102564102564,4236.923076923077,4574.358974358975,4451.794871794872,4426.153846153847,4407.6923076923085,4738.974358974359,4336.410256410257,4250.769230769231,4192.307692307693,4536.923076923077
1300.3676,0.17793871,0.58395386,0.28083098,0.6681515,0,0.0,0.0,0.0,0.0,0.0,0,0,0.51199293,0.0,0,0,91.0,0.0,507.0,4633.846153846154,4008.205128205129,4553.846153846154,4494.358974358975,4219.48717948718,4566.666666666667,4455.384615384616,4421.538461538462,4388.717948717949,4707.179487179488,4326.153846153847,4271.282051282052,4182.051282051282,4566.153846153847
1300.6177,0.090908274,0.5684844,0.28104222,0.6731494,0,0.0,0.0,0.0,0.0,0.0,0,0,0.43825924,0.0,0,1,123.0,0.0,507.0,4619.48717948718,3935.3846153846157,4543.589743589744,4431.282051282052,4227.179487179487,4571.282051282052,4470.256410256411,4431.794871794872,4397.948717948719,4710.256410256411,4323.076923076924,4267.179487179487,4175.384615384616,4526.153846153847
1300.8679,0.090908274,0.5684844,0.28104222,0.6731494,0,0.0,0.0,0.0,0.0,0.0,0,0,0.19492733,0.0,0,0,26.0,0.0,0.0,4616.923076923077,3922.0512820512827,4527.6923076923085,4423.076923076924,4219.48717948718,4561.025641025642,4456.923076923077,4415.384615384616,4389.743589743591,4704.615384615386,4321.538461538462,4252.820512820514,4183.589743589744,4532.307692307693
1301.1182,0.046877027,0.5568001,0.27832323,0.67588663,0,0.0,0.0,0.0,0.0,0.0,0,0,0.8888731,0.0,0,0,58.0,0.0,0.0,4627.179487179488,3931.2820512820517,4521.538461538462,4433.333333333334,4246.666666666667,4567.6923076923085,4464.102564102564,4431.794871794872,4404.102564102564,4717.435897435898,4332.307692307693,4255.8974358974365,4191.282051282052,4545.128205128206
1301.2433,0.046877027,0.5568001,0.27832323,0.67588663,0,0.0,0.0,0.0,0.0,0.0,0,0,1.0,0.0,0,0,74.0,0.0,549.0,4617.948717948719,3929.7435897435903,4512.307692307693,4429.2307692307695,4252.307692307693,4573.333333333334,4464.102564102564,4421.025641025642,4399.48717948718,4711.282051282052,4325.128205128206,4241.538461538462,4185.641025641026,4524.615384615385
1301.6185,0.02648063,0.55334556,0.27587798,0.67761135,0,0.0,0.0,0.0,0.0,0.0,0,0,0.93676156,0.0,0,0,122.0,0.0,549.0,4631.794871794872,3926.1538461538466,4510.769230769231,4429.743589743591,4242.051282051282,4573.333333333334,4462.051282051282,4411.282051282052,4396.923076923077,4733.846153846154,4348.205128205129,4251.282051282052,4201.538461538462,4522.051282051282
1301.8688,0.02648063,0.55334556,0.27587798,0.67761135,0,0.0,0.0,0.0,0.0,0.0,0,0,0.9613049,0.0,0,0,25.0,0.0,0.0,4629.2307692307695,3937.9487179487182,4511.282051282052,4438.461538461539,4244.615384615385,4578.461538461539,4464.615384615385,4410.256410256411,4389.743589743591,4743.076923076924,4338.974358974359,4248.205128205129,4198.461538461539,4495.384615384616
1302.119,0.0,0.52135855,0.27331212,0.6764248,0,0.0,0.0,0.0,0.0,0.0,0,0,0.8474498,0.0,0,0,57.0,0.0,0.0,4631.794871794872,3964.615384615385,4515.8974358974365,4463.076923076924,4250.256410256411,4573.333333333334,4459.48717948718,4426.153846153847,4391.282051282052,4756.410256410257,4345.128205128206,4249.2307692307695,4209.74358974359,4516.410256410257
1302.3693,0.0,0.52135855,0.27331212,0.6764248,0,0.0,0.0,0.0,0.0,0.0,0,0,0.42231837,0.0,0,0,89.0,0.0,492.0,4631.282051282052,3960.5128205128212,4516.410256410257,4455.384615384616,4245.641025641026,4581.538461538462,4458.461538461539,4435.384615384616,4395.384615384616,4757.435897435898,4358.974358974359,4245.641025641026,4208.205128205129,4517.948717948719
1302.6194,0.022986986,0.4735693,0.27006605,0.6780843,0,0.0,0.0,0.0,0.0,0.0,0,0,0.412059,0.0,0,0,121.0,0.0,492.0,4637.948717948719,3985.6410256410263,4524.102564102564,4478.461538461539,4278.461538461539,4604.615384615385,4484.615384615385,4464.102564102564,4415.384615384616,4779.48717948718,4385.128205128206,4256.923076923077,4223.076923076924,4528.717948717949
1302.8696,0.022986986,0.4735693,0.27006605,0.6780843,0,0.0,0.0,0.0,0.0,0.0,0,0,0.42464393,0.0,0,0,24.0,0.0,0.0,4634.358974358975,3999.48717948718,4518.974358974359,4491.794871794872,4245.128205128206,4584.615384615385,4461.025641025642,4437.948717948719,4409.743589743591,4769.743589743591,4382.051282051282,4251.282051282052,4227.179487179487,4536.410256410257
1303.1199,0.027902173,0.43144098,0.26354185,0.67957103,0,0.0,0.0,0.0,0.0,0.0,0,0,0.32698306,0.0,0,0,56.0,0.0,0.0,4631.282051282052,3976.9230769230776,4516.410256410257,4475.384615384616,4237.435897435898,4585.641025641026,4465.128205128206,4442.051282051282,4416.410256410257,4760.512820512821,4384.102564102564,4248.717948717949,4208.717948717949,4508.717948717949
1303.3701,0.027902173,0.43144098,0.26354185,0.67957103,0,0.0,0.0,0.0,0.0,0.0,0,0,0.3270911,0.0,0,0,88.0,0.0,524.0,4638.974358974359,3985.6410256410263,4520.000000000001,4484.615384615385,4253.333333333334,4594.871794871796,4472.820512820514,4435.384615384616,4412.307692307693,4758.461538461539,4374.871794871796,4254.871794871796,4207.6923076923085,4496.923076923077
1303.6204,0.041758038,0.3872852,0.2569539,0.67608535,0,0.0,0.0,0.0,0.0,0.0,0,0,0.14522903,0.0,0,0,120.0,0.0,524.0,4631.282051282052,3932.307692307693,4515.8974358974365,4440.512820512821,4238.974358974359,4584.615384615385,4485.641025641026,4447.179487179487,4418.974358974359,4760.512820512821,4369.743589743591,4261.538461538462,4200.512820512821,4482.564102564103
1303.8705,0.041758038,0.3872852,0.2569539,0.67608535,0,0.0,0.0,0.0,0.0,0.0,0,0,0.23679854,0.0,0,0,23.0,0.0,0.0,4634.358974358975,3925.1282051282055,4510.256410256411,4438.461538461539,4246.153846153847,4580.512820512821,4480.512820512821,4444.102564102564,4423.076923076924,4744.615384615386,4363.589743589744,4258.461538461539,4189.2307692307695,4497.948717948719
1304.1207,0.0729877,0.34582287,0.24523465,0.6693497,0,0.0,0.0,0.0,0.0,0.0,0,0,0.99621844,0.0,0,0,55.0,0.0,0.0,4630.769230769231,3911.2820512820517,4501.538461538462,4419.48717948718,4213.846153846154,4572.307692307693,4473.846153846154,4429.2307692307695,4410.769230769231,4726.666666666667,4351.794871794872,4247.179487179487,4200.000000000001,4499.48717948718
1304.371,0.0729877,0.34582287,0.24523465,0.6693497,0,0.0,0.0,0.0,0.0,0.0,0,0,0.910961,0.0,0,0,87.0,0.0,507.0,4627.6923076923085,3914.8717948717954,4509.2307692307695,4424.615384615385,4241.025641025642,4568.717948717949,4473.333333333334,4432.307692307693,4414.871794871796,4721.538461538462,4351.794871794872,4242.051282051282,4195.8974358974365,4518.974358974359
1304.6212,0.09042762,0.309408,0.23469123,0.67044735,0,0.0,0.0,0.0,0.0,0.0,0,0,0.5657897,0.0,0,0,119.0,0.0,507.0,4629.743589743591,3928.717948717949,4515.8974358974365,4438.461538461539,4257.435897435898,4574.358974358975,4475.8974358974365,4438.974358974359,4427.6923076923085,4737.948717948719,4378.461538461539,4266.666666666667,4216.410256410257,4527.179487179488
1304.8713,0.09042762,0.309408,0.23469123,0.67044735,0,0.0,0.0,0.0,0.0,0.0,0,0,0.6615298,0.0,0,0,22.0,0.0,0.0,4632.820512820514,3925.1282051282055,4516.410256410257,4441.025641025642,4244.615384615385,4566.153846153847,4481.538461538462,4438.974358974359,4418.461538461539,4727.6923076923085,4369.743589743591,4273.333333333334,4190.256410256411,4500.512820512821
1305.1216,0.07572437,0.282118,0.22520657,0.676552,0,0.0,0.0,0.0,0.0,0.0,0,0,0.5007907,0.0,0,0,54.0,0.0,0.0,4633.846153846154,3917.9487179487182,4517.948717948719,4432.307692307693,4227.179487179487,4551.794871794872,4465.641025641026,4419.48717948718,4403.589743589744,4708.717948717949,4361.025641025642,4271.794871794872,4203.589743589744,4528.717948717949
1305.2467,0.07572437,0.282118,0.22520657,0.676552,0,0.0,0.0,0.0,0.0,0.0,0,0,1.0,0.0,0,0,70.0,0.0,545.0,4623.076923076924,3887.692307692308,4513.846153846154,4407.179487179487,4205.641025641026,4545.641025641026,4474.358974358975,4412.820512820514,4395.384615384616,4669.743589743591,4327.179487179487,4262.051282051282,4176.410256410257,4509.743589743591
1305.6221,0.15510507,0.26086897,0.21669295,0.68027663,0,0.0,0.0,0.0,0.0,0.0,0,0,0.25464603,0.0,0,0,118.0,0.0,549.0,4616.410256410257,3850.7692307692314,4504.102564102564,4371.794871794872,4191.794871794872,4512.307692307693,4486.153846153847,4437.948717948719,4366.153846153847,4596.410256410257,4294.358974358975,4245.128205128206,4111.282051282052,4496.923076923077
1305.8722,0.15510507,0.26086897,0.21669295,0.68027663,0,0.0,0.0,0.0,0.0,0.0,0,0,0.2307667,0.0,0,0,21.0,0.0,0.0,4602.564102564103,3875.8974358974365,4504.615384615385,4385.128205128206,4204.615384615385,4502.564102564103,4466.153846153847,4392.820512820514,4349.743589743591,4589.2307692307695,4303.589743589744,4225.641025641026,4117.948717948719,4485.128205128206
1306.1224,0.19322272,0.2461177,0.20947458,0.6812669,0,0.0,0.0,0.0,0.0,0.0,0,0,0.16372785,0.0,0,0,53.0,0.0,0.0,4598.974358974359,3895.8974358974365,4502.051282051282,4394.358974358975,4231.794871794872,4498.461538461539,4449.743589743591,4402.051282051282,4351.794871794872,4628.205128205129,4343.076923076924,4232.307692307693,4159.48717948718,4489.743589743591
1306.3727,0.19322272,0.2461177,0.20947458,0.6812669,0,0.0,0.0,0.0,0.0,0.0,0,0,0.41564888,0.0,0,0,85.0,0.0,492.0,4601.025641025642,3924.615384615385,4501.538461538462,4421.025641025642,4243.076923076924,4518.974358974359,4449.743589743591,4405.128205128206,4372.307692307693,4683.076923076924,4379.48717948718,4244.615384615385,4194.358974358975,4512.820512820514
1306.6229,0.21583697,0.23896615,0.20411043,0.68215144,0,0.0,0.0,0.0,0.0,0.0,0,0,0.285303,0.0,0,0,117.0,0.0,492.0,4598.974358974359,3960.5128205128212,4497.948717948719,4452.307692307693,4245.128205128206,4529.2307692307695,4442.564102564103,4395.384615384616,4385.641025641026,4708.205128205129,4397.948717948719,4255.8974358974365,4213.846153846154,4522.564102564103
1306.873,0.21583697,0.23896615,0.20411043,0.68215144,0,0.0,0.0,0.0,0.0,0.0,0,0,1.0,0.0,0,0,20.0,0.0,0.0,4618.461538461539,4013.333333333334,4511.282051282052,4494.358974358975,4312.307692307693,4555.8974358974365,4458.461538461539,4442.564102564103,4430.769230769231,4790.256410256411,4462.564102564103,4292.307692307693,4283.589743589744,4547.179487179488
1307.1233,0.25696597,0.24079661,0.20004438,0.6829409,0,0.0,0.0,0.0,0.0,0.0,0,0,0.84553397,0.0,0,0,52.0,0.0,0.0,4621.025641025642,4017.9487179487182,4508.717948717949,4505.641025641026,4287.6923076923085,4568.717948717949,4447.179487179487,4438.974358974359,4423.589743589744,4784.615384615386,4441.538461538462,4283.076923076924,4263.076923076924,4525.641025641026
1307.3735,0.25696597,0.24079661,0.20004438,0.6829409,0,0.0,0.0,0.0,0.0,0.0,0,0,0.56840664,0.0,0,0,84.0,0.0,523.0,4568.205128205129,3991.7948717948725,4503.589743589744,4481.538461538462,4289.74358974359,4573.333333333334,4439.48717948718,4427.179487179487,4424.615384615385,4795.8974358974365,4434.358974358975,4272.820512820514,4256.410256410257,4520.512820512821
1307.6238,0.28306553,0.2539382,0.19639042,0.6817679,0,0.0,0.0,0.0,0.0,0.0,0,0,0.5596682,0.0,0,0,116.0,0.0,523.0,4591.794871794872,4023.589743589744,4510.256410256411,4507.6923076923085,4280.000000000001,4586.153846153847,4445.128205128206,4426.666666666667,4427.6923076923085,4802.051282051282,4429.2307692307695,4281.025641025642,4260.000000000001,4526.153846153847
1307.8739,0.28306553,0.2539382,0.19639042,0.6817679,0,0.0,0.0,0.0,0.0,0.0,0,0,0.624769,0.0,0,0,19.0,0.0,0.0,4592.820512820514,4011.7948717948725,4512.307692307693,4491.282051282052,4272.820512820514,4578.974358974359,4455.8974358974365,4437.435897435898,4445.128205128206,4796.410256410257,4418.974358974359,4279.48717948718,4242.564102564103,4519.48717948718
1308.1241,0.28238094,0.28161442,0.1931075,0.6724533,0,0.0,0.0,0.0,0.0,0.0,0,0,0.22581488,0.0,0,0,51.0,0.0,0.0,4603.076923076924,4014.8717948717954,4512.307692307693,4496.410256410257,4251.282051282052,4581.538461538462,4459.48717948718,4436.410256410257,4443.076923076924,4789.2307692307695,4405.128205128206,4280.000000000001,4242.051282051282,4520.000000000001
1308.3744,0.28238094,0.28161442,0.1931075,0.6724533,1,0.0,0.0,0.0,0.0,0.0,0,0,0.3022356,0.0,0,0,83.0,0.0,507.0,4620.000000000001,4044.1025641025644,4526.153846153847,4528.717948717949,4247.179487179487,4571.282051282052,4442.564102564103,4406.666666666667,4433.846153846154,4756.923076923077,4389.743589743591,4285.128205128206,4234.358974358975,4568.205128205129
1308.6246,0.20972787,0.33538777,0.19119433,0.65527976,0,0.0,0.0,0.0,0.0,0.0,0,0,0.17634527,0.0,0,0,115.0,0.0,507.0,4622.051282051282,3982.0512820512827,4518.974358974359,4478.461538461539,4261.025641025642,4584.615384615385,4469.743589743591,4452.820512820514,4455.8974358974365,4786.153846153847,4386.153846153847,4279.48717948718,4235.384615384616,4529.743589743591
1308.8749,0.20972787,0.33538777,0.19119433,0.65527976,0,0.0,0.0,0.0,0.0,0.0,0,0,0.21669762,0.0,0,0,18.0,0.0,0.0,4626.666666666667,3968.717948717949,4513.846153846154,4463.589743589744,4233.846153846154,4570.256410256411,4462.051282051282,4434.871794871796,4448.205128205129,4762.051282051282,4363.076923076924,4270.256410256411,4225.641025641026,4543.076923076924
1309.125,0.18228811,0.36078572,0.19139448,0.63982654,0,0.0,0.0,0.0,0.0,0.0,0,0,0.41215095,0.0,0,0,50.0,0.0,0.0,4632.307692307693,3975.3846153846157,4516.410256410257,4476.410256410257,4260.000000000001,4579.48717948718,4461.025641025642,4426.153846153847,4450.769230769231,4765.641025641026,4351.282051282052,4273.333333333334,4224.615384615385,4555.8974358974365
1309.3752,0.18228811,0.36078572,0.19139448,0.63982654,0,0.0,0.0,0.0,0.0,0.0,0,0,0.5821748,0.0,0,0,82.0,0.0,549.0,4633.333333333334,3978.9743589743593,4514.358974358975,4475.384615384616,4256.923076923077,4586.666666666667,4477.435897435898,4440.512820512821,4462.564102564103,4777.948717948719,4356.410256410257,4278.461538461539,4229.2307692307695,4537.435897435898
1309.6255,0.14480378,0.36688507,0.19269514,0.62415063,0,0.0,0.0,0.0,0.0,0.0,0,0,0.47845417,0.0,0,0,114.0,0.0,549.0,4632.307692307693,3962.564102564103,4509.743589743591,4463.076923076924,4231.282051282052,4560.000000000001,4459.48717948718,4427.6923076923085,4443.076923076924,4753.333333333334,4326.153846153847,4259.48717948718,4195.384615384616,4502.051282051282
1309.8757,0.14480378,0.36688507,0.19269514,0.62415063,0,0.0,0.0,0.0,0.0,0.0,0,0,0.43543917,0.0,0,0,17.0,0.0,0.0,4644.102564102564,3979.48717948718,4509.743589743591,4469.743589743591,4249.74358974359,4571.794871794872,4463.076923076924,4424.615384615385,4438.974358974359,4756.410256410257,4334.358974358975,4267.179487179487,4209.2307692307695,4529.743589743591
1310.1259,0.12187273,0.37056494,0.19425724,0.610043,0,0.0,0.0,0.0,0.0,0.0,0,0,0.26650783,0.0,0,0,49.0,0.0,0.0,4645.641025641026,3962.0512820512827,4511.282051282052,4456.410256410257,4242.051282051282,4557.435897435898,4458.974358974359,4430.769230769231,4441.538461538462,4752.820512820514,4343.076923076924,4265.641025641026,4189.2307692307695,4531.794871794872
1310.3761,0.12187273,0.37056494,0.19425724,0.610043,0,0.0,0.0,0.0,0.0,0.0,0,0,0.5614536,0.0,0,0,81.0,0.0,492.0,4644.615384615385,3944.615384615385,4508.717948717949,4441.538461538462,4231.282051282052,4567.179487179488,4460.000000000001,4423.076923076924,4433.333333333334,4748.205128205129,4332.307692307693,4250.769230769231,4173.846153846154,4524.615384615385
1310.6263,0.08884689,0.36497638,0.19566785,0.59734607,0,0.0,0.0,0.0,0.0,0.0,0,0,0.33591792,0.0,0,0,113.0,0.0,492.0,4610.256410256411,3877.9487179487182,4495.8974358974365,4378.974358974359,4265.641025641026,4589.2307692307695,4460.000000000001,4425.128205128206,4443.589743589744,4773.333333333334,4330.769230769231,4208.205128205129,4167.179487179487,4410.256410256411
1310.8766,0.08884689,0.36497638,0.19566785,0.59734607,0,0.0,0.0,0.0,0.0,0.21191764,0,0,0.0,0.0,0,0,16.0,0.0,0.0,4613.846153846154,3902.564102564103,4503.076923076924,4391.282051282052,4283.589743589744,4596.410256410257,4477.948717948719,4432.307692307693,4433.333333333334,4749.2307692307695,4312.307692307693,4203.076923076924,4127.179487179487,4375.384615384616
1311.1267,0.05076176,0.3617904,0.19773026,0.58856446,0,0.0,0.0,0.0,0.0,0.07657551,0,0,0.0,0.0,0,0,48.0,0.0,0.0,4618.974358974359,3917.9487179487182,4512.307692307693,4399.48717948718,4264.102564102564,4576.923076923077,4445.641025641026,4428.205128205129,4427.6923076923085,4759.48717948718,4331.282051282052,4226.666666666667,4160.000000000001,4424.102564102564
1311.377,0.05076176,0.3617904,0.19773026,0.58856446,0,0.0,0.0,0.0,0.0,1.0,0,0,0.0,0.0,0,0,80.0,0.0,523.0,4569.743589743591,3912.820512820513,4512.820512820514,4397.948717948719,4263.589743589744,4574.358974358975,4454.871794871796,4426.666666666667,4438.974358974359,4788.205128205129,4380.512820512821,4260.512820512821,4225.641025641026,4508.717948717949
1311.6272,0.054310285,0.37775093,0.20347497,0.5861989,0,0.0,0.0,0.0,0.0,0.35995302,0,0,0.0,0.0,0,0,112.0,0.0,523.0,4557.948717948719,3940.5128205128212,4518.974358974359,4406.666666666667,4256.923076923077,4568.205128205129,4455.8974358974365,4423.589743589744,4427.6923076923085,4733.333333333334,4319.48717948718,4214.871794871796,4157.948717948719,4461.025641025642
1311.8774,0.054310285,0.37775093,0.20347497,0.5861989,0,0.0,0.0,0.0,0.0,0.243478,0,0,0.0,0.0,0,0,15.0,0.0,503.0,4581.538461538462,3997.9487179487182,4544.615384615385,4425.128205128206,4269.74358974359,4569.743589743591,4460.512820512821,4420.512820512821,4440.512820512821,4782.051282051282,4382.051282051282,4265.641025641026,4241.538461538462,4564.102564102564
1312.1276,0.062083233,0.4078457,0.21083032,0.58648574,0,0.0,0.0,0.0,0.0,0.37559137,0,0,0.0,0.0,0,0,47.0,0.0,0.0,4584.102564102564,4003.589743589744,4545.641025641026,4425.641025641026,4247.179487179487,4557.948717948719,4457.435897435898,4423.589743589744,4435.384615384616,4752.307692307693,4361.538461538462,4249.74358974359,4227.179487179487,4556.410256410257
1312.3778,0.062083233,0.4078457,0.21083032,0.58648574,0,0.0,0.0,0.0,0.0,0.058317043,0,0,0.0,0.0,0,0,79.0,0.0,503.0,4595.8974358974365,4005.1282051282055,4548.717948717949,4431.282051282052,4246.666666666667,4554.358974358975,4460.000000000001,4417.435897435898,4440.000000000001,4766.666666666667,4373.333333333334,4265.128205128206,4232.307692307693,4569.743589743591
1312.628,0.03127625,0.43679598,0.2207411,0.5884851,1,0.0,0.0,0.0,0.0,0.22461034,0,0,0.0,0.0,0,0,111.0,0.0,503.0,4616.410256410257,4040.0000000000005,4556.410256410257,4472.820512820514,4234.358974358975,4550.256410256411,4445.641025641026,4397.435897435898,4420.000000000001,4728.717948717949,4362.564102564103,4280.512820512821,4228.205128205129,4650.769230769231
1312.9095,0.03127625,0.43679598,0.2207411,0.5884851,1,0.0,0.0,0.0,0.0,0.2084407,0,0,0.0,0.0,0,0,18.0,0.0,0.0,4620.000000000001,4045.6410256410263,4548.717948717949,4488.205128205129,4239.48717948718,4552.820512820514,4441.538461538462,4394.871794871796,4412.820512820514,4718.974358974359,4356.923076923077,4277.948717948719,4213.846153846154,4652.820512820514
1313.1284,0.016626498,0.4992605,0.24199972,0.5939972,0,0.0,0.0,0.0,0.0,0.0,0,0,0.27295205,0.0,0,0,46.0,0.0,0.0,4620.000000000001,3994.358974358975,4545.128205128206,4448.205128205129,4247.6923076923085,4565.641025641026,4457.435897435898,4413.846153846154,4424.102564102564,4735.8974358974365,4359.48717948718,4264.102564102564,4201.538461538462,4588.205128205129
1313.3787,0.016626498,0.4992605,0.24199972,0.5939972,0,0.0,0.0,0.0,0.0,0.0,0,0,0.32443225,0.0,0,0,78.0,0.0,549.0,4616.410256410257,3985.1282051282055,4530.769230769231,4442.051282051282,4244.615384615385,4558.461538461539,4448.717948717949,4400.512820512821,4408.205128205129,4728.717948717949,4343.589743589744,4251.794871794872,4190.769230769231,4555.8974358974365
1313.6289,0.0,0.54356486,0.2651658,0.602366,0,0.0,0.0,0.0,0.0,0.0,0,0,0.27322784,0.0,0,0,110.0,0.0,549.0,4618.461538461539,3986.1538461538466,4533.846153846154,4443.589743589744,4229.2307692307695,4555.384615384616,4456.410256410257,4405.641025641026,4408.717948717949,4727.6923076923085,4339.48717948718,4254.358974358975,4189.2307692307695,4536.923076923077
1313.8792,0.0,0.54356486,0.2651658,0.602366,0,0.0,0.0,0.0,0.0,0.0,0,0,0.43550906,0.0,0,0,13.0,0.0,492.0,4623.076923076924,3994.8717948717954,4531.282051282052,4456.923076923077,4241.538461538462,4560.512820512821,4459.48717948718,4402.051282051282,4400.000000000001,4736.410256410257,4337.435897435898,4250.256410256411,4187.6923076923085,4539.48717948718
1314.1294,0.009769374,0.57390404,0.2870301,0.6098954,0,0.0,0.0,0.0,0.0,0.0,0,0,0.79879826,0.0,0,0,45.0,0.0,0.0,4630.256410256411,3995.8974358974365,4529.743589743591,4454.871794871796,4246.153846153847,4566.666666666667,4467.6923076923085,4422.051282051282,4410.769230769231,4745.641025641026,4346.153846153847,4260.512820512821,4205.128205128206,4553.333333333334
1314.3795,0.009769374,0.57390404,0.2870301,0.6098954,0,0.0,0.0,0.0,0.0,0.0,0,0,0.80540997,0.0,0,0,77.0,0.0,492.0,4633.846153846154,3993.333333333334,4531.794871794872,4461.025641025642,4253.333333333334,4564.615384615385,4458.974358974359,4421.025641025642,4415.8974358974365,4748.717948717949,4350.769230769231,4264.102564102564,4213.333333333334,4574.871794871796
1314.6298,0.0,0.54001445,0.30670908,0.6154416,0,0.0,0.0,0.0,0.0,0.0,0,0,0.6877104,0.0,0,0,109.0,0.0,492.0,4640.512820512821,3996.9230769230776,4533.333333333334,4469.2307692307695,4261.538461538462,4567.6923076923085,4460.000000000001,4414.871794871796,4411.794871794872,4758.974358974359,4350.256410256411,4268.717948717949,4216.923076923077,4554.871794871796
1314.88,0.0,0.54001445,0.30670908,0.6154416,0,0.0,0.0,0.0,0.0,0.0,0,0,0.20585437,0.0,0,0,12.0,0.0,523.0,4635.384615384616,3983.076923076924,4522.051282051282,4457.435897435898,4244.615384615385,4561.538461538462,4468.717948717949,4413.333333333334,4405.641025641026,4751.282051282052,4338.974358974359,4251.282051282052,4199.48717948718,4535.8974358974365
1315.1615,0.0,0.4983103,0.3237936,0.6204303,1,0.0,0.0,0.0,0.0,0.0,0,0,0.26010302,0.0,0,0,48.0,0.0,0.0,4673.333333333334,4093.8461538461543,4543.076923076924,4554.871794871796,4229.74358974359,4539.48717948718,4433.846153846154,4359.48717948718,4365.128205128206,4704.102564102564,4353.333333333334,4284.102564102564,4253.333333333334,4655.384615384616
1315.3804,0.0,0.4983103,0.3237936,0.6204303,0,0.0,0.0,0.0,0.0,0.0,0,0,0.34673515,0.0,0,0,76.0,0.0,523.0,4663.076923076924,4051.2820512820517,4532.307692307693,4520.512820512821,4216.410256410257,4535.384615384616,4439.48717948718,4375.384615384616,4376.923076923077,4719.48717948718,4345.128205128206,4279.48717948718,4248.717948717949,4607.179487179488
1315.6306,0.0,0.48432478,0.3284965,0.6221523,0,0.0,0.0,0.0,0.0,0.13074408,0,0,0.0,0.0,0,0,108.0,0.0,523.0,4629.2307692307695,3922.564102564103,4510.769230769231,4410.769230769231,4238.974358974359,4567.6923076923085,4476.923076923077,4450.769230769231,4411.282051282052,4746.666666666667,4288.205128205129,4233.846153846154,4174.871794871796,4449.743589743591
1315.8809,0.0,0.48432478,0.3284965,0.6221523,0,0.0,0.0,0.0,0.0,0.08009486,0,0,0.0,0.0,0,0,11.0,0.0,503.0,4629.743589743591,3916.9230769230776,4507.6923076923085,4404.102564102564,4213.846153846154,4562.051282051282,4464.102564102564,4425.128205128206,4396.410256410257,4727.6923076923085,4286.666666666667,4224.615384615385,4171.282051282052,4451.794871794872
1316.1311,0.0,0.48154306,0.3206661,0.61792195,0,0.0,0.0,0.0,0.0,0.0,0,0,0.46158287,0.0,0,0,43.0,0.0,0.0,4626.153846153847,3922.564102564103,4501.025641025642,4388.717948717949,4222.051282051282,4552.307692307693,4472.820512820514,4425.641025641026,4395.8974358974365,4736.923076923077,4300.512820512821,4239.48717948718,4166.666666666667,4471.282051282052
1316.3812,0.0,0.48154306,0.3206661,0.61792195,0,0.0,0.0,0.0,0.0,0.0,0,0,0.37721983,0.0,0,0,75.0,0.0,503.0,4625.641025641026,3925.6410256410263,4505.128205128206,4406.666666666667,4226.666666666667,4556.923076923077,4476.923076923077,4440.512820512821,4407.6923076923085,4743.589743589744,4308.205128205129,4236.923076923077,4174.358974358975,4475.384615384616
1316.6315,0.029673146,0.48539442,0.31361917,0.6081877,0,0.0,0.0,0.0,0.0,0.0,0,0,0.41696727,0.0,0,0,107.0,0.0,503.0,4631.282051282052,3928.717948717949,4506.153846153847,4414.358974358975,4228.717948717949,4562.564102564103,4478.974358974359,4428.205128205129,4394.871794871796,4736.410256410257,4322.051282051282,4248.717948717949,4192.307692307693,4490.256410256411
1316.8817,0.029673146,0.48539442,0.31361917,0.6081877,0,0.0,0.0,0.0,0.0,0.0,0,0,0.6491177,0.0,0,0,10.0,0.0,549.0,4627.179487179488,3947.1794871794878,4496.923076923077,4435.384615384616,4236.923076923077,4555.384615384616,4474.358974358975,4422.564102564103,4387.6923076923085,4725.641025641026,4313.333333333334,4231.794871794872,4172.820512820514,4479.48717948718
1317.132,0.023733094,0.4661916,0.30462047,0.59801066,0,0.0,0.0,0.0,0.0,0.0,0,0,0.7990268,0.0,0,0,42.0,0.0,0.0,4630.769230769231,3941.0256410256416,4504.615384615385,4428.717948717949,4242.564102564103,4565.128205128206,4481.538461538462,4428.205128205129,4385.641025641026,4726.153846153847,4325.128205128206,4249.74358974359,4169.74358974359,4463.076923076924
1317.3821,0.023733094,0.4661916,0.30462047,0.59801066,0,0.0,0.0,0.0,0.0,0.0,0,0,0.71705157,0.0,0,0,74.0,0.0,549.0,4627.6923076923085,3941.538461538462,4500.512820512821,4434.871794871796,4217.435897435898,4542.051282051282,4478.461538461539,4418.461538461539,4374.358974358975,4702.564102564103,4281.025641025642,4233.846153846154,4161.025641025642,4480.000000000001
1317.6323,0.028431257,0.43974182,0.29288763,0.5902669,0,0.0,0.0,0.0,0.0,0.0,0,0,0.0,0.0,0,0,106.0,0.0,549.0,4617.948717948719,3910.2564102564106,4498.974358974359,4402.051282051282,4203.589743589744,4537.948717948719,4478.461538461539,4420.512820512821,4357.435897435898,4671.794871794872,4271.282051282052,4225.641025641026,4164.102564102564,4488.205128205129
1317.8826,0.028431257,0.43974182,0.29288763,0.5902669,0,0.0,0.0,0.0,0.0,0.0,0,0,0.39793563,0.0,0,0,9.0,0.0,483.0,4602.051282051282,3875.8974358974365,4491.794871794872,4372.820512820514,4203.076923076924,4511.794871794872,4476.410256410257,4394.358974358975,4323.076923076924,4641.538461538462,4265.128205128206,4200.512820512821,4149.74358974359,4487.179487179488
1318.1328,0.110230796,0.40803814,0.28232953,0.58922714,0,0.0,0.0,0.0,0.0,0.0,0,0,0.5006335,0.0,0,0,41.0,0.0,0.0,4585.641025641026,3864.615384615385,4489.743589743591,4361.538461538462,4226.666666666667,4491.282051282052,4478.461538461539,4376.410256410257,4298.974358974359,4627.179487179488,4288.205128205129,4172.307692307693,4142.564102564103,4473.846153846154
1318.3829,0.110230796,0.40803814,0.28232953,0.58922714,0,0.0,0.0,0.0,0.0,0.0,0,0,0.6966415,0.0,0,0,73.0,0.0,483.0,4576.923076923077,3855.8974358974365,4488.205128205129,4348.717948717949,4247.179487179487,4470.769230769231,4457.948717948719,4353.846153846154,4285.128205128206,4633.846153846154,4300.000000000001,4154.871794871796,4132.307692307693,4483.589743589744
1318.6332,0.12702061,0.36912602,0.27282912,0.5888547,0,0.0,0.0,0.0,0.0,0.0,0,0,0.0,0.0,0,0,105.0,0.0,492.0,4570.769230769231,3854.8717948717954,4489.743589743591,4346.153846153847,4247.6923076923085,4467.179487179487,4440.000000000001,4358.461538461539,4294.358974358975,4666.666666666667,4336.410256410257,4157.948717948719,4151.794871794872,4506.666666666667
1318.8834,0.12702061,0.36912602,0.27282912,0.5888547,0,0.0,0.0,0.0,0.0,0.0,0,0,0.2236531,0.0,0,0,8.0,0.0,394.0,4572.820512820514,3862.564102564103,4483.589743589744,4353.333333333334,4250.256410256411,4472.820512820514,4423.589743589744,4375.8974358974365,4310.256410256411,4679.48717948718,4354.871794871796,4161.538461538462,4161.538461538462,4504.615384615385
1319.1337,0.1492104,0.3370858,0.26275364,0.590407,0,0.0,0.0,0.0,0.0,0.0,0,0,0.18905921,0.0,0,0,40.0,0.0,0.0,4584.615384615385,3905.6410256410263,4495.8974358974365,4399.48717948718,4281.025641025642,4501.025641025642,4428.717948717949,4402.051282051282,4337.948717948719,4721.538461538462,4381.025641025642,4190.769230769231,4179.48717948718,4508.205128205129
1319.3839,0.1492104,0.3370858,0.26275364,0.590407,0,0.0,0.0,0.0,0.0,0.0,0,0,0.3465294,0.0,0,0,72.0,0.0,395.0,4582.564102564103,3913.333333333334,4502.051282051282,4408.717948717949,4252.820512820514,4508.717948717949,4419.48717948718,4390.769230769231,4337.435897435898,4717.435897435898,4389.743589743591,4199.48717948718,4176.923076923077,4485.641025641026
1319.634,0.13223165,0.31892446,0.25311908,0.591803,0,0.0,0.0,0.0,0.0,0.0,0,0,1.0,0.0,0,0,104.0,0.0,523.0,4582.564102564103,3882.0512820512827,4505.641025641026,4385.641025641026,4237.435897435898,4506.666666666667,4427.179487179487,4392.307692307693,4336.410256410257,4700.512820512821,4383.589743589744,4217.435897435898,4166.666666666667,4508.205128205129
1319.8843,0.13223165,0.31892446,0.25311908,0.591803,0,0.0,0.0,0.0,0.0,0.0,0,0,0.54476726,0.0,0,0,7.0,0.0,464.0,4584.615384615385,3858.9743589743593,4522.051282051282,4364.102564102564,4224.615384615385,4497.948717948719,4452.307692307693,4411.794871794872,4325.641025641026,4668.205128205129,4360.512820512821,4247.179487179487,4146.666666666667,4491.794871794872
1320.1345,0.12483632,0.30123264,0.24445124,0.5930582,0,0.0,0.0,0.0,0.0,0.0,0,0,0.18810685,0.0,0,0,39.0,0.0,0.0,4569.2307692307695,3840.0000000000005,4520.000000000001,4339.48717948718,4205.641025641026,4476.410256410257,4436.410256410257,4421.025641025642,4329.743589743591,4659.48717948718,4354.358974358975,4240.512820512821,4149.74358974359,4495.384615384616
1320.3848,0.12483632,0.30123264,0.24445124,0.5930582,0,0.0,0.0,0.0,0.0,0.14787245,0,0,0.0,0.0,0,0,71.0,0.0,464.0,4596.410256410257,3943.076923076924,4535.384615384616,4429.743589743591,4222.564102564103,4468.717948717949,4412.307692307693,4384.102564102564,4312.307692307693,4655.384615384616,4375.384615384616,4260.000000000001,4213.333333333334,4613.333333333334
1320.6349,0.150712,0.30035803,0.23665377,0.5969964,0,0.0,0.0,0.0,0.0,0.117098115,0,0,0.0,0.0,0,1,103.0,0.0,504.0,4574.871794871796,3930.7692307692314,4532.307692307693,4413.846153846154,4246.666666666667,4481.025641025642,4402.051282051282,4382.051282051282,4332.307692307693,4700.512820512821,4385.128205128206,4255.8974358974365,4216.923076923077,4548.205128205129
1320.8851,0.150712,0.30035803,0.23665377,0.5969964,0,0.0,0.0,0.0,0.0,0.4299205,0,0,0.0,0.0,0,0,6.0,0.0,545.0,4558.461538461539,3921.0256410256416,4513.846153846154,4395.384615384616,4243.589743589744,4501.025641025642,4405.641025641026,4411.794871794872,4363.076923076924,4725.641025641026,4383.589743589744,4246.666666666667,4202.564102564103,4491.794871794872
1321.1354,0.11717463,0.30077353,0.22864072,0.60342354,0,0.0,0.0,0.0,0.0,0.20906606,0,0,0.0,0.0,0,0,38.0,0.0,0.0,4566.153846153847,3950.2564102564106,4510.769230769231,4418.974358974359,4249.2307692307695,4510.256410256411,4412.820512820514,4411.794871794872,4374.358974358975,4745.641025641026,4396.410256410257,4280.512820512821,4210.256410256411,4471.794871794872
1321.3856,0.11717463,0.30077353,0.22864072,0.60342354,0,0.0,0.0,0.0,0.0,0.10982085,0,0,0.0,0.0,0,0,70.0,0.0,545.0,4570.769230769231,3894.358974358975,4501.025641025642,4372.307692307693,4213.333333333334,4503.589743589744,4423.589743589744,4393.846153846154,4350.256410256411,4692.820512820514,4348.717948717949,4264.102564102564,4180.512820512821,4454.871794871796
1321.6357,0.16969709,0.3102735,0.2221034,0.602091,0,0.0,0.0,0.0,0.0,0.0546677,0,0,0.0,0.0,0,0,102.0,0.0,549.0,4550.769230769231,3787.1794871794878,4477.948717948719,4284.615384615385,4147.6923076923085,4450.769230769231,4417.435897435898,4358.461538461539,4294.871794871796,4590.256410256411,4239.48717948718,4178.974358974359,4086.1538461538466,4385.128205128206
1321.886,0.16969709,0.3102735,0.2221034,0.602091,0,0.0,0.0,0.0,0.0,0.06703394,0,0,0.0,0.0,0,0,5.0,0.0,573.0,4538.461538461539,3753.8461538461543,4477.435897435898,4247.6923076923085,4163.589743589744,4407.6923076923085,4391.282051282052,4330.256410256411,4296.410256410257,4584.615384615385,4229.74358974359,4088.205128205129,4095.8974358974365,4374.358974358975
1322.1362,0.33306777,0.31307086,0.2162244,0.60384625,0,0.0,0.0,0.0,0.0,0.0,0,0,0.45687398,0.0,0,0,37.0,0.0,0.0,4506.666666666667,3770.2564102564106,4467.6923076923085,4248.205128205129,4164.102564102564,4383.076923076924,4360.000000000001,4290.256410256411,4295.8974358974365,4598.461538461539,4213.846153846154,4041.0256410256416,4100.000000000001,4344.102564102564
1322.4177,0.33306777,0.31307086,0.2162244,0.60384625,0,0.0,0.0,0.0,0.0,0.0,0,0,0.0,0.0,0,1,73.0,0.0,485.0,4500.512820512821,3896.9230769230776,4482.564102564103,4357.435897435898,4218.974358974359,4408.205128205129,4357.948717948719,4329.743589743591,4323.589743589744,4662.051282051282,4289.2307692307695,4056.9230769230776,4205.641025641026,4470.256410256411
1322.6366,0.39745772,0.32605746,0.2103309,0.606448,0,0.0,0.0,0.0,0.0,0.19445188,0,0,0.0,0.0,0,1,101.0,0.0,492.0,4463.076923076924,3882.564102564103,4469.2307692307695,4341.025641025642,4232.820512820514,4417.435897435898,4347.179487179487,4371.794871794872,4344.615384615385,4701.538461538462,4314.358974358975,4048.717948717949,4190.769230769231,4418.461538461539
1322.8868,0.39745772,0.32605746,0.2103309,0.606448,0,0.0,0.0,0.0,0.0,0.1691408,0,0,0.0,0.0,0,0,4.0,0.0,573.0,4457.948717948719,3925.1282051282055,4475.8974358974365,4382.564102564103,4268.717948717949,4448.717948717949,4348.717948717949,4394.871794871796,4365.128205128206,4729.743589743591,4343.589743589744,4097.948717948719,4213.333333333334,4425.128205128206
1323.1371,0.47516736,0.3285648,0.20503189,0.6087876,0,0.0,0.0,0.0,0.0,0.13674639,0,0,0.0,0.0,0,0,36.0,0.0,0.0,4503.589743589744,4090.7692307692314,4486.666666666667,4539.48717948718,4285.641025641026,4454.358974358975,4344.615384615385,4383.076923076924,4356.923076923077,4718.974358974359,4398.974358974359,4193.846153846154,4296.410256410257,4603.076923076924
1323.3873,0.47516736,0.3285648,0.20503189,0.6087876,0,0.0,0.0,0.0,0.0,0.0,0,0,0.22675385,0.0,0,0,68.0,0.0,573.0,4476.923076923077,3943.589743589744,4469.2307692307695,4425.641025641026,4263.076923076924,4492.820512820514,4393.333333333334,4395.384615384616,4369.743589743591,4731.282051282052,4376.410256410257,4186.666666666667,4202.564102564103,4442.564102564103
1323.6375,0.49662885,0.3571179,0.2002681,0.60986716,0,0.0,0.0,0.0,0.0,0.0,0,0,0.033362634,0.0,0,0,100.0,0.0,525.0,4472.820512820514,3873.8461538461543,4466.666666666667,4357.948717948719,4232.307692307693,4476.923076923077,4404.102564102564,4383.589743589744,4348.205128205129,4684.102564102564,4311.282051282052,4138.974358974359,4164.615384615385,4395.8974358974365
1323.8877,0.49662885,0.3571179,0.2002681,0.60986716,0,0.0,0.0,0.0,0.0,0.0,0,0,0.1730404,0.0,0,0,3.0,0.0,557.0,4456.923076923077,3845.6410256410263,4470.769230769231,4321.538461538462,4215.384615384616,4425.128205128206,4387.179487179487,4369.2307692307695,4341.025641025642,4678.461538461539,4301.025641025642,4103.589743589744,4169.74358974359,4422.051282051282
1324.138,0.4342099,0.38403508,0.20157573,0.6096254,0,0.0,0.0,0.0,0.0,0.32176316,0,0,0.0,0.0,0,0,35.0,0.0,0.0,4438.461538461539,3850.2564102564106,4459.48717948718,4309.2307692307695,4241.025641025642,4437.948717948719,4371.282051282052,4365.128205128206,4354.871794871796,4704.102564102564,4312.307692307693,4088.717948717949,4203.076923076924,4438.974358974359
1324.3882,0.4342099,0.38403508,0.20157573,0.6096254,0,0.0,0.0,0.0,0.0,0.0,0,0,0.6212901,0.0,0,0,67.0,0.0,557.0,4419.48717948718,3855.8974358974365,4450.769230769231,4303.589743589744,4264.615384615385,4460.000000000001,4360.000000000001,4381.538461538462,4368.205128205129,4731.794871794872,4330.256410256411,4150.256410256411,4209.2307692307695,4435.384615384616
1324.6384,0.4319546,0.37020758,0.20792225,0.6046548,0,0.0,0.0,0.0,0.0,0.0,0,0,0.061887167,0.0,0,0,99.0,0.0,511.0,4428.205128205129,3904.1025641025644,4455.8974358974365,4338.461538461539,4292.307692307693,4478.461538461539,4348.717948717949,4419.48717948718,4390.256410256411,4761.538461538462,4374.871794871796,4210.769230769231,4223.589743589744,4462.051282051282
1324.8885,0.4319546,0.37020758,0.20792225,0.6046548,0,0.0,0.0,0.0,0.0,0.0,0,0,0.28008786,0.0,0,0,2.0,0.0,205.0,4440.512820512821,3944.1025641025644,4450.769230769231,4376.923076923077,4297.948717948719,4497.948717948719,4364.615384615385,4428.205128205129,4391.794871794872,4756.410256410257,4388.717948717949,4255.8974358974365,4213.846153846154,4475.8974358974365
1325.1388,0.47768766,0.34935415,0.21363749,0.5976759,0,0.0,0.0,0.0,0.0,0.0,0,0,0.74996006,0.0,0,0,34.0,0.0,0.0,4462.051282051282,4022.0512820512827,4471.794871794872,4452.820512820514,4302.051282051282,4525.641025641026,4378.974358974359,4462.564102564103,4407.179487179487,4770.769230769231,4426.153846153847,4331.282051282052,4241.025641025642,4508.717948717949
1325.389,0.47768766,0.34935415,0.21363749,0.5976759,0,0.0,0.0,0.0,0.0,0.0,0,0,0.8491672,0.0,0,0,66.0,0.0,205.0,4487.179487179488,4025.6410256410263,4473.333333333334,4469.743589743591,4291.794871794872,4540.000000000001,4388.717948717949,4458.461538461539,4414.358974358975,4771.794871794872,4410.769230769231,4381.538461538462,4225.641025641026,4526.153846153847
1325.6393,0.47747222,0.3318009,0.2187845,0.5913941,0,0.0,0.0,0.0,0.0,0.0,0,0,0.2962425,0.0,0,0,98.0,0.0,549.0,4506.153846153847,4051.2820512820517,4489.743589743591,4503.589743589744,4304.615384615385,4571.282051282052,4408.205128205129,4450.256410256411,4420.512820512821,4781.025641025642,4413.846153846154,4446.153846153847,4235.8974358974365,4546.666666666667
1325.8894,0.47747222,0.3318009,0.2187845,0.5913941,0,0.0,0.0,0.0,0.0,0.0,0,0,1.0,0.0,0,0,1.0,0.0,522.0,4536.923076923077,4050.7692307692314,4497.948717948719,4512.820512820514,4296.410256410257,4596.923076923077,4432.820512820514,4474.358974358975,4437.948717948719,4784.615384615386,4424.615384615385,4492.820512820514,4236.410256410257,4552.307692307693
1326.1396,0.48860988,0.3274755,0.22307402,0.5893059,0,0.0,0.0,0.0,0.0,0.0,0,0,1.0,0.0,0,0,33.0,0.0,0.0,4557.948717948719,4048.205128205129,4501.025641025642,4518.974358974359,4275.384615384616,4601.025641025642,4435.8974358974365,4472.820512820514,4441.025641025642,4774.871794871796,4423.589743589744,4509.743589743591,4230.769230769231,4552.820512820514
1326.3899,0.48860988,0.3274755,0.22307402,0.5893059,0,0.0,0.0,0.0,0.0,0.22063963,0,0,0.0,0.0,0,0,65.0,0.0,521.0,4572.307692307693,4060.5128205128212,4513.333333333334,4538.974358974359,4274.358974358975,4611.282051282052,4429.2307692307695,4427.6923076923085,4418.461538461539,4751.282051282052,4405.128205128206,4488.717948717949,4205.641025641026,4527.179487179488
1326.6401,0.5395091,0.3263016,0.22398804,0.5910597,0,0.0,0.0,0.0,0.0,0.11579831,0,0,0.0,0.0,0,0,97.0,0.0,487.0,4584.615384615385,4026.666666666667,4513.333333333334,4516.923076923077,4267.179487179487,4617.948717948719,4441.538461538462,4436.410256410257,4422.564102564103,4752.820512820514,4383.076923076924,4455.384615384616,4183.589743589744,4502.564102564103
1326.8903,0.5395091,0.3263016,0.22398804,0.5910597,0,0.0,0.0,0.0,0.0,0.27343652,0,0,0.0,0.0,0,0,0.0,0.0,268.0,4646.153846153847,4150.256410256411,4547.179487179488,4618.974358974359,4255.8974358974365,4594.871794871796,4424.102564102564,4416.923076923077,4406.153846153847,4727.6923076923085,4415.384615384616,4490.769230769231,4265.128205128206,4676.923076923077
1327.1405,0.45430443,0.33842322,0.22071618,0.5964941,0,0.0,0.0,0.0,0.0,0.18318145,0,0,0.0,0.0,0,0,32.0,0.0,0.0,4609.2307692307695,3998.9743589743593,4523.076923076924,4491.282051282052,4227.179487179487,4590.769230769231,4450.256410256411,4425.128205128206,4404.102564102564,4723.076923076924,4360.000000000001,4412.307692307693,4161.025641025642,4504.102564102564
1327.3907,0.45430443,0.33842322,0.22071618,0.5964941,0,0.0,0.0,0.0,0.0,0.092720896,0,0,0.0,0.0,0,0,64.0,0.0,268.0,4614.358974358975,3953.8461538461543,4516.923076923077,4461.025641025642,4226.666666666667,4576.923076923077,4444.615384615385,4417.435897435898,4383.076923076924,4694.358974358975,4320.000000000001,4370.769230769231,4138.461538461539,4468.205128205129
1327.641,0.48645478,0.34851196,0.2177757,0.60169643,0,0.0,0.0,0.0,0.0,0.104721874,0,0,0.0,0.0,0,0,96.0,0.0,522.0,4605.128205128206,3909.7435897435903,4513.846153846154,4416.923076923077,4199.48717948718,4553.846153846154,4442.051282051282,4421.538461538462,4368.717948717949,4663.076923076924,4276.923076923077,4320.000000000001,4096.923076923077,4434.871794871796
1327.8911,0.48645478,0.34851196,0.2177757,0.60169643,0,0.0,0.0,0.0,0.0,0.0,0,0,0.23371223,0.0,0,0,128.0,0.0,522.0,4607.6923076923085,3888.717948717949,4512.820512820514,4396.410256410257,4212.820512820514,4555.384615384616,4441.025641025642,4410.256410256411,4362.564102564103,4660.512820512821,4258.461538461539,4292.820512820514,4107.6923076923085,4437.435897435898
1328.1414,0.48871493,0.3547227,0.2160193,0.6063766,0,0.0,0.0,0.0,0.0,0.0,0,0,1.0,0.0,0,0,31.0,0.0,0.0,4595.8974358974365,3890.7692307692314,4508.717948717949,4395.8974358974365,4212.307692307693,4536.410256410257,4429.743589743591,4400.000000000001,4357.948717948719,4668.205128205129,4264.102564102564,4263.589743589744,4114.871794871796,4426.153846153847
1328.3916,0.48871493,0.3547227,0.2160193,0.6063766,0,0.0,0.0,0.0,0.0,0.0,0,0,0.3334853,0.0,0,0,63.0,0.0,0.0,4597.948717948719,3929.7435897435903,4512.820512820514,4427.179487179487,4233.846153846154,4541.025641025642,4426.153846153847,4413.333333333334,4371.282051282052,4714.358974358975,4317.435897435898,4284.615384615385,4157.435897435898,4466.666666666667
1328.6418,0.49650642,0.35113484,0.21181001,0.61058646,0,0.0,0.0,0.0,0.0,0.0,0,0,0.0,0.0,0,0,95.0,0.0,508.0,4600.512820512821,3953.333333333334,4514.358974358975,4441.538461538462,4232.820512820514,4540.000000000001,4427.179487179487,4414.358974358975,4374.871794871796,4717.435897435898,4340.512820512821,4282.051282051282,4188.205128205129,4485.641025641026
1328.6418,0.49650642,0.35113484,0.21181001,0.61058646,0,0.0,0.0,0.0,0.0,0.0,0,0,0.0,0.0,0,0,95.0,0.0,508.0,4600.512820512821,3953.333333333334,4514.358974358975,4441.538461538462,4232.820512820514,4540.000000000001,4427.179487179487,4414.358974358975,4374.871794871796,4717.435897435898,4340.512820512821,4282.051282051282,4188.205128205129,4485.641025641026
1329.1422,0.47398672,0.32798764,0.20765989,0.61107683,0,0.0,0.0,0.0,0.0,0.0,0,0,0.51096153,0.0,0,0,30.0,0.0,0.0,4586.666666666667,3973.8461538461543,4514.358974358975,4462.051282051282,4245.641025641026,4560.000000000001,4438.974358974359,4420.512820512821,4393.846153846154,4742.051282051282,4373.846153846154,4284.102564102564,4213.846153846154,4502.564102564103
1329.3925,0.47398672,0.32798764,0.20765989,0.61107683,0,0.0,0.0,0.0,0.0,0.0,0,0,0.17968372,0.0,0,0,62.0,0.0,0.0,4599.48717948718,3992.307692307693,4520.000000000001,4478.461538461539,4241.538461538462,4557.435897435898,4441.538461538462,4411.794871794872,4393.846153846154,4750.256410256411,4392.307692307693,4295.8974358974365,4231.794871794872,4537.948717948719
1329.6427,0.45485517,0.31586364,0.20392974,0.6099328,0,0.0,0.0,0.0,0.0,0.0,0,0,0.4867662,0.0,0,0,94.0,0.0,549.0,4593.333333333334,4002.0512820512827,4523.076923076924,4488.205128205129,4252.820512820514,4568.205128205129,4448.717948717949,4418.974358974359,4400.000000000001,4743.076923076924,4382.051282051282,4293.333333333334,4210.769230769231,4521.538461538462
1329.8928,0.45485517,0.31586364,0.20392974,0.6099328,0,0.0,0.0,0.0,0.0,0.0,0,0,0.0,0.0,0,0,126.0,0.0,549.0,4597.435897435898,3995.3846153846157,4525.641025641026,4478.461538461539,4261.025641025642,4570.769230769231,4448.717948717949,4415.8974358974365,4402.564102564103,4752.820512820514,4380.000000000001,4295.8974358974365,4211.282051282052,4508.717948717949
1330.1431,0.46164724,0.30121094,0.200692,0.6089016,0,0.0,0.0,0.0,0.0,0.0,0,0,0.64274263,0.0,0,0,29.0,0.0,0.0,4620.512820512821,4042.0512820512827,4539.48717948718,4522.564102564103,4242.564102564103,4561.538461538462,4450.769230769231,4414.871794871796,4402.051282051282,4734.871794871796,4376.410256410257,4322.051282051282,4226.153846153847,4547.179487179488
1330.3933,0.46164724,0.30121094,0.200692,0.6089016,1,0.0,0.0,0.0,0.0,0.0,0,0,0.48358437,0.0,0,0,61.0,0.0,0.0,4613.846153846154,4007.692307692308,4532.820512820514,4493.846153846154,4222.564102564103,4544.615384615385,4454.358974358975,4414.871794871796,4398.974358974359,4706.666666666667,4355.8974358974365,4300.512820512821,4189.74358974359,4510.256410256411
1330.6436,0.41774863,0.29579255,0.19742246,0.6079182,0,0.0,0.0,0.0,0.0,0.0,0,0,0.087552354,0.0,0,0,93.0,0.0,487.0,4589.743589743591,3924.615384615385,4517.948717948719,4411.282051282052,4227.6923076923085,4551.282051282052,4466.666666666667,4424.102564102564,4384.102564102564,4688.717948717949,4312.820512820514,4250.769230769231,4148.205128205129,4438.974358974359
1330.8938,0.41774863,0.29579255,0.19742246,0.6079182,0,0.0,0.0,0.0,0.0,0.0,0,0,0.16309121,0.0,0,0,125.0,0.0,487.0,4584.615384615385,3907.1794871794878,4512.307692307693,4394.358974358975,4238.461538461539,4528.717948717949,4461.025641025642,4406.153846153847,4370.256410256411,4672.307692307693,4309.2307692307695,4221.025641025642,4145.128205128206,4452.307692307693
1331.1439,0.38343105,0.28410462,0.1935453,0.60703164,0,0.0,0.0,0.0,0.0,0.39055464,0,0,0.0,0.0,0,0,28.0,0.0,0.0,4572.307692307693,3906.1538461538466,4510.769230769231,4391.282051282052,4244.615384615385,4532.820512820514,4451.794871794872,4407.179487179487,4374.358974358975,4677.948717948719,4307.6923076923085,4198.461538461539,4149.2307692307695,4454.871794871796
1331.3942,0.38343105,0.28410462,0.1935453,0.60703164,0,0.0,0.0,0.0,0.0,0.0,0,0,0.0,0.0,0,0,60.0,0.0,0.0,4538.974358974359,3865.6410256410263,4483.076923076924,4343.589743589744,4266.666666666667,4538.974358974359,4449.743589743591,4423.076923076924,4379.48717948718,4698.974358974359,4297.435897435898,4154.871794871796,4108.717948717949,4370.256410256411
1331.6444,0.29839897,0.27881366,0.19006151,0.6055585,0,0.0,0.0,0.0,0.0,0.0,0,0,0.7689784,0.0,0,0,92.0,0.0,522.0,4552.307692307693,3894.8717948717954,4484.102564102564,4379.48717948718,4261.025641025642,4536.923076923077,4441.025641025642,4406.666666666667,4384.615384615385,4705.641025641026,4300.000000000001,4167.6923076923085,4108.717948717949,4393.333333333334
1331.8947,0.29839897,0.27881366,0.19006151,0.6055585,0,0.0,0.0,0.0,0.0,0.0,0,0,0.14493671,0.0,0,0,124.0,0.0,522.0,4558.461538461539,3926.1538461538466,4484.102564102564,4402.564102564103,4250.769230769231,4538.974358974359,4434.358974358975,4407.179487179487,4386.666666666667,4705.128205128206,4312.820512820514,4186.666666666667,4135.8974358974365,4421.025641025642
1332.1448,0.23819229,0.27941707,0.18704633,0.6031876,0,0.0,0.0,0.0,0.0,0.0,0,0,0.2848111,0.0,0,0,27.0,0.0,0.0,4574.358974358975,3944.615384615385,4487.179487179488,4428.717948717949,4252.307692307693,4550.769230769231,4439.48717948718,4413.846153846154,4400.000000000001,4746.666666666667,4348.205128205129,4215.384615384616,4169.74358974359,4442.564102564103
1332.395,0.23819229,0.27941707,0.18704633,0.6031876,0,0.0,0.0,0.0,0.0,0.0,0,0,0.0,0.0,0,0,59.0,0.0,0.0,4587.179487179488,3941.0256410256416,4488.205128205129,4427.6923076923085,4236.923076923077,4555.8974358974365,4457.948717948719,4415.8974358974365,4400.512820512821,4732.820512820514,4352.307692307693,4237.948717948719,4181.025641025642,4462.564102564103
1332.6453,0.19190693,0.27195695,0.18554309,0.6017048,0,0.0,0.0,0.0,0.0,0.24238116,0,0,0.0,0.0,0,0,91.0,0.0,509.0,4592.307692307693,3945.1282051282055,4490.256410256411,4434.871794871796,4238.974358974359,4552.820512820514,4454.358974358975,4406.666666666667,4391.794871794872,4692.820512820514,4311.282051282052,4235.384615384616,4143.589743589744,4442.051282051282
1332.7704,0.19190693,0.27195695,0.18554309,0.6017048,0,0.0,0.0,0.0,0.0,0.0,0,0,0.0,0.0,0,0,107.0,0.0,509.0,4598.974358974359,3941.538461538462,4485.641025641026,4436.410256410257,4230.256410256411,4556.410256410257,4447.6923076923085,4395.8974358974365,4380.512820512821,4681.538461538462,4300.512820512821,4240.000000000001,4139.48717948718,4435.8974358974365
1333.1456,0.13302481,0.29636168,0.1860271,0.60036886,1,0.0,0.0,0.0,0.0,0.338833,0,0,0.0,0.0,0,0,26.0,0.0,0.0,4631.794871794872,3973.333333333334,4497.948717948719,4468.717948717949,4229.2307692307695,4540.000000000001,4445.641025641026,4396.923076923077,4375.8974358974365,4684.615384615386,4340.000000000001,4287.179487179487,4215.8974358974365,4568.205128205129
1333.3959,0.13302481,0.29636168,0.1860271,0.60036886,0,0.0,0.0,0.0,0.0,0.20429868,0,0,0.0,0.0,0,0,58.0,0.0,0.0,4640.000000000001,3964.615384615385,4489.2307692307695,4463.589743589744,4222.051282051282,4543.076923076924,4454.358974358975,4409.2307692307695,4383.589743589744,4695.384615384616,4340.000000000001,4284.102564102564,4203.076923076924,4524.102564102564
1333.6461,0.09499648,0.3347274,0.18815182,0.60354984,0,0.0,0.0,0.0,0.0,0.6087747,0,0,0.0,0.0,0,0,90.0,0.0,549.0,4641.538461538462,3926.1538461538466,4484.102564102564,4431.282051282052,4221.538461538462,4534.871794871796,4456.923076923077,4408.717948717949,4379.48717948718,4695.8974358974365,4345.128205128206,4272.307692307693,4199.48717948718,4501.025641025642
1333.8964,0.09499648,0.3347274,0.18815182,0.60354984,0,0.0,0.0,0.0,0.0,0.15084219,0,0,0.0,0.0,0,0,122.0,0.0,549.0,4645.128205128206,3915.3846153846157,4485.641025641026,4426.153846153847,4212.820512820514,4527.6923076923085,4458.461538461539,4394.358974358975,4378.461538461539,4696.410256410257,4322.564102564103,4250.769230769231,4186.666666666667,4483.076923076924
1334.1465,0.071686365,0.3688755,0.1918632,0.6205636,0,0.0,0.0,0.0,0.0,0.0,0,0,0.5588862,0.0,0,0,25.0,0.0,0.0,4642.564102564103,3924.615384615385,4494.358974358975,4425.641025641026,4234.358974358975,4526.153846153847,4472.820512820514,4396.923076923077,4378.974358974359,4706.666666666667,4320.000000000001,4249.2307692307695,4183.589743589744,4476.410256410257
1334.3967,0.071686365,0.3688755,0.1918632,0.6205636,0,0.0,0.0,0.0,0.0,0.0,0,0,0.51673937,0.0,0,0,57.0,0.0,0.0,4646.666666666667,3945.6410256410263,4502.564102564103,4438.974358974359,4235.384615384616,4528.717948717949,4466.153846153847,4399.48717948718,4381.025641025642,4728.717948717949,4348.717948717949,4256.410256410257,4210.769230769231,4510.256410256411
1334.647,0.07138186,0.36839837,0.20140265,0.63587,0,0.0,0.0,0.0,0.0,0.0,0,0,0.13505954,0.0,0,0,89.0,0.0,490.0,4687.6923076923085,4031.7948717948725,4535.384615384616,4494.358974358975,4253.846153846154,4524.615384615385,4458.974358974359,4396.923076923077,4384.615384615385,4746.153846153847,4413.846153846154,4314.358974358975,4333.846153846154,4673.846153846154
1334.8972,0.07138186,0.36839837,0.20140265,0.63587,0,0.0,0.0,0.0,0.0,0.21573858,0,0,0.0,0.0,0,1,121.0,0.0,490.0,4685.128205128206,4003.589743589744,4542.564102564103,4483.589743589744,4250.769230769231,4526.153846153847,4453.846153846154,4398.461538461539,4400.512820512821,4792.307692307693,4450.256410256411,4318.461538461539,4335.384615384616,4648.205128205129
1335.1473,0.066090345,0.36859816,0.20999116,0.6496378,0,0.0,0.0,0.0,0.0,0.13470487,0,0,0.0,0.0,0,0,24.0,0.0,0.0,4640.512820512821,3873.8461538461543,4517.435897435898,4367.179487179487,4248.717948717949,4554.871794871796,4498.461538461539,4445.641025641026,4393.846153846154,4752.820512820514,4388.717948717949,4244.102564102564,4212.307692307693,4482.051282051282
1335.3976,0.066090345,0.36859816,0.20999116,0.6496378,0,0.0,0.0,0.0,0.0,0.044228725,0,0,0.0,0.0,0,0,56.0,0.0,0.0,4631.794871794872,3799.48717948718,4512.820512820514,4300.000000000001,4201.025641025642,4522.564102564103,4500.512820512821,4414.871794871796,4327.179487179487,4670.769230769231,4314.358974358975,4189.2307692307695,4146.666666666667,4441.538461538462
1335.6478,0.15571162,0.37116432,0.21924883,0.6603013,0,0.0,0.0,0.0,0.0,0.16980918,0,0,0.0,0.0,0,0,88.0,0.0,522.0,4629.2307692307695,3787.692307692308,4517.435897435898,4281.538461538462,4211.282051282052,4481.025641025642,4463.076923076924,4395.8974358974365,4297.435897435898,4651.794871794872,4295.8974358974365,4128.717948717949,4124.615384615385,4431.794871794872
1335.773,0.15571162,0.37116432,0.21924883,0.6603013,0,0.0,0.0,0.0,0.0,0.0,0,0,0.0,0.0,0,0,104.0,0.0,522.0,4630.256410256411,3804.1025641025644,4530.769230769231,4289.2307692307695,4223.076923076924,4477.435897435898,4450.256410256411,4387.6923076923085,4292.820512820514,4658.974358974359,4311.282051282052,4132.820512820514,4146.153846153847,4452.307692307693
1336.1483,0.15140508,0.36258933,0.23062684,0.65325636,0,0.0,0.0,0.0,0.0,0.0,0,0,0.0,0.0,0,0,23.0,0.0,0.0,4622.051282051282,3836.410256410257,4530.256410256411,4315.384615384616,4229.2307692307695,4458.974358974359,4427.6923076923085,4386.153846153847,4314.358974358975,4697.948717948719,4335.384615384616,4110.256410256411,4188.717948717949,4421.025641025642
1336.3984,0.15140508,0.36258933,0.23062684,0.65325636,0,0.0,0.0,0.0,0.0,0.05783408,0,0,0.0,0.0,0,0,55.0,0.0,0.0,4613.846153846154,3875.3846153846157,4529.743589743591,4337.948717948719,4225.641025641026,4471.794871794872,4419.48717948718,4402.051282051282,4310.769230769231,4697.948717948719,4329.2307692307695,4133.333333333334,4187.6923076923085,4426.153846153847
1336.6487,0.20842622,0.32796445,0.23787369,0.6368961,0,0.0,0.0,0.0,0.0,0.0,0,0,0.0,0.0,0,0,87.0,0.0,507.0,4601.025641025642,3883.589743589744,4524.615384615385,4358.974358974359,4233.333333333334,4476.923076923077,4417.435897435898,4424.615384615385,4328.205128205129,4725.128205128206,4354.358974358975,4171.282051282052,4194.871794871796,4433.333333333334
1336.6487,0.20842622,0.32796445,0.23787369,0.6368961,0,0.0,0.0,0.0,0.0,0.0,0,0,0.0,0.0,0,0,87.0,0.0,507.0,4601.025641025642,3883.589743589744,4524.615384615385,4358.974358974359,4233.333333333334,4476.923076923077,4417.435897435898,4424.615384615385,4328.205128205129,4725.128205128206,4354.358974358975,4171.282051282052,4194.871794871796,4433.333333333334
1337.1492,0.13989411,0.29583937,0.23732156,0.6221732,0,0.0,0.0,0.0,0.0,0.044027522,0,0,0.0,0.0,0,0,22.0,0.0,0.0,4603.589743589744,3940.5128205128212,4513.846153846154,4415.384615384616,4235.384615384616,4508.717948717949,4414.358974358975,4414.358974358975,4353.846153846154,4729.743589743591,4376.923076923077,4252.307692307693,4190.256410256411,4478.461538461539
1337.3993,0.13989411,0.29583937,0.23732156,0.6221732,0,0.0,0.0,0.0,0.0,0.07314409,0,0,0.0,0.0,0,0,54.0,0.0,0.0,4610.256410256411,4001.538461538462,4520.512820512821,4474.358974358975,4242.051282051282,4521.538461538462,4414.358974358975,4413.333333333334,4356.923076923077,4700.512820512821,4348.717948717949,4268.205128205129,4149.2307692307695,4477.435897435898
1337.6495,0.11014645,0.2881781,0.23265307,0.6089231,0,0.0,0.0,0.0,0.0,0.11468416,0,0,0.0,0.0,0,0,86.0,0.0,549.0,4606.153846153847,4006.1538461538466,4525.128205128206,4482.051282051282,4262.051282051282,4541.538461538462,4421.538461538462,4405.128205128206,4363.589743589744,4709.2307692307695,4357.948717948719,4286.666666666667,4153.846153846154,4493.846153846154
1337.8998,0.11014645,0.2881781,0.23265307,0.6089231,0,0.0,0.0,0.0,0.0,0.17703083,0,0,0.0,0.0,0,0,118.0,0.0,549.0,4620.000000000001,4032.307692307693,4558.974358974359,4518.461538461539,4254.358974358975,4568.717948717949,4439.48717948718,4425.128205128206,4382.564102564103,4744.615384615386,4389.2307692307695,4330.769230769231,4196.923076923077,4547.6923076923085
1338.15,0.21481778,0.28616652,0.23248893,0.5951237,0,0.0,0.0,0.0,0.0,0.23704776,0,0,0.0,0.0,0,0,21.0,0.0,0.0,4631.282051282052,4044.1025641025644,4594.358974358975,4528.205128205129,4271.282051282052,4580.512820512821,4457.948717948719,4436.923076923077,4398.974358974359,4771.282051282052,4405.128205128206,4347.179487179487,4217.435897435898,4541.025641025642
1338.4001,0.21481778,0.28616652,0.23248893,0.5951237,0,0.0,0.0,0.0,0.0,0.15393081,0,0,0.0,0.0,0,0,53.0,0.0,0.0,4632.820512820514,4030.7692307692314,4614.871794871796,4520.512820512821,4258.974358974359,4586.153846153847,4468.717948717949,4444.615384615385,4409.2307692307695,4780.512820512821,4398.974358974359,4335.384615384616,4216.923076923077,4534.358974358975
1338.6504,0.21549512,0.2884058,0.23539211,0.58762175,0,0.0,0.0,0.0,0.0,0.0,0,0,0.0,0.0,0,0,85.0,0.0,491.0,4639.48717948718,4037.9487179487182,4641.025641025642,4525.128205128206,4264.102564102564,4589.743589743591,4468.717948717949,4445.128205128206,4416.410256410257,4787.6923076923085,4413.846153846154,4343.076923076924,4248.205128205129,4574.358974358975
1338.9006,0.21549512,0.2884058,0.23539211,0.58762175,0,0.0,0.0,0.0,0.0,0.21739969,0,0,0.0,0.0,0,0,117.0,0.0,491.0,4636.923076923077,4025.6410256410263,4653.333333333334,4522.051282051282,4247.179487179487,4583.589743589744,4487.179487179488,4436.923076923077,4418.974358974359,4775.384615384616,4389.743589743591,4323.589743589744,4227.6923076923085,4580.512820512821
1339.1509,0.25779784,0.29578137,0.22983469,0.58503747,0,0.0,0.0,0.0,0.0,0.0,0,0,0.190335,0.0,0,0,20.0,0.0,0.0,4645.641025641026,4022.564102564103,4646.666666666667,4507.179487179488,4253.333333333334,4587.179487179488,4479.48717948718,4421.025641025642,4407.6923076923085,4768.717948717949,4382.564102564103,4314.358974358975,4238.461538461539,4584.102564102564
1339.401,0.25779784,0.29578137,0.22983469,0.58503747,0,0.0,0.0,0.0,0.0,0.0,0,0,0.511264,0.0,0,0,52.0,0.0,0.0,4649.2307692307695,4020.0000000000005,4640.512820512821,4502.051282051282,4242.564102564103,4575.384615384616,4469.2307692307695,4410.256410256411,4410.769230769231,4758.461538461539,4372.307692307693,4309.2307692307695,4221.025641025642,4570.256410256411
1339.6512,0.22325641,0.29393432,0.225465,0.5858308,1,0.0,0.0,0.0,0.0,0.0,0,0,0.22247332,0.0,0,0,84.0,0.0,522.0,4679.48717948718,4078.9743589743593,4642.051282051282,4560.512820512821,4241.538461538462,4545.641025641026,4445.641025641026,4384.102564102564,4402.051282051282,4727.179487179488,4362.564102564103,4313.333333333334,4222.051282051282,4647.179487179488
1339.9015,0.22325641,0.29393432,0.225465,0.5858308,0,0.0,0.0,0.0,0.0,0.14517814,0,0,0.0,0.0,0,0,116.0,0.0,522.0,4665.128205128206,3993.8461538461543,4626.666666666667,4484.102564102564,4263.589743589744,4580.000000000001,4484.615384615385,4425.641025641026,4419.48717948718,4755.384615384616,4358.974358974359,4287.6923076923085,4191.794871794872,4542.051282051282
1340.1517,0.15232037,0.29781207,0.22330034,0.5875422,0,0.0,0.0,0.0,0.0,0.08565971,0,0,0.0,0.0,0,0,19.0,0.0,0.0,4657.948717948719,3980.0000000000005,4616.923076923077,4473.846153846154,4251.282051282052,4577.435897435898,4484.615384615385,4444.615384615385,4437.435897435898,4774.358974358975,4361.538461538462,4302.564102564103,4204.615384615385,4548.205128205129
1340.4019,0.15232037,0.29781207,0.22330034,0.5875422,0,0.0,0.0,0.0,0.0,0.0,0,0,0.0,0.0,0,0,51.0,0.0,0.0,4648.205128205129,3954.8717948717954,4591.794871794872,4452.307692307693,4237.435897435898,4568.717948717949,4474.871794871796,4426.666666666667,4416.923076923077,4736.410256410257,4322.564102564103,4263.076923076924,4160.512820512821,4506.153846153847
1340.6521,0.16010208,0.3053757,0.22193222,0.5870266,0,0.0,0.0,0.0,0.0,0.0,0,0,0.3661091,0.0,0,0,83.0,0.0,504.0,4653.333333333334,3980.0000000000005,4588.717948717949,4475.8974358974365,4247.6923076923085,4568.717948717949,4474.358974358975,4416.410256410257,4415.384615384616,4737.435897435898,4330.256410256411,4268.717948717949,4177.435897435898,4520.512820512821
1340.9023,0.16010208,0.3053757,0.22193222,0.5870266,0,0.0,0.0,0.0,0.0,0.0,0,0,0.25170517,0.0,0,0,115.0,0.0,504.0,4655.8974358974365,3973.333333333334,4575.8974358974365,4470.256410256411,4244.615384615385,4569.2307692307695,4476.410256410257,4414.871794871796,4408.205128205129,4728.205128205129,4323.589743589744,4275.384615384616,4169.2307692307695,4500.000000000001
1341.1526,0.1496633,0.29569098,0.22012836,0.5865616,0,0.0,0.0,0.0,0.0,0.0,0,0,0.34506875,0.0,0,0,18.0,0.0,0.0,4653.333333333334,3969.7435897435903,4574.358974358975,4460.000000000001,4247.179487179487,4574.871794871796,4477.948717948719,4429.2307692307695,4421.025641025642,4747.179487179488,4340.000000000001,4275.8974358974365,4190.256410256411,4494.871794871796
1341.4028,0.1496633,0.29569098,0.22012836,0.5865616,0,0.0,0.0,0.0,0.0,0.0,0,0,0.41796157,0.0,0,0,50.0,0.0,0.0,4660.512820512821,3972.307692307693,4568.717948717949,4457.435897435898,4247.6923076923085,4570.256410256411,4476.410256410257,4431.282051282052,4421.025641025642,4750.256410256411,4343.589743589744,4276.923076923077,4200.512820512821,4485.128205128206
1341.653,0.12632929,0.27396417,0.21674347,0.5883155,0,0.0,0.0,0.0,0.0,0.0,0,0,0.43133458,0.0,0,0,82.0,0.0,549.0,4663.076923076924,3973.8461538461543,4563.589743589744,4462.051282051282,4246.153846153847,4568.717948717949,4476.410256410257,4434.871794871796,4421.025641025642,4754.871794871796,4346.666666666667,4273.846153846154,4199.48717948718,4465.641025641026
