timestamp,excitement,frustration,meditation,engagementBoredom,blink,clench,laugh,smile,eyebrow,furrowBrow,lookLeft,lookRight,smirkLeft,smirkRight,winkLeft,winkRight,eeg0,eeg1,eeg2,eeg3,eeg4,eeg5,eeg6,eeg7,eeg8,eeg9,eeg10,eeg11,eeg12,eeg13,eeg14,eeg15,eeg16
31.574009,0.64997,0.86156726,0.33326894,0.5525873,0,0.0,0.0,0.0,0.0,0.0,0,0,0.0,1.0,0,0,105.0,0.0,476.0,4572.820512820514,4182.051282051282,4518.461538461539,4460.000000000001,4328.205128205129,4589.743589743591,4434.871794871796,4420.000000000001,4469.2307692307695,4782.564102564103,4480.512820512821,4211.282051282052,4220.000000000001,5026.153846153847
32.07444,0.6153613,0.8916012,0.33327538,0.5525524,0,0.0,0.0,0.0,0.0,0.0,0,0,0.0,0.814553,0,0,40.0,0.0,0.0,4633.846153846154,4382.051282051282,4530.769230769231,4594.871794871796,4298.461538461539,4580.512820512821,4444.102564102564,4385.641025641026,4462.051282051282,4798.974358974359,4509.743589743591,4286.666666666667,4266.153846153847,4936.410256410257
32.293377,0.6153613,0.8916012,0.33327538,0.5525524,0,0.0,0.0,0.0,0.0,0.47881177,0,0,0.0,0.0,0,0,68.0,0.0,697.0,4609.743589743591,4240.000000000001,4499.48717948718,4510.769230769231,4292.307692307693,4662.051282051282,4466.153846153847,4353.846153846154,4444.102564102564,4780.512820512821,4466.153846153847,4359.48717948718,4216.410256410257,4750.769230769231
32.57487,0.6148266,0.91863173,0.3332812,0.55252105,0,0.0,0.0,0.0,0.0,0.0,0,0,0.0,0.92582744,0,0,104.0,0.0,646.0,4554.871794871796,3891.7948717948725,4481.025641025642,4428.205128205129,4084.1025641025644,4520.000000000001,4381.538461538462,4318.461538461539,4422.564102564103,4692.820512820514,4332.820512820514,4281.538461538462,4028.205128205129,4567.179487179488
32.793808,0.6148266,0.91863173,0.3332812,0.55252105,0,0.0,0.0,0.0,0.0,0.0,0,0,0.0,0.5412349,0,0,3.0,0.0,694.0,4589.2307692307695,4109.74358974359,4485.641025641026,4662.564102564103,4127.179487179487,4557.435897435898,4406.666666666667,4301.538461538462,4395.8974358974365,4712.820512820514,4331.282051282052,4306.666666666667,4062.0512820512827,4581.025641025642
33.0753,0.5987128,0.94295925,0.3332864,0.55249286,0,0.0,0.0,0.0,0.0,0.0,0,0,0.8914563,0.0,1,0,39.0,0.0,0.0,4565.128205128206,3951.7948717948725,4494.358974358975,4327.6923076923085,4161.538461538462,4538.461538461539,4391.794871794872,4295.8974358974365,4394.871794871796,4687.179487179488,4308.717948717949,4332.820512820514,4049.23076923077,4570.256410256411
33.29424,0.5987128,0.94295925,0.3332864,0.55249286,0,0.0,0.0,0.0,0.0,0.0,0,0,0.26693314,0.0,0,0,67.0,0.0,694.0,4550.256410256411,3838.9743589743593,4488.717948717949,4250.256410256411,4130.769230769231,4490.769230769231,4370.769230769231,4293.333333333334,4387.179487179487,4681.025641025642,4307.6923076923085,4329.2307692307695,4055.8974358974365,4528.717948717949
33.57573,0.5771191,0.964854,0.33329108,0.5524674,0,0.0,0.0,0.0,0.0,0.0,0,0,1.0,0.0,0,0,103.0,0.0,626.0,4546.153846153847,3786.666666666667,4510.256410256411,4251.282051282052,4133.846153846154,4499.48717948718,4354.358974358975,4264.102564102564,4373.333333333334,4630.256410256411,4244.615384615385,4360.000000000001,4088.205128205129,4404.615384615385
33.794666,0.5771191,0.964854,0.33329108,0.5524674,0,0.0,0.0,0.0,0.0,0.0,0,0,0.0,0.9388354,0,0,2.0,0.0,262.0,4538.974358974359,3849.2307692307695,4498.461538461539,4327.179487179487,4135.8974358974365,4502.564102564103,4361.538461538462,4262.051282051282,4356.410256410257,4633.846153846154,4277.948717948719,4377.435897435898,4088.717948717949,4381.538461538462
34.07616,0.5676702,0.9845593,0.33329532,0.5524446,0,0.0,0.0,0.0,0.0,0.0,0,0,0.0,0.587759,0,0,38.0,0.0,0.0,4507.179487179488,3788.205128205129,4501.538461538462,4190.769230769231,4040.0000000000005,4406.153846153847,4280.000000000001,4198.974358974359,4314.871794871796,4581.538461538462,4162.564102564103,4287.179487179487,4025.1282051282055,4281.025641025642
34.16999,0.5676702,0.9845593,0.33329532,0.5524446,0,0.0,0.0,0.0,0.0,0.0,0,0,0.0,1.0,0,0,50.0,0.0,0.0,4515.384615384616,3803.076923076924,4512.820512820514,4190.769230769231,4067.692307692308,4421.538461538462,4297.948717948719,4217.948717948719,4323.076923076924,4626.153846153847,4178.974358974359,4282.051282051282,4021.538461538462,4303.589743589744
34.54531,0.5878672,1.0,0.3332992,0.55242383,0,0.0,0.0,0.0,0.0,0.0,0,0,0.0,0.7812503,0,0,98.0,0.0,681.0,4486.666666666667,3788.717948717949,4516.923076923077,4218.461538461539,4067.692307692308,4418.974358974359,4306.153846153847,4218.974358974359,4307.179487179487,4620.512820512821,4158.461538461539,4297.435897435898,3967.1794871794878,4298.461538461539
34.79553,0.5878672,1.0,0.3332992,0.55242383,0,0.0,0.0,0.0,0.0,0.0,0,0,0.0,0.17328817,0,0,1.0,0.0,655.0,4467.179487179487,3732.307692307693,4520.000000000001,4220.512820512821,4066.1538461538466,4432.820512820514,4317.435897435898,4232.307692307693,4293.846153846154,4594.358974358975,4140.000000000001,4214.358974358975,3955.3846153846157,4209.2307692307695
35.045742,0.63717633,1.0,0.3333027,0.5524051,0,0.0,0.0,0.0,0.0,0.0,0,0,0.0,0.21495426,0,0,33.0,0.0,0.0,4458.974358974359,3762.0512820512827,4460.000000000001,4253.846153846154,4165.641025641026,4464.102564102564,4406.153846153847,4338.974358974359,4317.948717948719,4678.974358974359,4221.025641025642,4151.794871794872,4054.8717948717954,4239.48717948718
35.29596,0.63717633,1.0,0.3333027,0.5524051,0,0.0,0.0,0.0,0.0,0.0,0,0,0.0,0.19999313,0,0,65.0,0.0,655.0,4425.128205128206,3664.615384615385,4484.102564102564,4146.153846153847,4086.666666666667,4344.615384615385,4314.871794871796,4272.307692307693,4270.256410256411,4584.615384615385,4139.48717948718,4085.1282051282055,3966.666666666667,4157.948717948719
35.546173,0.71910334,1.0,0.33330587,0.55238825,0,0.0,0.0,0.0,0.0,0.0,0,0,0.0,0.12677066,0,0,97.0,0.0,478.0,4393.333333333334,3657.9487179487182,4491.794871794872,4150.769230769231,4091.2820512820517,4318.461538461539,4279.48717948718,4252.307692307693,4242.051282051282,4555.8974358974365,4106.666666666667,4032.820512820513,3961.538461538462,4214.871794871796
35.796387,0.71910334,1.0,0.33330587,0.55238825,0,0.0,0.0,0.0,0.0,0.0,0,0,0.0,0.70829356,0,0,0.0,0.0,224.0,4414.871794871796,3935.8974358974365,4519.48717948718,4335.384615384616,4274.871794871796,4481.538461538462,4408.205128205129,4314.871794871796,4282.051282051282,4698.974358974359,4224.102564102564,4094.358974358975,4216.410256410257,4403.076923076924
36.07788,0.77423495,1.0,0.33330864,0.55237323,0,0.0,0.0,0.0,0.0,0.12851171,0,0,0.0,0.0,0,0,36.0,0.0,0.0,4360.512820512821,3876.9230769230776,4496.923076923077,4191.794871794872,4078.9743589743593,4372.820512820514,4352.307692307693,4273.333333333334,4287.6923076923085,4664.615384615386,4190.769230769231,3968.205128205129,3923.076923076924,4201.538461538462
36.296818,0.77423495,1.0,0.33330864,0.55237323,1,0.0,0.0,0.0,0.0,0.21149832,0,0,0.0,0.0,0,0,64.0,0.0,224.0,4359.48717948718,4060.5128205128212,4504.615384615385,4229.74358974359,4220.512820512821,4350.256410256411,4310.256410256411,4202.564102564103,4281.538461538462,4617.948717948719,4161.025641025642,3965.6410256410263,4015.8974358974365,4298.974358974359
36.57831,0.77628654,1.0,0.33331114,0.55235976,0,0.0,0.0,0.0,0.0,0.07158368,0,0,0.0,0.0,0,0,100.0,0.0,644.0,4364.102564102564,4003.589743589744,4526.153846153847,4256.410256410257,4173.333333333334,4436.923076923077,4335.8974358974365,4221.538461538462,4288.717948717949,4576.923076923077,4178.974358974359,3946.1538461538466,4094.358974358975,4297.948717948719
36.672142,0.77628654,1.0,0.33331114,0.55235976,0,0.0,0.0,0.0,0.0,0.0,0,0,0.0,1.0,0,0,112.0,0.0,644.0,4375.8974358974365,4266.153846153847,4527.179487179488,4331.282051282052,4222.051282051282,4485.641025641026,4369.2307692307695,4254.358974358975,4302.564102564103,4598.974358974359,4293.333333333334,3989.7435897435903,4133.846153846154,4339.48717948718
37.07874,0.7733938,1.0,0.33331335,0.55234766,0,0.29604962,0.0,0.0,0.0,0.0,0,0,0.0,0.0,0,0,35.0,0.0,0.0,4362.051282051282,3885.1282051282055,4542.564102564103,4307.179487179487,4156.923076923077,4486.666666666667,4353.333333333334,4229.74358974359,4287.179487179487,4649.743589743591,4263.076923076924,3915.8974358974365,4055.3846153846157,4326.153846153847
37.297676,0.7733938,1.0,0.33331335,0.55234766,0,0.37601715,0.0,0.0,0.0,0.0,0,0,0.0,0.0,0,0,63.0,0.0,0.0,4371.794871794872,3174.8717948717954,4506.153846153847,4300.512820512821,4022.564102564103,4366.666666666667,4269.74358974359,4220.512820512821,4271.282051282052,4639.48717948718,4331.794871794872,3883.589743589744,4012.820512820513,4579.48717948718
37.57917,0.7661381,1.0,0.33331537,0.55233675,0,0.0,0.0,0.0,0.5928212,0.0,0,0,0.0,0.0,0,0,99.0,0.0,620.0,4409.2307692307695,3375.3846153846157,4530.256410256411,4477.948717948719,4213.333333333334,4497.435897435898,4363.589743589744,4272.820512820514,4312.307692307693,4714.358974358975,4369.743589743591,3543.589743589744,4103.076923076924,4699.48717948718
37.798107,0.7661381,1.0,0.33331537,0.55233675,0,0.0,0.0,0.0,0.0,0.0,1,0,1.0,0.0,0,0,127.0,0.0,620.0,4382.051282051282,3564.1025641025644,4539.48717948718,4453.846153846154,4286.666666666667,4541.538461538462,4381.538461538462,4275.8974358974365,4329.743589743591,4712.307692307693,4363.076923076924,3572.820512820513,3951.7948717948725,4549.743589743591
38.0796,0.76637095,1.0,0.33331716,0.552327,0,0.0,0.0,0.0,0.0,0.0,1,0,1.0,0.0,0,0,34.0,0.0,0.0,4398.974358974359,3588.717948717949,4537.435897435898,4390.256410256411,4288.717948717949,4564.102564102564,4409.2307692307695,4297.948717948719,4342.051282051282,4788.717948717949,4441.538461538462,3720.512820512821,4136.410256410257,4500.000000000001
38.29854,0.76637095,1.0,0.33331716,0.552327,0,0.0,0.0,0.0,0.0,0.0,1,0,0.87314886,0.0,0,0,62.0,0.0,0.0,4419.48717948718,3665.6410256410263,4532.820512820514,4415.8974358974365,4284.102564102564,4590.769230769231,4430.256410256411,4318.461538461539,4351.282051282052,4785.641025641026,4461.025641025642,3845.6410256410263,4170.769230769231,4459.48717948718
38.58003,0.7690456,1.0,0.33331877,0.55231816,0,0.0,0.0,0.57312626,0.0,0.0,1,0,0.0,0.0,0,0,98.0,0.0,658.0,4434.358974358975,3911.2820512820517,4529.2307692307695,4480.512820512821,4262.564102564103,4587.6923076923085,4437.948717948719,4315.8974358974365,4335.8974358974365,4774.871794871796,4486.153846153847,3949.7435897435903,4131.794871794872,4425.128205128206
38.79897,0.7690456,1.0,0.33331877,0.55231816,0,0.0,0.0,1.0,0.0,0.0,1,0,0.0,0.0,0,0,126.0,0.0,658.0,4456.410256410257,3852.820512820513,4515.8974358974365,4469.743589743591,4282.564102564103,4614.358974358975,4469.2307692307695,4342.051282051282,4365.128205128206,4793.333333333334,4471.282051282052,4076.9230769230776,4212.820512820514,4414.358974358975
39.08046,0.7356091,1.0,0.33332023,0.5523102,0,0.0,0.0,1.0,0.0,0.0,1,0,0.0,0.0,0,0,33.0,0.0,0.0,4471.794871794872,3954.8717948717954,4529.2307692307695,4447.6923076923085,4232.820512820514,4572.820512820514,4444.102564102564,4317.435897435898,4340.512820512821,4750.256410256411,4426.666666666667,4161.538461538462,4118.461538461539,4383.076923076924
39.299397,0.7356091,1.0,0.33332023,0.5523102,0,0.0,0.0,0.09305098,0.0,0.0,1,0,0.0,0.0,0,0,61.0,0.0,0.0,4476.410256410257,3848.717948717949,4528.717948717949,4348.717948717949,4188.717948717949,4530.769230769231,4447.6923076923085,4333.333333333334,4324.615384615385,4701.538461538462,4352.820512820514,4132.307692307693,4084.615384615385,4346.666666666667
39.549614,0.7250736,1.0,0.33332157,0.552303,0,0.0,0.0,0.0,0.0,0.0,1,0,0.119430944,0.0,0,0,93.0,0.0,470.0,4486.666666666667,3854.358974358975,4533.333333333334,4337.948717948719,4149.2307692307695,4439.48717948718,4398.461538461539,4283.076923076924,4282.564102564103,4599.48717948718,4216.410256410257,4012.820512820513,4056.410256410257,4381.538461538462
39.799828,0.7250736,1.0,0.33332157,0.552303,0,0.0,0.0,0.0,0.0,0.0,0,0,0.6315082,0.0,0,0,125.0,0.0,470.0,4437.948717948719,3729.7435897435903,4515.8974358974365,4203.076923076924,4191.282051282052,4397.948717948719,4351.282051282052,4287.179487179487,4289.2307692307695,4575.8974358974365,4112.820512820514,3863.589743589744,4001.0256410256416,4236.410256410257
40.08132,0.78881294,1.0,0.33332276,0.5522966,0,0.0,0.0,0.0,0.0,0.0,0,0,0.5279154,0.0,0,0,32.0,0.0,0.0,4395.8974358974365,3753.8461538461543,4473.333333333334,4169.74358974359,4113.333333333334,4376.923076923077,4319.48717948718,4266.666666666667,4285.641025641026,4568.205128205129,4042.564102564103,3775.8974358974365,4007.692307692308,4131.282051282052
40.17515,0.78881294,1.0,0.33332276,0.5522966,0,0.0,1.0,0.0,0.0,0.0,0,0,0.0,0.0,0,0,44.0,0.0,0.0,4408.717948717949,3783.076923076924,4474.358974358975,4190.256410256411,4137.435897435898,4392.820512820514,4338.461538461539,4279.48717948718,4281.538461538462,4564.615384615385,4040.5128205128212,3762.564102564103,3990.7692307692314,4116.923076923077
40.58175,0.8179,1.0,0.3333238,0.5522908,0,0.0,0.0,0.049932353,0.0,0.0,0,0,0.0,0.0,0,1,96.0,0.0,636.0,4443.589743589744,3862.0512820512827,4481.025641025642,4300.512820512821,4228.717948717949,4480.512820512821,4373.333333333334,4383.589743589744,4335.8974358974365,4712.307692307693,4250.256410256411,3893.333333333334,4222.051282051282,4305.128205128206
40.80069,0.8179,1.0,0.3333238,0.5522908,0,0.0,0.0,0.0,0.0,0.0,0,0,0.0,0.23062009,0,0,124.0,0.0,636.0,4441.538461538462,3859.48717948718,4473.846153846154,4332.307692307693,4214.871794871796,4514.871794871796,4400.000000000001,4385.128205128206,4339.48717948718,4730.769230769231,4276.923076923077,3958.461538461539,4250.256410256411,4354.871794871796
41.08218,0.8037396,1.0,0.33332476,0.55228555,0,0.0,0.0,0.1673133,0.0,0.0,0,0,0.0,0.0,0,0,31.0,0.0,0.0,4454.358974358975,3985.1282051282055,4482.564102564103,4431.794871794872,4288.205128205129,4565.641025641026,4424.615384615385,4366.153846153847,4340.512820512821,4744.102564102564,4332.307692307693,4018.9743589743593,4162.051282051282,4384.615384615385
41.301117,0.8037396,1.0,0.33332476,0.55228555,0,0.0,0.0,0.18279622,0.0,0.0,0,0,0.0,0.0,0,0,59.0,0.0,0.0,4460.512820512821,4007.1794871794878,4480.512820512821,4441.538461538462,4285.641025641026,4570.256410256411,4426.153846153847,4363.589743589744,4350.769230769231,4749.743589743591,4373.333333333334,4082.0512820512827,4178.461538461539,4395.8974358974365
41.551334,0.7613561,1.0,0.33332565,0.55228084,0,0.0,0.0,0.32141232,0.0,0.0,0,0,0.0,0.0,0,0,91.0,0.0,624.0,4471.282051282052,4047.1794871794878,4485.641025641026,4472.820512820514,4277.435897435898,4589.2307692307695,4445.128205128206,4374.358974358975,4360.512820512821,4762.051282051282,4427.179487179487,4164.615384615385,4177.948717948719,4382.051282051282
41.801548,0.7613561,1.0,0.33332565,0.55228084,0,0.0,0.0,0.0,0.0,0.0,0,0,0.31913814,0.0,0,0,123.0,0.0,624.0,4485.128205128206,4035.3846153846157,4488.717948717949,4489.743589743591,4272.820512820514,4595.8974358974365,4446.153846153847,4343.589743589744,4357.435897435898,4760.512820512821,4451.282051282052,4236.410256410257,4170.769230769231,4431.794871794872
42.05176,0.70887536,1.0,0.33332643,0.5522766,0,0.0,0.0,0.0,0.0,0.0,0,0,0.6624973,0.0,0,0,26.0,0.0,0.0,4493.846153846154,4041.0256410256416,4485.641025641026,4498.461538461539,4266.666666666667,4610.256410256411,4469.743589743591,4370.769230769231,4378.974358974359,4779.48717948718,4476.410256410257,4308.205128205129,4182.564102564103,4438.461538461539
42.30198,0.70887536,1.0,0.33332643,0.5522766,0,0.0,0.0,0.0,0.0,0.0,0,0,0.41232216,0.0,0,0,58.0,0.0,0.0,4529.2307692307695,4193.333333333334,4478.461538461539,4585.641025641026,4273.846153846154,4573.333333333334,4440.512820512821,4319.48717948718,4366.153846153847,4753.846153846154,4498.974358974359,4360.512820512821,4203.076923076924,4508.205128205129
42.552193,0.66333395,0.9385216,0.33332714,0.5522728,0,0.0,0.0,0.0,0.0,0.0,0,0,0.39516973,0.0,0,0,90.0,0.0,664.0,4511.794871794872,4072.307692307693,4490.256410256411,4505.128205128206,4251.282051282052,4591.794871794872,4460.000000000001,4353.846153846154,4371.282051282052,4765.128205128206,4491.794871794872,4375.384615384616,4166.153846153847,4408.717948717949
42.80241,0.66333395,0.9385216,0.33332714,0.5522728,0,0.0,0.0,0.0,0.0,0.0,0,0,0.547293,0.0,0,0,122.0,0.0,664.0,4517.948717948719,4101.538461538462,4498.461538461539,4581.538461538462,4188.205128205129,4574.871794871796,4446.666666666667,4316.923076923077,4353.333333333334,4741.025641025642,4482.564102564103,4370.256410256411,4137.948717948719,4417.435897435898
43.0839,0.6223783,0.8682454,0.33332777,0.55226934,0,0.0,0.0,0.0,0.0,0.0,0,0,0.47589865,0.0,0,0,29.0,0.0,0.0,4516.923076923077,4105.128205128206,4500.000000000001,4587.6923076923085,4251.794871794872,4610.256410256411,4448.717948717949,4392.820512820514,4378.461538461539,4778.461538461539,4516.923076923077,4410.256410256411,4187.6923076923085,4449.2307692307695
43.302837,0.6223783,0.8682454,0.33332777,0.55226934,0,0.0,0.0,0.17326905,0.0,0.0,0,0,0.0,0.0,0,0,57.0,0.0,0.0,4535.384615384616,4012.307692307693,4498.974358974359,4542.564102564103,4211.282051282052,4606.666666666667,4447.179487179487,4377.435897435898,4390.769230769231,4811.794871794872,4533.333333333334,4424.615384615385,4240.000000000001,4463.076923076924
43.58433,0.5648131,0.83381116,0.33332834,0.5522663,0,0.0,0.0,0.353027,0.0,0.0,0,0,0.0,0.0,0,0,93.0,0.0,467.0,4535.384615384616,4015.3846153846157,4505.128205128206,4492.307692307693,4208.717948717949,4595.384615384616,4455.8974358974365,4385.641025641026,4390.256410256411,4833.333333333334,4556.410256410257,4474.358974358975,4288.205128205129,4470.256410256411
43.80327,0.5648131,0.83381116,0.33332834,0.5522663,0,0.0,0.0,0.35717562,0.0,0.0,1,0,0.0,0.0,0,0,121.0,0.0,467.0,4537.948717948719,4081.538461538462,4509.743589743591,4532.820512820514,4230.256410256411,4556.410256410257,4406.666666666667,4317.948717948719,4353.333333333334,4712.820512820514,4410.256410256411,4416.410256410257,4078.461538461539,4354.358974358975
44.08476,0.52023566,0.8571855,0.33332884,0.55226356,0,0.0,0.0,0.2404942,0.0,0.0,1,0,0.0,0.0,0,0,28.0,0.0,0.0,4502.564102564103,4009.7435897435903,4515.384615384616,4446.666666666667,4147.6923076923085,4511.282051282052,4374.358974358975,4286.666666666667,4333.846153846154,4651.794871794872,4343.589743589744,4366.153846153847,4031.7948717948725,4259.48717948718
44.3037,0.52023566,0.8571855,0.33332884,0.55226356,0,0.0,0.0,0.15769754,0.0,0.0,1,0,0.0,0.0,0,0,56.0,0.0,0.0,4520.512820512821,4036.410256410257,4521.025641025642,4453.846153846154,4173.846153846154,4525.641025641026,4381.538461538462,4304.102564102564,4343.589743589744,4678.461538461539,4346.153846153847,4385.641025641026,4064.615384615385,4256.410256410257
44.553913,0.5212048,0.8782224,0.3333293,0.55226105,0,0.0,0.0,0.0,0.0,0.0,1,0,0.08975049,0.0,0,0,88.0,0.0,619.0,4523.076923076924,4003.076923076924,4527.6923076923085,4440.512820512821,4195.384615384616,4521.538461538462,4398.461538461539,4349.743589743591,4353.846153846154,4692.307692307693,4365.128205128206,4398.974358974359,4094.8717948717954,4275.8974358974365
44.80413,0.5212048,0.8782224,0.3333293,0.55226105,0,0.0,0.0,0.0,0.0,0.0,1,0,0.16039696,0.0,0,0,120.0,0.0,619.0,4531.794871794872,3982.0512820512827,4514.871794871796,4416.410256410257,4171.794871794872,4494.358974358975,4375.384615384616,4332.307692307693,4342.051282051282,4668.717948717949,4339.48717948718,4380.000000000001,4081.0256410256416,4305.128205128206
45.054344,0.49935418,0.8971556,0.3333297,0.5522588,0,0.0,0.0,0.0,0.0,0.7090687,0,0,0.0,0.0,0,0,23.0,0.0,0.0,4522.051282051282,3997.435897435898,4512.820512820514,4405.641025641026,4169.2307692307695,4484.102564102564,4366.666666666667,4316.923076923077,4337.435897435898,4661.538461538462,4322.051282051282,4377.435897435898,4059.48717948718,4333.846153846154
45.304558,0.49935418,0.8971556,0.3333297,0.5522588,0,0.0,0.0,0.0,0.0,0.3159759,0,0,0.0,0.0,0,0,55.0,0.0,0.0,4523.076923076924,3984.615384615385,4511.282051282052,4400.000000000001,4169.74358974359,4469.743589743591,4359.48717948718,4308.205128205129,4334.358974358975,4647.6923076923085,4281.538461538462,4358.461538461539,4047.1794871794878,4343.076923076924
45.554775,0.4924637,0.9141955,0.3333301,0.55225676,0,0.0,0.0,0.0,0.0,0.0,0,0,0.0,0.30991966,0,0,87.0,0.0,616.0,4501.538461538462,3920.5128205128212,4512.820512820514,4357.948717948719,4097.435897435898,4454.358974358975,4351.794871794872,4274.871794871796,4321.538461538462,4633.333333333334,4284.615384615385,4338.461538461539,4040.0000000000005,4294.358974358975
45.80499,0.4924637,0.9141955,0.3333301,0.55225676,0,0.0,0.0,0.0,0.0,0.0,0,0,0.0,0.34087348,0,0,119.0,0.0,616.0,4522.564102564103,3960.5128205128212,4500.512820512821,4396.410256410257,4178.974358974359,4485.128205128206,4373.846153846154,4280.000000000001,4335.384615384616,4667.179487179488,4277.948717948719,4349.2307692307695,4084.1025641025644,4307.6923076923085
46.055202,0.46231398,0.83434737,0.33333042,0.552255,0,0.0,0.0,0.2580339,0.0,0.0,0,0,0.0,0.0,0,0,22.0,0.0,0.0,4518.461538461539,3984.615384615385,4483.076923076924,4393.333333333334,4154.358974358975,4475.8974358974365,4369.2307692307695,4278.461538461539,4318.974358974359,4648.205128205129,4249.2307692307695,4372.820512820514,4034.8717948717954,4278.974358974359
46.30542,0.46231398,0.83434737,0.33333042,0.552255,0,0.0,0.0,0.0,0.0,0.0,0,0,0.7381284,0.0,0,0,54.0,0.0,0.0,4521.025641025642,4000.0000000000005,4467.179487179487,4386.666666666667,4173.846153846154,4486.666666666667,4381.538461538462,4284.102564102564,4320.512820512821,4660.512820512821,4241.538461538462,4362.564102564103,4051.7948717948725,4291.794871794872
46.555634,0.46226922,0.78365743,0.33333072,0.5522533,0,0.0,0.0,0.0,0.0,0.0,0,0,1.0,0.0,0,0,86.0,0.0,659.0,4516.923076923077,4057.435897435898,4463.589743589744,4373.846153846154,4158.974358974359,4469.2307692307695,4367.179487179487,4274.358974358975,4323.076923076924,4657.948717948719,4214.358974358975,4325.128205128206,4041.0256410256416,4334.358974358975
46.805847,0.46226922,0.78365743,0.33333072,0.5522533,0,0.0,0.0,0.0,0.0,0.38937488,0,0,0.0,0.0,0,0,118.0,0.0,659.0,4506.153846153847,4025.6410256410263,4474.871794871796,4367.179487179487,4167.6923076923085,4475.384615384616,4373.846153846154,4294.358974358975,4297.435897435898,4670.769230769231,4198.461538461539,4315.8974358974365,4058.461538461539,4312.820512820514
47.056065,0.4429737,0.7449694,0.33315122,0.58355653,0,0.0,0.0,0.0,0.0,0.0,0,0,0.9633646,0.0,0,0,21.0,0.0,0.0,4506.153846153847,4015.3846153846157,4467.179487179487,4369.2307692307695,4145.641025641026,4467.179487179487,4363.589743589744,4255.8974358974365,4298.974358974359,4665.641025641026,4196.410256410257,4298.974358974359,4070.2564102564106,4334.871794871796
47.30628,0.4429737,0.7449694,0.33315122,0.58355653,0,0.0,0.0,0.0,0.0,0.0,0,0,0.5707888,0.0,0,0,53.0,0.0,0.0,4505.128205128206,3977.9487179487182,4471.794871794872,4389.2307692307695,4184.615384615385,4489.743589743591,4385.641025641026,4276.410256410257,4305.128205128206,4684.615384615386,4220.512820512821,4300.000000000001,4088.205128205129,4341.538461538462
47.556496,0.43168265,0.71173954,0.33175984,0.6455857,0,0.0,0.0,0.0,0.0,0.0,0,0,1.0,0.0,0,0,85.0,0.0,467.0,4487.179487179488,3944.1025641025644,4482.051282051282,4379.48717948718,4153.333333333334,4495.8974358974365,4388.205128205129,4278.461538461539,4316.923076923077,4663.076923076924,4220.512820512821,4282.051282051282,4058.9743589743593,4331.282051282052
47.80671,0.43168265,0.71173954,0.33175984,0.6455857,0,0.0,0.0,0.5619681,0.0,0.0,0,0,0.0,0.0,0,0,117.0,0.0,467.0,4501.025641025642,3959.48717948718,4482.564102564103,4402.051282051282,4197.948717948719,4500.512820512821,4390.256410256411,4281.025641025642,4337.948717948719,4662.051282051282,4235.8974358974365,4272.820512820514,4072.307692307693,4346.153846153847
48.056923,0.41552496,0.6783021,0.33050156,0.70155704,0,0.0,0.0,0.46843898,0.0,0.0,0,0,0.0,0.0,0,0,20.0,0.0,0.0,4514.871794871796,3946.1538461538466,4504.615384615385,4410.256410256411,4197.435897435898,4507.6923076923085,4404.615384615385,4292.820512820514,4349.2307692307695,4676.410256410257,4258.461538461539,4285.128205128206,4093.333333333334,4376.410256410257
48.30714,0.41552496,0.6783021,0.33050156,0.70155704,0,0.0,0.0,0.0,0.0,0.0,0,0,0.96136034,0.0,0,0,52.0,0.0,0.0,4527.179487179488,4054.358974358975,4511.794871794872,4423.589743589744,4213.846153846154,4509.743589743591,4408.717948717949,4311.794871794872,4366.153846153847,4664.615384615386,4270.256410256411,4277.435897435898,4078.461538461539,4386.153846153847
48.557354,0.40892223,0.6498074,0.32937798,0.7513984,0,0.0,0.0,0.0,0.0,0.0,0,0,1.0,0.0,0,0,84.0,0.0,625.0,4540.000000000001,4013.8461538461543,4515.384615384616,4437.948717948719,4248.205128205129,4530.769230769231,4422.051282051282,4335.384615384616,4380.512820512821,4689.2307692307695,4323.076923076924,4295.384615384616,4122.564102564103,4401.025641025642
48.557354,0.40892223,0.6498074,0.32937798,0.7513984,0,0.0,0.0,0.0,0.0,0.0,0,0,1.0,0.0,0,0,84.0,0.0,625.0,4540.000000000001,4013.8461538461543,4515.384615384616,4437.948717948719,4248.205128205129,4530.769230769231,4422.051282051282,4335.384615384616,4380.512820512821,4689.2307692307695,4323.076923076924,4295.384615384616,4122.564102564103,4401.025641025642
49.057785,0.38841155,0.6349541,0.3295934,0.76537246,1,0.0,0.0,0.0,0.0,0.0,0,0,0.36803192,0.0,0,0,19.0,0.0,0.0,4543.589743589744,3906.1538461538466,4491.794871794872,4453.846153846154,4193.846153846154,4494.871794871796,4401.538461538462,4292.820512820514,4342.051282051282,4683.076923076924,4307.6923076923085,4257.435897435898,4096.923076923077,4397.948717948719
49.308,0.38841155,0.6349541,0.3295934,0.76537246,0,0.0,0.0,0.0,0.0,0.20325033,0,0,0.0,0.0,0,0,51.0,0.0,0.0,4527.6923076923085,3818.461538461539,4477.948717948719,4405.641025641026,4180.512820512821,4505.641025641026,4423.589743589744,4306.153846153847,4338.461538461539,4664.102564102564,4261.538461538462,4221.025641025642,4063.076923076924,4297.435897435898
49.558216,0.37470138,0.6311363,0.32997492,0.7435735,0,0.0,0.0,0.0,0.0,0.11625011,0,0,0.0,0.0,0,0,83.0,0.0,607.0,4518.461538461539,3796.410256410257,4482.564102564103,4374.358974358975,4189.74358974359,4481.538461538462,4415.8974358974365,4291.282051282052,4322.051282051282,4652.307692307693,4254.871794871796,4172.820512820514,4038.461538461539,4263.076923076924
49.80843,0.37470138,0.6311363,0.32997492,0.7435735,0,0.0,0.0,0.0,0.0,0.0,0,0,0.0,0.5181761,0,1,115.0,0.0,607.0,4518.461538461539,3751.794871794872,4484.102564102564,4329.743589743591,4179.48717948718,4485.641025641026,4443.076923076924,4351.794871794872,4336.923076923077,4711.282051282052,4369.2307692307695,4180.512820512821,4158.974358974359,4366.153846153847
50.058643,0.39371002,0.6303778,0.330319,0.7240209,0,0.0,0.0,0.0,0.0,0.0,0,0,0.0,0.21739642,0,1,18.0,0.0,0.0,4506.666666666667,3837.435897435898,4490.769230769231,4344.102564102564,4225.641025641026,4511.794871794872,4449.2307692307695,4364.615384615385,4343.589743589744,4721.538461538462,4399.48717948718,4185.128205128206,4160.512820512821,4377.435897435898
50.30886,0.39371002,0.6303778,0.330319,0.7240209,0,0.0,0.0,0.14101091,0.0,0.0,0,0,0.0,0.0,0,0,50.0,0.0,0.0,4539.48717948718,3985.1282051282055,4492.307692307693,4470.256410256411,4213.846153846154,4503.076923076924,4432.820512820514,4327.6923076923085,4341.538461538462,4712.307692307693,4412.820512820514,4223.589743589744,4258.461538461539,4580.000000000001
50.559074,0.39709514,0.63376474,0.3306233,0.7067732,0,0.0,0.0,0.09658198,0.0,0.0,0,0,0.0,0.0,0,0,82.0,0.0,649.0,4473.846153846154,3895.3846153846157,4480.000000000001,4353.333333333334,4174.871794871796,4460.000000000001,4373.333333333334,4265.128205128206,4302.564102564103,4639.48717948718,4283.076923076924,4144.615384615385,4062.0512820512827,4368.717948717949
50.809288,0.39709514,0.63376474,0.3306233,0.7067732,0,0.0,0.0,0.0,0.0,0.40642577,0,0,0.0,0.0,0,0,114.0,0.0,649.0,4475.8974358974365,3957.9487179487182,4478.461538461539,4366.153846153847,4225.641025641026,4490.256410256411,4390.256410256411,4279.48717948718,4325.128205128206,4684.615384615386,4298.974358974359,4176.410256410257,4095.8974358974365,4382.051282051282
51.059505,0.40999097,0.63681304,0.3309018,0.69102156,0,0.0,0.0,0.0,0.0,0.0,0,0,0.0,0.23364341,0,0,17.0,0.0,0.0,4497.435897435898,4047.1794871794878,4480.512820512821,4444.102564102564,4289.74358974359,4537.948717948719,4423.589743589744,4322.564102564103,4338.461538461539,4747.179487179488,4293.333333333334,4217.435897435898,4220.512820512821,4441.538461538462
51.30972,0.40999097,0.63681304,0.3309018,0.69102156,0,0.0,0.0,0.0,0.0,0.0,0,0,0.0,0.2413649,0,0,49.0,0.0,0.0,4489.743589743591,3963.589743589744,4469.743589743591,4405.128205128206,4269.74358974359,4543.589743589744,4413.846153846154,4331.794871794872,4337.435897435898,4675.384615384616,4347.179487179487,4230.256410256411,4177.948717948719,4427.6923076923085
51.559933,0.4168555,0.63955647,0.33114672,0.67710036,0,0.0,0.0,0.0,0.0,0.0,0,0,0.0,0.7104978,0,0,81.0,0.0,468.0,4473.333333333334,3977.435897435898,4468.205128205129,4402.051282051282,4267.179487179487,4549.743589743591,4411.282051282052,4340.000000000001,4334.358974358975,4713.333333333334,4269.2307692307695,4189.2307692307695,4185.641025641026,4405.128205128206
51.81015,0.4168555,0.63955647,0.33114672,0.67710036,0,0.0,0.0,0.0,0.0,0.0,0,0,0.0,0.60012096,0,0,113.0,0.0,468.0,4445.128205128206,3996.410256410257,4467.6923076923085,4366.666666666667,4217.948717948719,4512.820512820514,4379.48717948718,4283.076923076924,4323.589743589744,4699.48717948718,4251.794871794872,4183.589743589744,4193.333333333334,4379.48717948718
52.060364,0.4031494,0.6420256,0.33136648,0.66458774,0,0.0,0.0,0.0,0.0,0.0,0,0,0.0,0.52030414,0,0,16.0,0.0,0.0,4464.102564102564,4013.333333333334,4479.48717948718,4362.564102564103,4171.282051282052,4483.589743589744,4374.358974358975,4298.461538461539,4342.051282051282,4647.179487179488,4241.025641025642,4198.974358974359,4124.102564102564,4363.076923076924
52.18547,0.4031494,0.6420256,0.33136648,0.66458774,0,0.0,0.0,0.0,0.0,0.0,0,0,0.0,1.0,0,0,32.0,0.0,0.0,4451.794871794872,4017.435897435898,4480.512820512821,4377.948717948719,4210.256410256411,4496.923076923077,4381.025641025642,4297.435897435898,4352.820512820514,4690.256410256411,4208.205128205129,4224.615384615385,4130.769230769231,4371.794871794872
52.560795,0.39067492,0.6336298,0.33156368,0.65333956,0,0.0,0.0,0.0,0.0,0.0,0,0,0.0,0.63828105,0,0,80.0,0.0,615.0,4469.2307692307695,4044.1025641025644,4500.000000000001,4383.589743589744,4188.717948717949,4497.948717948719,4378.461538461539,4284.615384615385,4351.794871794872,4661.025641025642,4249.74358974359,4203.076923076924,4100.000000000001,4370.769230769231
52.81101,0.39067492,0.6336298,0.33156368,0.65333956,0,0.0,0.0,0.0,0.0,0.0,0,0,0.0,1.0,0,0,112.0,0.0,615.0,4479.48717948718,4038.461538461539,4497.435897435898,4394.871794871796,4169.2307692307695,4498.974358974359,4375.8974358974365,4285.641025641026,4355.384615384616,4703.589743589744,4285.641025641026,4177.435897435898,4083.589743589744,4310.256410256411
53.061226,0.35053447,0.6286952,0.33174065,0.6432295,0,0.0,0.0,0.0,0.0,0.0,0,0,0.0,1.0,0,0,15.0,0.0,612.0,4499.48717948718,3921.538461538462,4475.8974358974365,4400.000000000001,4210.256410256411,4522.051282051282,4399.48717948718,4320.000000000001,4358.461538461539,4705.128205128206,4387.6923076923085,4232.307692307693,4142.051282051282,4318.461538461539
53.31144,0.35053447,0.6286952,0.33174065,0.6432295,0,0.0,0.0,0.89741033,0.0,0.0,0,0,0.0,0.0,0,0,47.0,0.0,0.0,4494.871794871796,4054.8717948717954,4485.128205128206,4411.282051282052,4226.666666666667,4500.000000000001,4380.000000000001,4320.512820512821,4360.000000000001,4701.538461538462,4328.205128205129,4198.974358974359,4060.0000000000005,4274.871794871796
53.561653,0.34449127,0.63211006,0.33189994,0.6341304,0,0.0,0.0,0.26808545,0.0,0.0,0,0,0.0,0.0,0,0,79.0,0.0,616.0,4495.8974358974365,3863.076923076924,4440.000000000001,4343.076923076924,4188.717948717949,4502.564102564103,4373.846153846154,4305.641025641026,4345.128205128206,4660.000000000001,4301.025641025642,4168.205128205129,4091.7948717948725,4250.256410256411
53.81187,0.34449127,0.63211006,0.33189994,0.6341304,0,0.0,0.0,0.4267802,0.0,0.0,0,0,0.0,0.0,0,0,111.0,0.0,616.0,4491.282051282052,3980.0000000000005,4427.6923076923085,4285.128205128206,4165.128205128206,4438.974358974359,4346.666666666667,4284.615384615385,4320.512820512821,4604.102564102564,4267.179487179487,4126.666666666667,4000.5128205128212,4220.512820512821
54.062084,0.3673274,0.64759606,0.33204326,0.6259413,0,0.0,0.0,1.0,0.0,0.0,0,0,0.0,0.0,0,0,14.0,0.0,656.0,4486.153846153847,3775.8974358974365,4430.256410256411,4228.205128205129,4106.153846153847,4415.384615384616,4340.512820512821,4276.923076923077,4302.051282051282,4574.358974358975,4314.358974358975,4140.000000000001,4008.205128205129,4203.589743589744
54.3123,0.3673274,0.64759606,0.33204326,0.6259413,1,0.0,0.0,0.16106202,0.0,0.0,0,0,0.0,0.0,0,0,46.0,0.0,0.0,4489.743589743591,4036.410256410257,4422.051282051282,4260.000000000001,4177.948717948719,4407.6923076923085,4325.641025641026,4269.74358974359,4312.820512820514,4620.512820512821,4320.000000000001,4135.8974358974365,4047.1794871794878,4268.205128205129
54.562515,0.3453398,0.68152744,0.33217227,0.61857104,0,0.0,0.0,0.3034288,0.0,0.0,0,0,0.0,0.0,0,0,78.0,0.0,651.0,4467.179487179487,3854.358974358975,4406.666666666667,4269.2307692307695,4190.769230769231,4423.076923076924,4326.666666666667,4282.051282051282,4320.000000000001,4639.48717948718,4397.948717948719,4070.2564102564106,4161.538461538462,4309.743589743591
54.81273,0.3453398,0.68152744,0.33217227,0.61857104,0,0.0,0.0,0.53006107,0.0,0.0,0,1,0.0,0.0,0,0,110.0,0.0,651.0,4471.794871794872,4051.2820512820517,4417.948717948719,4318.461538461539,4242.564102564103,4450.256410256411,4346.666666666667,4288.717948717949,4345.128205128206,4682.564102564103,4461.025641025642,4037.9487179487182,4174.871794871796,4348.205128205129
55.062946,0.3369428,0.70133865,0.33228838,0.6119378,0,0.0,0.0,0.2753325,0.0,0.0,0,1,0.0,0.0,0,0,13.0,0.0,465.0,4477.948717948719,3875.8974358974365,4413.333333333334,4338.974358974359,4232.820512820514,4454.358974358975,4329.743589743591,4307.179487179487,4338.461538461539,4671.282051282052,4452.820512820514,4007.1794871794878,4186.666666666667,4316.410256410257
55.31316,0.3369428,0.70133865,0.33228838,0.6119378,0,0.0,0.0,0.474274,0.0,0.0,0,1,0.0,0.0,0,0,45.0,0.0,0.0,4472.307692307693,3985.6410256410263,4437.435897435898,4383.076923076924,4174.871794871796,4478.461538461539,4329.2307692307695,4276.410256410257,4328.717948717949,4693.333333333334,4373.333333333334,3996.410256410257,4141.538461538462,4310.769230769231
55.563374,0.32482314,0.7152887,0.33239287,0.6059679,0,0.0,0.0,0.3890692,0.0,0.0,0,1,0.0,0.0,0,0,77.0,0.0,466.0,4460.000000000001,4048.205128205129,4426.666666666667,4389.743589743591,4216.410256410257,4457.948717948719,4318.461538461539,4259.48717948718,4314.358974358975,4656.410256410257,4404.102564102564,4015.8974358974365,4097.435897435898,4314.871794871796
55.81359,0.32482314,0.7152887,0.33239287,0.6059679,0,0.0,0.0,0.6368551,0.0,0.0,0,1,0.0,0.0,0,0,109.0,0.0,466.0,4447.6923076923085,3871.7948717948725,4415.384615384616,4357.948717948719,4126.153846153847,4449.743589743591,4314.871794871796,4219.48717948718,4287.179487179487,4579.48717948718,4396.923076923077,4014.8717948717954,4057.9487179487182,4309.743589743591
56.063805,0.32630017,0.7111506,0.33248693,0.600595,0,0.0,0.0,0.38608566,0.0,0.0,0,1,0.0,0.0,0,0,12.0,0.0,611.0,4449.2307692307695,3988.717948717949,4435.384615384616,4335.384615384616,4182.564102564103,4447.6923076923085,4338.974358974359,4233.846153846154,4290.256410256411,4626.666666666667,4356.923076923077,4009.7435897435903,4058.461538461539,4361.538461538462
56.31402,0.32630017,0.7111506,0.33248693,0.600595,0,0.0,0.0,0.92093164,0.0,0.0,0,1,0.0,0.0,0,0,44.0,0.0,0.0,4427.6923076923085,3870.7692307692314,4420.512820512821,4342.051282051282,4131.282051282052,4414.871794871796,4318.461538461539,4191.794871794872,4265.128205128206,4602.564102564103,4292.820512820514,3977.435897435898,4038.9743589743593,4345.641025641026
56.564236,0.33212474,0.7011927,0.33257157,0.5957594,0,0.0,0.0,0.16158564,0.0,0.0,0,1,0.0,0.0,0,0,76.0,0.0,603.0,4466.153846153847,4107.179487179487,4452.307692307693,4436.923076923077,4210.256410256411,4439.48717948718,4322.564102564103,4241.538461538462,4287.179487179487,4637.435897435898,4397.948717948719,4032.307692307693,4093.333333333334,4518.974358974359
56.81445,0.33212474,0.7011927,0.33257157,0.5957594,0,0.0,0.0,0.115030244,0.0,0.0,0,0,0.0,0.0,0,0,108.0,0.0,603.0,4438.974358974359,4035.3846153846157,4425.641025641026,4366.153846153847,4226.666666666667,4492.820512820514,4365.641025641026,4311.794871794872,4317.948717948719,4710.769230769231,4383.076923076924,4033.8461538461543,4125.641025641026,4424.615384615385
57.064667,0.36960724,0.7173346,0.33264774,0.5914073,0,0.0,0.0,0.17797995,0.0,0.0,0,0,0.0,0.0,0,1,11.0,0.0,606.0,4444.615384615385,4128.205128205129,4436.923076923077,4331.794871794872,4200.512820512821,4499.48717948718,4360.512820512821,4310.769230769231,4317.435897435898,4715.8974358974365,4420.000000000001,4064.1025641025644,4141.025641025642,4415.8974358974365
57.31488,0.36960724,0.7173346,0.33264774,0.5914073,0,0.0,0.0,0.10755443,0.0,0.0,0,0,0.0,0.0,0,0,43.0,0.0,0.0,4453.333333333334,4096.923076923077,4470.256410256411,4352.820512820514,4221.538461538462,4533.333333333334,4387.6923076923085,4337.948717948719,4334.358974358975,4751.794871794872,4444.615384615385,4098.461538461539,4177.948717948719,4431.794871794872
57.565094,0.35049844,0.7249381,0.33271766,0.58745515,0,0.0,0.0,0.3556725,0.0,0.0,0,0,0.0,0.0,0,0,75.0,0.0,606.0,4478.461538461539,4021.0256410256416,4456.923076923077,4361.025641025642,4231.794871794872,4518.974358974359,4370.769230769231,4317.435897435898,4323.076923076924,4734.358974358975,4418.974358974359,4106.666666666667,4136.923076923077,4412.307692307693
57.81531,0.35049844,0.7249381,0.33271766,0.58745515,0,0.0,0.0,0.52420586,0.0,0.0,0,0,0.0,0.0,0,0,107.0,0.0,606.0,4483.076923076924,4009.7435897435903,4439.48717948718,4348.205128205129,4205.128205128206,4497.435897435898,4346.153846153847,4279.48717948718,4302.564102564103,4658.974358974359,4337.435897435898,4076.9230769230776,4063.076923076924,4352.307692307693
58.065525,0.35140905,0.7281855,0.33278072,0.58389544,0,0.0,0.0,0.6940236,0.0,0.0,0,0,0.0,0.0,0,0,10.0,0.0,644.0,4487.6923076923085,4052.820512820513,4450.256410256411,4372.820512820514,4241.025641025642,4532.820512820514,4358.974358974359,4290.256410256411,4304.615384615385,4657.948717948719,4311.282051282052,4093.8461538461543,4061.0256410256416,4312.307692307693
58.31574,0.35140905,0.7281855,0.33278072,0.58389544,0,0.0,0.0,0.0,0.0,0.0,0,0,0.0,0.63084,0,0,42.0,0.0,0.0,4517.435897435898,4035.8974358974365,4465.128205128206,4383.076923076924,4246.666666666667,4548.717948717949,4381.025641025642,4317.948717948719,4316.410256410257,4674.871794871796,4323.076923076924,4125.128205128206,4088.205128205129,4349.2307692307695
58.565956,0.35386226,0.71234065,0.33283758,0.58068913,0,0.0,0.0,0.0,0.0,0.0,0,0,0.0,0.26068422,0,0,74.0,0.0,645.0,4537.435897435898,4074.358974358975,4466.153846153847,4434.358974358975,4261.025641025642,4563.589743589744,4388.717948717949,4308.717948717949,4327.6923076923085,4705.128205128206,4339.48717948718,4163.589743589744,4121.538461538462,4371.794871794872
58.81617,0.35386226,0.71234065,0.33283758,0.58068913,0,0.0,0.0,0.0,0.0,0.0,0,0,0.0,0.17867993,0,0,106.0,0.0,645.0,4555.8974358974365,4105.128205128206,4465.641025641026,4464.615384615385,4223.589743589744,4547.179487179488,4384.615384615385,4294.358974358975,4324.102564102564,4699.48717948718,4313.333333333334,4207.179487179487,4132.307692307693,4437.435897435898
59.066387,0.3539478,0.690884,0.33288872,0.57780445,0,0.0,0.0,0.0,0.0,0.0,0,0,0.0,0.2733324,0,0,9.0,0.0,567.0,4552.820512820514,4122.564102564103,4455.384615384616,4453.846153846154,4225.128205128206,4526.153846153847,4368.205128205129,4293.846153846154,4327.6923076923085,4694.871794871796,4267.179487179487,4195.384615384616,4150.769230769231,4444.615384615385
59.3166,0.3539478,0.690884,0.33288872,0.57780445,0,0.0,0.0,0.26471034,0.0,0.0,0,0,0.0,0.0,0,0,41.0,0.0,0.0,4546.153846153847,4120.512820512821,4465.641025641026,4435.384615384616,4203.589743589744,4507.179487179488,4354.358974358975,4272.307692307693,4326.153846153847,4672.820512820514,4250.769230769231,4174.358974358975,4116.923076923077,4419.48717948718
59.566814,0.35109133,0.67936796,0.33293486,0.5752124,0,0.0,0.0,0.5043724,0.0,0.0,0,0,0.0,0.0,0,0,73.0,0.0,567.0,4525.128205128206,4094.8717948717954,4481.025641025642,4465.128205128206,4228.205128205129,4524.102564102564,4373.333333333334,4289.2307692307695,4337.948717948719,4691.794871794872,4220.512820512821,4192.307692307693,4128.205128205129,4457.435897435898
59.81703,0.35109133,0.67936796,0.33293486,0.5752124,0,0.0,0.0,0.8146867,0.0,0.0,0,0,0.0,0.0,0,0,105.0,0.0,464.0,4549.2307692307695,4003.589743589744,4468.205128205129,4730.769230769231,4325.128205128206,4552.307692307693,4417.948717948719,4295.8974358974365,4342.564102564103,4651.794871794872,4252.820512820514,4214.871794871796,4063.076923076924,4450.769230769231
60.067245,0.3421144,0.6726393,0.33297643,0.6125904,0,0.0,0.0,0.36261415,0.0,0.0,0,0,0.0,0.0,0,0,8.0,0.0,443.0,4498.461538461539,3867.692307692308,4440.512820512821,4551.794871794872,4271.794871794872,4513.333333333334,4380.000000000001,4284.102564102564,4336.410256410257,4572.307692307693,4174.871794871796,4161.025641025642,4035.8974358974365,4356.410256410257
60.31746,0.3421144,0.6726393,0.33297643,0.6125904,0,0.12699354,0.0,0.0,0.0,0.0,0,0,0.0,0.0,0,0,40.0,0.0,0.0,4490.769230769231,3793.333333333334,4431.794871794872,4468.717948717949,4227.179487179487,4505.641025641026,4382.564102564103,4279.48717948718,4327.179487179487,4566.153846153847,4202.051282051282,4158.461538461539,4044.1025641025644,4366.666666666667
60.567677,0.34966663,0.6665835,0.333013,0.64632964,0,0.0,0.0,0.0,0.0,0.0,0,0,0.0,1.0,0,0,72.0,0.0,443.0,4509.743589743591,3842.564102564103,4429.743589743591,4458.974358974359,4270.769230769231,4535.8974358974365,4404.102564102564,4288.717948717949,4350.256410256411,4615.8974358974365,4157.435897435898,4181.025641025642,4101.538461538462,4400.000000000001
60.81789,0.34966663,0.6665835,0.333013,0.64632964,0,0.0,0.0,0.0,0.0,0.0,0,0,0.0,1.0,0,1,104.0,0.0,627.0,4522.051282051282,3844.1025641025644,4447.179487179487,4394.871794871796,4234.358974358975,4532.820512820514,4414.871794871796,4327.179487179487,4360.512820512821,4667.179487179488,4279.48717948718,4188.205128205129,4174.358974358975,4461.538461538462
61.161938,0.36003217,0.6611333,0.3330454,0.6766949,0,0.0,0.0,0.0,0.0,0.0,0,0,0.0,0.34873623,0,0,19.0,0.0,0.0,4505.128205128206,3863.076923076924,4460.512820512821,4356.923076923077,4184.615384615385,4516.410256410257,4397.435897435898,4304.615384615385,4332.307692307693,4664.615384615386,4274.871794871796,4071.7948717948725,4160.000000000001,4421.025641025642
61.31832,0.36003217,0.6611333,0.3330454,0.6766949,0,0.0,0.0,0.0,0.0,0.0,0,0,0.0,0.16561316,0,0,39.0,0.0,0.0,4520.000000000001,3898.461538461539,4462.564102564103,4368.717948717949,4212.820512820514,4525.641025641026,4415.384615384616,4316.410256410257,4347.6923076923085,4715.8974358974365,4296.923076923077,4097.948717948719,4190.769230769231,4430.769230769231
61.568535,0.3505074,0.65622807,0.3330742,0.7040238,0,0.0,0.0,0.0,0.0,0.0,0,0,0.0,0.6552024,0,0,71.0,0.0,509.0,4510.256410256411,3976.9230769230776,4481.538461538462,4362.564102564103,4198.461538461539,4503.076923076924,4401.025641025642,4318.974358974359,4332.820512820514,4683.076923076924,4324.102564102564,4100.512820512821,4147.6923076923085,4377.435897435898
61.818752,0.3505074,0.65622807,0.3330742,0.7040238,0,0.0,0.0,0.19136314,0.0,0.0,0,0,0.0,0.0,0,0,103.0,0.0,608.0,4491.282051282052,3983.589743589744,4457.948717948719,4324.102564102564,4166.153846153847,4472.820512820514,4369.743589743591,4283.076923076924,4316.923076923077,4685.641025641026,4331.282051282052,4094.358974358975,4123.076923076924,4383.589743589744
62.068966,0.3472897,0.62455934,0.33310062,0.68860954,0,0.0,0.0,0.48331746,0.0,0.0,0,0,0.0,0.0,0,0,6.0,0.0,615.0,4525.641025641026,4027.1794871794878,4465.641025641026,4374.358974358975,4145.641025641026,4434.871794871796,4351.282051282052,4244.102564102564,4291.794871794872,4577.948717948719,4332.820512820514,4101.025641025642,4118.974358974359,4496.410256410257
62.31918,0.3472897,0.62455934,0.33310062,0.68860954,0,0.0,0.0,0.35127807,0.0,0.0,0,0,0.0,0.0,1,0,38.0,0.0,0.0,4490.256410256411,3972.307692307693,4449.743589743591,4305.641025641026,4158.461538461539,4446.666666666667,4369.743589743591,4273.333333333334,4301.025641025642,4624.102564102564,4325.641025641026,4090.7692307692314,4067.1794871794878,4362.564102564103
62.569397,0.3413265,0.59617317,0.33312443,0.674754,0,0.0,0.0,0.5053611,0.0,0.0,0,0,0.0,0.0,0,0,70.0,0.0,615.0,4491.282051282052,3961.538461538462,4438.461538461539,4307.6923076923085,4182.051282051282,4461.025641025642,4371.794871794872,4261.025641025642,4308.717948717949,4679.48717948718,4356.923076923077,4082.564102564103,4084.1025641025644,4349.743589743591
62.81961,0.3413265,0.59617317,0.33312443,0.674754,0,0.0,0.0,0.2913837,0.0,0.0,0,0,0.0,0.0,0,0,102.0,0.0,646.0,4467.179487179487,3880.0000000000005,4429.743589743591,4291.794871794872,4085.6410256410263,4424.615384615385,4332.307692307693,4212.307692307693,4282.051282051282,4646.153846153847,4346.153846153847,4057.435897435898,4039.48717948718,4305.641025641026
63.069824,0.3117225,0.5735517,0.33314592,0.66229445,0,0.0,0.0,0.72096735,0.0,0.0,0,0,0.0,0.0,0,0,5.0,0.0,686.0,4480.000000000001,3905.1282051282055,4424.615384615385,4285.128205128206,4145.641025641026,4434.871794871796,4351.282051282052,4232.307692307693,4284.102564102564,4642.051282051282,4340.512820512821,4066.666666666667,4056.410256410257,4329.743589743591
63.32004,0.3117225,0.5735517,0.33314592,0.66229445,0,0.0,0.0,1.0,0.0,0.0,0,0,0.0,0.0,0,0,37.0,0.0,0.0,4466.153846153847,3909.2307692307695,4424.615384615385,4276.410256410257,4102.051282051282,4401.538461538462,4345.128205128206,4219.48717948718,4253.846153846154,4547.179487179488,4289.2307692307695,4004.1025641025644,4024.1025641025644,4372.820512820514
63.570255,0.30895272,0.56131536,0.33316523,0.65109926,0,0.0,0.0,0.1548359,0.0,0.0,0,0,0.0,0.0,0,1,69.0,0.0,687.0,4415.8974358974365,3912.820512820513,4446.666666666667,4218.974358974359,4157.435897435898,4405.128205128206,4332.820512820514,4243.589743589744,4274.871794871796,4505.128205128206,4271.282051282052,3779.48717948718,3991.2820512820517,4306.153846153847
63.820473,0.30895272,0.56131536,0.33316523,0.65109926,0,0.0,0.0,0.0,0.0,0.0,0,0,0.26771307,0.0,0,0,101.0,0.0,467.0,4417.435897435898,4004.1025641025644,4437.948717948719,4310.769230769231,4143.076923076924,4363.076923076924,4261.538461538462,4187.179487179487,4271.282051282052,4488.717948717949,4229.74358974359,3731.794871794872,4082.564102564103,4427.6923076923085
64.07069,0.3367573,0.55093706,0.33318225,0.6411625,0,0.0,0.0,0.0,0.0,0.0,0,0,0.13506207,0.0,0,1,4.0,0.0,669.0,4383.076923076924,4007.692307692308,4445.128205128206,4274.358974358975,4200.000000000001,4430.769230769231,4301.025641025642,4263.589743589744,4312.820512820514,4626.666666666667,4311.794871794872,3796.9230769230776,4149.74358974359,4418.974358974359
64.3209,0.3367573,0.55093706,0.33318225,0.6411625,0,0.0,0.0,0.0,0.0,0.0,0,0,0.0,0.37240624,0,0,36.0,0.0,0.0,4343.076923076924,3946.1538461538466,4443.589743589744,4245.128205128206,4193.333333333334,4454.871794871796,4317.435897435898,4306.153846153847,4309.2307692307695,4663.076923076924,4275.8974358974365,3763.589743589744,4140.000000000001,4365.641025641026
64.57111,0.34875587,0.54159665,0.3331977,0.6321546,1,0.0,0.0,0.12643608,0.0,0.0,0,0,0.0,0.0,0,0,68.0,0.0,670.0,4375.8974358974365,4026.666666666667,4453.846153846154,4331.282051282052,4245.641025641026,4477.948717948719,4342.564102564103,4316.410256410257,4306.153846153847,4697.435897435898,4343.589743589744,3581.0256410256416,4178.974358974359,4400.000000000001
64.821335,0.34875587,0.54159665,0.3331977,0.6321546,0,0.0,0.0,0.0,0.0,0.0,0,0,0.3773419,0.0,0,0,100.0,0.0,609.0,4402.051282051282,4131.794871794872,4457.435897435898,4405.128205128206,4257.435897435898,4505.641025641026,4370.256410256411,4300.000000000001,4305.641025641026,4740.000000000001,4373.333333333334,3446.666666666667,4263.076923076924,4474.358974358975
65.07155,0.3728089,0.5331902,0.33321133,0.6241481,1,0.0,0.0,0.0,0.0,0.0,0,0,0.1353766,0.0,0,0,3.0,0.0,657.0,4425.641025641026,4092.820512820513,4445.128205128206,4429.2307692307695,4286.666666666667,4549.743589743591,4393.333333333334,4293.846153846154,4327.6923076923085,4736.410256410257,4448.205128205129,3728.717948717949,4157.435897435898,4470.769230769231
65.32176,0.3728089,0.5331902,0.33321133,0.6241481,0,0.0,0.0,0.0,0.0,0.0,0,0,0.0,0.54127014,0,0,35.0,0.0,0.0,4468.717948717949,4103.076923076924,4457.948717948719,4468.205128205129,4320.000000000001,4605.641025641026,4455.384615384616,4335.8974358974365,4352.820512820514,4789.743589743591,4520.512820512821,3938.461538461539,4219.48717948718,4535.384615384616
65.571976,0.42036638,0.52562445,0.33322355,0.6169497,0,0.0,0.0,0.0,0.0,0.0,0,0,0.0,1.0,0,0,67.0,0.0,658.0,4484.102564102564,4076.410256410257,4476.923076923077,4480.512820512821,4288.717948717949,4602.051282051282,4463.076923076924,4354.871794871796,4354.871794871796,4800.512820512821,4522.564102564103,4076.9230769230776,4207.6923076923085,4548.717948717949
65.60326,0.42036638,0.52562445,0.33322355,0.6169497,0,0.0,0.0,0.0,0.0,0.0,0,0,0.0,1.0,0,0,71.0,0.0,509.0,4490.769230769231,4081.538461538462,4476.410256410257,4486.666666666667,4289.2307692307695,4607.6923076923085,4466.666666666667,4364.615384615385,4362.564102564103,4811.282051282052,4564.102564102564,4094.358974358975,4223.589743589744,4547.179487179488
66.0724,0.41019386,0.53902906,0.33323476,0.6104162,0,0.0,0.0,0.0,0.0,0.0,0,0,0.0,1.0,0,0,2.0,0.0,251.0,4520.512820512821,4172.820512820514,4481.025641025642,4497.948717948719,4259.48717948718,4609.743589743591,4476.923076923077,4355.8974358974365,4377.435897435898,4828.205128205129,4525.641025641026,4242.564102564103,4241.538461538462,4538.461538461539
66.322624,0.41019386,0.53902906,0.33323476,0.6104162,0,0.0,0.0,0.0,0.0,0.3942769,0,0,0.0,0.0,0,0,34.0,0.0,0.0,4521.025641025642,4158.461538461539,4492.307692307693,4478.974358974359,4248.205128205129,4595.8974358974365,4453.333333333334,4351.794871794872,4371.282051282052,4800.000000000001,4469.2307692307695,4281.025641025642,4213.846153846154,4493.333333333334
66.57284,0.47856358,0.5246055,0.33324483,0.604533,0,0.0,0.0,0.0,0.0,0.5690183,0,0,0.0,0.0,0,0,66.0,0.0,251.0,4514.871794871796,4102.051282051282,4500.512820512821,4462.051282051282,4242.564102564103,4590.256410256411,4446.666666666667,4340.512820512821,4374.358974358975,4768.205128205129,4420.000000000001,4286.666666666667,4166.666666666667,4452.820512820514
66.82305,0.47856358,0.5246055,0.33324483,0.604533,0,0.0,0.0,0.2001266,0.0,0.0,0,0,0.0,0.0,0,0,98.0,0.0,646.0,4520.000000000001,4097.435897435898,4512.307692307693,4459.48717948718,4228.205128205129,4580.512820512821,4436.410256410257,4334.871794871796,4367.179487179487,4753.333333333334,4357.435897435898,4287.6923076923085,4122.564102564103,4438.974358974359
67.073265,0.49354827,0.503967,0.33325392,0.59923506,0,0.0,0.0,0.0,0.0,0.0,0,0,0.0,0.08105264,0,0,1.0,0.0,627.0,4508.205128205129,4054.8717948717954,4508.717948717949,4419.48717948718,4216.410256410257,4560.512820512821,4427.179487179487,4337.435897435898,4365.641025641026,4751.794871794872,4341.538461538462,4287.6923076923085,4134.871794871796,4407.179487179487
67.32348,0.49354827,0.503967,0.33325392,0.59923506,0,0.0,0.0,0.0,0.0,0.0,0,0,0.0,0.27698264,0,0,33.0,0.0,0.0,4555.384615384616,4185.128205128206,4511.282051282052,4546.666666666667,4199.48717948718,4528.205128205129,4398.974358974359,4307.179487179487,4356.410256410257,4685.128205128206,4337.435897435898,4325.128205128206,4184.615384615385,4585.641025641026
67.5737,0.45494738,0.4803142,0.33326212,0.5944693,0,0.0,0.0,0.0,0.0,0.0,0,0,0.0,0.276205,0,0,65.0,0.0,627.0,4517.948717948719,4047.692307692308,4515.384615384616,4445.641025641026,4209.2307692307695,4538.461538461539,4412.307692307693,4342.564102564103,4368.205128205129,4684.615384615386,4227.6923076923085,4288.717948717949,4091.2820512820517,4447.6923076923085
67.82391,0.45494738,0.4803142,0.33326212,0.5944693,0,0.0,0.0,0.0,0.0,0.0,0,0,0.0,0.08960059,0,0,97.0,0.0,464.0,4523.076923076924,4031.7948717948725,4528.717948717949,4442.051282051282,4200.000000000001,4518.461538461539,4394.358974358975,4327.6923076923085,4348.717948717949,4672.820512820514,4231.794871794872,4270.256410256411,4094.358974358975,4465.128205128206
68.07413,0.4230465,0.45307615,0.33326945,0.59018743,0,0.0,0.0,0.0,0.0,0.0,0,0,0.0,0.53601164,0,0,0.0,0.0,231.0,4521.538461538462,4028.205128205129,4511.794871794872,4429.2307692307695,4185.641025641026,4520.512820512821,4391.282051282052,4331.794871794872,4353.846153846154,4676.410256410257,4176.410256410257,4240.000000000001,4088.717948717949,4443.076923076924
68.32434,0.4230465,0.45307615,0.33326945,0.59018743,0,0.0,0.0,0.0,0.0,0.0,0,0,0.0,0.13593681,0,0,32.0,0.0,0.0,4536.923076923077,4021.0256410256416,4498.461538461539,4431.282051282052,4197.435897435898,4511.794871794872,4408.205128205129,4324.615384615385,4351.794871794872,4683.076923076924,4208.205128205129,4232.307692307693,4072.307692307693,4418.974358974359
68.574554,0.39295626,0.4388176,0.33327606,0.63599354,1,0.0,0.0,0.0,0.0,0.0,0,0,0.0,0.16582884,0,0,64.0,0.0,231.0,4548.717948717949,4025.6410256410263,4490.256410256411,4445.641025641026,4191.282051282052,4498.461538461539,4402.051282051282,4322.051282051282,4344.102564102564,4668.205128205129,4212.820512820514,4241.025641025642,4033.333333333334,4416.923076923077
68.82477,0.39295626,0.4388176,0.33327606,0.63599354,0,0.0,0.0,0.13290587,0.0,0.0,0,0,0.0,0.0,0,0,96.0,0.0,612.0,4543.589743589744,3945.6410256410263,4467.6923076923085,4435.384615384616,4202.051282051282,4515.384615384616,4405.128205128206,4345.641025641026,4354.871794871796,4687.6923076923085,4223.076923076924,4217.435897435898,4079.48717948718,4424.102564102564
69.07499,0.39438555,0.45012495,0.33328202,0.72283643,0,0.0,0.0,0.61888176,0.0,0.0,0,0,0.0,0.0,0,0,128.0,0.0,612.0,4571.282051282052,3983.589743589744,4453.846153846154,4490.769230769231,4244.102564102564,4566.153846153847,4458.974358974359,4411.282051282052,4376.410256410257,4747.179487179488,4334.358974358975,4286.666666666667,4164.615384615385,4507.179487179488
69.3252,0.39438555,0.45012495,0.33328202,0.72283643,0,0.0,0.0,0.0,0.0,0.0,0,0,0.0,0.13740715,0,0,31.0,0.0,0.0,4550.769230769231,3957.9487179487182,4459.48717948718,4373.333333333334,4154.871794871796,4368.205128205129,4283.589743589744,4245.128205128206,4312.307692307693,4600.512820512821,4238.974358974359,4236.410256410257,4085.6410256410263,4362.564102564103
69.57542,0.39640936,0.45989224,0.33359444,0.8004356,1,0.0,0.0,0.0,0.0,0.0,0,0,0.0,0.21263777,0,0,63.0,0.0,0.0,4573.846153846154,4278.974358974359,4470.769230769231,4455.384615384616,4167.6923076923085,4431.794871794872,4334.358974358975,4280.512820512821,4345.128205128206,4650.769230769231,4340.000000000001,4408.717948717949,4214.358974358975,4473.846153846154
69.82563,0.39640936,0.45989224,0.33359444,0.8004356,0,0.0,0.0,0.35780296,0.0,0.0,0,0,0.0,0.0,0,0,95.0,0.0,601.0,4608.205128205129,4328.205128205129,4470.769230769231,4404.615384615385,3852.307692307693,4453.333333333334,4323.076923076924,4155.8974358974365,4342.564102564103,4515.8974358974365,4244.102564102564,4436.923076923077,4220.512820512821,4454.871794871796
70.07584,0.42042258,0.46868283,0.3338767,0.8709372,0,0.0,0.0,1.0,0.0,0.0,0,0,0.0,0.0,0,0,127.0,0.0,601.0,4578.974358974359,4227.179487179487,4456.923076923077,4371.282051282052,3890.2564102564106,4490.256410256411,4309.2307692307695,4137.435897435898,4337.948717948719,4495.384615384616,4260.512820512821,4420.512820512821,4186.666666666667,4605.128205128206
70.107124,0.42042258,0.46868283,0.3338767,0.8709372,0,0.0,0.0,1.0,0.0,0.0,0,0,0.0,0.0,0,0,2.0,0.0,251.0,4583.589743589744,4230.256410256411,4460.512820512821,4370.769230769231,3964.1025641025644,4516.923076923077,4326.666666666667,4157.948717948719,4365.641025641026,4548.205128205129,4277.948717948719,4427.179487179487,4201.025641025642,4631.794871794872
70.57628,0.4238714,0.47659433,0.3341307,0.926891,0,0.0,0.0,0.56390125,0.0,0.0,0,0,0.0,0.0,0,0,62.0,0.0,0.0,4574.358974358975,4217.948717948719,4468.205128205129,4398.974358974359,4013.8461538461543,4527.6923076923085,4346.666666666667,4240.000000000001,4349.2307692307695,4711.282051282052,4321.025641025642,4270.256410256411,4253.333333333334,4738.974358974359
70.82649,0.4238714,0.47659433,0.3341307,0.926891,0,0.0,0.0,1.0,0.0,0.0,0,0,0.0,0.0,0,0,94.0,0.0,654.0,4521.538461538462,4041.0256410256416,4469.2307692307695,4330.769230769231,4044.1025641025644,4465.128205128206,4307.179487179487,4245.128205128206,4314.358974358975,4654.358974358975,4386.153846153847,4188.205128205129,4100.000000000001,4818.461538461539
71.076706,0.4416214,0.4837147,0.33435932,0.93153226,0,0.0,0.0,0.0,0.0,0.0,0,0,0.0,0.92830586,0,0,126.0,0.0,654.0,4551.282051282052,3956.410256410257,4478.974358974359,4317.948717948719,3995.3846153846157,4396.410256410257,4257.435897435898,4170.769230769231,4272.307692307693,4547.179487179488,4315.8974358974365,4147.6923076923085,4019.48717948718,4910.256410256411
71.32692,0.4416214,0.4837147,0.33435932,0.93153226,0,0.0,0.0,0.0,0.0,0.0,0,0,0.0,0.23780122,0,0,29.0,0.0,0.0,4522.564102564103,4125.641025641026,4490.769230769231,4322.051282051282,4167.6923076923085,4570.769230769231,4439.48717948718,4336.923076923077,4332.820512820514,4640.000000000001,4377.948717948719,4165.641025641026,4036.9230769230776,4749.743589743591
71.57713,0.48854002,0.490123,0.3342567,0.8936029,0,0.0,0.0,0.0,0.0,0.0,0,0,0.0,0.17157131,0,0,61.0,0.0,0.0,4516.923076923077,4080.0000000000005,4504.615384615385,4373.333333333334,4264.102564102564,4616.410256410257,4496.410256410257,4422.564102564103,4349.743589743591,4608.205128205129,4450.769230769231,4169.2307692307695,3966.666666666667,4754.871794871796
71.827354,0.48854002,0.490123,0.3342567,0.8936029,0,0.0,0.0,0.0,0.0,0.0,0,0,0.0,0.54167074,0,0,93.0,0.0,480.0,4495.384615384616,3883.589743589744,4497.948717948719,4381.538461538462,4301.025641025642,4577.435897435898,4463.076923076924,4429.743589743591,4355.8974358974365,4597.948717948719,4429.743589743591,4084.615384615385,4012.820512820513,4702.564102564103
72.07757,0.5143559,0.4958905,0.33416438,0.8594665,0,1.0,0.0,0.0,0.0,0.0,0,0,0.0,0.0,0,0,125.0,0.0,480.0,4440.000000000001,3780.0000000000005,4500.000000000001,4289.74358974359,4487.6923076923085,4517.948717948719,4360.512820512821,4384.615384615385,4361.538461538462,4578.461538461539,4329.2307692307695,3828.717948717949,4031.2820512820517,4491.282051282052
72.32778,0.5143559,0.4958905,0.33416438,0.8594665,0,0.0,0.0,1.0,0.0,0.0,0,0,0.0,0.0,0,0,28.0,0.0,0.0,4412.307692307693,3771.794871794872,4505.128205128206,4261.025641025642,4399.48717948718,4489.2307692307695,4319.48717948718,4343.076923076924,4357.948717948719,4590.256410256411,4294.358974358975,3735.3846153846157,4069.7435897435903,4381.025641025642
72.577995,0.45896703,0.5010812,0.33408126,0.82874376,0,0.0,0.0,0.5871512,0.0,0.0,0,0,0.0,0.0,0,0,60.0,0.0,0.0,4388.717948717949,3935.8974358974365,4510.256410256411,4324.102564102564,4357.948717948719,4477.435897435898,4313.333333333334,4332.307692307693,4354.358974358975,4685.641025641026,4344.615384615385,3807.1794871794878,4146.153846153847,4351.794871794872
72.82821,0.45896703,0.5010812,0.33408126,0.82874376,0,0.0,0.0,1.0,0.0,0.0,0,0,0.0,0.0,0,0,92.0,0.0,605.0,4385.641025641026,3973.8461538461543,4515.8974358974365,4360.512820512821,4307.6923076923085,4512.307692307693,4345.128205128206,4355.384615384616,4369.2307692307695,4750.256410256411,4391.282051282052,3894.358974358975,4181.538461538462,4365.641025641026
73.07843,0.47614774,0.5057529,0.33400512,0.8002324,0,0.0,0.0,1.0,0.0,0.0,0,0,0.0,0.0,0,0,124.0,0.0,605.0,4385.128205128206,4016.9230769230776,4528.717948717949,4367.179487179487,4300.512820512821,4508.717948717949,4365.641025641026,4374.871794871796,4372.307692307693,4735.384615384616,4477.435897435898,3998.9743589743593,4208.717948717949,4408.717948717949
73.32864,0.47614774,0.5057529,0.33400512,0.8002324,0,0.0,0.0,0.0,0.0,0.0,0,0,0.0,1.0,0,0,27.0,0.0,0.0,4381.538461538462,4022.0512820512827,4536.410256410257,4361.025641025642,4258.974358974359,4502.051282051282,4363.589743589744,4358.461538461539,4352.307692307693,4646.666666666667,4407.179487179487,4027.1794871794878,4132.307692307693,4397.948717948719
73.57886,0.45399517,0.50995743,0.33393642,0.7747276,0,0.0,0.0,0.0,0.0,0.0,0,0,0.0,1.0,0,0,59.0,0.0,0.0,4407.179487179487,4026.666666666667,4530.769230769231,4406.153846153847,4276.923076923077,4524.615384615385,4392.820512820514,4400.512820512821,4367.179487179487,4665.128205128206,4412.307692307693,4113.846153846154,4078.9743589743593,4396.923076923077
73.82907,0.45399517,0.50995743,0.33393642,0.7747276,1,0.0,0.0,0.0,0.0,0.0,0,0,0.0,0.5199119,0,0,91.0,0.0,600.0,4405.641025641026,3997.435897435898,4516.923076923077,4364.102564102564,4195.8974358974365,4477.948717948719,4369.2307692307695,4340.512820512821,4334.358974358975,4620.000000000001,4336.923076923077,4046.666666666667,4092.820512820513,4351.794871794872
74.079285,0.42795128,0.49618486,0.3338745,0.7518811,0,0.0,0.0,0.0,0.0,0.0,0,0,0.0,0.38308114,0,0,123.0,0.0,600.0,4416.923076923077,3940.0000000000005,4521.538461538462,4348.205128205129,4214.871794871796,4498.974358974359,4401.538461538462,4376.410256410257,4356.410256410257,4679.48717948718,4341.025641025642,4043.076923076924,4115.384615384616,4348.717948717949
74.329506,0.42795128,0.49618486,0.3338745,0.7518811,0,0.0,0.0,0.4837961,0.0,0.0,0,0,0.0,0.0,0,0,26.0,0.0,0.0,4408.205128205129,3916.410256410257,4520.000000000001,4324.102564102564,4184.615384615385,4460.000000000001,4366.153846153847,4345.128205128206,4333.846153846154,4635.8974358974365,4329.2307692307695,4048.205128205129,4074.8717948717954,4298.461538461539
74.57972,0.47421065,0.5039306,0.33381978,0.73181677,0,0.0,0.0,0.5195558,0.0,0.0,0,0,0.0,0.0,0,0,58.0,0.0,0.0,4418.461538461539,3953.333333333334,4522.051282051282,4367.179487179487,4214.358974358975,4485.641025641026,4385.641025641026,4385.128205128206,4336.923076923077,4628.717948717949,4338.974358974359,4100.512820512821,4091.7948717948725,4350.256410256411
74.70483,0.47421065,0.5039306,0.33381978,0.73181677,0,0.0,0.0,0.0,0.0,0.0,0,0,0.0,1.0,0,0,74.0,0.0,643.0,4427.6923076923085,3951.7948717948725,4511.794871794872,4370.769230769231,4220.000000000001,4495.8974358974365,4391.282051282052,4390.256410256411,4342.051282051282,4630.769230769231,4332.820512820514,4125.128205128206,4080.5128205128212,4371.282051282052
75.08015,0.4720143,0.49898374,0.33376992,0.7134822,0,0.0,0.0,0.0,0.0,0.0,0,0,0.0,0.46950084,0,0,96.0,0.0,613.0,4437.435897435898,3971.2820512820517,4508.205128205129,4400.512820512821,4223.076923076924,4510.769230769231,4407.6923076923085,4389.743589743591,4345.128205128206,4682.564102564103,4353.333333333334,4176.923076923077,4051.7948717948725,4402.051282051282
75.33036,0.4720143,0.49898374,0.33376992,0.7134822,0,0.0,0.0,0.0,0.0,0.0,0,0,0.0,0.8515262,0,0,25.0,0.0,0.0,4464.615384615385,4032.307692307693,4516.410256410257,4460.000000000001,4234.358974358975,4551.282051282052,4437.435897435898,4394.871794871796,4372.307692307693,4764.102564102564,4340.000000000001,4239.48717948718,4190.769230769231,4436.923076923077
75.580574,0.43366584,0.49284056,0.33372518,0.6970534,0,0.0,0.0,0.10330949,0.0,0.0,0,0,0.0,0.0,0,0,57.0,0.0,0.0,4475.384615384616,4066.1538461538466,4515.8974358974365,4458.461538461539,4214.358974358975,4536.410256410257,4428.205128205129,4358.461538461539,4362.564102564103,4742.051282051282,4308.205128205129,4265.128205128206,4165.641025641026,4440.000000000001
75.830795,0.43366584,0.49284056,0.33372518,0.6970534,0,0.0,0.0,0.23853894,0.0,0.0,0,0,0.0,0.0,0,0,89.0,0.0,472.0,4475.8974358974365,4115.8974358974365,4515.384615384616,4433.846153846154,4204.615384615385,4545.641025641026,4441.025641025642,4403.589743589744,4369.743589743591,4728.205128205129,4305.641025641026,4292.307692307693,4169.2307692307695,4442.564102564103
75.9559,0.43366584,0.49284056,0.33372518,0.6970534,0,0.0,0.0,0.10245969,0.0,0.0,0,0,0.0,0.0,0,0,105.0,0.0,472.0,4473.333333333334,4120.512820512821,4512.820512820514,4418.974358974359,4185.128205128206,4522.564102564103,4425.128205128206,4379.48717948718,4362.051282051282,4716.923076923077,4284.615384615385,4289.74358974359,4136.923076923077,4432.820512820514
76.33122,0.42678472,0.46712032,0.33368495,0.68230754,0,0.0,0.0,0.33095738,0.0,0.0,0,0,0.0,0.0,0,0,24.0,0.0,0.0,4458.974358974359,4052.820512820513,4499.48717948718,4371.282051282052,4178.974358974359,4513.846153846154,4421.538461538462,4366.666666666667,4343.076923076924,4675.384615384616,4245.641025641026,4285.128205128206,4109.74358974359,4377.435897435898
76.45633,0.42678472,0.46712032,0.33368495,0.68230754,0,0.0,0.0,0.17457902,0.0,0.0,0,0,0.0,0.0,0,0,40.0,0.0,0.0,4453.333333333334,3987.1794871794878,4495.384615384616,4337.435897435898,4154.871794871796,4482.051282051282,4414.871794871796,4350.256410256411,4326.153846153847,4645.641025641026,4216.923076923077,4240.000000000001,4072.820512820513,4327.179487179487
76.83165,0.4529863,0.444638,0.3336494,0.6692358,0,0.0,0.0,0.110348634,0.0,0.0,0,0,0.0,0.0,0,0,88.0,0.0,606.0,4465.128205128206,3952.820512820513,4494.871794871796,4348.205128205129,4143.589743589744,4414.358974358975,4378.974358974359,4307.179487179487,4313.846153846154,4617.948717948719,4232.820512820514,4196.923076923077,4135.8974358974365,4424.615384615385
77.05059,0.4529863,0.444638,0.3336494,0.6692358,0,0.0,0.0,0.099151894,0.0,0.0,0,0,0.0,0.0,0,0,116.0,0.0,606.0,4423.076923076924,3896.9230769230776,4504.102564102564,4265.128205128206,4154.358974358975,4414.358974358975,4386.153846153847,4313.846153846154,4316.923076923077,4623.076923076924,4203.076923076924,4141.538461538462,4053.8461538461543,4320.512820512821
77.332085,0.4596541,0.43107823,0.33361757,0.6574992,0,0.0,0.0,0.0,0.0,0.0,0,0,0.0,0.16001444,0,0,23.0,0.0,0.0,4398.461538461539,3930.7692307692314,4498.461538461539,4295.384615384616,4154.871794871796,4423.076923076924,4380.000000000001,4315.8974358974365,4318.974358974359,4638.974358974359,4208.717948717949,4141.025641025642,4075.3846153846157,4370.256410256411
77.45719,0.4596541,0.43107823,0.33361757,0.6574992,0,0.0,0.0,0.0,0.0,0.0,0,0,0.0,0.060271382,0,0,39.0,0.0,0.0,4408.205128205129,3963.076923076924,4501.538461538462,4502.564102564103,4178.974358974359,4443.076923076924,4393.846153846154,4320.512820512821,4320.000000000001,4649.743589743591,4255.384615384616,4162.051282051282,4082.0512820512827,4401.538461538462
77.83251,0.5084052,0.42305815,0.33358857,0.6468408,0,0.0,0.0,0.0,0.0,0.0,0,0,0.0,0.2145285,0,0,83.0,0.0,600.0,4418.974358974359,3973.8461538461543,4499.48717948718,4622.051282051282,4204.102564102564,4480.000000000001,4412.307692307693,4370.769230769231,4327.6923076923085,4671.794871794872,4280.512820512821,4206.153846153847,4097.435897435898,4460.000000000001
77.95762,0.5084052,0.42305815,0.33358857,0.6468408,0,0.0,0.0,0.0,0.0,0.0,0,0,0.0,0.2453497,0,0,103.0,0.0,600.0,4424.102564102564,3972.307692307693,4507.179487179488,4622.051282051282,4203.589743589744,4492.820512820514,4416.410256410257,4366.153846153847,4327.179487179487,4669.743589743591,4335.8974358974365,4228.717948717949,4078.461538461539,4457.435897435898
78.33294,0.48921576,0.42155275,0.3335625,0.63726133,0,0.0,0.0,0.0,0.0,0.0,0,0,0.0,0.14645992,0,0,22.0,0.0,0.0,4417.948717948719,3877.9487179487182,4518.974358974359,4472.307692307693,4117.948717948719,4468.205128205129,4405.128205128206,4324.615384615385,4302.051282051282,4590.256410256411,4286.666666666667,4114.871794871796,4002.564102564103,4437.435897435898
78.45805,0.48921576,0.42155275,0.3335625,0.63726133,0,0.0,0.0,0.0,0.0,0.0,0,0,0.0,0.12593526,0,0,38.0,0.0,0.0,4409.2307692307695,3834.358974358975,4526.666666666667,4409.743589743591,4127.179487179487,4450.769230769231,4398.974358974359,4340.512820512821,4290.769230769231,4550.256410256411,4219.48717948718,4061.538461538462,3951.2820512820517,4389.2307692307695
78.70827,0.5258918,0.4135936,0.33353898,0.6286392,0,0.0,0.0,0.0,0.0,0.0,0,0,0.0,0.056085564,0,0,70.0,0.0,612.0,4377.435897435898,3826.666666666667,4526.153846153847,4323.076923076924,4095.3846153846157,4407.6923076923085,4373.846153846154,4347.179487179487,4277.948717948719,4523.076923076924,4168.717948717949,3980.0000000000005,3950.2564102564106,4357.435897435898
78.95848,0.5258918,0.4135936,0.33353898,0.6286392,0,0.0,0.0,0.07635362,0.0,0.0,0,0,0.0,0.0,0,0,102.0,0.0,641.0,4368.717948717949,3815.3846153846157,4515.8974358974365,4391.794871794872,4119.48717948718,4392.820512820514,4350.769230769231,4231.282051282052,4272.820512820514,4532.307692307693,4155.384615384616,3950.2564102564106,3964.615384615385,4320.512820512821
79.3338,0.4863257,0.3964596,0.3335178,0.6208862,0,0.0,0.0,0.2020259,0.0,0.0,0,0,0.0,0.0,0,0,21.0,0.0,0.0,4395.384615384616,3882.0512820512827,4530.256410256411,4444.102564102564,4188.205128205129,4444.102564102564,4363.076923076924,4248.205128205129,4287.6923076923085,4576.923076923077,4183.076923076924,3962.0512820512827,3976.410256410257,4252.307692307693
79.45891,0.4863257,0.3964596,0.3335178,0.6208862,0,0.0,0.0,0.33188996,0.0,0.0,0,0,0.0,0.0,0,0,37.0,0.0,0.0,4406.153846153847,3496.9230769230776,4523.076923076924,4476.410256410257,4195.8974358974365,4465.128205128206,4386.666666666667,4278.974358974359,4302.564102564103,4611.794871794872,4277.948717948719,3997.435897435898,3958.461538461539,4266.153846153847
79.834236,0.50887305,0.38801292,0.33349866,0.61392236,0,0.0,0.0,0.0,0.0,0.0430867,0,0,0.0,0.0,0,0,81.0,0.0,472.0,4441.025641025642,3614.8717948717954,4514.871794871796,4513.333333333334,4205.641025641026,4489.743589743591,4389.743589743591,4321.025641025642,4313.333333333334,4607.6923076923085,4373.333333333334,4062.564102564103,3966.666666666667,4306.666666666667
79.95934,0.50887305,0.38801292,0.33349866,0.61392236,0,0.0,0.0,0.0,0.0,0.094338976,0,0,0.0,0.0,0,0,101.0,0.0,472.0,4456.923076923077,3711.794871794872,4515.8974358974365,4521.025641025642,4206.666666666667,4508.717948717949,4393.846153846154,4356.410256410257,4327.6923076923085,4622.564102564103,4401.538461538462,4090.7692307692314,4004.1025641025644,4344.615384615385
80.20956,0.5629889,0.39109477,0.33348176,0.6077353,0,0.0,0.0,0.0,0.0,0.0,0,0,0.0,0.27171946,0,0,4.0,0.0,666.0,4442.564102564103,3725.6410256410263,4513.333333333334,4430.256410256411,4177.435897435898,4507.179487179488,4386.153846153847,4379.48717948718,4325.641025641026,4598.974358974359,4368.205128205129,4036.9230769230776,3988.717948717949,4335.384615384616
80.45977,0.5629889,0.39109477,0.33348176,0.6077353,0,0.0,0.0,0.0,0.0,0.0,0,0,0.0,0.229421,0,0,36.0,0.0,0.0,4415.8974358974365,3773.333333333334,4529.2307692307695,4381.025641025642,4170.769230769231,4490.769230769231,4386.153846153847,4376.410256410257,4337.948717948719,4588.717948717949,4305.641025641026,4010.2564102564106,4022.0512820512827,4330.256410256411
80.709984,0.5377496,0.38462216,0.3334664,0.6021358,0,0.0,0.0,0.0,0.0,0.0,0,0,0.0,0.6009866,0,0,68.0,0.0,666.0,4406.153846153847,3751.794871794872,4503.076923076924,4361.025641025642,4182.051282051282,4502.564102564103,4398.974358974359,4373.846153846154,4337.435897435898,4607.179487179488,4397.948717948719,3968.205128205129,4042.564102564103,4355.384615384616
80.83509,0.5377496,0.38462216,0.3334664,0.6021358,0,0.0,0.0,0.0,0.0,0.0,0,0,0.0,1.0,0,0,84.0,0.0,600.0,4396.410256410257,3773.8461538461543,4514.871794871796,4336.410256410257,4187.6923076923085,4513.846153846154,4405.641025641026,4388.717948717949,4352.307692307693,4625.128205128206,4389.2307692307695,3948.205128205129,4070.2564102564106,4344.615384615385
81.21042,0.49140552,0.3673209,0.3334527,0.5970977,0,0.0,0.0,0.0,0.0,0.0,0,0,0.0,0.21919969,0,0,3.0,0.0,647.0,4333.333333333334,3888.205128205129,4520.000000000001,4346.666666666667,4170.769230769231,4488.205128205129,4364.615384615385,4328.717948717949,4333.333333333334,4608.717948717949,4323.076923076924,3972.307692307693,4000.5128205128212,4283.076923076924
81.46063,0.49140552,0.3673209,0.3334527,0.5970977,0,0.0,0.0,0.0,0.0072814235,0.0,0,0,0.0,0.0,0,0,35.0,0.0,0.0,4330.256410256411,3902.0512820512827,4516.410256410257,4358.974358974359,4170.256410256411,4495.384615384616,4369.2307692307695,4271.794871794872,4330.256410256411,4618.461538461539,4352.307692307693,4028.717948717949,4036.410256410257,4325.641025641026
81.710846,0.46043834,0.3465218,0.33344045,0.592569,0,0.0,0.0,0.03651314,0.0,0.0,0,0,0.0,0.0,0,0,67.0,0.0,647.0,4333.846153846154,3927.1794871794878,4516.410256410257,4381.025641025642,4190.256410256411,4512.307692307693,4380.512820512821,4287.179487179487,4352.307692307693,4626.666666666667,4370.769230769231,4065.1282051282055,4086.1538461538466,4428.717948717949
81.96106,0.46043834,0.3465218,0.33344045,0.592569,0,0.0,0.0,0.0,0.0,0.0,0,0,0.0,0.97663957,0,0,99.0,0.0,599.0,4343.076923076924,3902.564102564103,4531.282051282052,4385.128205128206,4193.333333333334,4525.128205128206,4395.8974358974365,4318.974358974359,4369.743589743591,4622.051282051282,4403.076923076924,4123.589743589744,4096.410256410257,4501.025641025642
82.21127,0.44399074,0.32100248,0.33342943,0.58849037,0,0.0,0.0,0.0,0.0,0.0,0,0,0.0,0.9390061,0,0,2.0,0.0,251.0,4355.8974358974365,3915.3846153846157,4531.794871794872,4366.666666666667,4177.435897435898,4508.717948717949,4396.923076923077,4300.000000000001,4357.948717948719,4604.102564102564,4402.051282051282,4168.717948717949,4104.102564102564,4543.076923076924
82.461494,0.44399074,0.32100248,0.33342943,0.58849037,0,0.0,0.0,0.0,0.0,0.0,0,0,0.0,0.63333786,0,0,34.0,0.0,0.0,4376.923076923077,3955.3846153846157,4528.205128205129,4389.2307692307695,4187.6923076923085,4535.384615384616,4411.794871794872,4310.769230769231,4360.512820512821,4645.641025641026,4390.256410256411,4205.128205128206,4128.717948717949,4587.179487179488
82.71171,0.46601352,0.30441648,0.33341956,0.58481693,0,0.0,0.0,0.0,0.0,0.0,0,0,0.0,0.35511413,0,0,66.0,0.0,251.0,4400.512820512821,3989.23076923077,4521.538461538462,4413.333333333334,4215.8974358974365,4568.205128205129,4443.076923076924,4348.205128205129,4386.153846153847,4693.846153846154,4412.820512820514,4269.2307692307695,4164.102564102564,4552.307692307693
82.96192,0.46601352,0.30441648,0.33341956,0.58481693,0,0.0,0.0,0.0,0.0,0.0,0,0,0.0,0.35533297,0,0,98.0,0.0,640.0,4442.564102564103,4035.3846153846157,4498.974358974359,4446.666666666667,4244.102564102564,4589.743589743591,4453.846153846154,4353.333333333334,4403.589743589744,4713.333333333334,4421.025641025642,4305.128205128206,4193.333333333334,4516.410256410257
83.212135,0.49433863,0.29489252,0.33341065,0.6250473,0,0.0,0.0,0.13533597,0.0,0.0,0,0,0.0,0.0,0,0,1.0,0.0,618.0,4476.410256410257,4081.0256410256416,4491.282051282052,4457.435897435898,4230.769230769231,4585.128205128206,4455.8974358974365,4369.2307692307695,4402.051282051282,4710.769230769231,4406.666666666667,4327.179487179487,4183.589743589744,4502.051282051282
83.46235,0.49433863,0.29489252,0.33341065,0.6250473,0,0.0,0.0,0.2023449,0.0,0.0,0,0,0.0,0.0,0,0,33.0,0.0,0.0,4499.48717948718,4133.333333333334,4482.051282051282,4482.051282051282,4244.102564102564,4602.051282051282,4472.307692307693,4369.2307692307695,4405.128205128206,4717.948717948719,4349.2307692307695,4335.384615384616,4198.461538461539,4545.641025641026
83.71256,0.51083773,0.2891187,0.33340263,0.70801884,1,0.0,0.0,0.2502546,0.0,0.0,0,0,0.0,0.0,0,0,65.0,0.0,618.0,4541.025641025642,4231.794871794872,4482.051282051282,4538.974358974359,4252.307692307693,4607.179487179488,4478.461538461539,4385.128205128206,4446.666666666667,4681.538461538462,4359.48717948718,4372.820512820514,4238.461538461539,4610.256410256411
83.96278,0.51083773,0.2891187,0.33340263,0.70801884,0,0.0,0.0,0.1563467,0.0,0.0,0,0,0.0,0.0,0,0,97.0,0.0,471.0,4552.820512820514,4211.794871794872,4476.923076923077,4506.666666666667,4257.948717948719,4627.179487179488,4495.384615384616,4401.025641025642,4452.820512820514,4722.051282051282,4341.025641025642,4355.384615384616,4215.8974358974365,4569.743589743591
84.213,0.49252787,0.3221822,0.33234996,0.78225535,0,0.0,0.0,0.26024616,0.0,0.0,0,0,0.0,0.0,0,0,0.0,0.0,231.0,4553.333333333334,4176.923076923077,4466.666666666667,4498.461538461539,4248.205128205129,4610.256410256411,4489.2307692307695,4385.641025641026,4446.666666666667,4712.820512820514,4368.717948717949,4329.2307692307695,4201.025641025642,4579.48717948718
84.46321,0.49252787,0.3221822,0.33234996,0.78225535,0,0.0,0.0,0.71222657,0.0,0.0,0,0,0.0,0.0,0,0,32.0,0.0,0.0,4570.769230769231,4146.666666666667,4466.153846153847,4500.512820512821,4248.205128205129,4603.076923076924,4488.717948717949,4374.871794871796,4432.820512820514,4734.871794871796,4367.179487179487,4320.512820512821,4204.615384615385,4594.871794871796
84.713425,0.5418046,0.35072547,0.33249363,0.8483039,0,0.0,0.0,0.0,0.0,0.0,0,0,0.0,0.46306786,0,0,64.0,0.0,231.0,4579.48717948718,4048.205128205129,4468.717948717949,4487.179487179488,4247.179487179487,4594.871794871796,4474.358974358975,4379.48717948718,4429.2307692307695,4733.846153846154,4337.948717948719,4305.641025641026,4176.410256410257,4573.333333333334
84.96364,0.5418046,0.35072547,0.33249363,0.8483039,0,0.0,0.0,0.0,0.0,0.33692896,0,0,0.0,0.0,0,0,96.0,0.0,602.0,4587.179487179488,4005.6410256410263,4460.512820512821,4477.948717948719,4226.153846153847,4567.179487179488,4446.666666666667,4353.846153846154,4428.205128205129,4697.435897435898,4377.435897435898,4300.512820512821,4165.641025641026,4586.666666666667
85.21386,0.556085,0.37386385,0.3326231,0.90665996,0,0.0,0.0,0.063192636,0.0,0.0,0,0,0.0,0.0,0,0,128.0,0.0,602.0,4600.000000000001,3988.717948717949,4469.2307692307695,4479.48717948718,4232.820512820514,4580.000000000001,4463.076923076924,4384.615384615385,4437.948717948719,4735.384615384616,4387.179487179487,4292.820512820514,4173.333333333334,4566.666666666667
85.46407,0.556085,0.37386385,0.3326231,0.90665996,0,0.0,0.0,0.118068695,0.0,0.0,0,0,0.0,0.0,0,0,31.0,0.0,0.0,4617.435897435898,3966.666666666667,4477.435897435898,4475.384615384616,4239.48717948718,4580.512820512821,4465.641025641026,4381.025641025642,4424.615384615385,4746.153846153847,4377.948717948719,4306.666666666667,4165.128205128206,4549.2307692307695
85.71429,0.5088256,0.3889112,0.32974517,0.96429175,0,0.0,0.0,0.0,0.0,0.0,0,0,0.0,1.0,0,0,63.0,0.0,0.0,4625.128205128206,3946.1538461538466,4494.358974358975,4471.282051282052,4201.025641025642,4539.48717948718,4432.307692307693,4369.2307692307695,4403.076923076924,4712.307692307693,4351.282051282052,4292.307692307693,4122.564102564103,4495.384615384616
85.9645,0.5088256,0.3889112,0.32974517,0.96429175,0,0.0,0.0,0.30407754,0.0,0.0,0,0,0.0,0.0,0,0,95.0,0.0,593.0,4616.410256410257,3869.2307692307695,4498.974358974359,4418.461538461539,4180.512820512821,4532.307692307693,4422.051282051282,4360.000000000001,4377.435897435898,4674.871794871796,4320.512820512821,4245.128205128206,4100.512820512821,4469.2307692307695
86.214714,0.5100871,0.37650123,0.3259743,1.0,0,0.0,0.0,0.19910936,0.0,0.0,0,0,0.0,0.0,0,0,127.0,0.0,593.0,4592.820512820514,3787.1794871794878,4481.025641025642,4321.025641025642,4131.794871794872,4450.256410256411,4378.461538461539,4299.48717948718,4338.974358974359,4577.948717948719,4232.307692307693,4139.48717948718,3964.1025641025644,4361.538461538462
86.46493,0.5100871,0.37650123,0.3259743,1.0,0,0.0,0.0,0.03531417,0.0,0.0,0,0,0.0,0.0,0,0,30.0,0.0,0.0,4557.948717948719,3712.307692307693,4469.743589743591,4229.2307692307695,4105.128205128206,4420.512820512821,4367.6923076923085,4311.794871794872,4353.846153846154,4555.8974358974365,4245.128205128206,4094.8717948717954,3981.0256410256416,4308.717948717949
86.71515,0.6069846,0.37880224,0.32446948,1.0,0,0.0,0.0,0.25852492,0.0,0.0,0,0,0.0,0.0,0,0,62.0,0.0,0.0,4518.974358974359,3753.333333333334,4485.641025641026,4237.948717948719,4118.461538461539,4402.564102564103,4370.769230769231,4305.128205128206,4345.641025641026,4562.051282051282,4268.205128205129,4088.717948717949,3995.8974358974365,4298.974358974359
86.96536,0.6069846,0.37880224,0.32446948,1.0,0,0.0,0.0,0.10192545,0.0,0.0,0,0,0.0,0.0,0,0,94.0,0.0,641.0,4458.974358974359,3751.2820512820517,4487.179487179488,4225.128205128206,4083.589743589744,4386.153846153847,4321.538461538462,4292.820512820514,4330.256410256411,4564.102564102564,4253.846153846154,4070.2564102564106,4010.2564102564106,4302.564102564103
87.215576,0.6429969,0.3857837,0.32535586,1.0,0,0.0,0.0,0.038585328,0.0,0.0,0,0,0.0,0.0,0,0,126.0,0.0,641.0,4457.435897435898,3821.538461538462,4502.051282051282,4249.74358974359,4146.666666666667,4407.179487179487,4326.666666666667,4263.589743589744,4313.333333333334,4573.333333333334,4281.538461538462,4050.7692307692314,4012.307692307693,4388.717948717949
87.46579,0.6429969,0.3857837,0.32535586,1.0,0,0.0,0.0,0.078779995,0.0,0.0,0,0,0.0,0.0,0,0,29.0,0.0,0.0,4493.333333333334,3907.692307692308,4514.358974358975,4325.128205128206,4156.410256410257,4427.179487179487,4350.256410256411,4265.641025641026,4310.769230769231,4585.641025641026,4343.589743589744,4048.717948717949,4080.5128205128212,4524.102564102564
87.747284,0.6394148,0.38242465,0.32616696,1.0,0,0.0,0.0,0.0,0.0,0.27284142,0,0,0.0,0.0,0,0,65.0,0.0,618.0,4461.025641025642,3903.076923076924,4516.410256410257,4312.820512820514,4136.410256410257,4452.307692307693,4356.923076923077,4275.8974358974365,4291.794871794872,4567.179487179488,4291.794871794872,4039.48717948718,4015.8974358974365,4408.717948717949
87.966225,0.6394148,0.38242465,0.32616696,1.0,0,0.0,0.0,0.09642802,0.0,0.0,0,0,0.0,0.0,0,0,93.0,0.0,473.0,4482.564102564103,3943.589743589744,4525.641025641026,4359.48717948718,4204.102564102564,4498.461538461539,4389.2307692307695,4305.128205128206,4308.717948717949,4615.8974358974365,4357.435897435898,4071.7948717948725,4091.7948717948725,4444.615384615385
88.21644,0.61809146,0.36960766,0.3268969,1.0,0,0.0,0.0,0.2279295,0.0,0.0,0,0,0.0,0.0,0,0,125.0,0.0,473.0,4503.076923076924,4014.8717948717954,4522.051282051282,4388.717948717949,4186.153846153847,4504.615384615385,4384.102564102564,4316.923076923077,4310.769230769231,4645.641025641026,4413.846153846154,4110.769230769231,4133.846153846154,4469.743589743591
88.46665,0.61809146,0.36960766,0.3268969,1.0,0,0.0,0.0,0.13442823,0.0,0.0,0,0,0.0,0.0,0,0,28.0,0.0,0.0,4508.205128205129,4041.0256410256416,4517.435897435898,4417.948717948719,4233.333333333334,4549.743589743591,4420.000000000001,4343.589743589744,4330.769230769231,4693.846153846154,4444.102564102564,4159.48717948718,4164.102564102564,4485.641025641026
88.716866,0.6041986,0.3767754,0.32755497,0.9795795,0,0.0,0.0,0.0,0.0,0.0,0,0,0.0,0.08680355,0,0,60.0,0.0,0.0,4534.358974358975,4089.23076923077,4510.769230769231,4460.512820512821,4247.6923076923085,4570.769230769231,4444.615384615385,4306.153846153847,4344.615384615385,4730.769230769231,4478.461538461539,4213.333333333334,4183.589743589744,4509.743589743591
88.96708,0.6041986,0.3767754,0.32755497,0.9795795,0,0.0,0.0,0.0058056465,0.0,0.0,0,0,0.0,0.0,0,0,92.0,0.0,599.0,4542.564102564103,4081.0256410256416,4501.538461538462,4464.615384615385,4246.666666666667,4571.794871794872,4442.564102564103,4257.435897435898,4335.384615384616,4718.461538461539,4448.205128205129,4228.717948717949,4164.615384615385,4495.384615384616
89.21729,0.593302,0.3959365,0.32814828,0.9341295,0,0.0,0.0,0.08422074,0.0,0.0,0,0,0.0,0.0,0,0,124.0,0.0,599.0,4552.820512820514,4027.1794871794878,4496.923076923077,4452.307692307693,4248.205128205129,4576.410256410257,4444.615384615385,4264.102564102564,4339.48717948718,4715.8974358974365,4418.974358974359,4253.333333333334,4145.128205128206,4463.589743589744
89.467514,0.593302,0.3959365,0.32814828,0.9341295,0,0.0,0.0,0.053449545,0.0,0.0,0,0,0.0,0.0,0,0,27.0,0.0,0.0,4562.051282051282,4000.5128205128212,4492.820512820514,4458.974358974359,4233.333333333334,4576.923076923077,4443.589743589744,4293.333333333334,4334.871794871796,4717.435897435898,4420.000000000001,4273.333333333334,4151.282051282052,4457.435897435898
89.71773,0.5757839,0.3880624,0.3286806,0.89387244,0,0.0,0.0,0.028959459,0.0,0.0,0,0,0.0,0.0,0,0,59.0,0.0,0.0,4584.102564102564,4046.666666666667,4492.820512820514,4477.435897435898,4260.512820512821,4589.2307692307695,4458.461538461539,4326.666666666667,4349.743589743591,4731.794871794872,4425.128205128206,4293.333333333334,4160.512820512821,4482.051282051282
89.96794,0.5757839,0.3880624,0.3286806,0.89387244,0,0.0,0.0,0.18013385,0.0,0.0,0,0,0.0,0.0,0,0,91.0,0.0,593.0,4584.102564102564,4094.358974358975,4493.333333333334,4478.974358974359,4248.717948717949,4582.564102564103,4448.205128205129,4336.923076923077,4385.128205128206,4715.384615384616,4409.743589743591,4303.589743589744,4180.512820512821,4491.282051282052
90.218155,0.56632406,0.37445384,0.32906082,0.89827025,0,0.0,0.0,0.4093825,0.0,0.0,0,0,0.0,0.0,0,0,123.0,0.0,593.0,4590.769230769231,4111.794871794872,4498.974358974359,4469.743589743591,4236.410256410257,4576.923076923077,4443.589743589744,4349.743589743591,4393.333333333334,4711.282051282052,4400.000000000001,4297.435897435898,4168.717948717949,4497.948717948719
90.46837,0.56632406,0.37445384,0.32906082,0.89827025,0,0.0,0.0,0.015226733,0.0,0.0,0,0,0.0,0.0,0,0,26.0,0.0,0.0,4601.538461538462,4062.0512820512827,4496.923076923077,4446.153846153847,4224.102564102564,4548.205128205129,4435.8974358974365,4393.846153846154,4389.2307692307695,4701.538461538462,4373.333333333334,4286.153846153847,4165.128205128206,4480.512820512821
90.71859,0.5581096,0.3593613,0.32678697,0.9463926,0,0.0,0.0,0.050292507,0.0,0.0,0,0,0.0,0.0,0,0,58.0,0.0,0.0,4615.8974358974365,4069.23076923077,4506.666666666667,4458.974358974359,4231.282051282052,4556.923076923077,4437.435897435898,4390.256410256411,4393.333333333334,4695.8974358974365,4345.641025641026,4295.8974358974365,4170.256410256411,4447.179487179487
90.9688,0.5581096,0.3593613,0.32678697,0.9463926,0,0.0,0.0,0.28651473,0.0,0.0,0,0,0.0,0.0,0,0,90.0,0.0,636.0,4630.256410256411,4029.7435897435903,4498.461538461539,4480.000000000001,4234.871794871796,4567.179487179488,4438.974358974359,4403.076923076924,4397.435897435898,4704.615384615386,4289.74358974359,4301.538461538462,4181.538461538462,4452.307692307693
91.21902,0.4981806,0.33477318,0.32161313,0.9928256,0,0.0,0.0,0.0,0.0,0.0,0,0,0.0,0.4696246,0,0,122.0,0.0,636.0,4641.025641025642,3899.48717948718,4490.769230769231,4489.743589743591,4261.025641025642,4587.179487179488,4465.128205128206,4412.307692307693,4393.846153846154,4708.205128205129,4242.051282051282,4320.512820512821,4089.7435897435903,4454.358974358975
91.46923,0.4981806,0.33477318,0.32161313,0.9928256,0,0.0,0.0,0.0,0.0,0.0,0,0,0.0,0.539733,0,0,25.0,0.0,0.0,4638.461538461539,3772.307692307693,4467.179487179487,4443.076923076924,4240.000000000001,4576.923076923077,4455.384615384616,4406.666666666667,4386.153846153847,4662.051282051282,4286.666666666667,4285.128205128206,4152.307692307693,4428.717948717949
91.719444,0.46923938,0.3202633,0.31692898,1.0,0,0.0,0.0,0.0,0.0,0.0,0,0,0.0,0.91014606,0,0,57.0,0.0,0.0,4627.179487179488,3760.0000000000005,4460.000000000001,4401.538461538462,4235.384615384616,4571.794871794872,4459.48717948718,4425.128205128206,4385.128205128206,4664.615384615386,4300.000000000001,4276.410256410257,4190.769230769231,4447.179487179487
91.969666,0.46923938,0.3202633,0.31692898,1.0,0,0.0,0.0,0.0,0.0,0.0,0,0,0.0,0.6993851,0,0,89.0,0.0,471.0,4619.48717948718,3747.1794871794878,4447.6923076923085,4396.923076923077,4252.307692307693,4577.948717948719,4469.2307692307695,4436.410256410257,4390.769230769231,4703.589743589744,4311.794871794872,4270.256410256411,4243.076923076924,4482.051282051282
92.21988,0.499241,0.3189796,0.3127506,1.0,0,0.0,0.0,0.0,0.0,0.0,0,0,0.0,1.0,0,0,121.0,0.0,471.0,4596.410256410257,3748.717948717949,4433.846153846154,4404.615384615385,4245.128205128206,4554.871794871796,4484.102564102564,4420.512820512821,4394.871794871796,4554.871794871796,4288.717948717949,4228.717948717949,4177.435897435898,4402.051282051282
92.21988,0.499241,0.3189796,0.3127506,1.0,0,0.0,0.0,0.0,0.0,0.0,0,0,0.0,1.0,0,0,121.0,0.0,471.0,4596.410256410257,3748.717948717949,4433.846153846154,4404.615384615385,4245.128205128206,4554.871794871796,4484.102564102564,4420.512820512821,4394.871794871796,4554.871794871796,4288.717948717949,4228.717948717949,4177.435897435898,4402.051282051282
92.72031,0.45853257,0.30478653,0.31161407,1.0,0,0.0,0.0,0.0,0.0,0.0,0,0,0.0,0.031445783,0,0,56.0,0.0,0.0,4587.6923076923085,3882.0512820512827,4429.2307692307695,4457.948717948719,4271.794871794872,4569.2307692307695,4440.512820512821,4430.769230769231,4416.923076923077,4614.358974358975,4355.384615384616,4241.538461538462,4210.769230769231,4475.384615384616
93.064354,0.45853257,0.30478653,0.31161407,1.0,0,0.0,0.0,0.0,0.0,0.0,0,0,0.0,0.08768919,0,0,100.0,0.0,598.0,4607.6923076923085,3913.8461538461543,4413.333333333334,4518.461538461539,4292.307692307693,4588.717948717949,4398.461538461539,4456.410256410257,4429.743589743591,4706.666666666667,4440.000000000001,4277.948717948719,4246.153846153847,4504.615384615385
93.22073,0.47510403,0.30458394,0.3138251,1.0,0,0.0,0.0,0.0,0.0,0.0,0,0,0.0,0.35145056,0,0,120.0,0.0,598.0,4608.717948717949,3911.2820512820517,4418.974358974359,4522.564102564103,4293.846153846154,4598.974358974359,4424.615384615385,4466.666666666667,4429.2307692307695,4716.410256410257,4411.794871794872,4270.256410256411,4212.307692307693,4468.717948717949
93.470955,0.47510403,0.30458394,0.3138251,1.0,0,0.0,0.0,0.14551911,0.0,0.0,0,0,0.0,0.0,0,0,23.0,0.0,0.0,4622.564102564103,3904.615384615385,4429.2307692307695,4520.512820512821,4269.74358974359,4571.794871794872,4432.307692307693,4456.923076923077,4414.871794871796,4711.794871794872,4451.282051282052,4273.333333333334,4200.512820512821,4446.153846153847
93.72117,0.44185063,0.295781,0.31581837,0.95999694,0,0.0,0.0,0.0,0.0,0.0,0,0,0.0,0.19806756,0,0,55.0,0.0,0.0,4626.666666666667,3909.7435897435903,4439.48717948718,4525.641025641026,4255.384615384616,4572.307692307693,4438.461538461539,4446.666666666667,4413.333333333334,4743.589743589744,4473.333333333334,4282.564102564103,4234.871794871796,4501.538461538462
93.97138,0.44185063,0.295781,0.31581837,0.95999694,0,0.0,0.0,0.0,0.0,0.0,0,0,0.0,0.14571169,0,0,87.0,0.0,589.0,4636.923076923077,3891.7948717948725,4431.794871794872,4573.846153846154,4274.358974358975,4600.000000000001,4467.6923076923085,4491.282051282052,4423.076923076924,4758.461538461539,4497.435897435898,4273.333333333334,4197.435897435898,4495.8974358974365
94.221596,0.40711626,0.29203475,0.31761527,0.91680753,0,0.0,0.0,0.13950574,0.0,0.0,0,0,0.0,0.0,0,0,119.0,0.0,589.0,4637.435897435898,3907.1794871794878,4427.6923076923085,4578.461538461539,4285.128205128206,4598.974358974359,4466.666666666667,4453.846153846154,4419.48717948718,4764.102564102564,4416.923076923077,4264.102564102564,4166.153846153847,4478.461538461539
94.47181,0.40711626,0.29203475,0.31761527,0.91680753,0,0.0,0.0,0.06642682,0.0,0.0,0,0,0.0,0.0,0,0,22.0,0.0,0.0,4646.666666666667,3970.7692307692314,4439.48717948718,4581.538461538462,4288.205128205129,4606.666666666667,4466.153846153847,4449.743589743591,4423.076923076924,4749.743589743591,4430.256410256411,4274.358974358975,4186.153846153847,4496.923076923077
94.72203,0.38829634,0.29257983,0.31875807,0.94072956,0,0.0,0.0,0.19395682,0.0,0.0,0,0,0.0,0.0,0,0,54.0,0.0,0.0,4654.871794871796,3995.3846153846157,4458.461538461539,4562.564102564103,4270.256410256411,4586.666666666667,4468.717948717949,4433.846153846154,4414.871794871796,4745.128205128206,4462.564102564103,4279.48717948718,4179.48717948718,4512.307692307693
94.972244,0.38829634,0.29257983,0.31875807,0.94072956,0,0.0,0.0,0.109457254,0.0,0.0,0,0,0.0,0.0,0,0,86.0,0.0,633.0,4651.282051282052,3978.461538461539,4469.2307692307695,4524.615384615385,4262.564102564103,4577.435897435898,4448.717948717949,4408.205128205129,4415.384615384616,4735.8974358974365,4416.923076923077,4273.846153846154,4151.282051282052,4474.871794871796
95.22246,0.38303387,0.28729597,0.3190494,1.0,0,0.0,0.0,0.0,0.0,0.0,0,0,0.0,0.32190743,0,0,118.0,0.0,633.0,4654.358974358975,3972.820512820513,4482.564102564103,4509.743589743591,4265.128205128206,4585.128205128206,4445.128205128206,4420.000000000001,4443.589743589744,4729.2307692307695,4440.000000000001,4289.2307692307695,4171.282051282052,4525.128205128206
95.47267,0.38303387,0.28729597,0.3190494,1.0,0,0.0,0.0,0.73829514,0.0,0.0,0,0,0.0,0.0,0,0,21.0,0.0,0.0,4653.333333333334,3986.666666666667,4491.282051282052,4493.333333333334,4255.8974358974365,4571.282051282052,4445.128205128206,4417.435897435898,4452.820512820514,4719.48717948718,4418.461538461539,4285.641025641026,4155.8974358974365,4586.666666666667
95.722885,0.35331985,0.28883624,0.3183346,1.0,0,0.0,0.0,0.0,0.0,0.021912837,0,0,0.0,0.0,0,0,53.0,0.0,0.0,4648.205128205129,3951.7948717948725,4480.512820512821,4463.076923076924,4243.589743589744,4558.461538461539,4429.743589743591,4322.051282051282,4442.564102564103,4720.512820512821,4397.948717948719,4268.717948717949,4126.666666666667,4557.435897435898
95.9731,0.35331985,0.28883624,0.3183346,1.0,0,0.0,0.0,0.0,0.0,0.06337181,0,0,0.0,0.0,0,0,85.0,0.0,471.0,4632.307692307693,3873.8461538461543,4478.461538461539,4400.512820512821,4220.512820512821,4539.48717948718,4427.6923076923085,4335.384615384616,4416.923076923077,4672.820512820514,4376.923076923077,4265.641025641026,4116.923076923077,4488.717948717949
96.22332,0.36975184,0.28075027,0.31709996,1.0,0,0.0,0.0,0.0057051475,0.0,0.0,0,0,0.0,0.0,0,0,117.0,0.0,471.0,4586.666666666667,3828.717948717949,4479.48717948718,4341.025641025642,4187.179487179487,4490.256410256411,4410.769230769231,4354.871794871796,4399.48717948718,4643.076923076924,4362.051282051282,4248.717948717949,4084.1025641025644,4444.102564102564
96.47353,0.36975184,0.28075027,0.31709996,1.0,0,0.0,0.0,0.024930656,0.0,0.0,0,0,0.0,0.0,0,0,20.0,0.0,0.0,4536.410256410257,3820.0000000000005,4468.205128205129,4292.307692307693,4178.461538461539,4461.538461538462,4400.000000000001,4368.205128205129,4402.051282051282,4654.871794871796,4240.512820512821,4238.974358974359,4120.000000000001,4431.282051282052
96.72375,0.37216964,0.26246122,0.3159915,1.0,0,0.0,0.0,0.0,0.0,0.0,0,0,0.0,0.45260987,0,0,52.0,0.0,0.0,4538.461538461539,3886.1538461538466,4454.871794871796,4327.6923076923085,4215.384615384616,4478.461538461539,4424.102564102564,4393.333333333334,4407.179487179487,4676.923076923077,4297.435897435898,4253.846153846154,4161.025641025642,4475.8974358974365
96.97396,0.37216964,0.26246122,0.3159915,1.0,0,0.0,0.0,0.0,0.0,0.0,0,0,0.0,0.7859012,0,0,84.0,0.0,599.0,4536.410256410257,3945.1282051282055,4440.000000000001,4369.743589743591,4235.8974358974365,4508.205128205129,4452.307692307693,4421.025641025642,4425.641025641026,4688.717948717949,4338.461538461539,4272.820512820514,4194.871794871796,4488.717948717949
97.224174,0.38361114,0.24719642,0.31499675,1.0,0,0.0,0.0,0.22641437,0.0,0.0,0,0,0.0,0.0,0,1,116.0,0.0,599.0,4551.794871794872,3962.564102564103,4424.102564102564,4451.282051282052,4293.846153846154,4565.641025641026,4480.000000000001,4443.589743589744,4436.410256410257,4716.410256410257,4410.256410256411,4304.102564102564,4222.051282051282,4519.48717948718
97.50567,0.38361114,0.24719642,0.31499675,1.0,0,0.0,0.0,0.3431876,0.0,0.0,0,0,0.0,0.0,0,0,23.0,0.0,0.0,4570.256410256411,3984.1025641025644,4412.820512820514,4491.794871794872,4305.641025641026,4595.384615384616,4498.974358974359,4501.538461538462,4452.820512820514,4787.179487179488,4426.666666666667,4308.205128205129,4266.153846153847,4500.000000000001
97.72461,0.3761949,0.24733812,0.31410453,1.0,0,0.0,0.0,0.0,0.0,0.0,0,0,0.0,0.22074263,0,0,51.0,0.0,0.0,4584.615384615385,4042.564102564103,4405.641025641026,4525.128205128206,4315.384615384616,4615.384615384616,4513.846153846154,4534.358974358975,4464.102564102564,4805.128205128206,4447.6923076923085,4319.48717948718,4277.948717948719,4511.282051282052
97.97482,0.3761949,0.24733812,0.31410453,1.0,0,0.0,0.0,0.0,0.0,0.0,0,0,0.0,0.78486323,0,0,83.0,0.0,588.0,4597.948717948719,4047.692307692308,4408.205128205129,4520.000000000001,4312.820512820514,4627.179487179488,4498.974358974359,4531.794871794872,4485.641025641026,4790.769230769231,4396.923076923077,4296.410256410257,4265.128205128206,4485.128205128206
98.09993,0.4042011,0.24888852,0.3134932,1.0,0,0.0,0.0,0.0,0.0,0.0,0,0,0.0,1.0,0,0,99.0,0.0,588.0,4604.102564102564,4034.358974358975,4414.871794871796,4521.538461538462,4307.6923076923085,4633.333333333334,4505.128205128206,4548.205128205129,4496.923076923077,4778.461538461539,4431.282051282052,4323.589743589744,4264.615384615385,4507.6923076923085
98.47525,0.4042011,0.24888852,0.3134932,1.0,0,0.0,0.0,0.0,0.0,0.0,0,0,0.0,0.19704036,0,0,18.0,0.0,0.0,4662.564102564103,4092.307692307693,4420.000000000001,4606.666666666667,4294.358974358975,4609.743589743591,4466.153846153847,4514.871794871796,4485.641025641026,4733.846153846154,4405.641025641026,4351.282051282052,4315.8974358974365,4664.102564102564
98.725464,0.37478757,0.26351112,0.31294626,1.0,0,0.0,0.0,0.0,0.0,0.0,0,0,0.0,0.12008916,0,0,50.0,0.0,0.0,4633.846153846154,4015.8974358974365,4420.512820512821,4510.769230769231,4304.615384615385,4643.589743589744,4497.435897435898,4551.794871794872,4499.48717948718,4745.641025641026,4333.846153846154,4322.564102564103,4230.769230769231,4488.717948717949
98.975685,0.37478757,0.26351112,0.31294626,1.0,0,0.0,0.0,0.0,0.0,0.0,0,0,0.0,0.074870646,0,0,82.0,0.0,631.0,4625.128205128206,3928.205128205129,4418.974358974359,4458.974358974359,4290.256410256411,4631.794871794872,4508.205128205129,4545.128205128206,4482.564102564103,4703.589743589744,4269.74358974359,4275.384615384616,4191.282051282052,4469.743589743591
99.2259,0.36213928,0.28072348,0.3120918,1.0,0,0.0,0.0,0.0,0.0,0.0,0,0,0.0,0.060564123,0,0,114.0,0.0,631.0,4585.128205128206,3901.538461538462,4403.589743589744,4420.000000000001,4291.794871794872,4616.923076923077,4531.282051282052,4543.076923076924,4467.179487179487,4647.179487179488,4208.205128205129,4209.74358974359,4157.948717948719,4428.717948717949
99.47611,0.36213928,0.28072348,0.3120918,1.0,0,0.0,0.0,0.045459576,0.0,0.0,0,0,0.0,0.0,0,0,17.0,0.0,0.0,4551.794871794872,3863.076923076924,4389.743589743591,4379.48717948718,4287.179487179487,4579.48717948718,4530.769230769231,4537.948717948719,4456.410256410257,4672.307692307693,4234.871794871796,4078.9743589743593,4190.769230769231,4450.769230769231
99.75761,0.34248167,0.2921952,0.31132627,1.0,0,0.0,0.0,0.0,0.0,0.0,0,0,0.0,0.21091568,0,1,53.0,0.0,0.0,4560.512820512821,3971.2820512820517,4388.717948717949,4500.512820512821,4246.153846153847,4532.307692307693,4513.333333333334,4511.282051282052,4434.871794871796,4662.564102564103,4310.769230769231,4104.102564102564,4275.8974358974365,4624.102564102564
99.97654,0.34248167,0.2921952,0.31132627,1.0,0,0.0,0.0,0.0,0.0,0.0,0,0,0.0,0.1626488,0,1,81.0,0.0,471.0,4521.538461538462,3900.0000000000005,4381.025641025642,4425.128205128206,4256.923076923077,4551.794871794872,4523.589743589744,4489.2307692307695,4427.179487179487,4669.2307692307695,4227.6923076923085,4066.1538461538466,4160.000000000001,4459.48717948718
100.22676,0.32115203,0.30066463,0.31107393,1.0,0,0.0,0.0,0.0,0.0,0.42663047,0,0,0.0,0.0,0,0,113.0,0.0,471.0,4546.666666666667,3911.2820512820517,4365.128205128206,4367.179487179487,4200.512820512821,4547.6923076923085,4526.153846153847,4504.615384615385,4423.589743589744,4641.538461538462,4222.564102564103,4050.7692307692314,4102.051282051282,4401.538461538462
100.476974,0.32115203,0.30066463,0.31107393,1.0,0,0.0,0.0,0.0,0.0,0.29973838,0,0,0.0,0.0,0,0,16.0,0.0,0.0,4544.615384615385,3886.666666666667,4366.666666666667,4359.48717948718,4210.769230769231,4542.051282051282,4500.000000000001,4461.025641025642,4407.6923076923085,4609.743589743591,4179.48717948718,3971.2820512820517,4040.5128205128212,4353.846153846154
100.72719,0.35711443,0.3128069,0.3118499,1.0,0,0.0,0.0,0.0,0.0,0.0,0,0,0.59601593,0.0,0,0,48.0,0.0,0.0,4556.923076923077,3967.1794871794878,4364.102564102564,4352.820512820514,4230.256410256411,4531.282051282052,4454.358974358975,4440.000000000001,4409.2307692307695,4646.153846153847,4248.717948717949,3831.2820512820517,4102.051282051282,4414.358974358975
100.9774,0.35711443,0.3128069,0.3118499,1.0,0,0.0,0.0,0.0,0.0,0.028244406,0,0,0.0,0.0,0,0,80.0,0.0,599.0,4569.2307692307695,3950.7692307692314,4357.948717948719,4390.256410256411,4234.358974358975,4536.410256410257,4451.794871794872,4417.948717948719,4412.307692307693,4675.8974358974365,4292.307692307693,3873.8461538461543,4132.307692307693,4441.538461538462
101.227615,0.36157584,0.34491798,0.3134192,1.0,0,0.0,0.0,0.0,0.0,0.07942244,0,0,0.0,0.0,0,0,112.0,0.0,599.0,4603.076923076924,3966.1538461538466,4357.435897435898,4426.666666666667,4271.282051282052,4570.769230769231,4459.48717948718,4477.435897435898,4427.6923076923085,4766.153846153847,4412.820512820514,3967.692307692308,4238.974358974359,4559.48717948718
101.47784,0.36157584,0.34491798,0.3134192,1.0,0,0.0,0.0,0.0,0.0,0.0,0,0,0.3652554,0.0,0,0,15.0,0.0,591.0,4594.871794871796,3979.48717948718,4360.512820512821,4449.743589743591,4270.769230769231,4583.076923076924,4458.461538461539,4456.410256410257,4419.48717948718,4778.974358974359,4450.256410256411,4027.692307692308,4216.410256410257,4529.743589743591
101.72805,0.38363037,0.39647046,0.31722027,1.0,0,0.0,0.0,0.0,0.0,0.0,0,0,0.0,0.04269823,0,0,47.0,0.0,0.0,4627.179487179488,3990.2564102564106,4365.128205128206,4451.794871794872,4262.051282051282,4585.128205128206,4393.846153846154,4429.2307692307695,4423.589743589744,4813.846153846154,4523.076923076924,4095.8974358974365,4255.8974358974365,4556.410256410257
101.978264,0.38363037,0.39647046,0.31722027,1.0,0,0.0,0.0,0.0,0.0,0.0,0,0,0.0,0.0,0,0,79.0,0.0,588.0,4696.410256410257,4109.2307692307695,4389.2307692307695,4547.6923076923085,4275.8974358974365,4595.384615384616,4416.410256410257,4430.256410256411,4428.717948717949,4813.333333333334,4586.153846153847,4162.564102564103,4293.333333333334,4617.948717948719
102.25976,0.37642056,0.45592296,0.32489678,1.0,0,0.0,0.0,0.0,0.0,0.53013897,0,0,0.0,0.0,0,0,115.0,0.0,588.0,4943.589743589744,4118.461538461539,4407.179487179487,4537.435897435898,4283.076923076924,4615.384615384616,4431.794871794872,4400.000000000001,4427.6923076923085,4810.256410256411,4603.076923076924,4221.025641025642,4246.666666666667,4566.666666666667
102.353584,0.37642056,0.45592296,0.32489678,1.0,0,0.0,0.0,0.0,0.0,1.0,0,0,0.0,0.0,0,0,127.0,0.0,588.0,4932.307692307693,4105.641025641026,4409.2307692307695,4521.538461538462,4252.820512820514,4603.589743589744,4431.794871794872,4384.615384615385,4423.589743589744,4799.48717948718,4565.641025641026,4217.435897435898,4223.076923076924,4528.717948717949
102.728905,0.4126131,0.6171184,0.33041185,1.0,0,0.0,0.0,0.0,0.0,0.1228531,0,0,0.0,0.0,0,0,46.0,0.0,0.0,4943.076923076924,4102.051282051282,4433.333333333334,4529.743589743591,4276.410256410257,4624.102564102564,4472.820512820514,4402.051282051282,4426.153846153847,4804.615384615386,4594.871794871796,4273.846153846154,4232.820512820514,4583.076923076924
102.979126,0.4126131,0.6171184,0.33041185,1.0,0,0.0,0.0,0.0,0.0,0.020535927,0,0,0.0,0.0,0,0,78.0,0.0,632.0,4927.6923076923085,4061.0256410256416,4428.717948717949,4506.153846153847,4299.48717948718,4634.358974358975,4505.641025641026,4426.153846153847,4436.923076923077,4823.589743589744,4590.256410256411,4298.461538461539,4227.6923076923085,4585.128205128206
103.22934,0.38680035,0.7688721,0.33537197,1.0,0,0.0,0.0,0.10768346,0.0,0.0,0,0,0.0,0.0,0,0,110.0,0.0,632.0,4902.051282051283,4036.410256410257,4447.179487179487,4474.358974358975,4244.102564102564,4604.615384615385,4481.538461538462,4393.333333333334,4425.128205128206,4761.538461538462,4543.589743589744,4260.512820512821,4198.461538461539,4578.974358974359
103.47955,0.38680035,0.7688721,0.33537197,1.0,0,0.0,0.0,0.0,0.0,0.0,0,0,1.0,0.0,0,0,13.0,0.0,472.0,4877.948717948719,3983.076923076924,4446.666666666667,4427.6923076923085,4218.461538461539,4581.538461538462,4475.8974358974365,4383.589743589744,4426.153846153847,4727.179487179488,4500.000000000001,4242.564102564103,4170.256410256411,4573.846153846154
103.72977,0.40773243,0.8928662,0.33963415,1.0,0,0.0,0.0,0.012533864,0.0,0.0,0,0,0.0,0.0,0,0,45.0,0.0,0.0,4845.128205128206,3927.692307692308,4437.948717948719,4384.615384615385,4198.461538461539,4557.435897435898,4461.538461538462,4428.717948717949,4421.025641025642,4687.6923076923085,4460.000000000001,4227.6923076923085,4162.051282051282,4538.461538461539
103.97998,0.40773243,0.8928662,0.33963415,1.0,0,0.0,0.0,0.013894478,0.0,0.0,0,0,0.0,0.0,0,0,77.0,0.0,473.0,4816.923076923077,3973.333333333334,4457.435897435898,4386.666666666667,4209.2307692307695,4552.820512820514,4456.923076923077,4385.641025641026,4421.538461538462,4711.794871794872,4450.256410256411,4226.153846153847,4148.205128205129,4525.128205128206
104.2302,0.40072662,0.8554215,0.33899355,1.0,0,0.0,0.0,0.0,0.0,0.040044848,0,0,0.0,0.0,0,0,109.0,0.0,473.0,4798.974358974359,4013.333333333334,4473.846153846154,4403.589743589744,4215.8974358974365,4553.333333333334,4451.794871794872,4378.461538461539,4409.2307692307695,4726.153846153847,4414.358974358975,4223.589743589744,4144.615384615385,4506.153846153847
104.51169,0.40072662,0.8554215,0.33899355,1.0,0,0.0,0.0,0.0,0.0,0.1288937,0,0,0.0,0.0,0,0,16.0,0.0,0.0,4812.820512820514,4072.820512820513,4470.769230769231,4461.538461538462,4193.846153846154,4513.333333333334,4421.538461538462,4335.8974358974365,4399.48717948718,4684.615384615386,4409.743589743591,4254.358974358975,4195.8974358974365,4582.564102564103
104.73063,0.3545061,0.77562755,0.3384147,1.0,0,0.0,0.0,0.0,0.0,0.22556782,0,0,0.0,0.0,0,0,44.0,0.0,0.0,4756.410256410257,3977.435897435898,4472.307692307693,4374.358974358975,4171.794871794872,4508.205128205129,4402.051282051282,4319.48717948718,4405.641025641026,4653.846153846154,4342.564102564103,4240.000000000001,4093.333333333334,4438.461538461539
104.98084,0.3545061,0.77562755,0.3384147,1.0,0,0.0,0.0,0.0,0.0,0.12695168,0,0,0.0,0.0,0,0,76.0,0.0,589.0,4714.871794871796,3848.205128205129,4474.871794871796,4290.256410256411,4155.384615384616,4503.589743589744,4418.461538461539,4341.025641025642,4400.512820512821,4670.769230769231,4321.025641025642,4191.282051282052,4090.7692307692314,4411.282051282052
105.23106,0.39038607,0.702368,0.33789256,1.0,0,0.0,0.0,0.0,0.0,0.0,0,0,0.0,0.32779625,0,0,108.0,0.0,589.0,4692.307692307693,3817.435897435898,4478.461538461539,4284.102564102564,4190.256410256411,4523.076923076924,4431.794871794872,4350.769230769231,4404.102564102564,4680.000000000001,4331.794871794872,4205.641025641026,4106.666666666667,4437.435897435898
105.35616,0.39038607,0.702368,0.33789256,1.0,0,0.0,0.0,0.0,0.0,0.0,0,0,0.0,1.0,0,0,124.0,0.0,589.0,4674.358974358975,3824.1025641025644,4468.717948717949,4291.282051282052,4191.794871794872,4527.6923076923085,4436.410256410257,4352.820512820514,4393.846153846154,4689.743589743591,4323.589743589744,4207.6923076923085,4112.820512820514,4435.384615384616
105.73149,0.47785863,0.65040165,0.33742228,1.0,0,0.0,0.0,0.0,0.0,0.0,0,0,0.0,0.23497523,0,0,43.0,0.0,0.0,4683.589743589744,3912.307692307693,4457.435897435898,4370.256410256411,4220.000000000001,4527.6923076923085,4421.025641025642,4330.769230769231,4380.000000000001,4700.512820512821,4277.948717948719,4190.256410256411,4105.128205128206,4452.307692307693
105.981705,0.47785863,0.65040165,0.33742228,1.0,0,0.0,0.0,0.0,0.0,0.0,0,0,0.0,0.17728804,0,0,75.0,0.0,584.0,4690.256410256411,3998.9743589743593,4445.128205128206,4405.128205128206,4215.8974358974365,4552.820512820514,4430.769230769231,4331.794871794872,4368.717948717949,4698.461538461539,4309.743589743591,4202.051282051282,4117.948717948719,4467.179487179487
106.23192,0.48679906,0.63384455,0.33699977,1.0,0,0.0,0.0,0.0,0.0,0.0,0,0,0.0,0.4407905,0,0,107.0,0.0,584.0,4669.743589743591,4006.666666666667,4422.564102564103,4410.769230769231,4213.846153846154,4551.282051282052,4435.384615384616,4340.000000000001,4361.538461538462,4737.948717948719,4292.820512820514,4183.076923076924,4105.641025641026,4433.846153846154
106.48213,0.48679906,0.63384455,0.33699977,1.0,0,0.0,0.0,0.36901176,0.0,0.0,0,0,0.0,0.0,0,0,10.0,0.0,631.0,4681.025641025642,4043.076923076924,4404.102564102564,4437.948717948719,4234.871794871796,4571.794871794872,4464.615384615385,4370.769230769231,4368.205128205129,4770.769230769231,4322.564102564103,4211.794871794872,4129.74358974359,4462.564102564103
106.732346,0.4989122,0.60144246,0.3369402,1.0,0,0.0,0.0,0.15073778,0.0,0.0,0,0,0.0,0.0,0,0,42.0,0.0,0.0,4700.512820512821,4147.179487179487,4396.923076923077,4536.410256410257,4254.871794871796,4577.435897435898,4476.923076923077,4382.564102564103,4362.051282051282,4778.974358974359,4342.051282051282,4258.461538461539,4223.076923076924,4573.333333333334
106.99038,0.4989122,0.60144246,0.3369402,1.0,0,0.0,0.0,0.0,0.0,0.22434737,0,0,0.0,0.0,0,0,74.0,0.0,631.0,4671.282051282052,3975.8974358974365,4405.641025641026,4408.717948717949,4212.820512820514,4543.589743589744,4452.307692307693,4360.000000000001,4353.333333333334,4758.461538461539,4287.6923076923085,4238.974358974359,4142.564102564103,4449.2307692307695
107.2406,0.48793495,0.5898393,0.33727235,1.0,0,0.0,0.0,0.0,0.0,0.10581346,0,0,0.0,0.0,0,0,106.0,0.0,631.0,4646.153846153847,3962.564102564103,4437.948717948719,4382.051282051282,4189.2307692307695,4523.076923076924,4443.076923076924,4353.333333333334,4341.025641025642,4703.589743589744,4199.48717948718,4167.179487179487,4114.358974358975,4444.615384615385
107.52209,0.48793495,0.5898393,0.33727235,1.0,0,0.0,0.0,0.0,0.0,0.17733163,0,0,0.0,0.0,0,0,13.0,0.0,473.0,4568.205128205129,3886.666666666667,4448.717948717949,4236.923076923077,4107.6923076923085,4413.846153846154,4401.025641025642,4329.743589743591,4300.512820512821,4575.384615384616,4060.0000000000005,3990.7692307692314,3987.692307692308,4336.923076923077
107.74103,0.5062962,0.57976466,0.33783987,1.0,0,0.0,0.0,0.011415342,0.0,0.0,0,0,0.0,0.0,0,0,41.0,0.0,0.0,4506.666666666667,3793.8461538461543,4446.153846153847,4169.74358974359,4076.410256410257,4367.179487179487,4368.717948717949,4292.820512820514,4286.666666666667,4523.076923076924,3976.410256410257,3884.1025641025644,3964.1025641025644,4290.769230769231
107.99124,0.5062962,0.57976466,0.33783987,1.0,0,0.0,0.0,0.09823431,0.0,0.0,0,0,0.0,0.0,0,0,73.0,0.0,553.0,4445.641025641026,3773.8461538461543,4449.743589743591,4149.2307692307695,4074.358974358975,4350.769230769231,4352.307692307693,4323.589743589744,4304.102564102564,4549.2307692307695,4000.0000000000005,3887.1794871794878,4028.205128205129,4296.410256410257
108.241455,0.5623778,0.5706975,0.33916044,1.0,0,0.0,0.0,0.0,0.0,0.0,0,0,0.0,0.024158893,0,0,105.0,0.0,473.0,4544.102564102564,3922.564102564103,4464.615384615385,4562.564102564103,4149.74358974359,4377.948717948719,4353.333333333334,4324.615384615385,4314.871794871796,4608.205128205129,4138.974358974359,4035.8974358974365,4176.923076923077,4468.717948717949
108.49168,0.5623778,0.5706975,0.33916044,1.0,0,0.0,0.0,0.0,0.0,0.0,0,0,0.107475206,0.0,0,0,8.0,0.0,434.0,4617.435897435898,4342.051282051282,4481.538461538462,4888.717948717949,4221.025641025642,4446.666666666667,4351.282051282052,4314.871794871796,4350.769230769231,4643.076923076924,4270.256410256411,3978.9743589743593,4335.8974358974365,4603.076923076924
108.74189,0.6205208,0.5625371,0.33954632,1.0,0,0.059506133,0.0,0.0,0.0,0.0,0,0,0.0,0.0,0,0,40.0,0.0,0.0,4571.794871794872,4121.538461538462,4465.641025641026,4657.948717948719,4167.6923076923085,4401.025641025642,4345.641025641026,4285.128205128206,4332.820512820514,4622.564102564103,4213.846153846154,3865.1282051282055,4206.666666666667,4516.410256410257
109.08594,0.6205208,0.5625371,0.33954632,1.0,0,0.05224097,0.0,0.0,0.0,0.0,0,0,0.0,0.0,1,0,83.0,0.0,592.0,4449.743589743591,4072.820512820513,4467.6923076923085,4330.769230769231,4045.6410256410263,4431.282051282052,4381.538461538462,4326.153846153847,4346.153846153847,4616.410256410257,4231.282051282052,3936.410256410257,4140.512820512821,4529.2307692307695
109.24232,0.59096235,0.55519265,0.33962306,1.0,0,0.0,0.0,0.12235904,0.0,0.0,0,0,0.0,0.0,1,0,104.0,0.0,601.0,4441.025641025642,3876.410256410257,4468.205128205129,4207.6923076923085,4082.564102564103,4484.102564102564,4452.820512820514,4349.743589743591,4368.717948717949,4640.512820512821,4288.717948717949,4028.717948717949,4086.666666666667,4369.743589743591
109.49253,0.59096235,0.55519265,0.33962306,1.0,0,0.0,0.0,0.057235736,0.0,0.0,0,0,0.0,0.0,0,0,7.0,0.0,497.0,4428.205128205129,3725.6410256410263,4451.282051282052,4157.435897435898,4067.692307692308,4489.2307692307695,4454.871794871796,4342.051282051282,4354.358974358975,4636.923076923077,4199.48717948718,4042.564102564103,4035.3846153846157,4330.256410256411
109.742744,0.53925854,0.54858273,0.33937618,1.0,0,0.0,0.0,0.0,0.0,0.0,0,0,0.0,0.5724052,0,0,39.0,0.0,0.0,4418.974358974359,3759.48717948718,4449.743589743591,4154.871794871796,4107.179487179487,4540.512820512821,4473.333333333334,4344.102564102564,4360.512820512821,4669.743589743591,4312.307692307693,4134.358974358975,4041.0256410256416,4327.179487179487
109.992966,0.53925854,0.54858273,0.33937618,1.0,0,0.0,0.0,0.0,0.0,0.0,0,0,0.0,0.046873707,0,0,71.0,0.0,497.0,4455.8974358974365,3753.8461538461543,4453.333333333334,4180.000000000001,4092.820512820513,4514.871794871796,4437.435897435898,4280.512820512821,4335.8974358974365,4673.333333333334,4345.641025641026,4172.820512820514,4030.7692307692314,4304.615384615385
110.24318,0.5183614,0.5426337,0.33877188,1.0,0,0.0,0.0,0.0,0.0,0.0,0,0,0.0,0.044420745,0,0,103.0,0.0,592.0,4496.923076923077,3830.7692307692314,4452.307692307693,4285.641025641026,4112.820512820514,4505.641025641026,4436.410256410257,4290.256410256411,4330.769230769231,4676.923076923077,4434.358974358975,4259.48717948718,4077.435897435898,4474.871794871796
110.49339,0.5183614,0.5426337,0.33877188,1.0,0,0.0,0.0,0.0,0.0,0.0,0,0,0.0,0.15122814,0,1,6.0,0.0,605.0,4536.410256410257,3917.9487179487182,4448.205128205129,4368.205128205129,4169.2307692307695,4558.461538461539,4476.923076923077,4310.769230769231,4368.717948717949,4732.820512820514,4504.615384615385,4349.2307692307695,4159.48717948718,4528.205128205129
110.74361,0.5485842,0.53727967,0.3382201,1.0,0,0.0,0.0,0.0,0.0,0.0,0,0,0.0,0.05271123,0,0,38.0,0.0,0.0,4557.435897435898,3936.9230769230776,4450.256410256411,4417.948717948719,4205.128205128206,4601.538461538462,4484.102564102564,4385.128205128206,4401.538461538462,4757.948717948719,4584.615384615385,4414.871794871796,4200.000000000001,4536.923076923077
110.99382,0.5485842,0.53727967,0.3382201,1.0,0,0.0,0.0,0.0,0.0,0.0,0,0,0.0,0.015756555,0,0,70.0,0.0,605.0,4612.820512820514,3978.9743589743593,4451.794871794872,4513.846153846154,4230.769230769231,4613.846153846154,4496.923076923077,4398.974358974359,4428.205128205129,4764.102564102564,4618.461538461539,4471.282051282052,4282.051282051282,4699.48717948718
111.24404,0.57986957,0.532461,0.33772275,0.96624655,0,0.0,0.0,0.0,0.0,0.0,0,0,0.0,0.26629612,0,0,102.0,0.0,632.0,4615.384615384616,4033.8461538461543,4443.076923076924,4522.051282051282,4274.358974358975,4657.948717948719,4540.000000000001,4423.589743589744,4452.307692307693,4769.743589743591,4615.384615384616,4492.307692307693,4260.512820512821,4667.6923076923085
111.494255,0.57986957,0.532461,0.33772275,0.96624655,0,0.0,0.0,0.0,0.0,0.0,0,0,0.0,0.26756626,0,0,5.0,0.0,664.0,4637.948717948719,4045.6410256410263,4437.435897435898,4553.846153846154,4294.871794871796,4671.794871794872,4540.000000000001,4447.179487179487,4469.743589743591,4801.025641025642,4588.717948717949,4524.615384615385,4281.025641025642,4648.205128205129
111.74447,0.604669,0.5281242,0.33727443,0.9224093,0,0.0,0.0,0.0,0.0,0.0,0,0,0.0,0.40730384,0,0,37.0,0.0,0.0,4652.307692307693,4003.589743589744,4437.435897435898,4551.282051282052,4315.8974358974365,4686.666666666667,4561.538461538462,4442.564102564103,4480.000000000001,4815.384615384616,4594.871794871796,4531.282051282052,4292.307692307693,4628.205128205129
111.99468,0.604669,0.5281242,0.33727443,0.9224093,0,0.0,0.0,0.0,0.0,0.0,0,0,0.0,0.16740517,0,0,69.0,0.0,661.0,4661.538461538462,4081.0256410256416,4448.205128205129,4580.000000000001,4314.358974358975,4687.6923076923085,4544.615384615385,4399.48717948718,4466.153846153847,4817.948717948719,4588.205128205129,4538.974358974359,4273.846153846154,4610.256410256411
112.244896,0.6285629,0.52422106,0.33687112,0.88352865,0,0.0,0.0,0.0,0.0,0.0,0,0,0.0,0.095016874,0,0,101.0,0.0,470.0,4689.2307692307695,4087.1794871794878,4452.820512820514,4609.2307692307695,4342.051282051282,4701.025641025642,4563.589743589744,4430.256410256411,4481.025641025642,4855.384615384616,4587.179487179488,4559.48717948718,4277.435897435898,4619.48717948718
112.49512,0.6285629,0.52422106,0.33687112,0.88352865,0,0.0,0.0,0.0,0.0,0.0,0,0,0.0,0.4798416,0,0,4.0,0.0,655.0,4672.820512820514,4075.3846153846157,4446.153846153847,4591.282051282052,4323.076923076924,4688.205128205129,4544.615384615385,4419.48717948718,4464.102564102564,4849.2307692307695,4543.076923076924,4528.205128205129,4237.435897435898,4590.256410256411
112.74533,0.64805377,0.52070826,0.33650914,0.84898347,0,0.0,0.0,0.0,0.0,0.0,0,0,0.0,0.57389235,0,0,36.0,0.0,0.0,4686.153846153847,4096.923076923077,4444.102564102564,4597.435897435898,4336.923076923077,4686.153846153847,4547.6923076923085,4435.8974358974365,4465.641025641026,4838.974358974359,4537.435897435898,4529.743589743591,4231.282051282052,4621.538461538462
112.995544,0.64805377,0.52070826,0.33650914,0.84898347,0,0.0,0.0,0.0,0.0,0.0,0,0,0.0,0.111120336,0,0,68.0,0.0,655.0,4697.948717948719,4126.666666666667,4447.179487179487,4618.974358974359,4326.666666666667,4686.666666666667,4543.076923076924,4458.974358974359,4468.717948717949,4853.846153846154,4522.564102564103,4496.923076923077,4234.358974358975,4606.153846153847
113.24576,0.59572846,0.5175468,0.33618283,0.8314339,0,0.0,0.0,0.022719407,0.0,0.0,0,0,0.0,0.0,0,0,100.0,0.0,585.0,4677.435897435898,4080.5128205128212,4433.846153846154,4585.128205128206,4329.743589743591,4678.974358974359,4533.333333333334,4483.589743589744,4456.410256410257,4849.2307692307695,4509.2307692307695,4472.820512820514,4221.538461538462,4551.794871794872
113.49597,0.59572846,0.5175468,0.33618283,0.8314339,0,0.0,0.0,0.077125154,0.0,0.0,0,0,0.0,0.0,0,0,3.0,0.0,642.0,4673.846153846154,4055.3846153846157,4438.461538461539,4564.102564102564,4298.461538461539,4648.205128205129,4516.923076923077,4451.282051282052,4430.256410256411,4817.435897435898,4460.000000000001,4445.128205128206,4171.794871794872,4456.410256410257
113.62108,0.63449615,0.49173182,0.33588874,0.8448868,0,0.0,0.0,0.0,0.0,1.0,0,0,0.0,0.0,0,0,19.0,0.0,0.0,4679.48717948718,4048.205128205129,4447.6923076923085,4554.358974358975,4279.48717948718,4642.564102564103,4510.256410256411,4435.384615384616,4417.948717948719,4791.794871794872,4442.564102564103,4430.769230769231,4166.153846153847,4433.333333333334
113.99641,0.63449615,0.49173182,0.33588874,0.8448868,0,0.0,0.0,0.0,0.0,0.0,0,0,0.0,0.21055596,0,0,67.0,0.0,642.0,4632.307692307693,3984.615384615385,4442.051282051282,4447.6923076923085,4247.179487179487,4596.410256410257,4452.307692307693,4410.256410256411,4406.153846153847,4772.307692307693,4417.948717948719,4373.333333333334,4209.2307692307695,4458.974358974359
114.24662,0.5962327,0.45449215,0.3328472,0.87333804,0,0.0,0.0,0.0,0.0,0.0,0,0,0.0,0.08814835,0,0,99.0,0.0,584.0,4587.179487179488,3941.0256410256416,4430.769230769231,4368.205128205129,4186.666666666667,4531.794871794872,4436.923076923077,4397.948717948719,4376.923076923077,4692.307692307693,4314.871794871796,4270.256410256411,4129.2307692307695,4413.846153846154
