timestamp,excitement,frustration,meditation,engagementBoredom,blink,clench,laugh,smile,eyebrow,furrowBrow,lookLeft,lookRight,smirkLeft,smirkRight,winkLeft,winkRight,eeg0,eeg1,eeg2,eeg3,eeg4,eeg5,eeg6,eeg7,eeg8,eeg9,eeg10,eeg11,eeg12,eeg13,eeg14,eeg15,eeg16
237.97795,0.85053515,1.0,0.38086918,0.6184115,0,0.0,0.0,0.0,0.0,0.63983345,0,0,0.0,0.0,0,1,56.0,0.0,0.0,4753.846153846154,4142.051282051282,4534.358974358975,4568.205128205129,4252.307692307693,4498.461538461539,4421.025641025642,4289.74358974359,4316.410256410257,4602.564102564103,4387.179487179487,4232.820512820514,4206.666666666667,4601.538461538462
238.25945,0.8220011,1.0,0.3760477,0.6117165,0,0.0,0.0,0.0,0.0,0.25272188,1,0,0.0,0.0,0,0,92.0,0.0,556.0,4688.717948717949,3742.564102564103,4513.333333333334,4339.48717948718,4229.2307692307695,4553.333333333334,4499.48717948718,4346.153846153847,4344.102564102564,4616.923076923077,4348.717948717949,4121.538461538462,4054.8717948717954,4279.48717948718
238.47838,0.8220011,1.0,0.3760477,0.6117165,0,0.0,0.0,0.0,0.0,0.081430286,1,0,0.0,0.0,0,0,120.0,0.0,556.0,4701.538461538462,3766.666666666667,4528.717948717949,4345.641025641026,4209.74358974359,4573.333333333334,4504.615384615385,4369.2307692307695,4345.128205128206,4607.179487179488,4357.948717948719,4136.410256410257,4060.5128205128212,4286.666666666667
238.82243,0.7599179,1.0,0.37807563,0.6056995,0,0.0,0.0,0.0,0.0,0.009267596,0,0,0.0,0.0,0,0,35.0,0.0,0.0,4690.256410256411,3892.307692307693,4522.564102564103,4418.461538461539,4227.6923076923085,4584.102564102564,4488.205128205129,4330.769230769231,4350.769230769231,4631.794871794872,4367.179487179487,4188.205128205129,4059.48717948718,4299.48717948718
238.9788,0.7599179,1.0,0.37807563,0.6056995,0,0.0,0.0,0.0,0.0,0.030420652,0,0,0.0,0.0,0,0,55.0,0.0,0.0,4696.410256410257,3925.1282051282055,4533.846153846154,4451.794871794872,4268.717948717949,4592.820512820514,4516.923076923077,4349.2307692307695,4356.410256410257,4696.923076923077,4422.051282051282,4241.025641025642,4131.282051282052,4369.2307692307695
239.22902,0.7814068,1.0,0.38652557,0.600282,0,0.0,0.0,0.0,0.0,0.55728304,0,0,0.0,0.0,0,0,87.0,0.0,549.0,4615.8974358974365,4062.0512820512827,4554.358974358975,4547.6923076923085,4344.615384615385,4587.179487179488,4491.282051282052,4321.538461538462,4341.538461538462,4687.6923076923085,4437.948717948719,4285.128205128206,4233.333333333334,4362.564102564103
239.57307,0.7814068,1.0,0.38652557,0.600282,0,0.0,0.0,0.0,0.0,0.09337512,0,0,0.0,0.0,0,0,2.0,0.0,234.0,4498.974358974359,3823.076923076924,4512.820512820514,4193.846153846154,3917.9487179487182,4154.871794871796,4109.74358974359,3806.666666666667,4184.615384615385,4349.743589743591,4070.2564102564106,4100.512820512821,3900.5128205128212,4121.025641025642
239.76073,0.897638,1.0,0.39418554,0.59545845,0,0.0,0.0,0.0,0.0,0.14381868,0,0,0.0,0.0,0,0,26.0,0.0,0.0,4612.820512820514,3917.435897435898,4534.358974358975,4263.589743589744,3963.076923076924,4323.589743589744,4265.128205128206,3978.461538461539,4282.564102564103,4481.538461538462,4110.769230769231,4132.307692307693,4136.410256410257,4268.205128205129
239.97968,0.897638,1.0,0.39418554,0.59545845,0,0.0,0.0,0.0,0.0,0.031356055,0,0,0.0,0.0,0,1,54.0,0.0,0.0,4662.051282051282,3920.0000000000005,4558.461538461539,4360.000000000001,4073.333333333334,4478.461538461539,4434.358974358975,4214.871794871796,4344.615384615385,4631.282051282052,4375.384615384616,4234.358974358975,4255.384615384616,4415.8974358974365
240.29243,0.9999215,1.0,0.4010795,0.59113646,0,0.0,0.0,0.0,0.0,0.0,0,0,0.0,0.05696891,0,0,94.0,0.0,594.0,4656.410256410257,3911.7948717948725,4564.102564102564,4360.512820512821,4060.0000000000005,4497.948717948719,4444.615384615385,4276.923076923077,4343.589743589744,4699.48717948718,4412.307692307693,4220.000000000001,4260.000000000001,4455.8974358974365
240.4801,0.9999215,1.0,0.4010795,0.59113646,0,0.0,0.0,0.0,0.0,0.0,0,0,0.0,0.27912033,0,0,118.0,0.0,594.0,4690.769230769231,3948.205128205129,4577.948717948719,4411.794871794872,4154.358974358975,4568.205128205129,4483.076923076924,4366.666666666667,4378.461538461539,4776.410256410257,4422.051282051282,4229.74358974359,4280.512820512821,4530.769230769231
240.7616,1.0,1.0,0.4009237,0.5872467,0,0.0,0.0,0.0,0.0,0.0,0,0,0.0,0.106087,0,0,25.0,0.0,0.0,4804.102564102564,3753.8461538461543,4549.2307692307695,4509.743589743591,4004.615384615385,4444.615384615385,4310.769230769231,4250.256410256411,4299.48717948718,4665.641025641026,4355.384615384616,4068.205128205129,4050.7692307692314,4567.6923076923085
240.98053,1.0,1.0,0.4009237,0.5872467,0,0.0,0.0,0.0,0.0,0.0,0,0,0.0,0.48243022,1,0,53.0,0.0,0.0,4977.435897435898,3761.538461538462,4535.8974358974365,4582.051282051282,3961.538461538462,4389.2307692307695,4301.538461538462,4301.025641025642,4299.48717948718,4580.000000000001,4042.564102564103,3930.7692307692314,4090.2564102564106,4442.051282051282
241.26202,0.9644698,1.0,0.39416465,0.5837459,0,0.0,0.0,0.0,0.0,0.0,0,0,0.5278875,0.0,0,0,89.0,0.0,498.0,5049.2307692307695,3680.512820512821,4531.282051282052,4492.307692307693,4102.051282051282,4464.615384615385,4387.179487179487,4400.000000000001,4326.666666666667,4640.512820512821,4189.74358974359,4035.8974358974365,4049.23076923077,4509.743589743591
241.48096,0.9644698,1.0,0.39416465,0.5837459,0,0.0,0.0,0.26235768,0.0,0.0,0,0,0.0,0.0,0,0,117.0,0.0,498.0,4967.179487179488,3635.8974358974365,4512.820512820514,4392.307692307693,4095.3846153846157,4492.307692307693,4394.358974358975,4362.051282051282,4322.051282051282,4633.846153846154,4149.2307692307695,4039.48717948718,3908.205128205129,4463.076923076924
241.76245,0.90147924,1.0,0.38808152,0.5805952,0,0.0,0.0,0.35736945,0.0,0.0,0,0,0.0,0.0,0,0,24.0,0.0,0.0,5011.282051282052,3732.307692307693,4535.384615384616,4502.564102564103,4292.307692307693,4584.615384615385,4499.48717948718,4492.820512820514,4390.256410256411,4799.48717948718,4346.153846153847,4277.435897435898,4186.666666666667,4698.974358974359
241.98138,0.90147924,1.0,0.38808152,0.5805952,0,0.0,0.0,0.0,0.0,0.0,0,0,0.0,0.67936814,0,1,52.0,0.0,0.0,5039.487179487181,3730.7692307692314,4543.076923076924,4524.102564102564,4332.307692307693,4611.282051282052,4541.025641025642,4508.717948717949,4412.307692307693,4832.307692307693,4373.846153846154,4344.102564102564,4241.025641025642,4716.410256410257
242.26288,1.0,1.0,0.38260671,0.57775956,0,0.0,0.0,0.0,0.0,0.0,0,0,0.0,0.31349555,0,0,88.0,0.0,559.0,4985.641025641026,3664.615384615385,4531.282051282052,4423.589743589744,4242.564102564103,4528.717948717949,4470.769230769231,4409.2307692307695,4362.051282051282,4741.538461538462,4314.358974358975,4240.512820512821,4077.435897435898,4609.743589743591
242.48183,1.0,1.0,0.38260671,0.57775956,0,0.0,0.0,0.0,0.0,0.0,0,0,0.0,0.44484234,0,0,116.0,0.0,559.0,4975.384615384616,3662.0512820512827,4520.000000000001,4383.589743589744,4207.6923076923085,4516.923076923077,4465.641025641026,4389.2307692307695,4352.820512820514,4714.871794871796,4303.076923076924,4228.205128205129,4056.410256410257,4581.025641025642
242.73204,1.0,1.0,0.37763563,0.5751925,0,0.0,0.0,0.0,0.0,0.0,0,0,0.0,0.0,0,0,19.0,0.0,0.0,4965.128205128206,3682.564102564103,4557.948717948719,4371.282051282052,4185.641025641026,4498.974358974359,4461.538461538462,4391.282051282052,4355.384615384616,4717.948717948719,4308.205128205129,4238.974358974359,4078.461538461539,4597.948717948719
242.98225,1.0,1.0,0.37763563,0.5751925,0,0.0,0.0,0.0,0.0,0.0,0,0,0.22385617,0.0,0,0,51.0,0.0,0.0,4919.48717948718,3671.2820512820517,4540.512820512821,4334.358974358975,4185.128205128206,4481.538461538462,4367.6923076923085,4311.282051282052,4307.179487179487,4649.2307692307695,4240.000000000001,4184.102564102564,4013.8461538461543,4532.820512820514
243.29501,0.9550938,1.0,0.37315765,0.57288086,0,0.0,0.0,0.0,0.0,0.0,0,0,0.3590253,0.0,0,1,91.0,0.0,539.0,4921.538461538462,3662.0512820512827,4541.538461538462,4290.769230769231,4154.358974358975,4475.8974358974365,4397.948717948719,4382.564102564103,4346.153846153847,4713.333333333334,4321.025641025642,4234.871794871796,4136.923076923077,4643.076923076924
243.48268,0.9550938,1.0,0.37315765,0.57288086,0,0.0,0.0,0.0,0.0,0.0,0,0,0.83919334,0.0,0,1,115.0,0.0,539.0,4904.615384615386,3696.410256410257,4531.282051282052,4273.846153846154,4132.820512820514,4445.128205128206,4373.333333333334,4350.256410256411,4322.564102564103,4669.2307692307695,4269.74358974359,4201.538461538462,4127.179487179487,4620.512820512821
243.7329,0.90672076,1.0,0.36912385,0.5707992,0,0.0,0.0,0.0,0.0,0.40705413,0,0,0.0,0.0,0,0,18.0,0.0,0.0,4850.769230769231,3789.7435897435903,4518.974358974359,4228.205128205129,4134.358974358975,4426.153846153847,4356.923076923077,4338.461538461539,4324.615384615385,4623.589743589744,4217.435897435898,4148.205128205129,4078.9743589743593,4532.307692307693
243.98311,0.90672076,1.0,0.36912385,0.5707992,0,0.0,0.0,0.0,0.0,0.1290404,0,0,0.0,0.0,0,0,50.0,0.0,0.0,4832.820512820514,3873.333333333334,4533.846153846154,4256.410256410257,4217.948717948719,4449.743589743591,4344.615384615385,4313.846153846154,4310.256410256411,4611.282051282052,4165.128205128206,4124.615384615385,4066.1538461538466,4485.128205128206
244.23332,0.84351325,1.0,0.3654945,0.568926,1,0.0,0.0,0.0,0.0,0.26264405,0,0,0.0,0.0,0,0,82.0,0.0,583.0,4810.769230769231,3913.8461538461543,4546.153846153847,4328.205128205129,4211.282051282052,4423.589743589744,4309.2307692307695,4262.051282051282,4270.256410256411,4556.923076923077,4085.6410256410263,4057.435897435898,3979.48717948718,4396.923076923077
244.48354,0.84351325,1.0,0.3654945,0.568926,0,0.0,0.0,0.0,0.0,0.5317087,0,0,0.0,0.0,0,0,114.0,0.0,583.0,4783.076923076924,3868.717948717949,4536.923076923077,4324.102564102564,4307.179487179487,4507.6923076923085,4388.205128205129,4325.641025641026,4302.051282051282,4666.153846153847,4174.358974358975,4115.384615384616,4048.205128205129,4366.153846153847
244.73375,0.78622234,1.0,0.3622333,0.56724185,0,0.0,0.0,0.0,0.0,0.44429672,0,0,0.0,0.0,0,0,17.0,0.0,0.0,4750.256410256411,3850.7692307692314,4527.179487179488,4331.282051282052,4242.051282051282,4504.102564102564,4393.846153846154,4330.256410256411,4297.435897435898,4671.794871794872,4211.282051282052,4098.461538461539,4087.1794871794878,4395.384615384616
245.04652,0.78622234,1.0,0.3622333,0.56724185,1,0.0,0.0,0.5929307,0.0,0.0,0,0,0.0,0.0,0,0,57.0,0.0,0.0,4731.282051282052,3810.2564102564106,4506.666666666667,4292.307692307693,4192.820512820514,4468.205128205129,4363.076923076924,4321.538461538462,4297.948717948719,4668.205128205129,4249.2307692307695,4094.8717948717954,4212.307692307693,4421.025641025642
245.23419,0.6662653,1.0,0.36478078,0.57504696,0,0.0,0.0,0.24208863,0.0,0.0,0,0,0.0,0.0,0,0,81.0,0.0,492.0,4719.48717948718,3831.2820512820517,4503.076923076924,4303.076923076924,4217.435897435898,4472.307692307693,4381.538461538462,4334.871794871796,4325.641025641026,4736.410256410257,4308.205128205129,4135.8974358974365,4174.358974358975,4443.076923076924
245.4844,0.6662653,1.0,0.36478078,0.57504696,0,0.0,0.0,0.0,0.0,0.0,0,0,0.0,0.5861038,0,0,113.0,0.0,492.0,4710.256410256411,3838.461538461539,4488.205128205129,4324.102564102564,4201.538461538462,4480.000000000001,4377.948717948719,4305.128205128206,4320.512820512821,4726.153846153847,4304.615384615385,4156.923076923077,4188.205128205129,4424.615384615385
245.73462,0.6321386,1.0,0.37679183,0.5936047,0,0.0,0.0,0.0,0.0,0.0,0,0,0.0,0.7238169,0,0,16.0,0.0,0.0,4734.358974358975,3897.435897435898,4503.076923076924,4364.102564102564,4239.48717948718,4510.256410256411,4418.974358974359,4348.717948717949,4331.794871794872,4740.512820512821,4356.923076923077,4242.564102564103,4165.128205128206,4446.666666666667
245.98483,0.6321386,1.0,0.37679183,0.5936047,0,0.0,0.0,0.51711124,0.0,0.0,0,0,0.0,0.0,0,0,48.0,0.0,0.0,4735.8974358974365,3915.3846153846157,4516.410256410257,4367.179487179487,4234.358974358975,4514.358974358975,4422.051282051282,4351.282051282052,4333.846153846154,4722.564102564103,4333.846153846154,4252.307692307693,4136.923076923077,4454.358974358975
246.23505,0.59605926,1.0,0.38759685,0.6148904,0,0.0,0.0,0.0,0.0,0.0,0,0,1.0,0.0,0,0,80.0,0.0,556.0,4744.615384615386,3917.435897435898,4526.666666666667,4404.102564102564,4268.717948717949,4550.256410256411,4441.025641025642,4379.48717948718,4342.051282051282,4750.769230769231,4373.333333333334,4270.769230769231,4147.179487179487,4486.153846153847
246.51654,0.59605926,1.0,0.38759685,0.6148904,0,0.0,0.0,0.0,0.0,0.0,0,0,0.661072,0.0,1,0,116.0,0.0,556.0,4765.641025641026,3881.0256410256416,4521.025641025642,4415.384615384616,4175.384615384616,4468.717948717949,4372.820512820514,4325.641025641026,4302.051282051282,4654.358974358975,4301.025641025642,4174.871794871796,4042.0512820512827,4447.6923076923085
246.73547,0.632112,1.0,0.3973151,0.6391481,0,0.0,0.0,0.0,0.0,0.45487973,0,0,0.0,0.0,1,0,15.0,0.0,542.0,4740.000000000001,3838.9743589743593,4513.846153846154,4385.641025641026,4166.666666666667,4478.974358974359,4385.641025641026,4313.846153846154,4306.666666666667,4658.461538461539,4306.153846153847,4192.307692307693,4049.7435897435903,4404.102564102564
247.04825,0.632112,1.0,0.3973151,0.6391481,0,0.0,0.0,0.0,0.0,0.41443378,0,0,0.0,0.0,0,1,55.0,0.0,0.0,4747.6923076923085,3798.9743589743593,4511.282051282052,4367.179487179487,4183.076923076924,4475.384615384616,4404.615384615385,4325.641025641026,4309.743589743591,4643.076923076924,4301.025641025642,4224.615384615385,4077.435897435898,4479.48717948718
247.2359,0.5444972,1.0,0.405336,0.668087,0,0.0,0.0,0.08597944,0.0,0.0,0,0,0.0,0.0,0,1,79.0,0.0,542.0,4721.538461538462,3764.1025641025644,4502.564102564103,4341.538461538462,4196.410256410257,4469.2307692307695,4432.307692307693,4376.410256410257,4316.923076923077,4659.48717948718,4289.74358974359,4187.179487179487,4091.2820512820517,4447.6923076923085
247.48611,0.5444972,1.0,0.405336,0.668087,0,0.0,0.0,0.10476056,0.0,0.0,0,0,0.0,0.0,0,0,111.0,0.0,542.0,4709.743589743591,3738.461538461539,4502.051282051282,4322.051282051282,4212.820512820514,4471.794871794872,4440.000000000001,4372.820512820514,4327.6923076923085,4690.256410256411,4329.743589743591,4180.000000000001,4157.948717948719,4482.051282051282
247.73634,0.5388611,1.0,0.4125732,0.69407386,0,0.0,0.0,0.5390289,0.0,0.0,0,0,0.0,0.0,0,0,14.0,0.0,588.0,4696.923076923077,3767.692307692308,4495.384615384616,4368.205128205129,4233.333333333334,4484.615384615385,4439.48717948718,4390.769230769231,4340.512820512821,4722.051282051282,4362.564102564103,4141.025641025642,4125.128205128206,4472.307692307693
247.98656,0.5388611,1.0,0.4125732,0.69407386,0,0.0,0.0,0.0,0.0,0.0,0,0,0.2665821,0.0,0,0,46.0,0.0,0.0,4795.8974358974365,3900.5128205128212,4481.538461538462,4510.769230769231,4269.74358974359,4517.948717948719,4460.000000000001,4450.256410256411,4362.564102564103,4729.743589743591,4390.256410256411,4054.358974358975,4135.384615384616,4375.8974358974365
248.26805,0.53561974,1.0,0.41866496,0.7173854,1,0.0,0.0,0.0,0.0,0.0,0,0,0.1613711,0.0,0,0,82.0,0.0,588.0,4798.461538461539,3813.333333333334,4453.333333333334,4375.8974358974365,4244.615384615385,4516.923076923077,4436.923076923077,4425.641025641026,4355.8974358974365,4719.48717948718,4405.128205128206,4089.7435897435903,4132.820512820514,4433.846153846154
248.48698,0.53561974,1.0,0.41866496,0.7173854,0,0.0,0.0,0.0,0.0,0.0,0,0,0.6276096,0.0,0,0,110.0,0.0,588.0,4795.8974358974365,3854.358974358975,4455.384615384616,4379.48717948718,4246.153846153847,4522.564102564103,4450.256410256411,4430.769230769231,4357.948717948719,4702.051282051282,4405.641025641026,4144.615384615385,4194.871794871796,4453.333333333334
248.7372,0.44878066,1.0,0.42262757,0.74105316,0,0.0,0.0,0.0,0.0,0.0,0,0,0.0,1.0,0,0,13.0,0.0,495.0,4770.256410256411,3872.820512820513,4468.205128205129,4366.666666666667,4246.666666666667,4536.923076923077,4439.48717948718,4415.384615384616,4356.410256410257,4677.435897435898,4412.820512820514,4234.358974358975,4151.794871794872,4468.205128205129
248.98741,0.44878066,1.0,0.42262757,0.74105316,0,0.0,0.0,0.0,0.0,0.0,0,0,0.0,0.096250385,0,0,45.0,0.0,0.0,4759.48717948718,3978.9743589743593,4485.641025641026,4422.051282051282,4254.871794871796,4554.871794871796,4420.000000000001,4363.589743589744,4362.564102564103,4695.384615384616,4409.2307692307695,4269.2307692307695,4142.564102564103,4462.564102564103
249.2689,0.41560346,1.0,0.42627883,0.7530186,0,0.0,0.0,0.0,0.0,0.0,0,0,0.0,0.11361224,0,0,81.0,0.0,497.0,4764.615384615386,4033.8461538461543,4485.641025641026,4429.2307692307695,4247.6923076923085,4561.538461538462,4421.025641025642,4375.384615384616,4379.48717948718,4796.410256410257,4428.205128205129,4314.358974358975,4192.820512820514,4489.2307692307695
249.48784,0.41560346,1.0,0.42627883,0.7530186,0,0.0,0.0,0.0,0.0,0.0,0,0,0.0,0.31190887,0,0,109.0,0.0,497.0,4751.282051282052,4022.564102564103,4495.8974358974365,4422.564102564103,4252.307692307693,4583.589743589744,4421.025641025642,4380.512820512821,4392.307692307693,4742.051282051282,4443.589743589744,4349.743589743591,4164.615384615385,4495.8974358974365
249.73805,0.3929754,1.0,0.42946637,0.7542837,0,0.0,0.0,0.0,0.0,0.0,0,0,0.0,0.5182922,0,0,12.0,0.0,548.0,4764.615384615386,4001.538461538462,4496.923076923077,4446.666666666667,4242.564102564103,4599.48717948718,4437.948717948719,4388.205128205129,4388.205128205129,4788.717948717949,4433.333333333334,4389.743589743591,4147.6923076923085,4501.025641025642
249.98827,0.3929754,1.0,0.42946637,0.7542837,0,0.0,0.0,0.0,0.0,0.0,0,0,0.0,0.12868689,0,1,44.0,0.0,0.0,4778.461538461539,4034.358974358975,4504.615384615385,4505.641025641026,4246.153846153847,4594.871794871796,4452.820512820514,4358.974358974359,4402.564102564103,4780.512820512821,4456.410256410257,4350.256410256411,4207.6923076923085,4550.769230769231
250.33232,0.38116023,0.96721447,0.42768487,0.7443335,0,0.0,0.0,0.0,0.0,0.0,0,0,0.0,0.1287771,0,0,88.0,0.0,554.0,4751.282051282052,3888.205128205129,4509.743589743591,4426.666666666667,4235.384615384616,4574.871794871796,4431.794871794872,4354.871794871796,4396.923076923077,4807.179487179488,4430.769230769231,4375.8974358974365,4227.179487179487,4482.564102564103
250.48871,0.38116023,0.96721447,0.42768487,0.7443335,0,0.0,0.0,0.0,0.0,0.0,0,0,0.0,0.6827748,0,0,108.0,0.0,554.0,4733.846153846154,3918.9743589743593,4515.384615384616,4443.589743589744,4166.153846153847,4572.820512820514,4420.000000000001,4344.615384615385,4400.512820512821,4726.153846153847,4492.820512820514,4388.205128205129,4155.384615384616,4485.128205128206
250.77019,0.38116023,0.9104115,0.41824973,0.725124,0,0.0,0.0,0.0,0.0,0.0,0,0,0.0,1.0,0,0,15.0,0.0,545.0,4713.333333333334,3944.615384615385,4519.48717948718,4428.717948717949,4263.076923076924,4575.8974358974365,4447.6923076923085,4340.512820512821,4398.974358974359,4751.282051282052,4344.102564102564,4333.333333333334,4189.74358974359,4418.461538461539
250.77019,0.38116023,0.9104115,0.41824973,0.725124,0,0.0,0.0,0.0,0.0,0.0,0,0,0.0,1.0,0,0,15.0,0.0,545.0,4713.333333333334,3944.615384615385,4519.48717948718,4428.717948717949,4263.076923076924,4575.8974358974365,4447.6923076923085,4340.512820512821,4398.974358974359,4751.282051282052,4344.102564102564,4333.333333333334,4189.74358974359,4418.461538461539
251.27063,0.38499704,0.8635394,0.4097581,0.7078355,0,0.0,0.0,0.0,0.0,0.0,0,0,0.0,0.14979763,0,0,79.0,0.0,546.0,4684.615384615386,3950.2564102564106,4542.051282051282,4404.615384615385,4202.051282051282,4517.435897435898,4428.205128205129,4301.538461538462,4357.948717948719,4708.205128205129,4293.846153846154,4194.358974358975,4079.48717948718,4369.743589743591
251.48956,0.38499704,0.8635394,0.4097581,0.7078355,0,0.0,0.0,0.0,0.0,0.0,0,0,0.0,0.051128875,0,0,107.0,0.0,546.0,4665.641025641026,3908.717948717949,4533.846153846154,4341.025641025642,4173.846153846154,4480.000000000001,4414.358974358975,4281.025641025642,4348.205128205129,4662.564102564103,4254.358974358975,4159.48717948718,4047.1794871794878,4352.307692307693
251.73978,0.37685624,0.8035549,0.4020479,0.6921114,0,0.0,0.0,0.0,0.0,0.0,0,0,0.0,1.0,0,0,10.0,0.0,579.0,4655.384615384616,4071.2820512820517,4536.410256410257,4346.666666666667,4193.846153846154,4464.102564102564,4403.589743589744,4280.512820512821,4340.000000000001,4636.923076923077,4329.2307692307695,4134.358974358975,4076.410256410257,4372.820512820514
251.98999,0.37685624,0.8035549,0.4020479,0.6921114,0,0.0,0.0,0.0,0.0,0.0,0,0,0.0,0.8659977,0,0,42.0,0.0,0.0,4646.153846153847,3995.8974358974365,4540.000000000001,4322.564102564103,4183.589743589744,4457.948717948719,4389.743589743591,4273.333333333334,4331.282051282052,4602.564102564103,4311.282051282052,4130.769230769231,4104.102564102564,4363.076923076924
252.27148,0.33872893,0.7394329,0.39516345,0.6781066,0,0.0,0.0,0.0,0.0,0.0,0,0,0.0,1.0,0,0,78.0,0.0,580.0,4649.2307692307695,4029.7435897435903,4534.358974358975,4347.179487179487,4206.153846153847,4472.307692307693,4401.025641025642,4300.512820512821,4347.179487179487,4663.076923076924,4356.410256410257,4153.846153846154,4150.256410256411,4392.307692307693
252.27148,0.33872893,0.7394329,0.39516345,0.6781066,0,0.0,0.0,0.0,0.0,0.0,0,0,0.0,1.0,0,0,78.0,0.0,580.0,4649.2307692307695,4029.7435897435903,4534.358974358975,4347.179487179487,4206.153846153847,4472.307692307693,4401.025641025642,4300.512820512821,4347.179487179487,4663.076923076924,4356.410256410257,4153.846153846154,4150.256410256411,4392.307692307693
252.74063,0.29378062,0.68451375,0.38891354,0.66539097,0,0.0,0.0,0.0,0.0,0.0,0,0,0.0,0.07504363,0,0,9.0,0.0,516.0,4658.461538461539,3734.358974358975,4503.589743589744,4470.256410256411,4126.153846153847,4437.948717948719,4363.589743589744,4303.076923076924,4331.794871794872,4614.871794871796,4287.179487179487,4014.358974358975,3978.9743589743593,4304.102564102564
253.02213,0.29378062,0.68451375,0.38891354,0.66539097,0,0.0,0.0,0.08088863,0.0,0.0,0,0,0.0,0.0,0,1,45.0,0.0,0.0,4734.358974358975,3917.9487179487182,4501.025641025642,4595.384615384616,4171.282051282052,4462.564102564103,4369.743589743591,4302.564102564103,4346.666666666667,4657.948717948719,4386.153846153847,4106.153846153847,4162.564102564103,4598.974358974359
253.27234,0.2217158,0.69130874,0.3833385,0.65405285,0,0.0,0.0,0.0,0.0,0.0,0,0,0.19456394,0.0,0,1,77.0,0.0,501.0,4728.717948717949,3891.7948717948725,4500.000000000001,4490.256410256411,4173.846153846154,4501.025641025642,4408.205128205129,4331.794871794872,4343.076923076924,4634.871794871796,4374.871794871796,4146.153846153847,4178.461538461539,4555.8974358974365
253.49129,0.2217158,0.69130874,0.3833385,0.65405285,0,0.0,0.0,0.0,0.0,0.0,0,0,0.0,0.11174643,0,0,105.0,0.0,501.0,4651.282051282052,3776.410256410257,4488.717948717949,4353.333333333334,4190.256410256411,4528.205128205129,4429.743589743591,4341.538461538462,4347.179487179487,4668.717948717949,4261.025641025642,4112.307692307693,4057.435897435898,4344.102564102564
253.77278,0.13536617,0.7524722,0.3783275,0.6438573,0,0.0,0.0,0.0,0.0,0.0,0,0,0.0,0.30141896,0,0,12.0,0.0,559.0,4631.794871794872,3778.461538461539,4496.410256410257,4326.153846153847,4185.128205128206,4507.6923076923085,4418.461538461539,4318.461538461539,4342.564102564103,4685.128205128206,4225.128205128206,4124.102564102564,4072.307692307693,4373.846153846154
253.99171,0.13536617,0.7524722,0.3783275,0.6438573,0,0.0,0.0,0.0,0.0,0.0,0,0,0.0,0.3292613,0,0,40.0,0.0,0.0,4602.564102564103,3761.0256410256416,4506.666666666667,4280.512820512821,4112.307692307693,4478.974358974359,4402.051282051282,4262.051282051282,4309.743589743591,4623.589743589744,4162.051282051282,4105.641025641026,4034.358974358975,4349.743589743591
254.27321,0.1544432,0.8120977,0.3738228,0.6346884,0,0.0,0.0,0.72151977,0.0,0.0,0,0,0.0,0.0,0,0,76.0,0.0,559.0,4552.820512820514,3760.512820512821,4513.846153846154,4224.615384615385,4155.8974358974365,4432.307692307693,4380.512820512821,4257.435897435898,4304.102564102564,4607.6923076923085,4085.6410256410263,4023.589743589744,4000.0000000000005,4347.179487179487
254.36703,0.1544432,0.8120977,0.3738228,0.6346884,0,0.0,0.0,1.0,0.0,0.0,0,0,0.0,0.0,0,0,88.0,0.0,559.0,4550.769230769231,3772.307692307693,4516.410256410257,4207.6923076923085,4162.051282051282,4439.48717948718,4382.564102564103,4257.435897435898,4303.076923076924,4602.051282051282,4099.48717948718,4023.589743589744,4016.9230769230776,4343.076923076924
254.77364,0.21747898,0.8416804,0.36977386,0.6264434,0,0.0,0.0,0.2824159,0.0,0.0,0,0,0.0,0.0,0,0,11.0,0.0,546.0,4506.666666666667,3829.2307692307695,4521.025641025642,4242.564102564103,4180.512820512821,4435.8974358974365,4358.461538461539,4268.717948717949,4302.051282051282,4616.410256410257,4137.435897435898,3998.9743589743593,4063.076923076924,4348.717948717949
254.99257,0.21747898,0.8416804,0.36977386,0.6264434,0,0.0,0.0,0.118805975,0.0,0.0,0,0,0.0,0.0,0,0,39.0,0.0,0.0,4477.948717948719,3884.615384615385,4526.666666666667,4273.333333333334,4174.358974358975,4448.205128205129,4349.2307692307695,4286.153846153847,4300.512820512821,4615.8974358974365,4166.666666666667,4005.1282051282055,4097.435897435898,4348.205128205129
255.24278,0.23880024,0.7880519,0.36609867,0.618973,0,0.0,0.0,0.15389389,0.0,0.0,0,0,0.0,0.0,0,0,71.0,0.0,478.0,4478.461538461539,3968.717948717949,4528.717948717949,4315.8974358974365,4212.307692307693,4475.8974358974365,4374.871794871796,4318.461538461539,4317.435897435898,4662.051282051282,4245.641025641026,4052.820512820513,4138.461538461539,4352.307692307693
255.493,0.23880024,0.7880519,0.36609867,0.618973,0,0.0,0.0,0.44691074,0.0,0.0,0,0,0.0,0.0,0,0,103.0,0.0,546.0,4480.512820512821,4048.717948717949,4529.743589743591,4337.435897435898,4229.74358974359,4507.6923076923085,4396.410256410257,4357.948717948719,4332.307692307693,4717.948717948719,4320.000000000001,4106.666666666667,4180.000000000001,4400.000000000001
255.74323,0.27960932,0.72769845,0.36278808,0.6122478,0,0.0,0.0,0.3120772,0.0,0.0,0,0,0.0,0.0,0,0,6.0,0.0,571.0,4498.974358974359,4039.48717948718,4522.051282051282,4387.6923076923085,4240.512820512821,4535.8974358974365,4418.461538461539,4376.923076923077,4352.307692307693,4741.538461538462,4371.282051282052,4162.051282051282,4193.333333333334,4446.666666666667
255.99344,0.27960932,0.72769845,0.36278808,0.6122478,0,0.0,0.0,0.25600016,0.0,0.0,0,0,0.0,0.0,0,0,38.0,0.0,0.0,4535.8974358974365,4007.1794871794878,4526.666666666667,4412.307692307693,4247.6923076923085,4549.743589743591,4424.615384615385,4391.282051282052,4359.48717948718,4758.974358974359,4412.307692307693,4215.384615384616,4198.974358974359,4486.666666666667
256.24365,0.34276322,0.68894386,0.35980588,0.6061932,0,0.0,0.0,0.0,0.0,0.16844583,0,0,0.0,0.0,0,0,70.0,0.0,571.0,4555.8974358974365,4012.820512820513,4537.435897435898,4433.846153846154,4236.923076923077,4559.48717948718,4431.282051282052,4387.179487179487,4358.461538461539,4752.820512820514,4440.512820512821,4276.923076923077,4191.794871794872,4512.307692307693
256.49387,0.34276322,0.68894386,0.35980588,0.6061932,0,0.0,0.0,0.0,0.0,0.26695737,0,0,0.0,0.0,0,0,102.0,0.0,588.0,4585.641025641026,3997.9487179487182,4546.666666666667,4449.2307692307695,4246.666666666667,4573.333333333334,4439.48717948718,4388.717948717949,4359.48717948718,4758.461538461539,4452.307692307693,4318.461538461539,4190.256410256411,4527.179487179488
256.74408,0.3359879,0.6545689,0.35711953,0.60074604,0,0.0,0.0,0.16438721,0.0,0.0,0,0,0.0,0.0,0,0,5.0,0.0,616.0,4602.564102564103,3963.076923076924,4541.538461538462,4445.128205128206,4224.615384615385,4563.076923076924,4440.512820512821,4388.205128205129,4348.205128205129,4735.8974358974365,4449.743589743591,4315.384615384616,4162.051282051282,4511.282051282052
256.9943,0.3359879,0.6545689,0.35711953,0.60074604,1,0.0,0.0,0.24353184,0.0,0.0,0,0,0.0,0.0,0,0,37.0,0.0,0.0,4624.615384615385,4001.538461538462,4547.6923076923085,4483.589743589744,4238.974358974359,4580.512820512821,4455.384615384616,4403.589743589744,4345.128205128206,4717.435897435898,4442.564102564103,4352.820512820514,4161.025641025642,4548.205128205129
257.2445,0.2997196,0.6402297,0.35469967,0.59584945,0,0.0,0.0,0.0,0.0,0.1419185,0,0,0.0,0.0,0,0,69.0,0.0,616.0,4632.307692307693,3968.717948717949,4548.205128205129,4449.2307692307695,4213.333333333334,4562.564102564103,4396.410256410257,4394.871794871796,4348.717948717949,4702.051282051282,4441.538461538462,4346.666666666667,4132.307692307693,4526.153846153847
257.49472,0.2997196,0.6402297,0.35469967,0.59584945,0,0.0,0.0,0.0,0.0,0.09299983,0,0,0.0,0.0,0,0,101.0,0.0,499.0,4658.461538461539,3943.076923076924,4547.179487179488,4443.589743589744,4221.025641025642,4561.538461538462,4409.743589743591,4407.6923076923085,4350.256410256411,4699.48717948718,4438.974358974359,4346.666666666667,4147.179487179487,4532.307692307693
257.74493,0.2710726,0.639614,0.35252297,0.6032196,0,0.0,0.0,0.10227177,0.0,0.0,0,0,0.0,0.0,0,0,4.0,0.0,609.0,4662.564102564103,3930.7692307692314,4540.000000000001,4450.256410256411,4227.179487179487,4560.512820512821,4428.205128205129,4397.435897435898,4357.435897435898,4711.282051282052,4442.051282051282,4355.384615384616,4168.205128205129,4546.153846153847
257.99515,0.2710726,0.639614,0.35252297,0.6032196,0,0.0,0.0,0.08888458,0.0,0.0,0,0,0.0,0.0,0,0,36.0,0.0,0.0,4647.6923076923085,3888.205128205129,4544.102564102564,4442.564102564103,4213.333333333334,4546.666666666667,4426.666666666667,4385.641025641026,4367.179487179487,4724.102564102564,4441.538461538462,4353.333333333334,4166.666666666667,4531.794871794872
258.24536,0.24413814,0.6253379,0.3505681,0.62344503,0,0.0,0.0,0.0,0.0,0.11057956,0,0,0.0,0.0,0,0,68.0,0.0,609.0,4648.717948717949,3867.1794871794878,4542.564102564103,4439.48717948718,4207.179487179487,4546.666666666667,4427.6923076923085,4377.435897435898,4364.102564102564,4707.179487179488,4429.2307692307695,4348.717948717949,4166.153846153847,4510.256410256411
258.49557,0.24413814,0.6253379,0.3505681,0.62344503,0,0.0,0.0,0.13851774,0.0,0.0,0,0,0.0,0.0,0,0,100.0,0.0,552.0,4657.948717948719,3861.0256410256416,4535.384615384616,4442.051282051282,4210.769230769231,4543.589743589744,4426.666666666667,4355.8974358974365,4361.025641025642,4706.153846153847,4427.179487179487,4345.128205128206,4177.435897435898,4508.205128205129
258.7458,0.17866354,0.5952013,0.3449112,0.6472161,0,0.0,0.0,0.13389507,0.0,0.0,0,0,0.0,0.0,0,0,3.0,0.0,593.0,4671.282051282052,3874.358974358975,4536.410256410257,4451.282051282052,4224.102564102564,4558.974358974359,4441.025641025642,4376.923076923077,4375.8974358974365,4711.282051282052,4404.102564102564,4347.6923076923085,4168.205128205129,4487.6923076923085
258.996,0.17866354,0.5952013,0.3449112,0.6472161,0,0.0,0.0,0.3330511,0.0,0.0,0,0,0.0,0.0,0,0,35.0,0.0,0.0,4666.153846153847,3856.410256410257,4528.717948717949,4416.410256410257,4193.846153846154,4533.333333333334,4427.179487179487,4367.6923076923085,4370.256410256411,4647.6923076923085,4374.358974358975,4320.512820512821,4133.846153846154,4448.717948717949
259.24622,0.18849273,0.5585451,0.33407658,0.67571497,0,0.0,0.0,0.0,0.0,0.0,0,0,0.0,1.0,0,0,67.0,0.0,593.0,4663.589743589744,3811.7948717948725,4525.128205128206,4378.974358974359,4165.128205128206,4496.410256410257,4418.461538461539,4336.923076923077,4361.025641025642,4621.538461538462,4344.615384615385,4285.641025641026,4094.358974358975,4450.769230769231
259.49643,0.18849273,0.5585451,0.33407658,0.67571497,0,0.0,0.0,0.047842983,0.0,0.0,0,0,0.0,0.0,0,0,99.0,0.0,542.0,4646.666666666667,3744.615384615385,4516.923076923077,4320.000000000001,4139.48717948718,4438.461538461539,4398.461538461539,4331.794871794872,4344.615384615385,4598.974358974359,4295.384615384616,4232.307692307693,4057.9487179487182,4437.948717948719
259.74667,0.32009408,0.52215594,0.3242262,0.69942766,0,0.0,0.0,0.050818406,0.0,0.0,0,0,0.0,0.0,0,0,2.0,0.0,229.0,4617.435897435898,3694.358974358975,4511.794871794872,4272.307692307693,4119.48717948718,4392.307692307693,4393.333333333334,4331.794871794872,4318.461538461539,4573.333333333334,4260.000000000001,4134.871794871796,4064.1025641025644,4433.846153846154
259.9969,0.32009408,0.52215594,0.3242262,0.69942766,0,0.0,0.0,0.3692473,0.0,0.0,0,0,0.0,0.0,0,0,34.0,0.0,0.0,4595.384615384616,3738.461538461539,4507.6923076923085,4295.8974358974365,4160.512820512821,4397.948717948719,4376.923076923077,4323.589743589744,4324.102564102564,4596.410256410257,4261.025641025642,4048.205128205129,4090.2564102564106,4434.871794871796
260.2471,0.2974887,0.4937844,0.31610548,0.7169309,0,0.0,0.0,0.71031535,0.0,0.0,0,0,0.0,0.0,0,0,66.0,0.0,229.0,4570.769230769231,3781.538461538462,4490.769230769231,4306.153846153847,4173.333333333334,4417.435897435898,4372.307692307693,4306.153846153847,4310.769230769231,4590.256410256411,4249.74358974359,3975.8974358974365,4067.692307692308,4393.333333333334
260.4973,0.2974887,0.4937844,0.31610548,0.7169309,0,0.0,0.0,0.0,0.0,0.9641191,0,0,0.0,0.0,0,0,98.0,0.0,588.0,4547.6923076923085,3849.7435897435903,4487.179487179488,4337.948717948719,4211.794871794872,4470.256410256411,4394.358974358975,4329.2307692307695,4332.307692307693,4644.615384615385,4281.538461538462,3974.358974358975,4100.000000000001,4400.512820512821
260.74753,0.35970172,0.46159667,0.3080328,0.7326108,0,0.0,0.0,0.0,0.0,0.24645333,0,0,0.0,0.0,0,0,1.0,0.0,565.0,4550.769230769231,3896.410256410257,4463.589743589744,4367.6923076923085,4225.128205128206,4498.461538461539,4408.717948717949,4328.717948717949,4338.461538461539,4662.051282051282,4300.512820512821,3994.8717948717954,4132.307692307693,4414.358974358975
260.99774,0.35970172,0.46159667,0.3080328,0.7326108,0,0.0,0.0,0.0,0.0,0.543582,0,0,0.0,0.0,0,0,33.0,0.0,0.0,4551.282051282052,3885.6410256410263,4453.846153846154,4381.538461538462,4231.282051282052,4525.641025641026,4424.615384615385,4358.974358974359,4365.128205128206,4677.948717948719,4336.410256410257,4041.0256410256416,4178.461538461539,4433.333333333334
261.24796,0.3911587,0.4309877,0.30041254,0.74589914,0,0.0,0.0,0.0,0.0,0.15130727,0,0,0.0,0.0,0,0,65.0,0.0,565.0,4551.794871794872,3913.333333333334,4458.974358974359,4406.153846153847,4248.205128205129,4552.820512820514,4441.025641025642,4361.538461538462,4389.2307692307695,4698.461538461539,4366.153846153847,4106.666666666667,4196.410256410257,4442.051282051282
261.49817,0.3911587,0.4309877,0.30041254,0.74589914,0,0.0,0.0,0.0,0.0,0.0,0,0,0.13398811,0.0,0,0,97.0,0.0,499.0,4556.410256410257,3945.1282051282055,4461.025641025642,4443.076923076924,4248.717948717949,4564.102564102564,4441.025641025642,4364.102564102564,4396.410256410257,4719.48717948718,4362.564102564103,4153.333333333334,4211.794871794872,4478.461538461539
261.74838,0.3929568,0.39688545,0.2930447,0.7527319,0,0.0,0.0,0.0,0.0,0.0,0,0,0.89466465,0.0,0,0,0.0,0.0,240.0,4550.256410256411,3929.2307692307695,4466.666666666667,4447.179487179487,4246.153846153847,4579.48717948718,4447.6923076923085,4382.051282051282,4403.589743589744,4714.358974358975,4358.974358974359,4207.179487179487,4207.179487179487,4498.974358974359
261.9986,0.3929568,0.39688545,0.2930447,0.7527319,0,0.0,0.0,0.0,0.0,0.2778561,0,0,0.0,0.0,0,0,32.0,0.0,0.0,4573.333333333334,3893.333333333334,4467.179487179487,4466.153846153847,4240.000000000001,4581.538461538462,4445.641025641026,4380.512820512821,4386.153846153847,4691.794871794872,4331.282051282052,4221.538461538462,4141.538461538462,4498.461538461539
262.2488,0.3335471,0.37964666,0.28693092,0.75344706,0,0.0,0.0,0.0,0.0,0.18320124,0,0,0.0,0.0,0,0,64.0,0.0,240.0,4597.948717948719,3923.076923076924,4471.282051282052,4474.871794871796,4235.8974358974365,4583.076923076924,4438.974358974359,4363.589743589744,4388.717948717949,4721.025641025642,4330.256410256411,4272.820512820514,4173.333333333334,4514.871794871796
262.49902,0.3335471,0.37964666,0.28693092,0.75344706,0,0.0,0.0,0.0,0.0,0.046130836,0,0,0.0,0.0,0,0,96.0,0.0,556.0,4598.461538461539,3932.820512820513,4481.538461538462,4459.48717948718,4233.846153846154,4580.000000000001,4470.769230769231,4358.461538461539,4377.948717948719,4714.358974358975,4289.2307692307695,4295.8974358974365,4173.846153846154,4518.461538461539
262.74924,0.30946565,0.37230068,0.28152934,0.7491439,0,0.0,0.0,0.0,0.0,0.010131943,0,0,0.0,0.0,0,0,128.0,0.0,556.0,4616.410256410257,3970.7692307692314,4485.641025641026,4469.2307692307695,4242.051282051282,4591.282051282052,4481.025641025642,4369.743589743591,4381.025641025642,4724.615384615386,4286.153846153847,4304.102564102564,4179.48717948718,4522.564102564103
262.99945,0.30946565,0.37230068,0.28152934,0.7491439,0,0.0,0.0,0.0,0.0,0.0,0,0,0.0,0.056946333,0,0,31.0,0.0,0.0,4617.948717948719,3991.2820512820517,4487.6923076923085,4466.153846153847,4240.512820512821,4594.871794871796,4470.769230769231,4325.128205128206,4375.384615384616,4726.153846153847,4264.102564102564,4314.358974358975,4169.74358974359,4501.538461538462
263.24966,0.27359357,0.3749408,0.27703166,0.7452546,0,0.0,0.0,0.0,0.0,0.0,0,0,0.0,0.034249634,0,0,63.0,0.0,0.0,4625.641025641026,4012.307692307693,4493.846153846154,4468.205128205129,4245.641025641026,4584.102564102564,4468.205128205129,4348.205128205129,4383.589743589744,4731.282051282052,4295.384615384616,4333.333333333334,4183.589743589744,4526.153846153847
263.49988,0.27359357,0.3749408,0.27703166,0.7452546,0,0.0,0.0,0.0,0.0,0.0,0,0,0.12353449,0.0,0,0,95.0,0.0,543.0,4632.307692307693,4021.538461538462,4491.282051282052,4478.461538461539,4252.307692307693,4595.384615384616,4465.641025641026,4370.256410256411,4387.6923076923085,4734.871794871796,4284.615384615385,4342.051282051282,4192.307692307693,4532.820512820514
263.7501,0.27946848,0.37695545,0.2747189,0.74392426,0,0.0,0.0,0.0,0.0,0.0,0,0,0.0,0.20166191,0,0,127.0,0.0,543.0,4637.948717948719,4030.2564102564106,4490.256410256411,4488.205128205129,4252.307692307693,4590.769230769231,4467.179487179487,4365.128205128206,4393.846153846154,4751.282051282052,4308.717948717949,4352.820512820514,4207.6923076923085,4532.307692307693
264.0003,0.27946848,0.37695545,0.2747189,0.74392426,0,0.0,0.0,0.0,0.0,0.0,0,0,0.0,0.1640141,0,0,30.0,0.0,0.0,4634.358974358975,4035.3846153846157,4484.102564102564,4485.641025641026,4245.128205128206,4583.589743589744,4448.205128205129,4343.076923076924,4378.974358974359,4733.333333333334,4313.846153846154,4341.025641025642,4201.538461538462,4532.820512820514
264.25052,0.28494325,0.36970273,0.2762956,0.74654496,0,0.0,0.0,0.2736267,0.0,0.0,0,0,0.0,0.0,0,0,62.0,0.0,0.0,4632.820512820514,4038.461538461539,4486.153846153847,4482.564102564103,4246.153846153847,4585.641025641026,4451.282051282052,4351.794871794872,4372.820512820514,4710.256410256411,4293.846153846154,4320.512820512821,4152.820512820514,4510.256410256411
264.50073,0.28494325,0.36970273,0.2762956,0.74654496,0,0.0,0.0,0.2500338,0.0,0.0,0,0,0.0,0.0,0,0,94.0,0.0,588.0,4631.794871794872,4013.8461538461543,4495.8974358974365,4446.666666666667,4225.641025641026,4570.769230769231,4434.358974358975,4353.333333333334,4374.358974358975,4735.384615384616,4338.461538461539,4325.641025641026,4198.461538461539,4503.076923076924
264.75095,0.24750844,0.36856994,0.2777197,0.7488621,0,0.0,0.0,0.0,0.0,0.0,0,0,0.0,0.33975857,0,0,126.0,0.0,588.0,4640.000000000001,4051.2820512820517,4510.256410256411,4462.051282051282,4230.769230769231,4563.076923076924,4435.8974358974365,4347.179487179487,4372.820512820514,4730.256410256411,4340.512820512821,4319.48717948718,4195.8974358974365,4504.615384615385
265.00116,0.24750844,0.36856994,0.2777197,0.7488621,0,0.0,0.0,0.0,0.0,0.0,0,0,0.0,0.39073622,0,0,29.0,0.0,0.0,4620.000000000001,4057.435897435898,4515.384615384616,4447.6923076923085,4222.051282051282,4561.025641025642,4427.179487179487,4348.205128205129,4361.538461538462,4714.871794871796,4325.641025641026,4298.461538461539,4161.538461538462,4491.794871794872
265.2514,0.18521786,0.36073557,0.2807312,0.75247824,0,0.0,0.0,0.13439763,0.0,0.0,0,0,0.0,0.0,0,0,61.0,0.0,0.0,4623.589743589744,4083.076923076924,4529.743589743591,4427.6923076923085,4211.282051282052,4545.128205128206,4421.025641025642,4349.2307692307695,4364.615384615385,4712.820512820514,4350.769230769231,4288.717948717949,4158.974358974359,4503.589743589744
265.50162,0.18521786,0.36073557,0.2807312,0.75247824,1,0.0,0.0,0.16881537,0.0,0.0,0,0,0.0,0.0,0,0,93.0,0.0,499.0,4627.179487179488,4156.923076923077,4534.871794871796,4496.923076923077,4215.8974358974365,4538.461538461539,4421.025641025642,4332.307692307693,4356.410256410257,4695.8974358974365,4368.717948717949,4307.6923076923085,4166.153846153847,4563.076923076924
265.75183,0.15969552,0.36806375,0.28384763,0.756719,0,0.0,0.0,0.0,0.0,0.0,0,0,0.0,0.24408065,0,0,125.0,0.0,499.0,4602.051282051282,4091.7948717948725,4534.358974358975,4443.076923076924,4227.179487179487,4547.179487179488,4433.333333333334,4336.410256410257,4360.000000000001,4706.153846153847,4333.846153846154,4266.153846153847,4166.153846153847,4515.384615384616
266.06458,0.15969552,0.36806375,0.28384763,0.756719,1,0.0,0.0,0.0,0.0,0.0,0,0,0.0,0.28458896,0,0,36.0,0.0,0.0,4634.871794871796,4155.384615384616,4545.128205128206,4512.307692307693,4213.333333333334,4514.358974358975,4377.435897435898,4289.74358974359,4345.641025641026,4620.512820512821,4355.384615384616,4284.102564102564,4139.48717948718,4578.974358974359
266.25226,0.17055362,0.42631638,0.28740245,0.7630641,0,0.0,0.0,0.0,0.0,0.0,0,0,0.0,0.2480588,0,0,60.0,0.0,0.0,4596.923076923077,4015.3846153846157,4543.589743589744,4405.641025641026,4190.769230769231,4514.871794871796,4390.256410256411,4306.666666666667,4342.564102564103,4595.8974358974365,4326.153846153847,4238.974358974359,4049.7435897435903,4424.102564102564
266.50247,0.17055362,0.42631638,0.28740245,0.7630641,0,0.0,0.0,0.0,0.0,0.0,0,0,0.0,0.14924495,0,0,92.0,0.0,561.0,4583.589743589744,3964.1025641025644,4538.974358974359,4391.794871794872,4190.769230769231,4508.205128205129,4390.769230769231,4300.512820512821,4334.871794871796,4634.871794871796,4337.948717948719,4205.128205128206,4061.0256410256416,4395.8974358974365
266.7527,0.16659512,0.47140968,0.2911742,0.77557755,0,0.0,0.0,0.0,0.0,0.0,0,0,0.0,1.0,0,0,124.0,0.0,561.0,4570.769230769231,3887.692307692308,4537.948717948719,4346.666666666667,4164.615384615385,4474.358974358975,4380.512820512821,4285.128205128206,4314.358974358975,4629.743589743591,4317.435897435898,4172.820512820514,4074.358974358975,4395.384615384616
267.0029,0.16659512,0.47140968,0.2911742,0.77557755,0,0.0,0.0,0.0,0.0,0.0,0,0,0.0,0.2156462,0,0,27.0,0.0,0.0,4570.256410256411,3849.7435897435903,4533.846153846154,4314.358974358975,4145.128205128206,4450.769230769231,4386.153846153847,4320.000000000001,4318.974358974359,4637.435897435898,4359.48717948718,4165.128205128206,4119.48717948718,4439.48717948718
267.2531,0.2139431,0.5084944,0.29838243,0.7950826,0,0.0,0.0,0.0,0.0,0.0,0,0,0.0,0.40455127,0,0,59.0,0.0,0.0,4569.2307692307695,3842.564102564103,4524.615384615385,4320.000000000001,4153.333333333334,4422.564102564103,4365.128205128206,4312.820512820514,4320.512820512821,4630.769230769231,4338.974358974359,4155.8974358974365,4105.641025641026,4413.846153846154
267.50333,0.2139431,0.5084944,0.29838243,0.7950826,0,0.0,0.0,0.0,0.0,0.0,0,0,0.0,0.75611943,0,0,91.0,0.0,547.0,4552.307692307693,3865.1282051282055,4518.461538461539,4324.615384615385,4175.8974358974365,4444.615384615385,4371.794871794872,4305.641025641026,4334.871794871796,4683.076923076924,4341.025641025642,4148.717948717949,4127.6923076923085,4408.717948717949
267.75354,0.28015214,0.49135175,0.30487275,0.81470245,0,0.0,0.0,0.0,0.0,0.0,0,0,0.0,0.7458551,0,0,123.0,0.0,547.0,4537.948717948719,3890.7692307692314,4515.384615384616,4334.358974358975,4185.128205128206,4458.974358974359,4387.6923076923085,4313.846153846154,4348.205128205129,4687.6923076923085,4394.871794871796,4161.025641025642,4130.769230769231,4424.615384615385
268.00375,0.28015214,0.49135175,0.30487275,0.81470245,0,0.0,0.0,0.0,0.0,0.0,0,0,0.0,0.4357507,0,0,26.0,0.0,0.0,4536.923076923077,3966.666666666667,4525.128205128206,4372.307692307693,4208.205128205129,4478.461538461539,4394.871794871796,4316.410256410257,4354.358974358975,4727.6923076923085,4385.641025641026,4167.6923076923085,4155.8974358974365,4423.076923076924
268.25397,0.30014014,0.45232356,0.3106333,0.83215684,0,0.0,0.0,0.0,0.0,0.0,0,0,0.0,0.31101057,0,0,58.0,0.0,0.0,4540.000000000001,4027.1794871794878,4533.333333333334,4399.48717948718,4225.641025641026,4489.743589743591,4414.871794871796,4336.410256410257,4374.871794871796,4780.512820512821,4418.974358974359,4203.589743589744,4215.8974358974365,4439.48717948718
268.50418,0.30014014,0.45232356,0.3106333,0.83215684,0,0.0,0.0,0.0,0.0,0.0,0,0,0.0,0.82644737,0,0,90.0,0.0,580.0,4526.666666666667,3999.48717948718,4530.769230769231,4370.256410256411,4200.512820512821,4498.974358974359,4425.128205128206,4346.666666666667,4390.769230769231,4785.641025641026,4447.6923076923085,4215.384615384616,4216.410256410257,4438.974358974359
268.7544,0.22233257,0.41294885,0.31435755,0.8476505,0,0.0,0.0,0.0,0.0,0.0,0,0,0.0,1.0,0,0,122.0,0.0,580.0,4535.8974358974365,4048.717948717949,4544.615384615385,4406.666666666667,4205.128205128206,4518.974358974359,4438.974358974359,4360.000000000001,4406.153846153847,4711.794871794872,4403.076923076924,4208.717948717949,4209.2307692307695,4422.051282051282
268.7544,0.22233257,0.41294885,0.31435755,0.8476505,0,0.0,0.0,0.0,0.0,0.0,0,0,0.0,1.0,0,0,122.0,0.0,580.0,4535.8974358974365,4048.717948717949,4544.615384615385,4406.666666666667,4205.128205128206,4518.974358974359,4438.974358974359,4360.000000000001,4406.153846153847,4711.794871794872,4403.076923076924,4208.717948717949,4209.2307692307695,4422.051282051282
269.25482,0.20992403,0.38228932,0.3104521,0.86454844,0,0.0,0.0,0.0,0.0,0.0,0,0,0.0,0.976708,0,0,57.0,0.0,0.0,4550.256410256411,3993.333333333334,4539.48717948718,4438.974358974359,4210.256410256411,4531.282051282052,4423.589743589744,4338.461538461539,4394.358974358975,4688.717948717949,4380.512820512821,4211.794871794872,4157.948717948719,4412.820512820514
269.50504,0.20992403,0.38228932,0.3104521,0.86454844,0,0.0,0.0,0.0,0.0,0.0,0,0,0.0,1.0,0,0,89.0,0.0,499.0,4542.564102564103,3957.435897435898,4530.769230769231,4440.000000000001,4216.410256410257,4532.820512820514,4424.615384615385,4345.128205128206,4393.333333333334,4724.102564102564,4382.051282051282,4211.282051282052,4171.794871794872,4438.974358974359
269.75525,0.16579819,0.3861902,0.30693924,0.8807304,0,0.0,0.0,0.0,0.0,0.0,0,0,0.0,0.819322,0,0,121.0,0.0,499.0,4535.384615384616,3945.6410256410263,4519.48717948718,4421.025641025642,4202.051282051282,4510.769230769231,4424.615384615385,4345.641025641026,4381.025641025642,4729.2307692307695,4338.461538461539,4192.820512820514,4160.000000000001,4403.076923076924
270.00546,0.16579819,0.3861902,0.30693924,0.8807304,0,0.0,0.0,0.0,0.0,0.0,0,0,0.0,0.8877279,0,0,24.0,0.0,0.0,4545.128205128206,3952.820512820513,4525.641025641026,4450.769230769231,4243.076923076924,4534.358974358975,4435.8974358974365,4375.384615384616,4389.2307692307695,4666.153846153847,4343.076923076924,4227.179487179487,4158.974358974359,4432.820512820514
270.25568,0.12904817,0.3914427,0.30378005,0.8888139,0,0.0,0.0,0.0,0.0,0.0,0,0,0.0,0.35576668,0,0,56.0,0.0,0.0,4538.974358974359,3911.7948717948725,4511.282051282052,4428.205128205129,4232.820512820514,4536.410256410257,4442.564102564103,4390.256410256411,4394.358974358975,4693.846153846154,4355.8974358974365,4193.333333333334,4135.8974358974365,4457.435897435898
270.5059,0.12904817,0.3914427,0.30378005,0.8888139,0,0.0,0.0,0.0,0.0,0.0,0,0,0.0,0.29644784,0,0,88.0,0.0,553.0,4537.435897435898,3889.2307692307695,4496.923076923077,4428.205128205129,4253.846153846154,4557.948717948719,4471.794871794872,4392.307692307693,4405.641025641026,4682.051282051282,4336.410256410257,4220.000000000001,4149.74358974359,4469.743589743591
270.75613,0.14886953,0.3985322,0.30287457,0.89491177,0,0.0,0.0,0.0,0.0,0.0,0,0,0.0,0.51343757,0,0,120.0,0.0,553.0,4552.307692307693,3866.666666666667,4482.564102564103,4415.8974358974365,4282.564102564103,4588.717948717949,4507.6923076923085,4429.2307692307695,4434.358974358975,4687.6923076923085,4375.8974358974365,4250.769230769231,4240.000000000001,4537.435897435898
271.00635,0.14886953,0.3985322,0.30287457,0.89491177,0,0.0,0.0,0.0,0.0,0.0,0,0,0.0,0.87697387,0,0,23.0,0.0,0.0,4538.974358974359,3840.0000000000005,4463.076923076924,4390.769230769231,4276.410256410257,4588.717948717949,4499.48717948718,4437.948717948719,4445.128205128206,4669.743589743591,4346.666666666667,4238.461538461539,4168.717948717949,4553.333333333334
271.25656,0.20454635,0.3933257,0.30622473,0.89948696,0,0.0,0.0,0.0,0.0,0.0,0,0,0.0,1.0,0,0,55.0,0.0,0.0,4537.435897435898,3866.1538461538466,4447.6923076923085,4436.923076923077,4275.8974358974365,4572.820512820514,4477.948717948719,4409.743589743591,4440.512820512821,4633.846153846154,4293.846153846154,4174.871794871796,4194.871794871796,4531.282051282052
271.25656,0.20454635,0.3933257,0.30622473,0.89948696,0,0.0,0.0,0.0,0.0,0.0,0,0,0.0,1.0,0,0,55.0,0.0,0.0,4537.435897435898,3866.1538461538466,4447.6923076923085,4436.923076923077,4275.8974358974365,4572.820512820514,4477.948717948719,4409.743589743591,4440.512820512821,4633.846153846154,4293.846153846154,4174.871794871796,4194.871794871796,4531.282051282052
271.757,0.281831,0.38208097,0.31014764,0.9034162,0,0.0,0.0,0.0,0.0,0.0,0,0,0.0,1.0,0,0,119.0,0.0,547.0,4520.512820512821,3862.564102564103,4422.051282051282,4464.615384615385,4296.410256410257,4613.846153846154,4515.384615384616,4483.589743589744,4510.769230769231,4795.8974358974365,4403.589743589744,4174.871794871796,4297.435897435898,4650.256410256411
271.757,0.281831,0.38208097,0.31014764,0.9034162,0,0.0,0.0,0.0,0.0,0.0,0,0,0.0,1.0,0,0,119.0,0.0,547.0,4520.512820512821,3862.564102564103,4422.051282051282,4464.615384615385,4296.410256410257,4613.846153846154,4515.384615384616,4483.589743589744,4510.769230769231,4795.8974358974365,4403.589743589744,4174.871794871796,4297.435897435898,4650.256410256411
272.25742,0.2993336,0.38641647,0.31499395,0.9036346,0,0.0,0.0,0.0,0.0,0.0,0,0,0.0,1.0,0,0,54.0,0.0,0.0,4532.307692307693,3872.820512820513,4433.333333333334,4466.153846153847,4292.307692307693,4588.205128205129,4482.051282051282,4468.205128205129,4474.358974358975,4822.564102564103,4367.179487179487,4180.512820512821,4260.512820512821,4569.743589743591
272.50763,0.2993336,0.38641647,0.31499395,0.9036346,0,0.0,0.0,0.0,0.0,0.0,0,0,0.0,0.99140275,0,0,86.0,0.0,583.0,4523.076923076924,3851.2820512820517,4445.128205128206,4440.000000000001,4252.307692307693,4580.000000000001,4466.666666666667,4431.794871794872,4445.641025641026,4798.974358974359,4341.538461538462,4193.846153846154,4242.051282051282,4534.358974358975
272.75784,0.3673139,0.38847536,0.32026199,0.90368986,0,0.0,0.0,0.0,0.0,0.0,0,0,0.6895549,0.0,0,0,118.0,0.0,583.0,4522.564102564103,3860.512820512821,4459.48717948718,4429.743589743591,4260.512820512821,4562.564102564103,4452.307692307693,4422.051282051282,4432.307692307693,4790.256410256411,4341.025641025642,4209.74358974359,4211.282051282052,4436.410256410257
272.88293,0.3673139,0.38847536,0.32026199,0.90368986,0,0.0,0.0,0.0,0.0,1.0,0,0,0.0,0.0,0,0,5.0,0.0,614.0,4524.615384615385,3887.692307692308,4467.179487179487,4435.8974358974365,4262.051282051282,4573.846153846154,4452.307692307693,4418.974358974359,4425.128205128206,4791.282051282052,4333.846153846154,4216.410256410257,4210.256410256411,4406.666666666667
273.25827,0.37013522,0.3686636,0.32368833,0.90360034,0,0.0,0.0,0.0,0.0,0.35707068,0,0,0.0,0.0,0,0,53.0,0.0,0.0,4522.051282051282,3921.0256410256416,4464.102564102564,4431.282051282052,4235.384615384616,4540.512820512821,4437.948717948719,4395.384615384616,4400.512820512821,4754.358974358975,4327.179487179487,4231.282051282052,4176.923076923077,4371.282051282052
273.50848,0.37013522,0.3686636,0.32368833,0.90360034,0,0.0,0.0,0.0,0.0,0.124568574,0,0,0.0,0.0,0,0,85.0,0.0,499.0,4522.051282051282,3935.3846153846157,4453.846153846154,4432.820512820514,4225.128205128206,4542.564102564103,4447.6923076923085,4386.666666666667,4381.538461538462,4709.2307692307695,4322.051282051282,4232.820512820514,4163.076923076924,4390.256410256411
273.7587,0.30395666,0.34273517,0.32677284,0.9011412,0,0.0,0.0,0.0,0.0,0.0,0,0,0.0,0.26114237,0,0,117.0,0.0,499.0,4527.6923076923085,3932.307692307693,4451.794871794872,4425.128205128206,4230.256410256411,4542.564102564103,4439.48717948718,4376.923076923077,4376.410256410257,4725.128205128206,4346.666666666667,4229.2307692307695,4164.615384615385,4426.153846153847
274.0089,0.30395666,0.34273517,0.32677284,0.9011412,0,0.0,0.0,0.0,0.0,0.0,0,0,0.0,0.24683875,0,0,20.0,0.0,0.0,4550.769230769231,3951.7948717948725,4465.641025641026,4449.2307692307695,4245.128205128206,4551.282051282052,4456.923076923077,4395.384615384616,4385.128205128206,4757.435897435898,4365.128205128206,4251.282051282052,4201.025641025642,4469.743589743591
274.25912,0.3035296,0.32305092,0.32798666,0.8988212,0,0.0,0.0,0.0,0.0,0.0,0,0,0.0,0.41969672,0,0,52.0,0.0,0.0,4572.307692307693,3908.717948717949,4478.461538461539,4425.641025641026,4226.666666666667,4534.871794871796,4438.461538461539,4391.794871794872,4380.000000000001,4759.48717948718,4389.2307692307695,4229.74358974359,4212.307692307693,4472.820512820514
274.50934,0.3035296,0.32305092,0.32798666,0.8988212,0,0.0,0.0,0.0,0.0,0.113193475,0,0,0.0,0.0,0,0,84.0,0.0,555.0,4566.666666666667,3935.8974358974365,4475.8974358974365,4440.512820512821,4238.461538461539,4550.769230769231,4435.8974358974365,4375.384615384616,4377.948717948719,4755.384615384616,4406.666666666667,4221.025641025642,4195.8974358974365,4450.769230769231
274.75955,0.26740354,0.30874825,0.32452106,0.8938654,0,0.0,0.0,0.0,0.0,0.132078,0,0,0.0,0.0,0,0,116.0,0.0,555.0,4567.6923076923085,3961.538461538462,4456.923076923077,4463.076923076924,4249.74358974359,4550.769230769231,4449.743589743591,4388.717948717949,4391.794871794872,4775.8974358974365,4428.717948717949,4240.000000000001,4222.564102564103,4494.358974358975
275.00977,0.26740354,0.30874825,0.32452106,0.8938654,0,0.0,0.0,0.0,0.0,0.3042491,0,0,0.0,0.0,0,0,19.0,0.0,0.0,4555.8974358974365,3967.692307692308,4450.256410256411,4449.743589743591,4259.48717948718,4565.641025641026,4467.6923076923085,4425.128205128206,4402.564102564103,4792.307692307693,4466.153846153847,4253.846153846154,4240.512820512821,4531.282051282052
275.25998,0.28681064,0.31070834,0.32014307,0.8876309,0,0.0,0.0,0.0,0.0,0.2589528,0,0,0.0,0.0,0,0,51.0,0.0,0.0,4547.6923076923085,4060.5128205128212,4457.948717948719,4453.333333333334,4254.358974358975,4560.000000000001,4451.282051282052,4403.076923076924,4393.333333333334,4772.307692307693,4466.666666666667,4253.846153846154,4241.538461538462,4532.820512820514
275.5102,0.28681064,0.31070834,0.32014307,0.8876309,0,0.0,0.0,0.0,0.0,0.14861083,0,0,0.0,0.0,0,0,83.0,0.0,542.0,4535.384615384616,4103.076923076924,4482.051282051282,4432.820512820514,4237.948717948719,4548.205128205129,4438.461538461539,4394.358974358975,4389.743589743591,4769.743589743591,4479.48717948718,4252.820512820514,4224.615384615385,4486.153846153847
275.7604,0.3209296,0.30772173,0.31559718,0.8819649,0,0.0,0.0,0.0,0.0,0.68216705,0,0,0.0,0.0,0,0,115.0,0.0,542.0,4538.974358974359,4130.769230769231,4488.205128205129,4421.025641025642,4228.717948717949,4532.820512820514,4424.102564102564,4385.128205128206,4394.871794871796,4759.48717948718,4462.564102564103,4244.102564102564,4213.846153846154,4453.333333333334
276.01065,0.3209296,0.30772173,0.31559718,0.8819649,0,0.0,0.0,0.0,0.0,0.2923675,0,0,0.0,0.0,0,0,18.0,0.0,0.0,4542.564102564103,4136.410256410257,4490.769230769231,4442.564102564103,4249.74358974359,4551.794871794872,4434.358974358975,4384.615384615385,4406.153846153847,4758.461538461539,4473.333333333334,4268.205128205129,4218.974358974359,4447.6923076923085
276.26086,0.26753357,0.3000019,0.31084496,0.87680817,0,0.0,0.0,0.0,0.0,0.6066718,0,0,0.0,0.0,0,0,50.0,0.0,0.0,4551.282051282052,4080.5128205128212,4483.589743589744,4448.717948717949,4243.076923076924,4555.384615384616,4433.333333333334,4386.153846153847,4407.179487179487,4748.717948717949,4451.282051282052,4261.538461538462,4201.538461538462,4416.923076923077
276.51108,0.26753357,0.3000019,0.31084496,0.87680817,0,0.0,0.0,0.0,0.0,0.07747275,0,0,0.0,0.0,0,0,82.0,0.0,583.0,4553.846153846154,4028.717948717949,4462.051282051282,4477.948717948719,4268.717948717949,4570.256410256411,4449.743589743591,4391.794871794872,4421.538461538462,4744.102564102564,4451.794871794872,4276.923076923077,4208.717948717949,4433.333333333334
276.7613,0.22385588,0.28488764,0.30656993,0.8788155,0,0.0,0.0,0.0,0.0,0.046123702,0,0,0.0,0.0,0,0,114.0,0.0,583.0,4553.846153846154,3976.410256410257,4426.666666666667,4467.6923076923085,4271.794871794872,4590.769230769231,4472.307692307693,4408.717948717949,4419.48717948718,4730.256410256411,4429.2307692307695,4272.820512820514,4191.794871794872,4450.256410256411
277.0115,0.22385588,0.28488764,0.30656993,0.8788155,0,0.0,0.0,0.0,0.0,0.55372775,0,0,0.0,0.0,0,0,17.0,0.0,0.0,4566.666666666667,3943.076923076924,4404.102564102564,4481.538461538462,4269.2307692307695,4596.410256410257,4481.538461538462,4414.871794871796,4421.025641025642,4740.000000000001,4442.051282051282,4287.179487179487,4204.615384615385,4524.102564102564
277.26172,0.20122392,0.27316454,0.30272478,0.88615435,0,0.0,0.0,0.0,0.0,0.59647864,0,0,0.0,0.0,0,0,49.0,0.0,0.0,4563.589743589744,3925.6410256410263,4396.923076923077,4501.025641025642,4288.717948717949,4593.333333333334,4472.820512820514,4412.307692307693,4421.025641025642,4749.743589743591,4434.871794871796,4269.74358974359,4192.307692307693,4501.025641025642
277.51193,0.20122392,0.27316454,0.30272478,0.88615435,0,0.0,0.5358742,0.0,0.0,0.0,0,0,0.0,0.0,0,0,81.0,0.0,499.0,4588.205128205129,3931.2820512820517,4391.794871794872,4511.794871794872,4292.820512820514,4607.6923076923085,4480.512820512821,4423.076923076924,4431.794871794872,4758.974358974359,4429.743589743591,4290.256410256411,4226.153846153847,4508.717948717949
277.76215,0.20959343,0.27122077,0.29814866,0.8925609,0,0.0,0.6435347,0.0,0.0,0.0,0,0,0.0,0.0,0,0,113.0,0.0,499.0,4620.000000000001,3933.333333333334,4378.974358974359,4502.051282051282,4298.974358974359,4616.410256410257,4493.846153846154,4435.8974358974365,4444.102564102564,4758.461538461539,4427.6923076923085,4287.179487179487,4226.153846153847,4520.000000000001
278.01236,0.20959343,0.27122077,0.29814866,0.8925609,0,0.0,0.0,0.23093963,0.0,0.0,0,0,0.0,0.0,0,0,16.0,0.0,0.0,4643.076923076924,3947.1794871794878,4366.153846153847,4504.102564102564,4292.307692307693,4614.871794871796,4483.589743589744,4429.2307692307695,4450.256410256411,4753.846153846154,4449.743589743591,4286.153846153847,4239.48717948718,4516.923076923077
278.26257,0.13671404,0.27083752,0.2934506,0.89812994,0,0.0,0.0,0.15592568,0.0,0.0,0,0,0.0,0.0,0,0,48.0,0.0,0.0,4666.153846153847,3943.076923076924,4366.666666666667,4495.384615384616,4280.000000000001,4603.076923076924,4495.384615384616,4470.769230769231,4476.410256410257,4697.435897435898,4482.051282051282,4305.641025641026,4265.641025641026,4515.384615384616
278.5128,0.13671404,0.27083752,0.2934506,0.89812994,0,0.0,0.0,0.0,0.0,0.0,0,0,0.0,1.0,0,0,80.0,0.0,552.0,4678.974358974359,3935.8974358974365,4370.256410256411,4486.666666666667,4268.717948717949,4585.128205128206,4478.974358974359,4457.435897435898,4454.871794871796,4672.307692307693,4433.333333333334,4290.769230769231,4226.153846153847,4477.435897435898
278.763,0.1652588,0.27241322,0.28880718,0.89981365,0,0.0,0.0,0.0,0.0,0.0,0,0,0.0,1.0,0,0,112.0,0.0,552.0,4673.846153846154,3893.8461538461543,4376.923076923077,4454.358974358975,4248.717948717949,4575.8974358974365,4471.282051282052,4424.102564102564,4451.794871794872,4689.2307692307695,4424.102564102564,4272.820512820514,4205.128205128206,4440.000000000001
279.0132,0.1652588,0.27241322,0.28880718,0.89981365,0,0.0,0.0,0.0,0.0,0.0,0,0,0.0,0.14998621,0,0,15.0,0.0,542.0,4668.717948717949,3842.564102564103,4369.2307692307695,4385.641025641026,4182.564102564103,4507.179487179488,4444.102564102564,4388.205128205129,4410.769230769231,4629.743589743591,4350.256410256411,4207.6923076923085,4140.000000000001,4428.717948717949
279.26343,0.24709518,0.2727671,0.2845247,0.8995417,0,0.0,0.0,0.0,0.0,0.5003751,0,0,0.0,0.0,0,0,47.0,0.0,0.0,4682.051282051282,3808.717948717949,4367.6923076923085,4356.410256410257,4184.615384615385,4484.615384615385,4446.153846153847,4391.282051282052,4396.923076923077,4613.846153846154,4332.307692307693,4144.102564102564,4131.794871794872,4472.820512820514
279.51364,0.24709518,0.2727671,0.2845247,0.8995417,0,0.0,0.0,0.0,0.0,0.43405256,0,0,0.0,0.0,0,0,79.0,0.0,542.0,4688.205128205129,3824.1025641025644,4370.256410256411,4378.461538461539,4206.666666666667,4491.794871794872,4447.179487179487,4403.589743589744,4412.820512820514,4667.179487179488,4369.2307692307695,4121.025641025642,4178.974358974359,4503.589743589744
279.76385,0.31429252,0.27512753,0.28077945,0.8971053,0,0.0,0.0,0.0,0.0,0.03695382,0,0,0.0,0.0,0,0,111.0,0.0,542.0,4703.076923076924,3841.0256410256416,4378.974358974359,4383.589743589744,4231.794871794872,4509.2307692307695,4437.948717948719,4428.205128205129,4427.6923076923085,4706.666666666667,4375.384615384616,4111.794871794872,4207.179487179487,4484.102564102564
280.01407,0.31429252,0.27512753,0.28077945,0.8971053,0,0.0,0.0,0.0,0.0,0.16377696,0,0,0.0,0.0,0,0,14.0,0.0,584.0,4693.333333333334,3848.717948717949,4377.435897435898,4393.333333333334,4242.564102564103,4517.948717948719,4445.641025641026,4445.641025641026,4440.512820512821,4722.564102564103,4385.128205128206,4106.153846153847,4212.820512820514,4480.000000000001
280.26428,0.30716276,0.27228963,0.2776146,0.8948104,0,0.0,0.0,0.33178067,0.0,0.0,0,0,0.0,0.0,0,0,46.0,0.0,0.0,4683.589743589744,3863.589743589744,4389.743589743591,4411.282051282052,4249.74358974359,4526.666666666667,4445.128205128206,4443.589743589744,4442.051282051282,4729.2307692307695,4366.666666666667,4117.948717948719,4221.025641025642,4478.461538461539
280.5145,0.30716276,0.27228963,0.2776146,0.8948104,0,0.0,0.0,0.0,0.0,0.45214373,0,0,0.0,0.0,0,0,78.0,0.0,584.0,4662.051282051282,3893.333333333334,4407.6923076923085,4429.743589743591,4261.538461538462,4539.48717948718,4445.128205128206,4450.256410256411,4462.051282051282,4743.589743589744,4374.871794871796,4152.820512820514,4242.051282051282,4464.102564102564
280.7647,0.23882733,0.2563388,0.2746635,0.89264345,0,0.0,0.0,0.0,0.0,0.35642833,0,0,0.0,0.0,0,0,110.0,0.0,584.0,4654.871794871796,3928.205128205129,4418.461538461539,4449.2307692307695,4283.076923076924,4557.948717948719,4452.820512820514,4443.589743589744,4478.461538461539,4755.384615384616,4366.153846153847,4200.512820512821,4248.717948717949,4459.48717948718
281.01492,0.23882733,0.2563388,0.2746635,0.89264345,0,0.0,0.0,0.0,0.0,0.10962832,0,0,0.0,0.0,0,0,13.0,0.0,499.0,4663.589743589744,3989.23076923077,4427.179487179487,4484.102564102564,4305.641025641026,4585.641025641026,4463.076923076924,4448.717948717949,4480.512820512821,4789.2307692307695,4383.589743589744,4254.358974358975,4265.128205128206,4469.743589743591
281.26514,0.25557867,0.24113172,0.27178356,0.8905922,0,0.0,0.0,0.0,0.0,0.0023781508,0,0,0.0,0.0,0,0,45.0,0.0,0.0,4662.051282051282,4030.2564102564106,4437.948717948719,4497.948717948719,4297.948717948719,4576.410256410257,4447.6923076923085,4385.641025641026,4475.8974358974365,4788.205128205129,4353.333333333334,4279.48717948718,4244.615384615385,4472.820512820514
281.51538,0.25557867,0.24113172,0.27178356,0.8905922,0,0.0,0.0,0.01670064,0.0,0.0,0,0,0.0,0.0,0,0,77.0,0.0,499.0,4657.948717948719,4083.076923076924,4449.743589743591,4500.000000000001,4301.538461538462,4595.8974358974365,4451.282051282052,4410.256410256411,4470.769230769231,4791.282051282052,4336.923076923077,4318.461538461539,4249.74358974359,4512.307692307693
281.7656,0.20497589,0.2241928,0.26888955,0.88980883,0,0.0,0.0,0.10728928,0.0,0.0,0,0,0.0,0.0,0,0,109.0,0.0,499.0,4649.2307692307695,4093.333333333334,4467.179487179487,4495.8974358974365,4306.666666666667,4590.256410256411,4448.205128205129,4418.974358974359,4461.025641025642,4783.076923076924,4313.333333333334,4375.8974358974365,4234.358974358975,4534.358974358975
282.0158,0.20497589,0.2241928,0.26888955,0.88980883,0,0.0,0.0,0.08876934,0.0,0.0,0,0,0.0,0.0,0,0,12.0,0.0,554.0,4687.6923076923085,4233.846153846154,4483.076923076924,4614.871794871796,4289.2307692307695,4569.743589743591,4432.820512820514,4366.153846153847,4438.461538461539,4752.307692307693,4332.820512820514,4438.974358974359,4288.205128205129,4684.615384615386
282.26602,0.18283984,0.22682056,0.26583135,0.8869088,0,0.0,0.0,0.0,0.0,0.0,0,0,0.0,0.11927046,0,0,44.0,0.0,0.0,4631.794871794872,4073.8461538461543,4486.666666666667,4480.512820512821,4267.6923076923085,4577.948717948719,4439.48717948718,4384.615384615385,4428.717948717949,4731.794871794872,4280.512820512821,4381.025641025642,4178.974358974359,4458.461538461539
282.51624,0.18283984,0.22682056,0.26583135,0.8869088,0,0.0,0.0,0.0,0.0,0.0,0,0,0.0,0.048323452,0,0,76.0,0.0,557.0,4631.794871794872,4068.205128205129,4494.358974358975,4454.358974358975,4249.2307692307695,4566.153846153847,4433.333333333334,4390.769230769231,4424.102564102564,4736.923076923077,4283.076923076924,4349.2307692307695,4181.025641025642,4446.666666666667
282.76645,0.17397378,0.24285822,0.2630852,0.8816832,0,0.0,0.0,0.0,0.0,0.0,0,0,0.0,0.69635075,0,0,108.0,0.0,557.0,4631.794871794872,4082.0512820512827,4504.615384615385,4444.102564102564,4237.948717948719,4546.153846153847,4425.641025641026,4368.205128205129,4407.6923076923085,4745.128205128206,4314.871794871796,4344.102564102564,4196.410256410257,4427.179487179487
283.01666,0.17397378,0.24285822,0.2630852,0.8816832,0,0.0,0.0,0.0,0.0,0.0,0,0,0.0,0.6497265,0,0,11.0,0.0,543.0,4617.948717948719,4029.7435897435903,4503.589743589744,4408.205128205129,4205.641025641026,4530.769230769231,4416.923076923077,4355.8974358974365,4392.307692307693,4702.051282051282,4309.743589743591,4310.256410256411,4147.6923076923085,4446.666666666667
283.26688,0.23754591,0.25200337,0.26062015,0.8739146,0,0.0,0.0,0.0,0.0,0.0,0,0,0.0,0.16754498,0,0,43.0,0.0,0.0,4600.000000000001,3947.692307692308,4499.48717948718,4351.282051282052,4160.000000000001,4477.435897435898,4407.179487179487,4327.179487179487,4348.717948717949,4649.743589743591,4237.948717948719,4253.333333333334,4085.1282051282055,4450.769230769231
283.5171,0.23754591,0.25200337,0.26062015,0.8739146,0,0.0,0.0,0.0,0.0,0.0,0,0,0.0,1.0,0,0,75.0,0.0,543.0,4581.025641025642,3988.205128205129,4512.307692307693,4339.48717948718,4180.512820512821,4459.48717948718,4412.307692307693,4313.333333333334,4342.051282051282,4579.48717948718,4280.512820512821,4226.153846153847,4103.589743589744,4465.641025641026
283.7673,0.26505205,0.25252447,0.26145226,0.86689097,0,0.0,0.0,0.0,0.0,0.0,0,0,0.0,1.0,0,0,107.0,0.0,543.0,4571.794871794872,4067.1794871794878,4524.615384615385,4340.512820512821,4166.153846153847,4464.102564102564,4414.358974358975,4293.846153846154,4346.153846153847,4543.589743589744,4213.846153846154,4180.512820512821,4098.974358974359,4467.179487179487
284.01752,0.26505205,0.25252447,0.26145226,0.86689097,0,0.0,0.0,0.0,0.0,0.0,0,0,0.0,0.44862106,0,0,10.0,0.0,586.0,4653.846153846154,4551.282051282052,4516.410256410257,4857.948717948719,4153.846153846154,4452.820512820514,4376.410256410257,4296.923076923077,4324.615384615385,4512.307692307693,4137.948717948719,4020.5128205128212,3929.7435897435903,4385.641025641026
284.299,0.26505205,0.25237152,0.2672883,0.8561078,0,0.51453346,0.0,0.0,0.0,0.0,0,0,0.0,0.0,0,0,46.0,0.0,0.0,4602.564102564103,4585.641025641026,4513.846153846154,4874.871794871796,4209.74358974359,4443.076923076924,4399.48717948718,4287.179487179487,4345.641025641026,4357.948717948719,4189.2307692307695,4001.538461538462,4023.076923076924,4458.461538461539
284.51794,0.26505205,0.25237152,0.2672883,0.8561078,0,0.7800538,0.0,0.0,0.0,0.0,0,0,0.0,0.0,0,0,74.0,0.0,584.0,4597.435897435898,4335.8974358974365,4508.717948717949,4683.589743589744,4299.48717948718,4541.538461538462,4465.641025641026,4319.48717948718,4378.461538461539,4423.589743589744,4345.641025641026,4125.128205128206,4070.7692307692314,4534.871794871796
284.79944,0.27727377,0.2522339,0.27389282,0.8404805,0,0.59115994,0.0,0.0,0.0,0.0,0,0,0.0,0.0,0,1,110.0,0.0,584.0,4611.794871794872,4043.076923076924,4483.589743589744,4456.923076923077,4259.48717948718,4546.666666666667,4475.8974358974365,4343.589743589744,4388.717948717949,4540.512820512821,4411.282051282052,4200.000000000001,4188.717948717949,4595.384615384616
285.01837,0.27727377,0.2522339,0.27389282,0.8404805,0,0.0,0.0,0.50505036,0.0,0.0,0,0,0.0,0.0,0,0,9.0,0.0,521.0,4594.871794871796,3872.820512820513,4495.384615384616,4302.564102564103,4208.205128205129,4541.025641025642,4423.076923076924,4306.666666666667,4366.153846153847,4594.871794871796,4348.717948717949,4177.948717948719,4176.410256410257,4523.076923076924
285.29987,0.22976264,0.25211,0.27983686,0.81849885,0,0.0,0.0,0.5879048,0.0,0.0,0,0,0.0,0.0,0,0,45.0,0.0,0.0,4596.410256410257,3792.307692307693,4458.974358974359,4233.846153846154,4228.717948717949,4544.102564102564,4423.076923076924,4318.461538461539,4369.743589743591,4647.6923076923085,4405.128205128206,4206.666666666667,4180.512820512821,4498.461538461539
285.5188,0.22976264,0.25211,0.27983686,0.81849885,0,0.0,0.0,0.0,0.0,0.0,0,0,0.0,1.0,0,0,73.0,0.0,518.0,4617.948717948719,3799.48717948718,4446.666666666667,4264.615384615385,4333.333333333334,4557.435897435898,4428.205128205129,4363.589743589744,4393.333333333334,4741.538461538462,4473.846153846154,4223.076923076924,4196.923076923077,4520.512820512821
285.769,0.20794381,0.2519985,0.2852282,0.7913751,0,0.0,0.0,0.0,0.0,0.0,0,0,0.0,1.0,0,0,105.0,0.0,499.0,4621.025641025642,3831.2820512820517,4470.256410256411,4286.153846153847,4367.179487179487,4562.564102564103,4429.743589743591,4366.666666666667,4390.256410256411,4754.358974358975,4475.8974358974365,4253.333333333334,4126.153846153847,4546.666666666667
285.769,0.20794381,0.2519985,0.2852282,0.7913751,0,0.0,0.0,0.0,0.0,0.0,0,0,0.0,1.0,0,0,105.0,0.0,499.0,4621.025641025642,3831.2820512820517,4470.256410256411,4286.153846153847,4367.179487179487,4562.564102564103,4429.743589743591,4366.666666666667,4390.256410256411,4754.358974358975,4475.8974358974365,4253.333333333334,4126.153846153847,4546.666666666667
286.332,0.21705227,0.25189817,0.29008412,0.7670493,0,0.0,0.0,0.0,0.0,0.0,0,0,0.0,0.0,0,0,48.0,0.0,0.0,4571.282051282052,3762.564102564103,4581.025641025642,4178.974358974359,4146.153846153847,4422.051282051282,4336.923076923077,4273.333333333334,4312.307692307693,4622.564102564103,4295.384615384616,4097.948717948719,4028.205128205129,4444.102564102564
286.332,0.21705227,0.25189817,0.29008412,0.7670493,0,0.0,0.0,0.0,0.0,0.0,0,0,0.0,0.0,0,0,48.0,0.0,0.0,4571.282051282052,3762.564102564103,4581.025641025642,4178.974358974359,4146.153846153847,4422.051282051282,4336.923076923077,4273.333333333334,4312.307692307693,4622.564102564103,4295.384615384616,4097.948717948719,4028.205128205129,4444.102564102564
286.76987,0.2545574,0.32836816,0.2944579,0.7452156,0,0.0,0.0,0.0,0.0,0.0,0,0,0.0,0.1803401,0,0,104.0,0.0,550.0,4535.384615384616,3786.1538461538466,4575.8974358974365,4172.820512820514,4160.512820512821,4425.128205128206,4351.794871794872,4289.2307692307695,4328.717948717949,4656.923076923077,4313.333333333334,4035.8974358974365,4084.615384615385,4436.410256410257
287.0201,0.2545574,0.32836816,0.2944579,0.7452156,0,0.0,0.0,0.0,0.0,0.0,0,0,0.0,1.0,0,0,7.0,0.0,476.0,4524.102564102564,3861.0256410256416,4574.871794871796,4237.948717948719,4193.333333333334,4462.564102564103,4373.333333333334,4333.846153846154,4333.846153846154,4752.307692307693,4333.333333333334,4054.358974358975,4140.000000000001,4464.615384615385
287.27032,0.28423235,0.369,0.2983974,0.7256201,0,0.0,0.0,1.0,0.0,0.0,0,0,0.0,0.0,0,0,39.0,0.0,0.0,4524.615384615385,3936.410256410257,4565.641025641026,4287.179487179487,4197.435897435898,4494.358974358975,4398.974358974359,4370.256410256411,4360.000000000001,4771.794871794872,4377.435897435898,4097.435897435898,4208.205128205129,4519.48717948718
287.52054,0.28423235,0.369,0.2983974,0.7256201,0,0.0,0.0,0.7686461,0.0,0.0,0,0,0.0,0.0,0,0,71.0,0.0,476.0,4512.307692307693,4001.538461538462,4561.025641025642,4341.538461538462,4216.923076923077,4516.923076923077,4411.794871794872,4369.743589743591,4353.846153846154,4769.743589743591,4402.564102564103,4149.2307692307695,4214.871794871796,4515.8974358974365
287.77075,0.29215932,0.36518788,0.30194575,0.7080382,0,0.0,0.0,0.40268824,0.0,0.0,0,0,0.0,0.0,0,0,103.0,0.0,541.0,4507.179487179488,4058.9743589743593,4564.615384615385,4378.974358974359,4228.205128205129,4548.717948717949,4425.641025641026,4374.871794871796,4369.2307692307695,4785.641025641026,4417.435897435898,4183.589743589744,4244.615384615385,4515.384615384616
288.02097,0.29215932,0.36518788,0.30194575,0.7080382,0,0.0,0.0,0.0,0.0,0.0,0,0,0.0,0.13598572,0,0,6.0,0.0,571.0,4512.307692307693,4088.717948717949,4548.717948717949,4412.307692307693,4256.923076923077,4581.538461538462,4440.512820512821,4386.153846153847,4390.256410256411,4823.589743589744,4450.256410256411,4238.974358974359,4243.589743589744,4505.128205128206
288.27118,0.29136163,0.34361088,0.3051377,0.7033872,0,0.0,0.0,0.0,0.0,0.0,0,0,0.0,0.2503857,0,0,38.0,0.0,0.0,4515.8974358974365,4067.692307692308,4533.846153846154,4416.410256410257,4256.410256410257,4581.025641025642,4445.128205128206,4370.769230769231,4387.179487179487,4790.769230769231,4461.025641025642,4258.461538461539,4223.589743589744,4451.282051282052
288.5214,0.29136163,0.34361088,0.3051377,0.7033872,0,0.0,0.0,0.0,0.0,0.0,0,0,0.0,0.07276315,0,0,70.0,0.0,571.0,4531.794871794872,4054.8717948717954,4527.179487179488,4451.794871794872,4267.6923076923085,4604.102564102564,4408.717948717949,4383.589743589744,4406.153846153847,4776.410256410257,4465.641025641026,4288.205128205129,4200.512820512821,4502.051282051282
288.7716,0.25141332,0.3233135,0.30800492,0.7145436,0,0.0,0.0,0.0,0.0,0.0,0,0,0.0,0.19014701,0,0,102.0,0.0,584.0,4543.589743589744,4030.7692307692314,4511.282051282052,4468.717948717949,4278.461538461539,4611.282051282052,4435.8974358974365,4409.743589743591,4433.846153846154,4774.358974358975,4476.923076923077,4308.717948717949,4178.461538461539,4571.794871794872
289.02182,0.25141332,0.3233135,0.30800492,0.7145436,0,0.0,0.0,0.0,0.0,0.62498075,0,0,0.0,0.0,0,0,5.0,0.0,613.0,4552.820512820514,3956.410256410257,4497.948717948719,4462.564102564103,4272.307692307693,4606.666666666667,4443.589743589744,4406.666666666667,4431.282051282052,4775.384615384616,4462.051282051282,4315.8974358974365,4207.179487179487,4587.179487179488
289.27203,0.25940707,0.3013721,0.30692253,0.7289055,0,0.0,0.0,0.0,0.0,0.16233303,0,0,0.0,0.0,0,0,37.0,0.0,0.0,4552.820512820514,4034.8717948717954,4495.8974358974365,4466.153846153847,4240.000000000001,4603.589743589744,4435.8974358974365,4408.205128205129,4419.48717948718,4781.538461538462,4426.153846153847,4316.923076923077,4188.205128205129,4554.358974358975
289.52225,0.25940707,0.3013721,0.30692253,0.7289055,0,0.0,0.0,0.0,0.0,0.61207104,0,0,0.0,0.0,0,0,69.0,0.0,613.0,4555.384615384616,4066.666666666667,4500.000000000001,4469.743589743591,4235.8974358974365,4591.282051282052,4426.153846153847,4392.307692307693,4407.6923076923085,4755.8974358974365,4399.48717948718,4307.179487179487,4171.282051282052,4513.333333333334
289.77246,0.27474174,0.29929692,0.30121562,0.7439067,0,0.0,0.0,0.0,0.0,0.363703,0,0,0.0,0.0,0,0,101.0,0.0,499.0,4568.205128205129,4062.0512820512827,4498.461538461539,4448.717948717949,4221.025641025642,4566.666666666667,4418.461538461539,4386.153846153847,4400.512820512821,4758.974358974359,4391.794871794872,4317.435897435898,4194.358974358975,4508.717948717949
290.02267,0.27474174,0.29929692,0.30121562,0.7439067,0,0.0,0.0,1.0,0.0,0.0,0,0,0.0,0.0,0,0,4.0,0.0,607.0,4573.333333333334,4089.7435897435903,4506.666666666667,4461.538461538462,4183.589743589744,4565.128205128206,4424.615384615385,4386.666666666667,4394.871794871796,4772.820512820514,4381.538461538462,4335.384615384616,4256.410256410257,4484.615384615385
290.2729,0.2853724,0.2903915,0.29555017,0.7599003,0,0.0,0.0,0.8453036,0.0,0.0,0,0,0.0,0.0,0,0,36.0,0.0,0.0,4572.820512820514,4061.538461538462,4515.8974358974365,4445.641025641026,4173.846153846154,4547.179487179488,4416.923076923077,4370.769230769231,4377.435897435898,4750.256410256411,4350.769230769231,4317.435897435898,4247.6923076923085,4455.384615384616
290.5231,0.2853724,0.2903915,0.29555017,0.7599003,0,0.0,0.0,0.0,0.0,0.0,0,0,0.0,0.89385766,0,0,68.0,0.0,607.0,4568.205128205129,4029.23076923077,4518.461538461539,4423.589743589744,4182.564102564103,4546.153846153847,4407.179487179487,4357.948717948719,4365.641025641026,4724.615384615386,4345.641025641026,4290.769230769231,4192.307692307693,4420.512820512821
290.77332,0.3146657,0.28004298,0.28984618,0.77419215,0,0.0,0.0,0.0,0.0,0.0,0,0,0.0,1.0,0,0,100.0,0.0,564.0,4572.307692307693,4058.461538461539,4510.769230769231,4441.538461538462,4209.74358974359,4540.000000000001,4405.128205128206,4354.871794871796,4371.794871794872,4744.102564102564,4344.615384615385,4282.051282051282,4197.948717948719,4415.8974358974365
291.02353,0.3146657,0.28004298,0.28984618,0.77419215,0,0.0,0.0,0.0,0.0,0.0,0,0,0.0,0.6224314,0,0,3.0,0.0,592.0,4568.205128205129,4041.538461538462,4502.051282051282,4425.128205128206,4213.846153846154,4546.153846153847,4424.615384615385,4349.743589743591,4365.641025641026,4740.512820512821,4276.923076923077,4256.410256410257,4158.461538461539,4367.179487179487
291.27374,0.27148953,0.26016533,0.28471652,0.78694594,0,0.0,0.0,0.0,0.0,0.0,0,0,0.0,0.16533348,0,0,35.0,0.0,0.0,4566.666666666667,4001.0256410256416,4492.820512820514,4415.8974358974365,4220.000000000001,4548.205128205129,4434.871794871796,4324.102564102564,4349.743589743591,4715.8974358974365,4242.564102564103,4242.051282051282,4134.871794871796,4462.051282051282
291.52396,0.27148953,0.26016533,0.28471652,0.78694594,0,0.0,0.0,0.0,0.0,0.0,0,0,0.0,0.32697892,0,0,67.0,0.0,592.0,4555.384615384616,3927.1794871794878,4474.358974358975,4386.666666666667,4176.923076923077,4497.948717948719,4423.589743589744,4289.2307692307695,4319.48717948718,4638.461538461539,4196.923076923077,4210.256410256411,4076.410256410257,4523.589743589744
291.77417,0.31059524,0.23236284,0.28071356,0.7962062,0,0.0,0.0,0.029661378,0.0,0.0,0,0,0.0,0.0,0,0,99.0,0.0,541.0,4541.025641025642,3790.7692307692314,4452.820512820514,4304.102564102564,4161.025641025642,4451.794871794872,4422.564102564103,4319.48717948718,4296.923076923077,4599.48717948718,4127.6923076923085,4155.8974358974365,4078.9743589743593,4564.102564102564
292.02438,0.31059524,0.23236284,0.28071356,0.7962062,0,0.0,0.0,0.01348643,0.0,0.0,0,0,0.0,0.0,0,0,2.0,0.0,230.0,4538.974358974359,3694.358974358975,4437.948717948719,4251.282051282052,4168.717948717949,4430.769230769231,4441.025641025642,4353.333333333334,4317.435897435898,4597.948717948719,4113.846153846154,4064.615384615385,4109.74358974359,4557.948717948719
292.2746,0.32996726,0.206335,0.27751952,0.80443686,0,0.0,0.0,0.29618385,0.0,0.0,0,0,0.0,0.0,0,0,34.0,0.0,0.0,4509.2307692307695,3700.0000000000005,4429.2307692307695,4263.076923076924,4186.153846153847,4439.48717948718,4426.666666666667,4345.641025641026,4318.974358974359,4638.974358974359,4132.307692307693,4013.333333333334,4149.2307692307695,4496.410256410257
292.39972,0.32996726,0.206335,0.27751952,0.80443686,0,0.0,0.0,0.0,0.0,0.0,0,0,0.0,1.0,0,0,50.0,0.0,0.0,4507.179487179488,3716.9230769230776,4425.128205128206,4293.333333333334,4216.923076923077,4461.538461538462,4436.923076923077,4375.8974358974365,4337.435897435898,4679.48717948718,4198.461538461539,4026.1538461538466,4188.205128205129,4468.717948717949
292.77505,0.37155744,0.17549437,0.2746498,0.8117395,0,0.0,0.0,0.0,0.0,0.0,0,0,0.0,0.1942746,0,0,98.0,0.0,584.0,4499.48717948718,3743.076923076924,4416.410256410257,4336.923076923077,4263.076923076924,4511.794871794872,4439.48717948718,4409.743589743591,4393.333333333334,4711.282051282052,4258.974358974359,4061.0256410256416,4243.076923076924,4472.307692307693
293.02527,0.37155744,0.17549437,0.2746498,0.8117395,0,0.0,0.0,0.0,0.0,0.0,0,0,0.0,0.010501116,0,0,1.0,0.0,561.0,4501.538461538462,3782.0512820512827,4408.717948717949,4383.589743589744,4281.025641025642,4523.076923076924,4421.538461538462,4416.410256410257,4402.051282051282,4748.717948717949,4307.6923076923085,4119.48717948718,4260.000000000001,4465.128205128206
293.27548,0.41953674,0.15774614,0.2714613,0.81534034,0,0.0,0.0,0.0,0.0,0.0,0,0,0.0,0.016672576,0,0,33.0,0.0,0.0,4507.179487179488,3828.205128205129,4414.358974358975,4432.820512820514,4299.48717948718,4543.076923076924,4431.794871794872,4423.589743589744,4409.2307692307695,4770.256410256411,4377.948717948719,4191.794871794872,4251.794871794872,4477.435897435898
293.5257,0.41953674,0.15774614,0.2714613,0.81534034,0,0.0,0.0,0.0,0.0,0.0,0,0,0.0,0.43365455,0,0,65.0,0.0,561.0,4524.102564102564,3858.9743589743593,4412.307692307693,4470.256410256411,4312.307692307693,4576.923076923077,4463.589743589744,4447.179487179487,4411.794871794872,4780.000000000001,4429.743589743591,4254.871794871796,4262.564102564103,4499.48717948718
293.7759,0.4630922,0.15911044,0.26851752,0.8165145,0,0.0,0.0,0.0,0.0,0.0,0,0,0.0,0.24764948,0,0,97.0,0.0,499.0,4539.48717948718,3824.615384615385,4418.974358974359,4461.538461538462,4305.641025641026,4595.384615384616,4472.307692307693,4443.589743589744,4414.358974358975,4815.8974358974365,4447.6923076923085,4307.6923076923085,4241.025641025642,4473.333333333334
294.02612,0.4630922,0.15911044,0.26851752,0.8165145,0,0.0,0.0,0.0,0.0,0.0,0,0,0.0,0.654667,0,0,0.0,0.0,244.0,4552.820512820514,3799.48717948718,4423.589743589744,4436.410256410257,4267.6923076923085,4581.538461538462,4460.512820512821,4412.820512820514,4393.333333333334,4781.025641025642,4404.615384615385,4300.512820512821,4189.74358974359,4441.025641025642
294.27634,0.5114043,0.16901892,0.2642514,0.8174247,0,0.0,0.0,0.0,0.0,0.0,0,0,0.0,1.0,0,0,32.0,0.0,0.0,4593.846153846154,3792.820512820513,4425.128205128206,4412.820512820514,4250.256410256411,4576.923076923077,4467.179487179487,4408.205128205129,4400.000000000001,4745.641025641026,4391.282051282052,4303.589743589744,4170.769230769231,4433.846153846154
294.52655,0.5114043,0.16901892,0.2642514,0.8174247,0,0.0,0.0,0.63698953,0.0,0.0,0,0,0.0,0.0,0,0,64.0,0.0,244.0,4602.564102564103,3797.9487179487182,4429.743589743591,4385.641025641026,4222.051282051282,4557.948717948719,4451.282051282052,4402.564102564103,4399.48717948718,4704.102564102564,4365.128205128206,4262.051282051282,4148.205128205129,4411.282051282052
294.77676,0.48085436,0.19572231,0.2595885,0.8187816,0,0.0,0.0,0.21344952,0.0,0.0,0,0,0.0,0.0,0,0,96.0,0.0,552.0,4612.307692307693,3808.717948717949,4441.025641025642,4402.564102564103,4232.820512820514,4562.051282051282,4456.410256410257,4405.641025641026,4405.128205128206,4713.333333333334,4378.461538461539,4234.358974358975,4154.871794871796,4405.641025641026
295.02698,0.48085436,0.19572231,0.2595885,0.8187816,0,0.0,0.0,0.105573855,0.0,0.0,0,0,0.0,0.0,0,0,128.0,0.0,552.0,4633.846153846154,3805.6410256410263,4439.48717948718,4408.717948717949,4242.051282051282,4564.615384615385,4463.076923076924,4420.000000000001,4396.410256410257,4714.358974358975,4400.000000000001,4206.666666666667,4168.717948717949,4428.205128205129
295.2772,0.46699458,0.21858451,0.2553988,0.8169724,0,0.0,0.0,0.0,0.0,0.0,0,0,0.0,0.52160084,0,0,31.0,0.0,0.0,4618.974358974359,3829.2307692307695,4443.076923076924,4425.128205128206,4263.589743589744,4573.846153846154,4468.717948717949,4437.948717948719,4398.974358974359,4756.410256410257,4418.461538461539,4208.205128205129,4192.820512820514,4421.538461538462
295.5274,0.46699458,0.21858451,0.2553988,0.8169724,0,0.0,0.0,0.0,0.0,0.0,0,0,0.0,0.2886963,0,0,63.0,0.0,0.0,4621.025641025642,3904.1025641025644,4451.282051282052,4484.102564102564,4292.307692307693,4586.153846153847,4480.000000000001,4454.871794871796,4413.333333333334,4797.435897435898,4511.794871794872,4252.307692307693,4234.871794871796,4501.538461538462
295.84018,0.46360877,0.2511258,0.25163537,0.8126558,0,0.0,0.0,0.0,0.0,0.0,0,0,0.0,0.041358065,0,0,103.0,0.0,541.0,4619.48717948718,3961.538461538462,4459.48717948718,4527.6923076923085,4307.179487179487,4596.923076923077,4470.769230769231,4453.333333333334,4420.512820512821,4821.538461538462,4520.000000000001,4287.6923076923085,4261.025641025642,4540.000000000001
296.02783,0.46360877,0.2511258,0.25163537,0.8126558,0,0.0,0.0,0.0,0.0,0.0,0,0,0.0,0.19617116,0,0,127.0,0.0,541.0,4616.923076923077,4020.5128205128212,4462.051282051282,4549.2307692307695,4309.2307692307695,4588.205128205129,4448.717948717949,4444.615384615385,4411.794871794872,4831.794871794872,4505.641025641026,4342.564102564103,4280.000000000001,4530.769230769231
296.27805,0.43054888,0.2816146,0.24913713,0.81137264,0,0.0,0.0,0.0,0.0,0.19084527,0,0,0.0,0.0,0,0,30.0,0.0,0.0,4631.794871794872,4050.7692307692314,4477.435897435898,4533.333333333334,4295.384615384616,4600.512820512821,4458.461538461539,4395.8974358974365,4405.128205128206,4781.025641025642,4522.564102564103,4373.333333333334,4291.282051282052,4490.769230769231
296.52826,0.43054888,0.2816146,0.24913713,0.81137264,0,0.0,0.0,0.0,0.0,0.0,0,0,0.0,1.0,0,0,62.0,0.0,0.0,4631.282051282052,4071.7948717948725,4495.8974358974365,4526.153846153847,4254.358974358975,4582.051282051282,4448.205128205129,4424.102564102564,4404.615384615385,4782.564102564103,4512.307692307693,4365.128205128206,4278.461538461539,4474.871794871796
296.77847,0.43265027,0.31793708,0.24835712,0.8131153,0,0.0,0.0,0.0,0.0,0.0,0,0,0.0,0.95209545,0,0,94.0,0.0,584.0,4628.717948717949,4077.435897435898,4500.000000000001,4531.282051282052,4263.076923076924,4565.128205128206,4452.820512820514,4427.179487179487,4407.6923076923085,4773.333333333334,4486.153846153847,4395.384615384616,4242.564102564103,4475.384615384616
297.0287,0.43265027,0.31793708,0.24835712,0.8131153,0,0.0,0.0,0.0,0.0,0.0,0,0,0.0,1.0,0,0,126.0,0.0,584.0,4620.000000000001,4041.0256410256416,4503.076923076924,4514.358974358975,4241.025641025642,4563.076923076924,4437.948717948719,4396.410256410257,4381.538461538462,4788.717948717949,4450.256410256411,4371.794871794872,4224.615384615385,4453.846153846154
297.2789,0.46951938,0.3495625,0.25243685,0.81826776,0,0.0,0.0,0.0,0.0,0.0,0,0,0.0,0.36787844,0,0,29.0,0.0,0.0,4615.384615384616,4015.8974358974365,4504.102564102564,4494.871794871796,4201.025641025642,4531.794871794872,4420.512820512821,4342.051282051282,4340.512820512821,4707.6923076923085,4364.102564102564,4308.717948717949,4104.615384615385,4404.102564102564
297.5291,0.46951938,0.3495625,0.25243685,0.81826776,0,0.0,0.0,0.0,0.0,0.0,0,0,0.0,0.7229994,0,0,61.0,0.0,0.0,4597.948717948719,4032.307692307693,4511.282051282052,4487.179487179488,4174.358974358975,4520.512820512821,4411.282051282052,4306.666666666667,4312.820512820514,4632.820512820514,4270.769230769231,4250.256410256411,4040.0000000000005,4368.205128205129
297.77936,0.55437386,0.3638766,0.26330096,0.8252035,0,0.0,0.0,0.0,0.0,0.0,0,0,0.0,0.32045045,0,0,93.0,0.0,500.0,4585.641025641026,4020.0000000000005,4507.6923076923085,4421.538461538462,4185.641025641026,4501.025641025642,4389.2307692307695,4327.179487179487,4315.384615384616,4620.512820512821,4281.538461538462,4224.615384615385,4060.5128205128212,4377.948717948719
298.02957,0.55437386,0.3638766,0.26330096,0.8252035,0,0.0,0.0,0.0,0.0,0.0,0,0,0.0,0.27963945,0,0,125.0,0.0,500.0,4569.743589743591,4024.1025641025644,4493.333333333334,4414.358974358975,4134.871794871796,4484.102564102564,4372.307692307693,4286.666666666667,4290.769230769231,4602.564102564103,4264.102564102564,4180.512820512821,4029.7435897435903,4372.307692307693
298.2798,0.55166185,0.39209345,0.27330437,0.8313306,0,0.0,0.0,0.0,0.0,0.0,0,0,0.0,0.26117843,0,0,28.0,0.0,0.0,4616.923076923077,4029.7435897435903,4493.333333333334,4446.666666666667,4182.564102564103,4490.256410256411,4379.48717948718,4322.564102564103,4327.6923076923085,4669.743589743591,4306.153846153847,4213.846153846154,4096.923076923077,4449.743589743591
298.53,0.55166185,0.39209345,0.27330437,0.8313306,0,0.0,0.0,0.2944094,0.0,0.0,0,0,0.0,0.0,0,0,60.0,0.0,0.0,4634.871794871796,4031.2820512820517,4501.025641025642,4453.846153846154,4224.102564102564,4520.512820512821,4401.538461538462,4347.6923076923085,4337.435897435898,4695.8974358974365,4322.051282051282,4210.256410256411,4106.153846153847,4470.256410256411
298.7802,0.5698673,0.43672305,0.28308988,0.83673006,1,0.0,0.0,0.115514606,0.0,0.0,0,0,0.0,0.0,0,0,92.0,0.0,551.0,4673.333333333334,4024.615384615385,4497.435897435898,4452.820512820514,4184.615384615385,4491.794871794872,4374.358974358975,4322.564102564103,4331.794871794872,4702.564102564103,4359.48717948718,4256.410256410257,4133.333333333334,4525.128205128206
299.03043,0.5698673,0.43672305,0.28308988,0.83673006,0,0.0,0.0,0.0,0.0,0.0,0,0,0.0,0.31718856,0,0,124.0,0.0,551.0,4679.48717948718,3973.333333333334,4477.948717948719,4389.2307692307695,4155.384615384616,4476.410256410257,4371.794871794872,4315.8974358974365,4330.769230769231,4706.153846153847,4349.2307692307695,4216.410256410257,4092.307692307693,4468.717948717949
299.28064,0.46691754,0.49955317,0.2945236,0.83974904,0,0.0,0.0,0.0,0.0,0.0,0,0,0.0,0.33404705,0,0,27.0,0.0,0.0,4680.512820512821,3995.8974358974365,4503.589743589744,4374.358974358975,4171.794871794872,4489.743589743591,4386.666666666667,4284.102564102564,4342.564102564103,4743.076923076924,4357.435897435898,4244.102564102564,4146.153846153847,4520.000000000001
299.53085,0.46691754,0.49955317,0.2945236,0.83974904,0,0.0,0.0,0.061050184,0.0,0.0,0,0,0.0,0.0,0,0,59.0,0.0,0.0,4648.205128205129,4012.820512820513,4516.410256410257,4364.615384615385,4170.769230769231,4480.000000000001,4382.564102564103,4272.307692307693,4328.205128205129,4701.538461538462,4331.282051282052,4232.820512820514,4127.6923076923085,4483.589743589744
299.78107,0.39630306,0.5684359,0.3048167,0.84072816,1,0.0,0.0,0.28153354,0.0,0.0,0,0,0.0,0.0,0,0,91.0,0.0,541.0,4617.435897435898,4005.6410256410263,4518.461538461539,4370.256410256411,4155.8974358974365,4448.205128205129,4370.769230769231,4260.000000000001,4316.923076923077,4646.153846153847,4292.820512820514,4194.871794871796,4068.205128205129,4456.410256410257
300.03128,0.39630306,0.5684359,0.3048167,0.84072816,0,0.0,0.0,0.0,0.0,0.0,0,0,0.23383571,0.0,0,0,123.0,0.0,541.0,4582.564102564103,3909.7435897435903,4516.923076923077,4277.948717948719,4147.6923076923085,4445.128205128206,4372.307692307693,4265.641025641026,4302.051282051282,4614.358974358975,4238.461538461539,4112.820512820514,4043.589743589744,4398.974358974359
300.2815,0.37902343,0.65581656,0.31408262,0.838235,0,0.0,0.0,0.0833001,0.0,0.0,0,0,0.0,0.0,0,0,26.0,0.0,0.0,4567.6923076923085,3941.0256410256416,4528.205128205129,4300.512820512821,4175.8974358974365,4444.615384615385,4373.846153846154,4273.846153846154,4296.410256410257,4615.384615384616,4233.333333333334,4064.1025641025644,4070.7692307692314,4414.358974358975
300.5317,0.37902343,0.65581656,0.31408262,0.838235,0,0.0,0.0,0.0,0.0,0.0,0,0,0.0,0.5958936,0,0,58.0,0.0,0.0,4553.333333333334,3969.2307692307695,4544.102564102564,4293.846153846154,4183.589743589744,4446.666666666667,4375.8974358974365,4294.871794871796,4305.128205128206,4628.205128205129,4222.564102564103,4048.205128205129,4101.538461538462,4412.820512820514
300.78192,0.39185262,0.6445036,0.32495442,0.83348876,0,0.0,0.0,0.0,0.0,0.0,0,0,0.0,0.44872594,0,0,90.0,0.0,583.0,4527.179487179488,3964.615384615385,4540.000000000001,4289.74358974359,4182.051282051282,4454.358974358975,4371.794871794872,4298.974358974359,4316.410256410257,4648.205128205129,4216.410256410257,4066.666666666667,4127.6923076923085,4420.512820512821
301.03214,0.39185262,0.6445036,0.32495442,0.83348876,0,0.0,0.0,0.0,0.0,0.0,0,0,0.0,0.23631395,0,0,122.0,0.0,583.0,4520.512820512821,3975.3846153846157,4528.205128205129,4323.589743589744,4196.410256410257,4467.6923076923085,4379.48717948718,4340.512820512821,4338.974358974359,4689.2307692307695,4260.000000000001,4142.564102564103,4195.384615384616,4452.307692307693
301.28235,0.37786886,0.6117418,0.335842,0.828203,0,0.0,0.0,0.0,0.0,0.0,0,0,0.0,0.19127895,0,0,25.0,0.0,0.0,4528.717948717949,3932.307692307693,4522.051282051282,4371.282051282052,4221.538461538462,4504.615384615385,4401.025641025642,4368.205128205129,4348.205128205129,4706.666666666667,4264.615384615385,4206.666666666667,4204.102564102564,4468.717948717949
301.53256,0.37786886,0.6117418,0.335842,0.828203,0,0.0,0.0,0.0,0.0,0.0,0,0,0.0,0.63985777,0,0,57.0,0.0,0.0,4526.153846153847,3917.435897435898,4505.128205128206,4401.025641025642,4224.615384615385,4515.384615384616,4405.641025641026,4374.871794871796,4361.538461538462,4737.948717948719,4290.769230769231,4238.974358974359,4220.512820512821,4460.000000000001
301.78278,0.37599877,0.56554794,0.3456407,0.82341355,0,0.0,0.0,0.0,0.0,0.0,0,0,0.0,0.481888,0,0,89.0,0.0,500.0,4537.948717948719,3877.435897435898,4494.358974358975,4409.2307692307695,4228.205128205129,4533.333333333334,4426.153846153847,4401.025641025642,4386.666666666667,4751.282051282052,4327.6923076923085,4306.153846153847,4222.564102564103,4483.076923076924
302.033,0.37599877,0.56554794,0.3456407,0.82341355,0,0.0,0.0,0.0,0.0,0.0,0,0,0.0,1.0,0,0,121.0,0.0,500.0,4549.743589743591,3873.8461538461543,4485.128205128206,4434.358974358975,4226.666666666667,4536.923076923077,4426.153846153847,4404.615384615385,4389.743589743591,4671.282051282052,4315.8974358974365,4317.435897435898,4203.589743589744,4451.794871794872
302.2832,0.38876143,0.53916454,0.35445848,0.8190692,0,0.0,0.0,0.0,0.0,0.0,0,0,0.0,1.0,0,0,24.0,0.0,0.0,4581.538461538462,3862.0512820512827,4486.153846153847,4443.589743589744,4224.102564102564,4540.000000000001,4438.461538461539,4414.871794871796,4402.564102564103,4700.512820512821,4316.923076923077,4351.794871794872,4214.871794871796,4498.974358974359
302.2832,0.38876143,0.53916454,0.35445848,0.8190692,0,0.0,0.0,0.0,0.0,0.0,0,0,0.0,1.0,0,0,24.0,0.0,0.0,4581.538461538462,3862.0512820512827,4486.153846153847,4443.589743589744,4224.102564102564,4540.000000000001,4438.461538461539,4414.871794871796,4402.564102564103,4700.512820512821,4316.923076923077,4351.794871794872,4214.871794871796,4498.974358974359
302.78363,0.43069354,0.5266503,0.35378098,0.81828624,0,0.0,0.0,1.0,0.0,0.0,0,0,0.0,0.0,0,0,88.0,0.0,549.0,4587.179487179488,3807.1794871794878,4480.000000000001,4417.948717948719,4157.435897435898,4521.025641025642,4437.948717948719,4425.128205128206,4400.000000000001,4761.538461538462,4313.333333333334,4401.538461538462,4182.564102564103,4431.794871794872
302.90875,0.43069354,0.5266503,0.35378098,0.81828624,0,0.0,0.0,0.0,0.0,0.0,0,0,0.0,1.0,0,0,104.0,0.0,549.0,4583.076923076924,3815.3846153846157,4481.538461538462,4416.923076923077,4177.948717948719,4522.564102564103,4431.282051282052,4413.333333333334,4385.641025641026,4724.102564102564,4322.564102564103,4398.461538461539,4155.8974358974365,4431.282051282052
303.2841,0.5062757,0.5174681,0.3450349,0.82234246,0,0.0,0.0,0.0,0.0,0.0,0,0,0.0,0.87077767,0,0,23.0,0.0,0.0,4596.923076923077,3732.307692307693,4486.666666666667,4336.410256410257,4126.666666666667,4470.256410256411,4427.6923076923085,4398.974358974359,4368.717948717949,4614.871794871796,4241.025641025642,4309.2307692307695,4058.461538461539,4411.282051282052
303.56555,0.5062757,0.5174681,0.3450349,0.82234246,1,0.0,0.0,0.0,0.0,0.0,0,0,0.0,0.44265074,0,0,59.0,0.0,0.0,4615.384615384616,3764.1025641025644,4491.282051282052,4345.128205128206,4178.461538461539,4441.025641025642,4413.333333333334,4388.717948717949,4365.641025641026,4606.666666666667,4236.410256410257,4235.8974358974365,4069.7435897435903,4493.846153846154
303.78452,0.48191407,0.5315075,0.33716246,0.8279902,0,0.0,0.0,0.0,0.0,0.0,0,0,0.0,0.43274868,0,0,87.0,0.0,545.0,4601.025641025642,3724.1025641025644,4482.564102564103,4296.923076923077,4191.794871794872,4449.743589743591,4421.538461538462,4401.025641025642,4357.435897435898,4636.923076923077,4254.871794871796,4190.769230769231,4112.307692307693,4455.8974358974365
304.03473,0.48191407,0.5315075,0.33716246,0.8279902,0,0.0,0.0,0.0,0.0,0.0,0,0,0.0,0.48950762,0,0,119.0,0.0,545.0,4597.435897435898,3759.48717948718,4482.051282051282,4321.025641025642,4220.512820512821,4469.2307692307695,4429.2307692307695,4407.179487179487,4363.076923076924,4620.512820512821,4287.6923076923085,4197.435897435898,4137.948717948719,4443.589743589744
304.28494,0.45579034,0.54158366,0.33007696,0.8329661,0,0.0,0.0,0.0,0.0,0.0,0,0,0.0,0.17174512,0,0,22.0,0.0,0.0,4585.641025641026,3823.589743589744,4485.128205128206,4377.435897435898,4243.076923076924,4468.205128205129,4406.666666666667,4388.205128205129,4356.923076923077,4647.179487179488,4297.948717948719,4200.512820512821,4109.74358974359,4441.538461538462
304.53516,0.45579034,0.54158366,0.33007696,0.8329661,0,0.0,0.0,0.0,0.0,0.0,0,0,0.0,0.1944239,0,0,54.0,0.0,0.0,4580.000000000001,3876.9230769230776,4491.282051282052,4423.589743589744,4266.153846153847,4501.538461538462,4422.051282051282,4405.128205128206,4391.794871794872,4711.794871794872,4387.179487179487,4218.974358974359,4193.333333333334,4465.641025641026
304.78537,0.46606296,0.54154426,0.32592142,0.83733773,0,0.0,0.0,0.6370969,0.0,0.0,0,0,0.0,0.0,0,0,86.0,0.0,579.0,4586.153846153847,3877.435897435898,4487.179487179488,4425.641025641026,4263.076923076924,4530.256410256411,4435.384615384616,4408.717948717949,4412.307692307693,4751.794871794872,4457.435897435898,4261.025641025642,4239.48717948718,4486.153846153847
305.03558,0.46606296,0.54154426,0.32592142,0.83733773,0,0.0,0.0,0.2290187,0.0,0.0,0,0,0.0,0.0,0,0,118.0,0.0,579.0,4595.8974358974365,3924.1025641025644,4492.307692307693,4473.846153846154,4268.205128205129,4542.051282051282,4420.512820512821,4401.538461538462,4409.743589743591,4768.205128205129,4470.256410256411,4288.205128205129,4241.025641025642,4473.333333333334
305.2858,0.39632273,0.55161643,0.32692304,0.83917344,0,0.0,0.0,0.21559083,0.0,0.0,0,0,0.0,0.0,0,0,21.0,0.0,0.0,4599.48717948718,3958.461538461539,4502.051282051282,4488.205128205129,4293.846153846154,4561.025641025642,4438.461538461539,4401.025641025642,4404.102564102564,4780.512820512821,4477.948717948719,4306.153846153847,4224.102564102564,4480.512820512821
305.536,0.39632273,0.55161643,0.32692304,0.83917344,0,0.0,0.0,0.31393817,0.0,0.0,0,0,0.0,0.0,0,0,53.0,0.0,0.0,4601.025641025642,3937.9487179487182,4500.512820512821,4466.153846153847,4276.410256410257,4566.666666666667,4447.6923076923085,4413.846153846154,4392.820512820514,4780.000000000001,4463.076923076924,4311.794871794872,4211.282051282052,4454.871794871796
305.78622,0.4088108,0.5397991,0.33366185,0.8377493,0,0.0,0.0,0.06591861,0.0,0.0,0,0,0.0,0.0,0,0,85.0,0.0,500.0,4599.48717948718,3876.410256410257,4484.615384615385,4408.205128205129,4242.564102564103,4531.282051282052,4421.025641025642,4375.384615384616,4361.538461538462,4720.512820512821,4398.461538461539,4264.102564102564,4131.282051282052,4412.820512820514
306.03644,0.4088108,0.5397991,0.33366185,0.8377493,0,0.0,0.0,0.0,0.0,0.0,0,0,0.0,0.601269,0,0,117.0,0.0,500.0,4591.794871794872,3842.0512820512827,4482.564102564103,4375.8974358974365,4222.564102564103,4503.076923076924,4421.025641025642,4359.48717948718,4350.256410256411,4672.307692307693,4341.538461538462,4220.512820512821,4110.256410256411,4410.769230769231
306.28665,0.40151381,0.53593457,0.3397268,0.83328015,0,0.0,0.0,0.372419,0.0,0.0,0,0,0.0,0.0,0,0,20.0,0.0,0.0,4589.743589743591,3878.461538461539,4486.666666666667,4385.641025641026,4222.564102564103,4478.974358974359,4400.000000000001,4344.615384615385,4336.410256410257,4655.384615384616,4321.538461538462,4206.153846153847,4101.025641025642,4428.717948717949
306.53687,0.40151381,0.53593457,0.3397268,0.83328015,0,0.0,0.0,0.0,0.0,0.0,0,0,0.0,0.074617945,0,0,52.0,0.0,0.0,4585.128205128206,3880.512820512821,4494.358974358975,4374.358974358975,4236.410256410257,4502.564102564103,4415.384615384616,4423.076923076924,4361.538461538462,4657.948717948719,4342.051282051282,4205.641025641026,4189.74358974359,4440.000000000001
306.78708,0.37268335,0.53305656,0.34518474,0.8288881,0,0.0,0.0,0.0,0.0,0.0,0,0,0.0,0.11683132,0,0,84.0,0.0,545.0,4583.076923076924,3916.410256410257,4501.025641025642,4405.641025641026,4234.358974358975,4493.846153846154,4401.538461538462,4418.461538461539,4350.256410256411,4663.076923076924,4358.974358974359,4191.282051282052,4145.128205128206,4417.948717948719
307.0373,0.37268335,0.53305656,0.34518474,0.8288881,0,0.0,0.0,0.1413252,0.0,0.0,0,0,0.0,0.0,0,0,116.0,0.0,545.0,4600.000000000001,3950.7692307692314,4498.461538461539,4427.179487179487,4238.974358974359,4504.102564102564,4405.128205128206,4415.384615384616,4355.384615384616,4706.153846153847,4370.769230769231,4225.641025641026,4207.6923076923085,4466.666666666667
307.2875,0.3519106,0.52568954,0.350096,0.82693934,0,0.0,0.0,0.0,0.0,0.0,0,0,0.0,0.303443,0,0,19.0,0.0,0.0,4610.769230769231,3968.205128205129,4498.461538461539,4450.256410256411,4249.74358974359,4527.6923076923085,4418.461538461539,4427.179487179487,4366.153846153847,4745.128205128206,4413.846153846154,4250.256410256411,4219.48717948718,4470.769230769231
307.53772,0.3519106,0.52568954,0.350096,0.82693934,0,0.0,0.0,0.0,0.0,0.0,0,0,0.0,0.25405908,0,0,51.0,0.0,0.0,4619.48717948718,3999.48717948718,4496.923076923077,4472.820512820514,4266.153846153847,4559.48717948718,4436.923076923077,4413.333333333334,4381.538461538462,4775.384615384616,4445.128205128206,4272.820512820514,4208.205128205129,4454.871794871796
307.78793,0.3420064,0.51772034,0.35451478,0.82513195,0,0.0,0.0,0.0,0.0,0.0,0,0,0.0,0.20573467,0,0,83.0,0.0,543.0,4633.846153846154,4030.7692307692314,4492.307692307693,4496.410256410257,4272.307692307693,4581.538461538462,4447.6923076923085,4424.102564102564,4393.333333333334,4818.974358974359,4461.538461538462,4309.743589743591,4220.512820512821,4482.051282051282
308.03815,0.3420064,0.51772034,0.35451478,0.82513195,0,0.0,0.0,0.0,0.0,0.0,0,0,0.0,0.08950397,0,0,115.0,0.0,543.0,4645.128205128206,4042.0512820512827,4487.6923076923085,4523.076923076924,4282.564102564103,4594.358974358975,4463.589743589744,4396.923076923077,4398.461538461539,4803.589743589744,4436.410256410257,4328.717948717949,4225.128205128206,4509.2307692307695
308.28836,0.32529584,0.50399685,0.35815045,0.82345176,0,0.0,0.0,0.0,0.0,0.0,0,0,0.0,0.027152134,0,0,18.0,0.0,0.0,4658.974358974359,4050.7692307692314,4481.025641025642,4531.282051282052,4284.102564102564,4605.641025641026,4455.8974358974365,4404.102564102564,4408.717948717949,4809.743589743591,4461.538461538462,4343.589743589744,4238.461538461539,4534.358974358975
308.53857,0.32529584,0.50399685,0.35815045,0.82345176,0,0.0,0.0,0.17806794,0.0,0.0,0,0,0.0,0.0,0,0,50.0,0.0,0.0,4671.282051282052,4028.205128205129,4470.769230769231,4518.461538461539,4268.717948717949,4590.256410256411,4452.307692307693,4394.358974358975,4401.538461538462,4782.051282051282,4420.000000000001,4346.153846153847,4212.820512820514,4508.205128205129
308.78882,0.39695895,0.49423712,0.35800698,0.82292783,0,0.0,0.0,0.14434275,0.0,0.0,0,0,0.0,0.0,0,0,82.0,0.0,579.0,4670.769230769231,4004.615384615385,4468.717948717949,4504.615384615385,4252.820512820514,4584.102564102564,4462.051282051282,4405.128205128206,4410.769230769231,4791.794871794872,4427.6923076923085,4342.564102564103,4205.641025641026,4523.589743589744
309.03903,0.39695895,0.49423712,0.35800698,0.82292783,0,0.0,0.0,0.0,0.0,0.0,0,0,0.0,0.32579017,0,0,114.0,0.0,579.0,4671.282051282052,4023.076923076924,4478.461538461539,4525.641025641026,4256.410256410257,4580.000000000001,4445.641025641026,4366.666666666667,4390.256410256411,4759.48717948718,4382.051282051282,4314.358974358975,4178.461538461539,4525.128205128206
309.28925,0.37956458,0.48139676,0.35787597,0.82416636,0,0.0,0.0,0.0,0.0,0.0,0,0,0.0,0.25132608,0,0,17.0,0.0,0.0,4679.48717948718,4021.538461538462,4489.743589743591,4522.564102564103,4258.974358974359,4572.307692307693,4448.205128205129,4367.6923076923085,4388.205128205129,4741.538461538462,4379.48717948718,4298.461538461539,4172.820512820514,4498.461538461539
309.53946,0.37956458,0.48139676,0.35787597,0.82416636,0,0.0,0.0,0.0,0.0,0.0,0,0,0.0,0.08417973,0,0,49.0,0.0,0.0,4674.358974358975,3996.410256410257,4501.538461538462,4497.948717948719,4243.589743589744,4563.589743589744,4446.153846153847,4333.333333333334,4391.282051282052,4747.179487179488,4384.615384615385,4290.256410256411,4178.974358974359,4480.512820512821
309.78967,0.38830677,0.4639808,0.35657695,0.8252082,0,0.0,0.0,0.0,0.0,0.0,0,0,0.0,0.009547669,0,0,81.0,0.0,500.0,4686.666666666667,3978.461538461539,4498.461538461539,4478.974358974359,4236.410256410257,4548.205128205129,4422.051282051282,4313.333333333334,4380.512820512821,4716.410256410257,4321.025641025642,4263.076923076924,4157.435897435898,4470.256410256411
310.0399,0.38830677,0.4639808,0.35657695,0.8252082,0,0.0,0.0,0.0,0.0,0.0,0,0,0.0,0.21112481,0,0,113.0,0.0,500.0,4688.717948717949,3969.2307692307695,4503.589743589744,4461.538461538462,4213.846153846154,4533.333333333334,4420.000000000001,4328.717948717949,4380.000000000001,4737.435897435898,4338.974358974359,4255.384615384616,4181.538461538462,4489.2307692307695
310.2901,0.32069376,0.44285926,0.3535299,0.8253969,0,0.0,0.0,0.0,0.0,0.0,0,0,0.0,0.002789015,0,0,16.0,0.0,0.0,4681.025641025642,3961.538461538462,4514.358974358975,4430.256410256411,4206.666666666667,4518.974358974359,4409.743589743591,4400.512820512821,4376.923076923077,4744.615384615386,4308.717948717949,4234.358974358975,4164.615384615385,4475.8974358974365
310.5403,0.32069376,0.44285926,0.3535299,0.8253969,0,0.0,0.0,0.0,0.0,0.0,0,0,0.0,0.042197224,0,0,48.0,0.0,0.0,4694.358974358975,3967.692307692308,4514.358974358975,4437.435897435898,4210.769230769231,4517.435897435898,4410.769230769231,4371.282051282052,4362.051282051282,4694.871794871796,4295.384615384616,4226.153846153847,4145.128205128206,4485.128205128206
310.79053,0.2430819,0.4237498,0.34744942,0.8255002,0,0.0,0.0,0.0,0.0,0.0,0,0,0.0,0.32022908,0,0,80.0,0.0,548.0,4700.000000000001,3954.358974358975,4518.461538461539,4437.435897435898,4218.461538461539,4519.48717948718,4401.538461538462,4349.743589743591,4363.589743589744,4685.128205128206,4281.025641025642,4206.666666666667,4131.794871794872,4480.512820512821
311.04074,0.2430819,0.4237498,0.34744942,0.8255002,0,0.0,0.0,0.0,0.0,0.0,0,0,0.0,0.6712314,0,0,112.0,0.0,548.0,4686.153846153847,3950.2564102564106,4512.307692307693,4432.820512820514,4212.307692307693,4512.820512820514,4400.512820512821,4351.794871794872,4377.948717948719,4720.512820512821,4283.589743589744,4200.000000000001,4151.794871794872,4494.871794871796
311.29095,0.20203812,0.4024947,0.3407366,0.8252616,0,0.0,0.0,0.0,0.0,0.0,0,0,0.0,1.0,0,0,15.0,0.0,542.0,4680.512820512821,3951.2820512820517,4512.820512820514,4424.615384615385,4216.923076923077,4514.871794871796,4401.025641025642,4337.948717948719,4377.948717948719,4731.282051282052,4273.333333333334,4198.461538461539,4162.051282051282,4532.820512820514
311.54117,0.20203812,0.4024947,0.3407366,0.8252616,0,0.0,0.0,0.0,0.0,0.0,0,0,0.0,0.26775318,0,0,47.0,0.0,0.0,4686.153846153847,3940.5128205128212,4494.358974358975,4386.153846153847,4210.769230769231,4507.6923076923085,4396.410256410257,4347.179487179487,4382.051282051282,4746.666666666667,4256.923076923077,4188.205128205129,4165.641025641026,4530.769230769231
311.79138,0.21327612,0.38588274,0.33563226,0.82498336,0,0.0,0.0,0.0,0.0,0.0,0,0,0.0,0.25308964,0,0,79.0,0.0,542.0,4680.000000000001,3956.9230769230776,4504.102564102564,4424.102564102564,4211.794871794872,4516.410256410257,4405.641025641026,4339.48717948718,4376.923076923077,4720.000000000001,4228.717948717949,4180.000000000001,4146.153846153847,4543.076923076924
312.0416,0.21327612,0.38588274,0.33563226,0.82498336,0,0.0,0.0,0.0,0.0,0.0,0,0,0.0,0.2610221,0,0,111.0,0.0,542.0,4673.333333333334,3988.205128205129,4516.410256410257,4441.025641025642,4212.307692307693,4507.6923076923085,4403.076923076924,4322.564102564103,4369.743589743591,4718.974358974359,4202.564102564103,4155.8974358974365,4129.74358974359,4561.025641025642
312.2918,0.14671347,0.36422023,0.33180106,0.82466996,0,0.0,0.0,0.006326852,0.0,0.0,0,0,0.0,0.0,0,0,14.0,0.0,581.0,4656.410256410257,3967.692307692308,4517.948717948719,4422.051282051282,4206.666666666667,4501.025641025642,4402.051282051282,4255.384615384616,4359.48717948718,4696.923076923077,4180.512820512821,4126.666666666667,4100.000000000001,4545.128205128206
312.54202,0.14671347,0.36422023,0.33180106,0.82466996,0,0.0,0.0,0.0,0.0,0.021088954,0,0,0.0,0.0,0,0,46.0,0.0,0.0,4665.128205128206,3966.666666666667,4534.358974358975,4433.333333333334,4212.307692307693,4511.794871794872,4407.6923076923085,4267.179487179487,4362.564102564103,4688.205128205129,4222.051282051282,4148.717948717949,4131.794871794872,4576.923076923077
312.79224,0.16777346,0.34599373,0.3275896,0.8255923,0,0.0,0.0,0.0,0.0,0.0,0,0,0.0,0.23461613,0,0,78.0,0.0,581.0,4666.666666666667,3942.564102564103,4535.384615384616,4411.794871794872,4202.564102564103,4498.974358974359,4401.538461538462,4256.410256410257,4359.48717948718,4675.384615384616,4209.2307692307695,4140.000000000001,4118.461538461539,4556.410256410257
313.04245,0.16777346,0.34599373,0.3275896,0.8255923,0,0.0,0.0,0.0,0.0,0.0,0,0,0.0,0.36584103,0,0,110.0,0.0,581.0,4674.358974358975,3919.48717948718,4531.794871794872,4396.923076923077,4196.410256410257,4498.974358974359,4399.48717948718,4258.461538461539,4352.820512820514,4685.641025641026,4194.871794871796,4133.846153846154,4122.051282051282,4550.256410256411
313.29266,0.20664324,0.33576468,0.3237997,0.8263512,0,0.0,0.0,0.0,0.0,0.0,0,0,0.0,0.21369858,0,0,13.0,0.0,501.0,4678.461538461539,3944.615384615385,4520.000000000001,4406.153846153847,4194.358974358975,4476.410256410257,4393.846153846154,4278.461538461539,4354.358974358975,4691.794871794872,4247.6923076923085,4150.256410256411,4144.102564102564,4549.2307692307695
313.54288,0.20664324,0.33576468,0.3237997,0.8263512,0,0.0,0.0,0.0,0.0,0.0,0,0,0.0,0.12286223,0,0,45.0,0.0,0.0,4681.025641025642,3982.0512820512827,4524.615384615385,4414.871794871796,4206.153846153847,4492.820512820514,4397.435897435898,4294.358974358975,4358.461538461539,4715.384615384616,4266.153846153847,4163.076923076924,4150.256410256411,4547.6923076923085
313.7931,0.19673729,0.33161554,0.32044542,0.82696384,0,0.0,0.0,0.0,0.0,0.0,0,0,0.0,1.0,0,0,77.0,0.0,501.0,4676.410256410257,3999.48717948718,4529.743589743591,4439.48717948718,4215.384615384616,4508.205128205129,4408.205128205129,4305.128205128206,4355.384615384616,4665.641025641026,4304.615384615385,4181.025641025642,4126.153846153847,4538.974358974359
314.04333,0.19673729,0.33161554,0.32044542,0.82696384,0,0.0,0.0,0.0,0.0,0.0,0,0,0.0,0.30298248,0,0,109.0,0.0,501.0,4648.717948717949,3952.307692307693,4531.282051282052,4413.333333333334,4215.384615384616,4512.820512820514,4422.564102564103,4328.205128205129,4355.8974358974365,4684.102564102564,4342.564102564103,4178.461538461539,4130.256410256411,4506.153846153847
314.29355,0.15782754,0.3286492,0.31727004,0.8281408,0,0.0,0.0,0.0,0.0,0.0,0,0,0.0,0.56838834,0,0,12.0,0.0,547.0,4632.307692307693,3905.6410256410263,4520.000000000001,4395.8974358974365,4207.6923076923085,4512.820512820514,4409.743589743591,4327.179487179487,4348.717948717949,4685.128205128206,4353.333333333334,4196.410256410257,4170.256410256411,4531.794871794872
314.54376,0.15782754,0.3286492,0.31727004,0.8281408,0,0.0,0.0,0.0,0.0,0.0,0,0,0.0,0.34940818,0,0,44.0,0.0,0.0,4628.205128205129,3923.076923076924,4512.307692307693,4410.256410256411,4215.384615384616,4506.153846153847,4413.333333333334,4345.641025641026,4346.666666666667,4677.435897435898,4347.179487179487,4179.48717948718,4155.8974358974365,4497.435897435898
314.79398,0.13394004,0.31503984,0.31429046,0.8318526,0,0.0,0.0,0.0,0.0,0.0,0,0,0.0,0.52301323,0,0,76.0,0.0,550.0,4624.615384615385,3917.9487179487182,4498.461538461539,4409.743589743591,4203.589743589744,4484.615384615385,4407.6923076923085,4352.820512820514,4352.820512820514,4700.512820512821,4393.333333333334,4182.051282051282,4152.820512820514,4484.102564102564
315.0442,0.13394004,0.31503984,0.31429046,0.8318526,0,0.0,0.0,0.0,0.0,0.0,0,0,0.0,0.63962495,0,0,108.0,0.0,550.0,4632.307692307693,3904.615384615385,4496.410256410257,4403.589743589744,4210.256410256411,4494.358974358975,4405.128205128206,4346.153846153847,4341.025641025642,4681.025641025642,4385.128205128206,4173.846153846154,4138.461538461539,4468.205128205129
315.2944,0.085062794,0.29809216,0.3104968,0.83955353,0,0.0,0.0,0.0,0.0,0.0,0,0,0.0,1.0,0,0,11.0,0.0,540.0,4632.307692307693,3913.333333333334,4498.974358974359,4402.564102564103,4203.076923076924,4484.102564102564,4410.769230769231,4341.538461538462,4347.179487179487,4660.512820512821,4383.076923076924,4166.666666666667,4093.333333333334,4496.923076923077
315.54462,0.085062794,0.29809216,0.3104968,0.83955353,0,0.0,0.0,0.0,0.0,0.0,0,0,0.0,0.75403243,0,0,43.0,0.0,0.0,4628.717948717949,3917.435897435898,4500.512820512821,4431.282051282052,4240.000000000001,4510.256410256411,4430.256410256411,4334.358974358975,4351.282051282052,4714.358974358975,4408.717948717949,4163.076923076924,4156.410256410257,4497.435897435898
315.79483,0.10562075,0.28531972,0.3050311,0.85457325,0,0.0,0.0,0.0,0.0,0.0,0,0,0.0,1.0,0,0,75.0,0.0,540.0,4616.923076923077,3944.615384615385,4503.076923076924,4445.128205128206,4247.179487179487,4514.871794871796,4449.2307692307695,4352.820512820514,4360.000000000001,4760.000000000001,4416.923076923077,4178.974358974359,4196.923076923077,4492.307692307693
315.79483,0.10562075,0.28531972,0.3050311,0.85457325,0,0.0,0.0,0.0,0.0,0.0,0,0,0.0,1.0,0,0,75.0,0.0,540.0,4616.923076923077,3944.615384615385,4503.076923076924,4445.128205128206,4247.179487179487,4514.871794871796,4449.2307692307695,4352.820512820514,4360.000000000001,4760.000000000001,4416.923076923077,4178.974358974359,4196.923076923077,4492.307692307693
316.29526,0.12648219,0.2811594,0.29986805,0.86802346,0,0.0,0.0,0.0,0.0,0.0,0,0,0.0,1.0,0,0,10.0,0.0,575.0,4602.564102564103,3981.0256410256416,4509.2307692307695,4442.564102564103,4211.794871794872,4519.48717948718,4454.358974358975,4327.179487179487,4365.641025641026,4748.717948717949,4426.666666666667,4152.307692307693,4186.666666666667,4469.743589743591
316.54547,0.12648219,0.2811594,0.29986805,0.86802346,0,0.0,0.0,0.36910498,0.0,0.0,0,0,0.0,0.0,0,0,42.0,0.0,0.0,4569.743589743591,3869.7435897435903,4498.974358974359,4352.307692307693,4188.205128205129,4464.615384615385,4433.846153846154,4289.2307692307695,4330.256410256411,4663.076923076924,4348.205128205129,4105.641025641026,4094.358974358975,4433.846153846154
316.7957,0.19409136,0.2734034,0.29522398,0.8809215,0,0.0,0.0,0.0,0.0,0.0,0,0,0.0,0.2874457,0,0,74.0,0.0,577.0,4544.102564102564,3814.358974358975,4497.435897435898,4308.717948717949,4187.179487179487,4414.358974358975,4438.974358974359,4297.948717948719,4316.410256410257,4620.000000000001,4323.076923076924,4062.564102564103,4090.7692307692314,4438.461538461539
317.0459,0.19409136,0.2734034,0.29522398,0.8809215,0,0.0,0.0,0.0,0.0,0.0,0,0,0.0,0.22048852,0,0,106.0,0.0,577.0,4504.102564102564,3773.8461538461543,4488.205128205129,4268.717948717949,4192.307692307693,4396.923076923077,4432.307692307693,4279.48717948718,4288.717948717949,4593.846153846154,4270.769230769231,4020.5128205128212,4075.3846153846157,4417.435897435898
317.2961,0.2952622,0.25925335,0.29216805,0.8922998,0,0.0,0.0,0.4006469,0.0,0.0,0,0,0.0,0.0,0,0,9.0,0.0,511.0,4520.000000000001,3808.205128205129,4493.846153846154,4299.48717948718,4234.358974358975,4427.6923076923085,4435.384615384616,4321.538461538462,4311.282051282052,4642.564102564103,4312.820512820514,4031.7948717948725,4129.2307692307695,4460.512820512821
317.54633,0.2952622,0.25925335,0.29216805,0.8922998,0,0.0,0.0,0.0,0.0,0.0,0,0,0.0,0.120446034,0,0,41.0,0.0,0.0,4518.461538461539,3831.7948717948725,4491.794871794872,4321.538461538462,4235.384615384616,4445.641025641026,4427.6923076923085,4321.538461538462,4328.205128205129,4668.205128205129,4338.461538461539,4046.1538461538466,4161.025641025642,4437.948717948719
317.79654,0.26383284,0.2554072,0.2900812,0.9013055,0,0.0,0.0,0.0,0.0,0.0,0,0,0.0,0.3599241,0,0,73.0,0.0,511.0,4518.461538461539,3849.2307692307695,4487.179487179488,4364.102564102564,4248.717948717949,4464.615384615385,4419.48717948718,4353.846153846154,4355.8974358974365,4698.974358974359,4356.923076923077,4046.1538461538466,4196.923076923077,4441.025641025642
318.04675,0.26383284,0.2554072,0.2900812,0.9013055,0,0.0,0.0,0.0,0.0,0.0,0,0,0.0,0.7931663,0,0,105.0,0.0,503.0,4508.717948717949,3850.2564102564106,4491.282051282052,4357.948717948719,4265.641025641026,4492.307692307693,4434.871794871796,4375.8974358974365,4368.717948717949,4718.974358974359,4406.666666666667,4031.7948717948725,4203.076923076924,4430.256410256411
318.29697,0.28669313,0.24953295,0.28821903,0.9062694,0,0.0,0.0,0.0,0.0,0.0,0,0,0.0,0.5383013,0,0,8.0,0.0,408.0,4518.974358974359,3904.1025641025644,4498.974358974359,4403.076923076924,4273.846153846154,4508.205128205129,4430.769230769231,4368.717948717949,4376.923076923077,4723.076923076924,4378.461538461539,4102.051282051282,4187.6923076923085,4435.8974358974365
318.54718,0.28669313,0.24953295,0.28821903,0.9062694,0,0.0,0.0,0.078150965,0.0,0.0,0,0,0.0,0.0,0,0,40.0,0.0,0.0,4529.743589743591,3935.8974358974365,4498.974358974359,4449.2307692307695,4278.974358974359,4526.153846153847,4434.871794871796,4367.179487179487,4377.435897435898,4742.564102564103,4405.128205128206,4188.205128205129,4200.512820512821,4442.564102564103
318.7974,0.264198,0.2561772,0.2865466,0.9040307,0,0.0,0.0,0.0,0.0,0.0,0,0,0.0,0.0,0,0,72.0,0.0,408.0,4538.974358974359,3945.1282051282055,4497.435897435898,4458.461538461539,4276.923076923077,4548.717948717949,4443.076923076924,4369.2307692307695,4381.538461538462,4764.102564102564,4411.794871794872,4240.000000000001,4191.794871794872,4445.128205128206
318.7974,0.264198,0.2561772,0.2865466,0.9040307,0,0.0,0.0,0.0,0.0,0.0,0,0,0.0,0.0,0,0,72.0,0.0,408.0,4538.974358974359,3945.1282051282055,4497.435897435898,4458.461538461539,4276.923076923077,4548.717948717949,4443.076923076924,4369.2307692307695,4381.538461538462,4764.102564102564,4411.794871794872,4240.000000000001,4191.794871794872,4445.128205128206
319.29782,0.26841235,0.28542605,0.28715074,0.8952982,0,0.0,0.0,0.0,0.0,0.0,0,0,0.0,0.6680983,0,0,7.0,0.0,477.0,4582.564102564103,3965.6410256410263,4505.128205128206,4481.538461538462,4273.333333333334,4562.564102564103,4452.820512820514,4381.538461538462,4389.2307692307695,4772.307692307693,4416.410256410257,4333.846153846154,4207.6923076923085,4466.666666666667
319.54807,0.26841235,0.28542605,0.28715074,0.8952982,0,0.0,0.0,0.0,0.0,0.0,0,0,0.0,1.0,0,0,39.0,0.0,0.0,4600.000000000001,3973.333333333334,4510.769230769231,4480.000000000001,4252.820512820514,4565.128205128206,4441.538461538462,4370.256410256411,4402.051282051282,4746.153846153847,4396.410256410257,4346.666666666667,4197.435897435898,4463.589743589744
319.79828,0.26999572,0.30409437,0.28802678,0.88422465,0,0.0,0.0,0.0,0.0,0.0,0,0,0.0,0.85846376,0,0,71.0,0.0,477.0,4604.615384615385,3972.820512820513,4511.794871794872,4471.794871794872,4237.435897435898,4560.000000000001,4434.871794871796,4362.564102564103,4396.923076923077,4728.717948717949,4373.333333333334,4331.282051282052,4183.589743589744,4440.512820512821
320.0485,0.26999572,0.30409437,0.28802678,0.88422465,0,0.0,0.0,0.18412024,0.0,0.0,0,0,0.0,0.0,0,0,103.0,0.0,540.0,4623.076923076924,3886.1538461538466,4512.307692307693,4517.435897435898,4247.6923076923085,4546.666666666667,4429.743589743591,4366.666666666667,4396.923076923077,4737.435897435898,4365.641025641026,4297.435897435898,4012.307692307693,4388.205128205129
320.2987,0.2694972,0.3159138,0.2867098,0.8742552,0,0.0,0.0,0.19795378,0.0,0.0,0,0,0.0,0.0,0,0,6.0,0.0,571.0,4629.2307692307695,3926.1538461538466,4501.538461538462,4508.205128205129,4254.358974358975,4548.717948717949,4434.871794871796,4357.435897435898,4393.846153846154,4744.102564102564,4338.461538461539,4301.025641025642,4044.1025641025644,4408.717948717949
