timestamp,excitement,frustration,meditation,engagementBoredom,blink,clench,laugh,smile,eyebrow,furrowBrow,lookLeft,lookRight,smirkLeft,smirkRight,winkLeft,winkRight,eeg0,eeg1,eeg2,eeg3,eeg4,eeg5,eeg6,eeg7,eeg8,eeg9,eeg10,eeg11,eeg12,eeg13,eeg14,eeg15,eeg16
147.15771,0.35164824,1.0,0.36807242,0.7352638,1,0.0,0.0,0.0,0.0,0.0,0,0,0.20793411,0.0,0,0,123.0,0.0,501.0,4682.051282051282,4115.384615384616,4547.6923076923085,4576.410256410257,4254.871794871796,4539.48717948718,4416.410256410257,4390.256410256411,4395.8974358974365,4759.48717948718,4407.6923076923085,4331.282051282052,4288.717948717949,4705.128205128206
147.37665,0.35164824,1.0,0.36807242,0.7352638,0,0.0,0.0,0.08249489,0.0,0.0,0,0,0.0,0.0,0,0,22.0,0.0,0.0,4649.743589743591,4002.0512820512827,4535.384615384616,4488.717948717949,4288.717948717949,4633.333333333334,4501.025641025642,4447.6923076923085,4432.820512820514,4815.8974358974365,4366.666666666667,4309.743589743591,4214.358974358975,4502.564102564103
147.65814,0.24169548,1.0,0.3645985,0.7169613,0,0.0,0.0,0.05555003,0.0,0.0,0,0,0.0,0.0,0,0,58.0,0.0,0.0,4658.974358974359,3989.7435897435903,4531.282051282052,4480.512820512821,4294.358974358975,4616.410256410257,4495.384615384616,4443.589743589744,4420.512820512821,4801.538461538462,4354.871794871796,4291.794871794872,4219.48717948718,4516.410256410257
147.87708,0.24169548,1.0,0.3645985,0.7169613,0,0.0,0.0,0.088167824,0.0,0.0,0,0,0.0,0.0,0,1,86.0,0.0,543.0,4646.666666666667,3947.1794871794878,4527.179487179488,4447.6923076923085,4291.282051282052,4611.282051282052,4492.307692307693,4449.743589743591,4424.102564102564,4805.641025641026,4343.076923076924,4298.974358974359,4205.128205128206,4483.076923076924
148.1273,0.17886953,1.0,0.36144283,0.7003016,0,0.0,0.0,0.07771207,0.0,0.0,0,0,0.0,0.0,0,0,118.0,0.0,543.0,4632.307692307693,3918.461538461539,4526.153846153847,4424.102564102564,4257.948717948719,4600.000000000001,4466.666666666667,4431.282051282052,4400.000000000001,4772.307692307693,4315.8974358974365,4254.358974358975,4175.8974358974365,4467.179487179487
148.37752,0.17886953,1.0,0.36144283,0.7003016,0,0.0,0.0,0.0,0.0,0.0,0,0,0.3941318,0.0,0,0,21.0,0.0,0.0,4635.8974358974365,3943.589743589744,4528.205128205129,4445.128205128206,4284.615384615385,4600.000000000001,4488.717948717949,4471.282051282052,4426.666666666667,4793.333333333334,4359.48717948718,4276.923076923077,4204.615384615385,4468.717948717949
148.62773,0.12826075,1.0,0.35859993,0.68532425,0,0.0,0.0,0.0,0.0,0.0,0,0,0.26358455,0.0,0,0,53.0,0.0,0.0,4742.564102564103,4091.2820512820517,4493.333333333334,4709.743589743591,4281.025641025642,4556.923076923077,4461.025641025642,4448.205128205129,4415.384615384616,4748.205128205129,4389.743589743591,4348.205128205129,4257.435897435898,4741.025641025642
148.87794,0.12826075,1.0,0.35859993,0.68532425,0,0.0,0.0,0.0,0.0,0.0,0,0,0.27532113,0.0,1,0,85.0,0.0,489.0,4720.512820512821,4100.000000000001,4379.48717948718,4649.743589743591,4258.461538461539,4564.102564102564,4441.538461538462,4427.179487179487,4397.948717948719,4764.615384615386,4314.871794871796,4223.076923076924,4229.2307692307695,4518.461538461539
149.15944,0.0674606,1.0,0.35603884,0.6718549,1,0.0,0.0,0.0,0.0,0.0,0,0,0.20414203,0.0,0,0,121.0,0.0,489.0,4718.461538461539,3832.820512820513,4380.512820512821,4498.461538461539,4197.948717948719,4542.051282051282,4420.000000000001,4420.000000000001,4385.128205128206,4700.512820512821,4314.358974358975,4230.256410256411,4212.307692307693,4569.743589743591
149.37837,0.0674606,1.0,0.35603884,0.6718549,0,0.0,0.0,0.0,0.0,0.0,0,0,0.2989952,0.0,0,0,20.0,0.0,0.0,4682.564102564103,3703.076923076924,4365.641025641026,4364.615384615385,4251.282051282052,4586.153846153847,4463.076923076924,4458.461538461539,4415.8974358974365,4765.641025641026,4317.435897435898,4222.051282051282,4170.256410256411,4449.2307692307695
149.62859,0.024755055,1.0,0.35373452,0.65974796,0,0.0,0.0,0.0,0.0,0.0,0,0,0.3926061,0.0,0,0,52.0,0.0,0.0,4677.948717948719,3739.48717948718,4390.256410256411,4375.384615384616,4266.666666666667,4590.256410256411,4484.615384615385,4465.641025641026,4430.769230769231,4770.769230769231,4347.179487179487,4252.820512820514,4184.102564102564,4460.512820512821
149.8788,0.024755055,1.0,0.35373452,0.65974796,0,0.0,0.0,0.0,0.0,0.03981019,0,0,0.0,0.0,0,0,84.0,0.0,518.0,4678.461538461539,3765.6410256410263,4397.435897435898,4378.974358974359,4247.6923076923085,4565.641025641026,4472.307692307693,4441.025641025642,4404.102564102564,4751.282051282052,4335.8974358974365,4249.74358974359,4167.179487179487,4454.871794871796
150.12901,0.013418129,1.0,0.35166416,0.6488727,0,0.0,0.0,0.0,0.0,0.13618854,0,0,0.0,0.0,0,0,116.0,0.0,518.0,4654.358974358975,3740.0000000000005,4403.076923076924,4340.000000000001,4238.974358974359,4559.48717948718,4478.461538461539,4443.076923076924,4402.051282051282,4729.743589743591,4313.846153846154,4233.846153846154,4168.717948717949,4462.051282051282
150.37923,0.013418129,1.0,0.35166416,0.6488727,0,0.0,0.0,0.0,0.0,0.02970868,0,0,0.0,0.0,0,0,19.0,0.0,0.0,4631.794871794872,3721.538461538462,4408.205128205129,4297.948717948719,4234.871794871796,4507.179487179488,4488.717948717949,4425.641025641026,4352.307692307693,4666.666666666667,4274.871794871796,4170.769230769231,4148.717948717949,4458.974358974359
150.62944,0.120733015,1.0,0.35377762,0.64293677,0,0.0,0.0,0.0,0.0,0.0,0,0,1.0,0.0,0,0,51.0,0.0,0.0,4610.256410256411,3693.333333333334,4407.179487179487,4249.2307692307695,4256.923076923077,4445.128205128206,4477.435897435898,4415.8974358974365,4313.846153846154,4632.307692307693,4276.410256410257,4157.435897435898,4125.641025641026,4450.256410256411
150.87967,0.120733015,1.0,0.35377762,0.64293677,0,0.0,0.0,0.0,0.0,0.0,0,0,0.44797936,0.0,0,0,83.0,0.0,500.0,4599.48717948718,3749.2307692307695,4424.615384615385,4275.8974358974365,4298.974358974359,4441.025641025642,4442.564102564103,4412.820512820514,4294.871794871796,4665.128205128206,4352.307692307693,4132.820512820514,4168.717948717949,4473.846153846154
151.12988,0.22857635,1.0,0.3556777,0.645962,0,0.0,0.0,0.0,0.0,0.0,0,0,0.028554792,0.0,0,1,115.0,0.0,500.0,4597.948717948719,3814.358974358975,4428.205128205129,4321.025641025642,4312.820512820514,4438.974358974359,4388.205128205129,4364.615384615385,4275.8974358974365,4663.589743589744,4377.948717948719,4123.589743589744,4168.205128205129,4507.6923076923085
151.3801,0.22857635,1.0,0.3556777,0.645962,0,0.0,0.0,0.0,0.0,0.0,0,0,0.12008515,0.0,0,1,18.0,0.0,0.0,4583.589743589744,3854.358974358975,4434.358974358975,4353.846153846154,4327.6923076923085,4473.846153846154,4397.948717948719,4381.538461538462,4303.076923076924,4716.410256410257,4409.2307692307695,4133.846153846154,4172.820512820514,4477.948717948719
151.63031,0.32768634,1.0,0.35738552,0.6526915,0,0.0,0.0,0.0,0.0,0.0,0,0,0.2609916,0.0,0,0,50.0,0.0,0.0,4570.769230769231,3905.6410256410263,4452.307692307693,4391.282051282052,4337.435897435898,4494.358974358975,4401.025641025642,4366.153846153847,4314.358974358975,4751.794871794872,4442.051282051282,4147.6923076923085,4212.307692307693,4491.282051282052
151.88052,0.32768634,1.0,0.35738552,0.6526915,0,0.0,0.0,0.2111714,0.0,0.0,0,0,0.0,0.0,0,0,82.0,0.0,544.0,4565.128205128206,3926.666666666667,4451.794871794872,4422.564102564103,4350.256410256411,4535.384615384616,4414.871794871796,4392.820512820514,4338.974358974359,4780.000000000001,4448.205128205129,4167.6923076923085,4237.948717948719,4511.282051282052
152.13074,0.4836745,1.0,0.36651027,0.65873176,0,0.0,0.0,0.0,0.0,0.0,0,0,0.3572263,0.0,0,0,114.0,0.0,544.0,4572.307692307693,3976.9230769230776,4466.153846153847,4471.794871794872,4354.871794871796,4560.000000000001,4427.6923076923085,4396.410256410257,4357.948717948719,4804.615384615386,4461.025641025642,4216.923076923077,4278.461538461539,4532.307692307693
152.38095,0.4836745,1.0,0.36651027,0.65873176,0,0.0,0.0,0.17513393,0.0,0.0,0,0,0.0,0.0,0,0,17.0,0.0,0.0,4587.179487179488,4028.717948717949,4485.641025641026,4524.615384615385,4364.102564102564,4614.871794871796,4459.48717948718,4443.076923076924,4403.589743589744,4840.000000000001,4507.179487179488,4289.2307692307695,4309.2307692307695,4601.025641025642
152.63116,0.5849405,1.0,0.37046063,0.66274416,0,0.0,0.0,0.0,0.0,0.2694062,0,0,0.0,0.0,0,0,49.0,0.0,0.0,4630.769230769231,4112.307692307693,4518.461538461539,4603.589743589744,4344.102564102564,4608.717948717949,4462.051282051282,4453.333333333334,4420.512820512821,4841.538461538462,4547.6923076923085,4365.128205128206,4372.820512820514,4709.743589743591
152.88138,0.5849405,1.0,0.37046063,0.66274416,0,0.0,0.0,0.0,0.0,0.1713923,0,0,0.0,0.0,0,0,81.0,0.0,489.0,4611.282051282052,4051.2820512820517,4510.769230769231,4555.384615384616,4343.589743589744,4644.615384615385,4489.743589743591,4456.923076923077,4424.102564102564,4830.256410256411,4500.512820512821,4350.769230769231,4314.358974358975,4609.743589743591
153.13159,0.63057363,1.0,0.3690539,0.6637698,0,0.0,0.0,0.0,0.0,0.14123835,0,0,0.0,0.0,0,0,113.0,0.0,489.0,4613.333333333334,4034.358974358975,4507.6923076923085,4534.871794871796,4328.717948717949,4636.410256410257,4489.2307692307695,4458.461538461539,4423.589743589744,4826.666666666667,4474.358974358975,4336.923076923077,4291.794871794872,4587.179487179488
153.38182,0.63057363,1.0,0.3690539,0.6637698,0,0.0,0.0,0.0,0.0,0.09849083,0,0,0.0,0.0,0,0,16.0,0.0,0.0,4616.410256410257,4032.820512820513,4518.461538461539,4537.948717948719,4310.769230769231,4632.820512820514,4472.307692307693,4443.589743589744,4420.512820512821,4821.025641025642,4456.410256410257,4336.923076923077,4284.102564102564,4602.051282051282
153.63203,0.5890494,1.0,0.3660661,0.6646808,0,0.0,0.0,0.0,0.0,0.4705191,0,0,0.0,0.0,0,0,48.0,0.0,0.0,4632.307692307693,4057.9487179487182,4527.6923076923085,4553.846153846154,4302.564102564103,4622.051282051282,4475.8974358974365,4461.025641025642,4423.076923076924,4798.461538461539,4428.205128205129,4343.076923076924,4263.589743589744,4622.051282051282
153.88225,0.5890494,1.0,0.3660661,0.6646808,0,0.0,0.0,0.0,0.0,0.11459987,0,0,0.0,0.0,0,0,80.0,0.0,515.0,4633.333333333334,4032.820512820513,4531.794871794872,4537.948717948719,4287.6923076923085,4623.076923076924,4488.717948717949,4458.461538461539,4424.102564102564,4795.8974358974365,4427.179487179487,4341.538461538462,4257.948717948719,4598.461538461539
154.13246,0.5608501,1.0,0.36444905,0.6647276,0,0.0,0.0,0.0,0.0,0.12413722,0,0,0.0,0.0,0,0,112.0,0.0,515.0,4631.794871794872,4127.179487179487,4531.794871794872,4601.025641025642,4248.717948717949,4586.153846153847,4466.666666666667,4451.282051282052,4432.820512820514,4792.307692307693,4388.205128205129,4289.74358974359,4233.333333333334,4592.307692307693
154.38268,0.5608501,1.0,0.36444905,0.6647276,0,0.0,0.0,0.0,0.0,0.08374922,0,0,0.0,0.0,0,0,15.0,0.0,500.0,4646.153846153847,4092.820512820513,4531.794871794872,4579.48717948718,4269.2307692307695,4584.102564102564,4464.102564102564,4441.538461538462,4419.48717948718,4776.410256410257,4374.871794871796,4301.538461538462,4240.512820512821,4603.589743589744
154.63289,0.51925236,0.98950946,0.3629907,0.66475886,0,0.0,0.0,0.0,0.0,0.08970384,0,0,0.0,0.0,0,0,47.0,0.0,0.0,4635.384615384616,4033.8461538461543,4527.6923076923085,4533.846153846154,4263.076923076924,4587.179487179488,4468.717948717949,4443.076923076924,4425.641025641026,4772.820512820514,4375.384615384616,4315.384615384616,4227.6923076923085,4594.871794871796
154.8831,0.51925236,0.98950946,0.3629907,0.66475886,0,0.0,0.0,0.0,0.0,0.10055446,0,0,0.0,0.0,0,0,79.0,0.0,500.0,4646.666666666667,4032.820512820513,4528.717948717949,4526.666666666667,4268.717948717949,4586.666666666667,4474.358974358975,4458.974358974359,4427.179487179487,4783.076923076924,4370.769230769231,4338.461538461539,4234.358974358975,4598.461538461539
155.13332,0.460664,0.93906784,0.3590765,0.6660356,0,0.0,0.0,0.0,0.0,0.10262121,0,0,0.0,0.0,0,0,111.0,0.0,500.0,4635.384615384616,4002.0512820512827,4527.6923076923085,4505.128205128206,4262.564102564103,4582.564102564103,4476.923076923077,4441.025641025642,4414.871794871796,4760.512820512821,4360.512820512821,4329.743589743591,4218.461538461539,4562.564102564103
155.38353,0.460664,0.93906784,0.3590765,0.6660356,0,0.0,0.0,0.0,0.0,0.21611215,0,0,0.0,0.0,0,0,14.0,0.0,544.0,4647.6923076923085,4005.6410256410263,4531.794871794872,4505.128205128206,4278.461538461539,4588.205128205129,4474.871794871796,4443.076923076924,4417.435897435898,4771.794871794872,4357.435897435898,4331.282051282052,4222.564102564103,4560.512820512821
155.63374,0.49107155,0.8797281,0.35410273,0.66582435,0,0.0,0.0,0.0,0.0,0.06840997,0,0,0.0,0.0,0,0,46.0,0.0,0.0,4635.8974358974365,3972.820512820513,4530.769230769231,4483.076923076924,4270.769230769231,4585.641025641026,4481.025641025642,4457.948717948719,4413.846153846154,4766.666666666667,4326.153846153847,4323.589743589744,4207.179487179487,4562.051282051282
155.88396,0.49107155,0.8797281,0.35410273,0.66582435,0,0.0,0.0,0.0,0.0,0.0,0,0,0.23421985,0.0,0,0,78.0,0.0,544.0,4634.871794871796,3960.0000000000005,4532.307692307693,4462.564102564103,4272.307692307693,4590.769230769231,4479.48717948718,4460.512820512821,4413.846153846154,4782.564102564103,4343.076923076924,4328.205128205129,4205.128205128206,4569.743589743591
156.13419,0.44805622,0.8258313,0.34857118,0.6669714,0,0.0,0.0,0.0,0.0,0.0,0,0,0.2808599,0.0,0,0,110.0,0.0,544.0,4633.846153846154,3942.564102564103,4530.769230769231,4455.384615384616,4262.564102564103,4572.820512820514,4475.8974358974365,4455.8974358974365,4409.743589743591,4766.666666666667,4344.102564102564,4310.769230769231,4202.564102564103,4569.743589743591
156.3844,0.44805622,0.8258313,0.34857118,0.6669714,0,0.0,0.0,0.0,0.0,0.0,0,0,0.3359172,0.0,0,0,13.0,0.0,489.0,4634.358974358975,3941.0256410256416,4531.794871794872,4451.794871794872,4266.666666666667,4583.589743589744,4483.076923076924,4453.846153846154,4409.743589743591,4768.205128205129,4345.641025641026,4303.076923076924,4217.435897435898,4583.076923076924
156.63461,0.46807835,0.7764239,0.34259304,0.66922265,0,0.0,0.0,0.0,0.0,0.0,0,0,0.2539422,0.0,0,0,45.0,0.0,0.0,4629.743589743591,3921.538461538462,4528.717948717949,4437.948717948719,4271.282051282052,4587.6923076923085,4484.615384615385,4472.820512820514,4416.410256410257,4767.179487179488,4330.769230769231,4283.589743589744,4212.820512820514,4571.282051282052
156.88483,0.46807835,0.7764239,0.34259304,0.66922265,0,0.0,0.0,0.0,0.0,0.0,0,0,0.38905677,0.0,0,0,77.0,0.0,489.0,4631.282051282052,3932.820512820513,4529.743589743591,4441.538461538462,4270.769230769231,4578.974358974359,4474.358974358975,4458.974358974359,4409.743589743591,4765.641025641026,4341.025641025642,4277.948717948719,4221.538461538462,4560.512820512821
157.13504,0.40086558,0.71711165,0.33684433,0.67375046,0,0.0,0.0,0.0,0.0,0.0,0,0,0.5736395,0.0,0,0,109.0,0.0,489.0,4629.743589743591,3938.461538461539,4526.666666666667,4441.538461538462,4278.461538461539,4586.153846153847,4475.384615384616,4456.923076923077,4413.333333333334,4766.153846153847,4354.871794871796,4276.410256410257,4216.410256410257,4561.025641025642
157.38525,0.40086558,0.71711165,0.33684433,0.67375046,0,0.0,0.0,0.0,0.0,0.0,0,0,0.36546844,0.0,0,0,12.0,0.0,517.0,4632.820512820514,3962.0512820512827,4534.358974358975,4462.051282051282,4280.512820512821,4582.051282051282,4478.974358974359,4448.205128205129,4407.6923076923085,4762.051282051282,4357.435897435898,4282.051282051282,4220.512820512821,4569.743589743591
157.63547,0.38797975,0.664429,0.3316701,0.6783189,0,0.0,0.0,0.0,0.0,0.0,0,0,0.35385856,0.0,0,0,44.0,0.0,0.0,4627.179487179488,3942.0512820512827,4530.256410256411,4441.538461538462,4247.179487179487,4567.6923076923085,4475.8974358974365,4440.000000000001,4409.743589743591,4738.461538461539,4339.48717948718,4285.128205128206,4189.2307692307695,4536.923076923077
157.88568,0.38797975,0.664429,0.3316701,0.6783189,0,0.0,0.0,0.0,0.0,0.0,0,0,0.47577855,0.0,0,0,76.0,0.0,517.0,4616.923076923077,3894.8717948717954,4521.538461538462,4403.076923076924,4232.820512820514,4556.923076923077,4469.743589743591,4423.589743589744,4380.512820512821,4690.256410256411,4327.6923076923085,4280.512820512821,4192.820512820514,4524.615384615385
158.1359,0.50112695,0.618813,0.32673573,0.6834663,0,0.0,0.0,0.0,0.0,0.0,0,0,0.3887187,0.0,0,0,108.0,0.0,517.0,4600.512820512821,3833.8461538461543,4509.2307692307695,4345.128205128206,4246.666666666667,4494.358974358975,4458.974358974359,4389.2307692307695,4320.000000000001,4630.256410256411,4289.74358974359,4257.435897435898,4112.820512820514,4490.769230769231
158.38611,0.50112695,0.618813,0.32673573,0.6834663,0,0.0,0.0,0.0,0.0,0.08203629,0,0,0.0,0.0,0,0,11.0,0.0,500.0,4604.615384615385,3861.0256410256416,4514.871794871796,4366.153846153847,4299.48717948718,4475.384615384616,4457.948717948719,4412.307692307693,4317.948717948719,4666.153846153847,4311.794871794872,4269.2307692307695,4110.769230769231,4537.435897435898
158.63632,0.51335806,0.6048946,0.32073727,0.6890843,0,0.0,0.0,0.0,0.0,0.11852581,0,0,0.0,0.0,0,1,43.0,0.0,0.0,4608.205128205129,3880.512820512821,4514.871794871796,4376.410256410257,4304.615384615385,4457.948717948719,4412.820512820514,4398.461538461539,4316.923076923077,4695.8974358974365,4345.128205128206,4264.102564102564,4116.410256410257,4562.051282051282
158.88655,0.51335806,0.6048946,0.32073727,0.6890843,0,0.0,0.0,0.0,0.0,0.31054977,0,0,0.0,0.0,0,1,75.0,0.0,500.0,4580.512820512821,3886.1538461538466,4508.717948717949,4371.794871794872,4311.282051282052,4493.333333333334,4418.974358974359,4411.794871794872,4335.384615384616,4718.461538461539,4352.820512820514,4246.153846153847,4134.871794871796,4527.6923076923085
159.13676,0.54472125,0.6088141,0.31533986,0.69411427,0,0.0,0.0,0.0,0.0,0.10229913,0,0,0.0,0.0,0,0,107.0,0.0,500.0,4593.333333333334,3944.1025641025644,4515.384615384616,4416.923076923077,4323.589743589744,4494.358974358975,4395.384615384616,4409.2307692307695,4348.717948717949,4745.128205128206,4359.48717948718,4244.615384615385,4170.256410256411,4555.384615384616
159.38698,0.54472125,0.6088141,0.31533986,0.69411427,0,0.0,0.0,0.0,0.0,0.038117684,0,0,0.0,0.0,0,0,10.0,0.0,544.0,4583.589743589744,3966.1538461538466,4512.307692307693,4437.948717948719,4292.820512820514,4498.974358974359,4395.8974358974365,4415.384615384616,4367.179487179487,4752.307692307693,4374.358974358975,4242.051282051282,4195.8974358974365,4557.948717948719
159.63719,0.47745627,0.6524272,0.31048396,0.6975271,1,0.0,0.0,0.0,0.0,0.07567857,0,0,0.0,0.0,0,0,42.0,0.0,0.0,4633.333333333334,4204.615384615385,4545.128205128206,4643.589743589744,4280.512820512821,4500.512820512821,4379.48717948718,4379.48717948718,4378.974358974359,4750.769230769231,4406.153846153847,4254.871794871796,4282.051282051282,4689.743589743591
159.8874,0.47745627,0.6524272,0.31048396,0.6975271,0,0.0,0.0,0.0,0.0,0.06890657,0,0,0.0,0.0,0,0,74.0,0.0,544.0,4640.512820512821,4209.2307692307695,4540.512820512821,4602.051282051282,4285.641025641026,4533.333333333334,4391.282051282052,4382.564102564103,4403.076923076924,4761.025641025642,4412.307692307693,4250.769230769231,4287.179487179487,4714.358974358975
160.13762,0.6098521,0.7299232,0.31042635,0.70057404,0,0.0,0.0,0.0,0.0,0.0,0,0,0.5005151,0.0,0,0,106.0,0.0,544.0,4608.205128205129,4223.076923076924,4536.410256410257,4617.435897435898,4323.589743589744,4588.205128205129,4443.076923076924,4423.589743589744,4428.717948717949,4835.8974358974365,4426.666666666667,4246.666666666667,4294.358974358975,4606.153846153847
160.38783,0.6098521,0.7299232,0.31042635,0.70057404,0,0.0,0.0,0.0,0.0,0.0,0,0,0.18407565,0.0,0,0,9.0,0.0,476.0,4584.615384615385,4098.974358974359,4514.358974358975,4524.102564102564,4298.974358974359,4629.743589743591,4475.8974358974365,4473.333333333334,4472.820512820514,4847.6923076923085,4386.153846153847,4217.948717948719,4298.461538461539,4492.307692307693
160.63805,0.56412655,0.7630749,0.3147342,0.7032916,0,0.0,0.15899228,0.0,0.0,0.0,0,0,0.0,0.0,0,0,41.0,0.0,0.0,4588.205128205129,4048.205128205129,4511.282051282052,4501.538461538462,4291.282051282052,4617.435897435898,4457.435897435898,4432.307692307693,4445.128205128206,4791.794871794872,4355.8974358974365,4214.358974358975,4272.820512820514,4488.205128205129
160.88826,0.56412655,0.7630749,0.3147342,0.7032916,0,0.0,0.0,0.07627218,0.0,0.0,0,0,0.0,0.0,0,0,73.0,0.0,476.0,4601.025641025642,3968.205128205129,4500.000000000001,4456.923076923077,4266.153846153847,4608.205128205129,4470.769230769231,4431.794871794872,4443.076923076924,4783.589743589744,4372.820512820514,4246.666666666667,4233.333333333334,4490.769230769231
161.13847,0.6217607,0.8126413,0.3200718,0.70079255,0,0.0,0.0,0.07928038,0.0,0.0,0,0,0.0,0.0,0,0,105.0,0.0,489.0,4597.948717948719,3868.717948717949,4487.179487179488,4386.153846153847,4222.564102564103,4585.641025641026,4460.000000000001,4413.846153846154,4420.512820512821,4745.641025641026,4341.538461538462,4246.666666666667,4223.076923076924,4476.410256410257
161.38869,0.6217607,0.8126413,0.3200718,0.70079255,0,0.0,0.0,0.0,0.0,0.20303914,0,0,0.0,0.0,0,0,8.0,0.0,395.0,4598.974358974359,3849.2307692307695,4490.256410256411,4385.641025641026,4222.051282051282,4567.179487179488,4473.333333333334,4412.307692307693,4404.615384615385,4727.179487179488,4350.769230769231,4261.025641025642,4213.846153846154,4480.000000000001
161.63892,0.5594421,0.85740846,0.3254852,0.698684,1,0.0,0.0,0.0,0.0,0.3925256,0,0,0.0,0.0,0,0,40.0,0.0,0.0,4636.923076923077,3939.48717948718,4515.384615384616,4453.846153846154,4215.8974358974365,4538.974358974359,4450.769230769231,4388.717948717949,4379.48717948718,4705.128205128206,4338.461538461539,4273.846153846154,4251.794871794872,4643.589743589744
161.88913,0.5594421,0.85740846,0.3254852,0.698684,0,0.0,0.0,0.0,0.0,0.14995728,0,0,0.0,0.0,0,0,72.0,0.0,395.0,4601.538461538462,3838.461538461539,4500.000000000001,4358.461538461539,4257.435897435898,4565.641025641026,4488.717948717949,4452.307692307693,4409.2307692307695,4742.051282051282,4354.358974358975,4236.923076923077,4203.589743589744,4524.102564102564
162.13934,0.4933689,0.9141265,0.33019516,0.7030956,0,0.0,0.0,0.09274872,0.0,0.0,0,0,0.0,0.0,0,0,104.0,0.0,520.0,4588.205128205129,3875.3846153846157,4504.615384615385,4384.102564102564,4268.717948717949,4566.666666666667,4477.948717948719,4440.512820512821,4395.384615384616,4724.615384615386,4321.025641025642,4211.794871794872,4177.435897435898,4525.641025641026
162.38956,0.4933689,0.9141265,0.33019516,0.7030956,0,0.0,0.0,0.0,0.0,0.0,0,0,0.0,0.13683702,0,0,7.0,0.0,461.0,4584.102564102564,3908.717948717949,4513.846153846154,4403.076923076924,4286.153846153847,4569.743589743591,4461.025641025642,4423.076923076924,4392.820512820514,4726.666666666667,4341.025641025642,4215.384615384616,4194.358974358975,4537.435897435898
162.63977,0.47014323,0.9297767,0.33443448,0.7078534,0,0.0,0.0,0.0,0.0,0.0,0,0,0.0,0.056380343,0,0,39.0,0.0,0.0,4585.128205128206,3916.9230769230776,4518.974358974359,4413.846153846154,4293.846153846154,4585.128205128206,4464.102564102564,4427.179487179487,4401.538461538462,4760.000000000001,4355.8974358974365,4232.820512820514,4231.794871794872,4547.179487179488
162.88998,0.47014323,0.9297767,0.33443448,0.7078534,0,0.0,0.0,0.0,0.0,0.0,0,0,0.0,0.62444866,0,0,71.0,0.0,461.0,4595.384615384616,3939.48717948718,4533.846153846154,4393.333333333334,4293.846153846154,4599.48717948718,4481.538461538462,4435.384615384616,4420.000000000001,4794.358974358975,4389.743589743591,4267.179487179487,4261.538461538462,4567.6923076923085
163.1402,0.4831567,0.9140838,0.3369484,0.7172394,0,0.0,0.0,0.0,0.0,0.0,0,0,0.0,0.19543776,0,0,103.0,0.0,499.0,4601.025641025642,3958.9743589743593,4543.589743589744,4415.384615384616,4281.025641025642,4594.871794871796,4476.923076923077,4448.205128205129,4431.794871794872,4799.48717948718,4417.435897435898,4300.000000000001,4267.6923076923085,4590.256410256411
163.39041,0.4831567,0.9140838,0.3369484,0.7172394,0,0.0,0.0,0.0,0.0,0.0,0,0,0.0,0.38470936,0,0,6.0,0.0,539.0,4599.48717948718,3970.7692307692314,4542.564102564103,4439.48717948718,4277.435897435898,4601.538461538462,4474.358974358975,4432.820512820514,4427.6923076923085,4778.974358974359,4376.410256410257,4292.820512820514,4238.461538461539,4567.6923076923085
163.64062,0.44737425,0.8515001,0.3391532,0.7280082,0,0.0,0.0,0.0,0.0,0.0,0,0,0.0,0.33365282,0,0,38.0,0.0,0.0,4600.000000000001,3964.615384615385,4542.051282051282,4464.102564102564,4266.153846153847,4591.794871794872,4475.384615384616,4445.128205128206,4438.974358974359,4785.641025641026,4386.153846153847,4310.256410256411,4249.74358974359,4575.384615384616
163.89084,0.44737425,0.8515001,0.3391532,0.7280082,0,0.0,0.0,0.17532104,0.0,0.0,0,0,0.0,0.0,0,0,70.0,0.0,539.0,4609.2307692307695,3987.692307692308,4541.538461538462,4489.743589743591,4263.076923076924,4597.948717948719,4476.410256410257,4443.589743589744,4443.076923076924,4797.435897435898,4390.256410256411,4317.435897435898,4237.435897435898,4585.641025641026
164.14105,0.3631848,0.8020929,0.33880192,0.7376404,0,0.0,0.0,0.18349305,0.0,0.0,0,0,0.0,0.0,0,0,102.0,0.0,541.0,4605.641025641026,3977.435897435898,4533.846153846154,4479.48717948718,4262.564102564103,4601.538461538462,4495.384615384616,4451.794871794872,4449.2307692307695,4775.384615384616,4365.128205128206,4316.923076923077,4215.384615384616,4545.128205128206
164.39128,0.3631848,0.8020929,0.33880192,0.7376404,0,0.0,0.0,0.0,0.0,0.13169856,0,0,0.0,0.0,0,0,5.0,0.0,565.0,4648.717948717949,4129.74358974359,4558.974358974359,4600.000000000001,4247.6923076923085,4569.743589743591,4457.435897435898,4396.923076923077,4407.179487179487,4717.435897435898,4361.025641025642,4323.589743589744,4243.076923076924,4663.589743589744
164.6415,0.29691976,0.8048845,0.33674994,0.7462469,0,0.0,0.0,0.0,0.0,0.13254966,0,0,0.0,0.0,0,1,37.0,0.0,0.0,4606.153846153847,4007.692307692308,4529.2307692307695,4488.205128205129,4249.2307692307695,4568.717948717949,4472.307692307693,4432.307692307693,4435.384615384616,4768.717948717949,4340.000000000001,4283.589743589744,4199.48717948718,4567.6923076923085
164.89171,0.29691976,0.8048845,0.33674994,0.7462469,0,0.0,0.0,0.0,0.0,0.09081984,0,0,0.0,0.0,0,0,69.0,0.0,565.0,4601.025641025642,3961.0256410256416,4517.948717948719,4452.307692307693,4247.6923076923085,4570.256410256411,4472.820512820514,4424.615384615385,4423.076923076924,4744.102564102564,4338.461538461539,4277.435897435898,4183.589743589744,4535.384615384616
165.14192,0.2414037,0.79973894,0.33630395,0.7470069,0,0.0,0.0,0.0,0.0,0.24657895,0,0,0.0,0.0,0,0,101.0,0.0,489.0,4600.512820512821,3955.3846153846157,4511.282051282052,4451.282051282052,4247.6923076923085,4570.256410256411,4469.743589743591,4438.974358974359,4433.846153846154,4777.948717948719,4360.000000000001,4288.717948717949,4207.6923076923085,4528.717948717949
165.39214,0.2414037,0.79973894,0.33630395,0.7470069,0,0.0,0.0,0.29423442,0.0,0.0,0,0,0.0,0.0,0,0,4.0,0.0,569.0,4590.769230769231,3925.1282051282055,4501.538461538462,4425.641025641026,4248.205128205129,4568.717948717949,4458.461538461539,4422.051282051282,4423.589743589744,4751.794871794872,4317.435897435898,4261.025641025642,4186.666666666667,4508.205128205129
165.64235,0.29523185,0.78933245,0.33590227,0.74628145,0,0.0,0.0,0.0,0.0,0.0,0,0,0.0,0.2724568,0,0,36.0,0.0,0.0,4602.051282051282,3928.205128205129,4502.564102564103,4431.282051282052,4244.102564102564,4552.820512820514,4458.974358974359,4446.666666666667,4432.307692307693,4772.820512820514,4368.717948717949,4285.641025641026,4200.000000000001,4533.846153846154
165.89256,0.29523185,0.78933245,0.33590227,0.74628145,0,0.0,0.0,0.0,0.0,0.0,0,0,0.0,0.5219584,0,0,68.0,0.0,569.0,4603.076923076924,3931.2820512820517,4507.179487179488,4444.102564102564,4248.205128205129,4571.282051282052,4473.846153846154,4444.615384615385,4428.717948717949,4753.846153846154,4355.8974358974365,4282.564102564103,4203.589743589744,4555.384615384616
166.14278,0.28238475,0.76629645,0.3341367,0.74559975,0,0.0,0.0,0.0,0.0,0.0,0,0,0.0,0.53468233,0,0,100.0,0.0,518.0,4602.564102564103,3934.358974358975,4503.076923076924,4437.948717948719,4263.589743589744,4572.307692307693,4459.48717948718,4426.153846153847,4415.384615384616,4740.512820512821,4342.564102564103,4258.461538461539,4183.076923076924,4527.179487179488
166.39299,0.28238475,0.76629645,0.3341367,0.74559975,0,0.0,0.0,0.0,0.0,0.05890538,0,0,0.0,0.0,0,0,3.0,0.0,552.0,4602.564102564103,3936.410256410257,4506.153846153847,4442.051282051282,4265.128205128206,4574.871794871796,4458.461538461539,4411.282051282052,4407.6923076923085,4722.564102564103,4323.589743589744,4249.2307692307695,4169.2307692307695,4521.538461538462
166.6432,0.3199409,0.7098273,0.33254763,0.74495745,0,0.0,0.0,0.0,0.0,0.0,0,0,0.0,0.2840622,0,0,35.0,0.0,0.0,4602.051282051282,3938.9743589743593,4501.538461538462,4437.948717948719,4257.435897435898,4554.871794871796,4450.256410256411,4420.512820512821,4413.333333333334,4731.794871794872,4321.025641025642,4245.128205128206,4165.641025641026,4500.512820512821
166.89342,0.3199409,0.7098273,0.33254763,0.74495745,0,0.0,0.0,0.0,0.0,0.0,0,0,0.0,0.159003,0,0,67.0,0.0,552.0,4614.358974358975,3962.564102564103,4513.846153846154,4462.564102564103,4278.461538461539,4563.589743589744,4450.256410256411,4416.410256410257,4413.333333333334,4739.48717948718,4346.153846153847,4268.205128205129,4185.128205128206,4520.512820512821
167.14365,0.31182036,0.67438585,0.32775864,0.74876446,0,0.0,0.0,0.0,0.0,0.0,0,0,0.0,0.35246265,0,0,99.0,0.0,499.0,4606.153846153847,3963.589743589744,4513.846153846154,4456.923076923077,4271.282051282052,4557.948717948719,4442.051282051282,4407.6923076923085,4396.923076923077,4731.794871794872,4325.128205128206,4249.74358974359,4183.076923076924,4505.128205128206
167.39386,0.31182036,0.67438585,0.32775864,0.74876446,0,0.0,0.0,0.0,0.0,0.11521889,0,0,0.0,0.0,0,0,2.0,0.0,224.0,4601.025641025642,3959.48717948718,4509.2307692307695,4453.846153846154,4270.769230769231,4564.615384615385,4443.076923076924,4408.205128205129,4402.051282051282,4740.512820512821,4320.000000000001,4240.000000000001,4163.076923076924,4510.769230769231
167.64407,0.3014646,0.65999365,0.32126796,0.7547776,0,0.0,0.0,0.0,0.0,0.15273674,0,0,0.0,0.0,0,0,34.0,0.0,0.0,4603.076923076924,4006.666666666667,4514.358974358975,4478.974358974359,4261.025641025642,4548.717948717949,4451.282051282052,4408.205128205129,4402.564102564103,4764.102564102564,4334.871794871796,4258.461538461539,4189.2307692307695,4540.512820512821
167.89429,0.3014646,0.65999365,0.32126796,0.7547776,0,0.0,0.0,0.0,0.0,0.18248565,0,0,0.0,0.0,0,0,66.0,0.0,224.0,4632.307692307693,4103.589743589744,4529.743589743591,4554.871794871796,4261.025641025642,4554.871794871796,4430.256410256411,4386.666666666667,4396.410256410257,4751.794871794872,4367.6923076923085,4268.205128205129,4247.6923076923085,4665.128205128206
168.1445,0.24504964,0.6612707,0.31530356,0.76013017,0,0.0,0.0,0.0,0.0,0.17348456,0,0,0.0,0.0,0,1,98.0,0.0,542.0,4599.48717948718,3990.7692307692314,4509.743589743591,4454.358974358975,4246.666666666667,4557.435897435898,4453.846153846154,4431.794871794872,4410.256410256411,4756.410256410257,4328.717948717949,4232.307692307693,4181.538461538462,4525.128205128206
168.39471,0.24504964,0.6612707,0.31530356,0.76013017,1,0.0,0.0,0.0,0.0,0.18560694,0,0,0.0,0.0,0,0,1.0,0.0,512.0,4618.461538461539,4009.7435897435903,4514.358974358975,4480.512820512821,4248.205128205129,4557.435897435898,4443.589743589744,4404.102564102564,4401.538461538462,4756.923076923077,4340.512820512821,4254.358974358975,4193.846153846154,4562.564102564103
168.64493,0.17120454,0.7183792,0.3099373,0.76713884,0,0.0,0.0,0.0,0.0,0.20038836,0,0,0.0,0.0,0,0,33.0,0.0,0.0,4592.820512820514,3909.2307692307695,4488.717948717949,4387.6923076923085,4248.717948717949,4573.846153846154,4458.974358974359,4421.025641025642,4399.48717948718,4744.102564102564,4291.282051282052,4227.6923076923085,4153.333333333334,4483.076923076924
168.89514,0.17120454,0.7183792,0.3099373,0.76713884,0,0.0,0.0,0.0,0.0,0.057994384,0,0,0.0,0.0,0,0,65.0,0.0,512.0,4609.2307692307695,3929.2307692307695,4491.282051282052,4407.179487179487,4251.282051282052,4571.282051282052,4463.589743589744,4430.256410256411,4412.820512820514,4770.769230769231,4345.641025641026,4266.153846153847,4206.666666666667,4529.743589743591
169.14536,0.15592594,0.7566949,0.30510995,0.774168,0,0.0,0.0,0.0,0.0,0.0,0,0,0.40524438,0.0,0,0,97.0,0.0,489.0,4602.051282051282,3925.1282051282055,4493.333333333334,4397.435897435898,4248.717948717949,4572.820512820514,4461.538461538462,4423.589743589744,4408.205128205129,4758.974358974359,4343.076923076924,4245.641025641026,4185.641025641026,4506.666666666667
169.39557,0.15592594,0.7566949,0.30510995,0.774168,0,0.0,0.0,0.0,0.0,0.0,0,0,0.0,0.5354601,0,0,0.0,0.0,280.0,4601.025641025642,3935.3846153846157,4493.846153846154,4409.743589743591,4249.2307692307695,4567.179487179488,4458.461538461539,4424.102564102564,4400.000000000001,4737.948717948719,4327.179487179487,4224.615384615385,4183.076923076924,4510.769230769231
169.6458,0.09736027,0.77901626,0.30450013,0.7804169,0,0.0,0.0,0.0,0.0,0.0,0,0,0.0,0.38888186,0,0,32.0,0.0,0.0,4600.512820512821,3927.692307692308,4495.384615384616,4405.641025641026,4245.641025641026,4568.205128205129,4465.128205128206,4426.666666666667,4405.128205128206,4740.000000000001,4337.948717948719,4222.051282051282,4192.820512820514,4501.025641025642
169.89601,0.09736027,0.77901626,0.30450013,0.7804169,0,0.0,0.0,0.0,0.0,0.11371,0,0,0.0,0.0,0,0,64.0,0.0,280.0,4611.282051282052,3943.076923076924,4496.410256410257,4414.871794871796,4257.435897435898,4558.461538461539,4458.461538461539,4428.717948717949,4402.564102564103,4751.794871794872,4342.051282051282,4232.307692307693,4202.564102564103,4507.6923076923085
170.14622,0.06771199,0.7694893,0.30653912,0.7853167,0,0.0,0.0,0.0,0.0,0.0,0,0,0.0,0.18979476,0,0,96.0,0.0,519.0,4604.615384615385,3945.1282051282055,4502.564102564103,4412.307692307693,4256.410256410257,4552.820512820514,4458.461538461539,4427.6923076923085,4396.410256410257,4750.256410256411,4333.333333333334,4217.435897435898,4213.333333333334,4507.6923076923085
170.39644,0.06771199,0.7694893,0.30653912,0.7853167,0,0.0,0.0,0.0,0.0,0.0,0,0,0.0,0.2555761,0,0,128.0,0.0,519.0,4611.794871794872,3941.538461538462,4502.564102564103,4421.025641025642,4263.589743589744,4555.384615384616,4458.974358974359,4428.205128205129,4392.307692307693,4745.128205128206,4359.48717948718,4232.820512820514,4217.948717948719,4535.384615384616
170.64665,0.072013,0.72625476,0.30837664,0.7883279,0,0.0,0.0,0.0,0.0,0.18155983,0,0,0.0,0.0,0,0,30.0,0.0,0.0,4617.948717948719,3952.820512820513,4513.333333333334,4438.461538461539,4269.74358974359,4573.333333333334,4474.871794871796,4430.256410256411,4389.2307692307695,4747.6923076923085,4364.102564102564,4245.641025641026,4229.74358974359,4555.384615384616
170.89687,0.072013,0.72625476,0.30837664,0.7883279,0,0.0,0.0,0.0,0.0,0.046033837,0,0,0.0,0.0,0,0,63.0,0.0,0.0,4616.410256410257,3956.9230769230776,4512.820512820514,4437.435897435898,4264.615384615385,4558.461538461539,4460.000000000001,4426.666666666667,4394.871794871796,4751.282051282052,4342.051282051282,4243.076923076924,4213.333333333334,4552.820512820514
171.14708,0.04497935,0.6732259,0.31003267,0.7909719,0,0.0,0.0,0.0,0.0,0.0,0,0,0.08543109,0.0,0,0,86.0,0.0,542.0,4624.615384615385,3982.0512820512827,4513.333333333334,4461.025641025642,4281.538461538462,4572.820512820514,4465.641025641026,4422.051282051282,4401.538461538462,4765.641025641026,4377.435897435898,4255.8974358974365,4231.282051282052,4561.538461538462
171.3973,0.04497935,0.6732259,0.31003267,0.7909719,0,0.0,0.0,0.0773607,0.0,0.0,0,0,0.0,0.0,0,0,127.0,0.0,499.0,4636.923076923077,4022.564102564103,4520.000000000001,4501.025641025642,4306.153846153847,4593.333333333334,4492.307692307693,4434.358974358975,4414.358974358975,4780.000000000001,4397.948717948719,4293.846153846154,4246.666666666667,4570.769230769231
171.6475,0.08723452,0.63074875,0.30763626,0.79328585,0,0.0,0.0,0.0,0.0,0.34330383,0,0,0.0,0.0,0,0,30.0,0.0,0.0,4633.333333333334,3995.3846153846157,4516.923076923077,4485.128205128206,4300.512820512821,4589.2307692307695,4490.256410256411,4434.358974358975,4412.820512820514,4780.512820512821,4374.871794871796,4289.2307692307695,4240.512820512821,4549.743589743591
171.89772,0.08723452,0.63074875,0.30763626,0.79328585,0,0.0,0.0,0.0,0.0,0.24951687,0,0,0.0,0.0,0,0,62.0,0.0,0.0,4633.333333333334,3976.410256410257,4512.820512820514,4467.6923076923085,4285.128205128206,4582.051282051282,4477.948717948719,4429.743589743591,4410.256410256411,4758.461538461539,4387.179487179487,4277.435897435898,4216.923076923077,4518.974358974359
172.14793,0.14690371,0.5882567,0.30156907,0.7953033,0,0.0,0.0,0.0,0.0,0.0,0,0,0.4664267,0.0,0,0,94.0,0.0,542.0,4637.948717948719,3974.358974358975,4510.256410256411,4461.538461538462,4263.589743589744,4570.769230769231,4466.153846153847,4429.743589743591,4417.948717948719,4761.538461538462,4354.871794871796,4280.512820512821,4208.205128205129,4515.8974358974365
172.39816,0.14690371,0.5882567,0.30156907,0.7953033,0,0.0,0.0,0.0,0.0,0.0,0,0,0.30384585,0.0,0,0,126.0,0.0,542.0,4666.153846153847,4038.461538461539,4528.717948717949,4512.820512820514,4254.871794871796,4560.512820512821,4445.128205128206,4412.307692307693,4405.128205128206,4758.461538461539,4400.000000000001,4309.2307692307695,4281.538461538462,4636.410256410257
172.64838,0.09371158,0.5698435,0.2961117,0.7930089,0,0.0,0.0,0.0,0.0,0.18211439,0,0,0.0,0.0,0,1,27.0,0.0,0.0,4632.307692307693,3953.333333333334,4516.410256410257,4444.615384615385,4257.435897435898,4571.282051282052,4474.871794871796,4460.512820512821,4430.769230769231,4772.307692307693,4353.333333333334,4284.615384615385,4210.769230769231,4494.871794871796
172.89859,0.09371158,0.5698435,0.2961117,0.7930089,0,0.0,0.0,0.0,0.0,0.20073062,0,0,0.0,0.0,0,0,61.0,0.0,0.0,4635.8974358974365,3957.435897435898,4522.564102564103,4448.205128205129,4244.102564102564,4563.076923076924,4478.974358974359,4441.538461538462,4405.641025641026,4745.641025641026,4337.435897435898,4277.435897435898,4152.820512820514,4449.2307692307695
173.1488,0.1377919,0.56554997,0.2912037,0.78685504,0,0.0,0.0,0.0,0.0,0.0641705,0,0,0.0,0.0,0,0,92.0,0.0,519.0,4634.358974358975,3918.461538461539,4528.205128205129,4406.153846153847,4249.74358974359,4571.282051282052,4493.333333333334,4449.2307692307695,4392.307692307693,4717.435897435898,4317.948717948719,4263.076923076924,4171.794871794872,4445.641025641026
173.39902,0.1377919,0.56554997,0.2912037,0.78685504,0,0.0,0.0,0.0,0.0,0.038509354,0,0,0.0,0.0,0,0,125.0,0.0,489.0,4618.461538461539,3845.1282051282055,4515.384615384616,4326.153846153847,4233.333333333334,4509.743589743591,4507.6923076923085,4428.205128205129,4336.410256410257,4638.974358974359,4277.948717948719,4216.923076923077,4117.435897435898,4430.769230769231
173.52412,0.1377919,0.56554997,0.2912037,0.78685504,0,0.0,0.0,0.0,0.0,0.02794648,0,0,0.0,0.0,0,0,12.0,0.0,519.0,4604.615384615385,3819.48717948718,4514.358974358975,4295.8974358974365,4230.769230769231,4474.871794871796,4506.153846153847,4405.641025641026,4313.846153846154,4618.461538461539,4274.358974358975,4180.512820512821,4100.512820512821,4408.717948717949
173.89944,0.27734736,0.55899864,0.2870679,0.7802934,0,0.0,0.0,0.0,0.0,0.0,0,0,0.10944153,0.0,0,0,60.0,0.0,0.0,4588.717948717949,3783.589743589744,4516.410256410257,4256.923076923077,4215.8974358974365,4406.666666666667,4426.153846153847,4361.025641025642,4278.461538461539,4620.512820512821,4291.282051282052,4136.410256410257,4090.7692307692314,4413.846153846154
174.02455,0.27734736,0.55899864,0.2870679,0.7802934,0,0.0,0.0,0.0,0.0,0.0,0,0,0.055272344,0.0,0,0,76.0,0.0,519.0,4585.641025641026,3830.2564102564106,4519.48717948718,4282.051282051282,4234.871794871796,4393.333333333334,4403.076923076924,4362.564102564103,4279.48717948718,4628.717948717949,4309.2307692307695,4120.512820512821,4084.1025641025644,4395.8974358974365
174.39987,0.24213566,0.5293687,0.28578037,0.7751243,0,0.0,0.0,0.0,0.0,0.053216,0,0,0.0,0.0,0,1,124.0,0.0,519.0,4568.717948717949,3957.435897435898,4537.948717948719,4380.512820512821,4262.564102564103,4398.974358974359,4354.358974358975,4333.333333333334,4307.179487179487,4700.512820512821,4383.076923076924,4132.307692307693,4197.948717948719,4485.128205128206
174.65009,0.31836367,0.4945427,0.28609723,0.7704538,0,0.0,0.0,0.0,0.0,0.21374553,0,0,0.0,0.0,0,1,26.0,0.0,0.0,4536.410256410257,3953.333333333334,4531.794871794872,4378.461538461539,4282.051282051282,4430.256410256411,4361.025641025642,4358.461538461539,4329.2307692307695,4727.6923076923085,4397.435897435898,4136.923076923077,4198.461538461539,4449.2307692307695
174.9003,0.31836367,0.4945427,0.28609723,0.7704538,0,0.0,0.0,0.0,0.0,0.36144614,0,0,0.0,0.0,0,0,59.0,0.0,0.0,4539.48717948718,3986.1538461538466,4545.128205128206,4426.153846153847,4302.051282051282,4473.846153846154,4370.769230769231,4385.641025641026,4363.076923076924,4770.256410256411,4449.743589743591,4169.2307692307695,4249.74358974359,4478.461538461539
175.0254,0.31836367,0.4945427,0.28609723,0.7704538,0,0.0,0.0,0.0,0.0,0.12157769,0,0,0.0,0.0,0,0,75.0,0.0,501.0,4545.641025641026,4020.5128205128212,4548.205128205129,4452.307692307693,4310.769230769231,4482.051282051282,4366.666666666667,4378.974358974359,4362.051282051282,4781.025641025642,4444.615384615385,4173.333333333334,4258.461538461539,4491.282051282052
175.40074,0.45169643,0.45687547,0.2863965,0.7662309,0,0.0,0.0,0.0,0.0,0.0,0,0,0.5162737,0.0,0,0,123.0,0.0,501.0,4548.205128205129,4080.0000000000005,4574.871794871796,4514.871794871796,4315.384615384616,4545.128205128206,4411.282051282052,4389.2307692307695,4394.358974358975,4764.615384615386,4442.051282051282,4215.384615384616,4243.589743589744,4507.179487179488
175.65096,0.435832,0.43288854,0.28868493,0.7654974,0,0.0,0.0,0.0,0.0,0.0,0,0,1.0,0.0,0,0,26.0,0.0,0.0,4554.871794871796,4098.974358974359,4591.282051282052,4537.435897435898,4322.051282051282,4588.717948717949,4432.307692307693,4408.205128205129,4402.051282051282,4765.641025641026,4414.358974358975,4231.794871794872,4221.025641025642,4495.384615384616
175.90117,0.435832,0.43288854,0.28868493,0.7654974,0,0.0,0.0,0.0,0.0,0.0,0,0,1.0,0.0,0,0,58.0,0.0,0.0,4569.2307692307695,4050.2564102564106,4578.974358974359,4497.435897435898,4285.128205128206,4587.6923076923085,4431.794871794872,4424.615384615385,4426.153846153847,4798.974358974359,4455.8974358974365,4270.769230769231,4304.102564102564,4548.717948717949
176.15138,0.45540127,0.43150023,0.28873184,0.76808846,0,0.0,0.0,0.0,0.0,0.23742564,0,0,0.0,0.0,0,1,90.0,0.0,542.0,4579.48717948718,4048.717948717949,4591.282051282052,4504.615384615385,4287.6923076923085,4615.8974358974365,4447.6923076923085,4425.128205128206,4415.8974358974365,4786.666666666667,4443.589743589744,4296.410256410257,4275.8974358974365,4542.051282051282
176.4016,0.45540127,0.43150023,0.28873184,0.76808846,0,0.0,0.0,0.0,0.0,0.04436378,0,0,0.0,0.0,0,0,122.0,0.0,542.0,4587.179487179488,4052.820512820513,4606.153846153847,4510.769230769231,4281.025641025642,4618.974358974359,4459.48717948718,4438.461538461539,4422.051282051282,4793.846153846154,4453.333333333334,4308.717948717949,4285.128205128206,4541.538461538462
176.65181,0.44225734,0.4312821,0.28877816,0.77036935,0,0.0,0.0,0.0,0.0,0.056266654,0,0,0.0,0.0,0,0,25.0,0.0,0.0,4600.000000000001,4038.9743589743593,4621.025641025642,4504.615384615385,4280.000000000001,4617.435897435898,4461.025641025642,4443.076923076924,4414.871794871796,4778.461538461539,4415.384615384616,4310.256410256411,4263.076923076924,4521.025641025642
176.90202,0.44225734,0.4312821,0.28877816,0.77036935,0,0.0,0.0,0.0,0.0,0.05713182,0,0,0.0,0.0,0,0,57.0,0.0,0.0,4616.923076923077,4076.410256410257,4641.025641025642,4541.025641025642,4291.794871794872,4624.615384615385,4476.410256410257,4475.384615384616,4432.307692307693,4798.461538461539,4419.48717948718,4323.589743589744,4256.410256410257,4536.923076923077
177.15224,0.39363384,0.44744694,0.291234,0.77237135,0,0.0,0.0,0.0,0.0,0.029153218,0,0,0.0,0.0,0,0,89.0,0.0,489.0,4614.871794871796,4052.307692307693,4644.102564102564,4512.820512820514,4280.512820512821,4615.8974358974365,4474.358974358975,4481.025641025642,4414.871794871796,4766.666666666667,4375.8974358974365,4299.48717948718,4203.076923076924,4503.076923076924
177.40245,0.39363384,0.44744694,0.291234,0.77237135,0,0.0,0.0,0.0,0.0,0.0,0,0,0.23152497,0.0,0,0,121.0,0.0,489.0,4613.333333333334,4022.564102564103,4626.153846153847,4493.846153846154,4279.48717948718,4619.48717948718,4476.410256410257,4465.641025641026,4428.717948717949,4760.000000000001,4355.384615384616,4280.512820512821,4182.564102564103,4497.948717948719
177.65266,0.38664538,0.4656239,0.29475498,0.77026033,0,0.0,0.0,0.0,0.0,0.0,0,0,0.1639738,0.0,0,0,24.0,0.0,0.0,4667.179487179488,4170.769230769231,4640.512820512821,4618.461538461539,4269.2307692307695,4581.025641025642,4444.102564102564,4418.974358974359,4401.538461538462,4735.384615384616,4369.743589743591,4315.8974358974365,4244.102564102564,4678.461538461539
177.9029,0.38664538,0.4656239,0.29475498,0.77026033,1,0.0,0.0,0.0,0.0,0.22755198,0,0,0.0,0.0,0,0,56.0,0.0,0.0,4631.794871794872,4054.8717948717954,4602.564102564103,4524.102564102564,4269.2307692307695,4596.410256410257,4458.461538461539,4430.769230769231,4405.128205128206,4744.615384615386,4347.179487179487,4284.102564102564,4197.435897435898,4569.743589743591
178.1531,0.3162446,0.493332,0.2982431,0.76232606,0,0.0,0.0,0.0,0.0,0.09722421,0,0,0.0,0.0,0,0,88.0,0.0,519.0,4633.333333333334,3995.8974358974365,4579.48717948718,4472.820512820514,4263.589743589744,4594.358974358975,4471.282051282052,4462.051282051282,4426.153846153847,4760.000000000001,4332.820512820514,4272.307692307693,4168.717948717949,4538.461538461539
178.40332,0.3162446,0.493332,0.2982431,0.76232606,0,0.0,0.0,0.0,0.0,0.0,0,0,0.20989092,0.0,0,0,120.0,0.0,519.0,4682.051282051282,4074.358974358975,4588.717948717949,4545.128205128206,4257.948717948719,4572.820512820514,4457.948717948719,4460.000000000001,4414.358974358975,4765.641025641026,4361.025641025642,4313.846153846154,4252.307692307693,4676.410256410257
178.65353,0.27041075,0.5326947,0.30174673,0.75196826,0,0.0,0.0,0.0,0.0,0.0,0,0,0.22049847,0.0,0,1,23.0,0.0,0.0,4640.512820512821,3972.820512820513,4558.461538461539,4455.8974358974365,4256.923076923077,4581.538461538462,4474.358974358975,4469.743589743591,4414.871794871796,4745.128205128206,4316.410256410257,4261.538461538462,4165.641025641026,4532.307692307693
178.90375,0.27041075,0.5326947,0.30174673,0.75196826,0,0.0,0.0,0.0,0.0,0.1466532,0,0,0.0,0.0,0,0,55.0,0.0,0.0,4647.6923076923085,3952.820512820513,4549.743589743591,4447.179487179487,4265.128205128206,4591.794871794872,4479.48717948718,4472.307692307693,4413.846153846154,4746.153846153847,4330.769230769231,4264.615384615385,4187.6923076923085,4535.8974358974365
179.15396,0.2345377,0.5671902,0.30535004,0.7370593,0,0.0,0.0,0.0,0.0,0.0,0,0,0.19296506,0.0,0,0,87.0,0.0,499.0,4649.743589743591,3959.48717948718,4533.333333333334,4447.179487179487,4250.769230769231,4581.538461538462,4475.8974358974365,4450.256410256411,4409.2307692307695,4753.333333333334,4344.102564102564,4263.589743589744,4188.717948717949,4534.358974358975
179.40417,0.2345377,0.5671902,0.30535004,0.7370593,0,0.0,0.0,0.0,0.0,0.0,0,0,0.22924596,0.0,0,0,119.0,0.0,499.0,4649.2307692307695,3953.8461538461543,4520.000000000001,4435.384615384616,4232.820512820514,4561.025641025642,4458.461538461539,4437.948717948719,4407.179487179487,4736.410256410257,4322.564102564103,4251.282051282052,4185.641025641026,4517.435897435898
179.65439,0.18322948,0.57481515,0.30859545,0.7236599,0,0.0,0.0,0.0,0.0,0.16115466,0,0,0.0,0.0,0,0,22.0,0.0,0.0,4677.948717948719,4007.1794871794878,4527.6923076923085,4486.153846153847,4247.6923076923085,4554.871794871796,4461.538461538462,4421.538461538462,4407.179487179487,4731.794871794872,4355.384615384616,4278.974358974359,4216.923076923077,4601.025641025642
179.9046,0.18322948,0.57481515,0.30859545,0.7236599,0,0.0,0.0,0.0,0.0,0.0,0,0,0.26296908,0.0,0,0,54.0,0.0,0.0,4652.307692307693,3955.3846153846157,4506.666666666667,4438.974358974359,4235.384615384616,4553.846153846154,4459.48717948718,4428.205128205129,4400.512820512821,4714.358974358975,4314.358974358975,4234.358974358975,4157.948717948719,4506.153846153847
180.15482,0.21372478,0.5937965,0.3107776,0.7116128,0,0.0,0.0,0.0,0.0,0.0,0,0,0.23312688,0.0,0,0,86.0,0.0,542.0,4651.794871794872,3965.6410256410263,4507.179487179488,4445.128205128206,4238.461538461539,4551.794871794872,4457.948717948719,4426.153846153847,4411.794871794872,4730.769230769231,4303.589743589744,4233.333333333334,4161.025641025642,4481.538461538462
180.40503,0.21372478,0.5937965,0.3107776,0.7116128,0,0.0,0.0,0.0,0.0,0.12270364,0,0,0.0,0.0,0,0,118.0,0.0,542.0,4634.358974358975,3956.9230769230776,4505.128205128206,4434.871794871796,4232.307692307693,4547.6923076923085,4453.333333333334,4417.435897435898,4396.923076923077,4703.076923076924,4292.307692307693,4215.384615384616,4142.051282051282,4460.000000000001
180.65526,0.17596182,0.6018349,0.31274354,0.69900495,0,0.0,0.0,0.0,0.0,0.18263456,0,0,0.0,0.0,0,1,21.0,0.0,0.0,4646.153846153847,3990.2564102564106,4519.48717948718,4465.128205128206,4233.846153846154,4553.846153846154,4451.282051282052,4422.051282051282,4412.820512820514,4743.076923076924,4325.128205128206,4247.179487179487,4203.589743589744,4523.589743589744
180.90547,0.17596182,0.6018349,0.31274354,0.69900495,0,0.0,0.0,0.0,0.0,0.1402581,0,0,0.0,0.0,0,1,53.0,0.0,0.0,4640.512820512821,3954.8717948717954,4513.846153846154,4443.589743589744,4233.333333333334,4574.871794871796,4462.564102564103,4430.769230769231,4414.871794871796,4742.564102564103,4337.435897435898,4248.205128205129,4183.076923076924,4510.769230769231
181.15569,0.12545738,0.61034954,0.31300858,0.69176847,0,0.0,0.0,0.0,0.0,0.0,0,0,0.2658784,0.0,0,0,85.0,0.0,489.0,4642.564102564103,3953.8461538461543,4503.589743589744,4444.102564102564,4234.358974358975,4556.410256410257,4461.025641025642,4427.179487179487,4419.48717948718,4747.179487179488,4344.102564102564,4246.153846153847,4195.384615384616,4520.512820512821
181.4059,0.12545738,0.61034954,0.31300858,0.69176847,0,0.0,0.0,0.0,0.0,0.0,0,0,0.31598952,0.0,0,0,117.0,0.0,489.0,4644.102564102564,3945.1282051282055,4497.435897435898,4443.076923076924,4233.846153846154,4564.102564102564,4466.666666666667,4436.410256410257,4420.000000000001,4745.641025641026,4336.923076923077,4244.102564102564,4174.358974358975,4508.717948717949
181.65611,0.16231103,0.61958903,0.31090942,0.68790346,0,0.0,0.0,0.0,0.0,0.0,0,0,0.2977182,0.0,0,0,20.0,0.0,0.0,4647.6923076923085,3934.358974358975,4487.179487179488,4433.846153846154,4232.307692307693,4559.48717948718,4459.48717948718,4421.025641025642,4402.051282051282,4740.512820512821,4332.820512820514,4233.333333333334,4182.564102564103,4486.153846153847
181.90633,0.16231103,0.61958903,0.31090942,0.68790346,0,0.0,0.0,0.0,0.0,0.0,0,0,0.34994185,0.0,0,0,52.0,0.0,0.0,4643.589743589744,3923.589743589744,4478.461538461539,4419.48717948718,4229.74358974359,4559.48717948718,4457.435897435898,4410.769230769231,4392.820512820514,4725.128205128206,4322.051282051282,4226.666666666667,4171.282051282052,4472.820512820514
182.15654,0.17970507,0.60551727,0.30866173,0.6849596,0,0.0,0.0,0.0,0.0,0.0,0,0,0.6455111,0.0,0,0,84.0,0.0,519.0,4653.333333333334,3897.9487179487182,4474.871794871796,4404.102564102564,4221.025641025642,4564.615384615385,4477.948717948719,4445.641025641026,4414.358974358975,4750.256410256411,4352.307692307693,4260.000000000001,4222.051282051282,4511.794871794872
182.40675,0.17970507,0.60551727,0.30866173,0.6849596,0,0.0,0.0,0.0,0.0,0.0,0,0,0.54518956,0.0,0,0,116.0,0.0,519.0,4657.435897435898,3911.7948717948725,4472.820512820514,4414.358974358975,4218.461538461539,4556.923076923077,4475.384615384616,4442.051282051282,4412.820512820514,4765.641025641026,4367.179487179487,4260.512820512821,4227.179487179487,4494.871794871796
182.65697,0.20375206,0.584322,0.3065086,0.6817587,0,0.0,0.0,0.0,0.0,0.2665979,0,0,0.0,0.0,0,0,19.0,0.0,0.0,4652.307692307693,3911.2820512820517,4479.48717948718,4415.8974358974365,4214.871794871796,4554.871794871796,4474.358974358975,4438.974358974359,4402.564102564103,4745.128205128206,4363.589743589744,4267.179487179487,4213.846153846154,4473.846153846154
182.90718,0.20375206,0.584322,0.3065086,0.6817587,0,0.0,0.0,0.0,0.0,0.0,0,0,0.6696571,0.0,0,0,51.0,0.0,0.0,4649.2307692307695,3900.0000000000005,4465.128205128206,4404.102564102564,4217.435897435898,4554.358974358975,4460.000000000001,4432.820512820514,4396.923076923077,4727.6923076923085,4345.128205128206,4246.666666666667,4198.461538461539,4470.256410256411
183.1574,0.17194837,0.5595242,0.3047057,0.67813385,0,0.0,0.0,0.0,0.0,0.0,0,0,0.6543536,0.0,0,0,83.0,0.0,500.0,4670.769230769231,3944.615384615385,4476.923076923077,4443.076923076924,4220.512820512821,4545.128205128206,4471.282051282052,4442.564102564103,4386.153846153847,4715.384615384616,4343.589743589744,4261.025641025642,4225.641025641026,4524.615384615385
183.40762,0.17194837,0.5595242,0.3047057,0.67813385,0,0.0,0.0,0.0,0.0,0.0,0,0,0.56845057,0.0,0,0,115.0,0.0,500.0,4671.794871794872,3960.5128205128212,4483.589743589744,4449.743589743591,4237.948717948719,4536.923076923077,4460.512820512821,4429.2307692307695,4382.564102564103,4702.564102564103,4326.666666666667,4256.923076923077,4202.051282051282,4542.051282051282
183.65784,0.113185,0.5631987,0.30308568,0.6756005,0,0.0,0.0,0.0,0.0,0.0,0,0,0.18094404,0.0,0,0,18.0,0.0,0.0,4655.8974358974365,3959.48717948718,4476.923076923077,4444.615384615385,4258.461538461539,4524.615384615385,4441.538461538462,4392.820512820514,4367.179487179487,4686.666666666667,4316.923076923077,4234.358974358975,4184.102564102564,4521.538461538462
183.90805,0.113185,0.5631987,0.30308568,0.6756005,0,0.0,0.0,0.0,0.0,0.0,0,0,0.81399626,0.0,0,0,50.0,0.0,0.0,4652.307692307693,3982.0512820512827,4484.615384615385,4456.410256410257,4258.461538461539,4522.564102564103,4446.153846153847,4409.743589743591,4381.538461538462,4714.871794871796,4343.076923076924,4238.974358974359,4200.000000000001,4513.333333333334
184.15826,0.11198743,0.576273,0.30181077,0.67459375,0,0.0,0.0,0.0,0.0,0.0,0,0,0.50712276,0.0,0,0,79.0,0.0,500.0,4649.743589743591,3974.8717948717954,4482.051282051282,4458.974358974359,4261.025641025642,4534.871794871796,4443.589743589744,4403.589743589744,4372.820512820514,4727.179487179488,4358.974358974359,4240.512820512821,4210.256410256411,4506.153846153847
184.40848,0.11198743,0.576273,0.30181077,0.67459375,0,0.0,0.0,0.0,0.0,0.105125494,0,0,0.0,0.0,0,0,114.0,0.0,542.0,4651.794871794872,3956.9230769230776,4483.589743589744,4444.615384615385,4243.589743589744,4532.820512820514,4444.615384615385,4417.435897435898,4379.48717948718,4733.846153846154,4383.076923076924,4258.974358974359,4216.923076923077,4517.435897435898
184.65869,0.08990283,0.5730975,0.30211362,0.6729408,0,0.0,0.0,0.0,0.0,0.045402132,0,0,0.0,0.0,0,0,17.0,0.0,0.0,4645.128205128206,3935.3846153846157,4484.102564102564,4434.358974358975,4264.102564102564,4549.743589743591,4447.6923076923085,4430.256410256411,4392.820512820514,4746.666666666667,4379.48717948718,4247.179487179487,4198.974358974359,4508.717948717949
184.9089,0.08990283,0.5730975,0.30211362,0.6729408,0,0.0,0.0,0.0,0.0,0.14536563,0,0,0.0,0.0,0,0,49.0,0.0,0.0,4648.205128205129,3958.461538461539,4486.666666666667,4454.358974358975,4264.615384615385,4553.846153846154,4444.615384615385,4435.384615384616,4397.435897435898,4750.256410256411,4371.794871794872,4248.717948717949,4184.102564102564,4490.256410256411
185.15912,0.06408671,0.5806932,0.30389085,0.6694501,0,0.0,0.0,0.0,0.0,0.119277984,0,0,0.0,0.0,0,0,81.0,0.0,489.0,4641.025641025642,3949.2307692307695,4483.076923076924,4443.589743589744,4258.974358974359,4573.846153846154,4457.948717948719,4431.282051282052,4396.410256410257,4744.615384615386,4362.564102564103,4237.435897435898,4176.410256410257,4501.025641025642
185.40933,0.06408671,0.5806932,0.30389085,0.6694501,0,0.0,0.0,0.0,0.0,0.3201976,0,0,0.0,0.0,0,1,113.0,0.0,489.0,4648.717948717949,3938.461538461539,4487.179487179488,4440.000000000001,4247.6923076923085,4551.282051282052,4445.641025641026,4426.153846153847,4397.435897435898,4745.128205128206,4381.538461538462,4263.589743589744,4198.461538461539,4560.000000000001
185.65955,0.013759574,0.58519244,0.30549294,0.6658969,0,0.0,0.0,0.0,0.0,0.14892597,0,0,0.0,0.0,0,1,16.0,0.0,0.0,4636.923076923077,3910.7692307692314,4485.128205128206,4427.179487179487,4251.794871794872,4571.794871794872,4462.051282051282,4433.333333333334,4406.666666666667,4756.410256410257,4372.820512820514,4251.794871794872,4186.666666666667,4543.589743589744
185.90976,0.013759574,0.58519244,0.30549294,0.6658969,0,0.0,0.0,0.0,0.0,0.076783665,0,0,0.0,0.0,0,0,48.0,0.0,0.0,4633.846153846154,3933.333333333334,4487.179487179488,4427.179487179487,4261.538461538462,4573.846153846154,4455.8974358974365,4419.48717948718,4409.2307692307695,4753.333333333334,4378.461538461539,4253.846153846154,4190.769230769231,4550.256410256411
186.15999,0.0,0.6082736,0.3073751,0.6641313,0,0.0,0.0,0.0,0.0,0.043329287,0,0,0.0,0.0,0,0,80.0,0.0,519.0,4638.974358974359,3932.820512820513,4505.128205128206,4434.871794871796,4250.256410256411,4574.358974358975,4456.923076923077,4414.871794871796,4402.051282051282,4752.307692307693,4369.743589743591,4264.102564102564,4186.666666666667,4557.948717948719
186.4102,0.0,0.6082736,0.3073751,0.6641313,0,0.0,0.0,0.0,0.0,0.062442783,0,0,0.0,0.0,0,0,112.0,0.0,519.0,4643.076923076924,3932.307692307693,4516.410256410257,4441.538461538462,4256.410256410257,4568.717948717949,4458.974358974359,4415.8974358974365,4394.358974358975,4741.025641025642,4361.025641025642,4262.564102564103,4179.48717948718,4550.769230769231
186.66042,0.0,0.63536745,0.30836788,0.6625343,0,0.0,0.0,0.0,0.0,0.0,0,0,0.29577404,0.0,0,0,15.0,0.0,500.0,4637.948717948719,3910.7692307692314,4516.923076923077,4410.769230769231,4247.6923076923085,4556.410256410257,4457.948717948719,4412.307692307693,4403.076923076924,4724.615384615386,4352.307692307693,4254.358974358975,4187.179487179487,4541.538461538462
186.91063,0.0,0.63536745,0.30836788,0.6625343,0,0.0,0.0,0.0,0.0,0.6358807,0,0,0.0,0.0,0,1,47.0,0.0,0.0,4646.153846153847,3926.1538461538466,4526.153846153847,4422.051282051282,4236.410256410257,4539.48717948718,4458.461538461539,4396.410256410257,4396.923076923077,4706.666666666667,4342.564102564103,4265.641025641026,4217.948717948719,4607.179487179488
187.16084,0.0,0.6556387,0.30926353,0.66108906,0,0.0,0.0,0.0,0.0,0.1865277,0,0,0.0,0.0,0,1,79.0,0.0,500.0,4626.153846153847,3897.9487179487182,4514.358974358975,4384.615384615385,4246.153846153847,4537.435897435898,4456.923076923077,4391.794871794872,4372.820512820514,4691.794871794872,4321.025641025642,4240.000000000001,4175.8974358974365,4543.589743589744
187.41106,0.0,0.6556387,0.30926353,0.66108906,0,0.0,0.0,0.0,0.0,0.27400517,0,0,0.0,0.0,0,0,111.0,0.0,500.0,4615.8974358974365,3878.461538461539,4512.307692307693,4370.256410256411,4251.282051282052,4538.974358974359,4457.435897435898,4396.410256410257,4389.743589743591,4709.2307692307695,4355.8974358974365,4233.846153846154,4192.820512820514,4538.461538461539
187.66127,0.010011229,0.62957656,0.30856892,0.65754145,0,0.0,0.0,0.0,0.0,0.16845259,0,0,0.0,0.0,0,0,14.0,0.0,542.0,4616.410256410257,3896.410256410257,4511.794871794872,4385.641025641026,4254.358974358975,4537.948717948719,4447.179487179487,4393.846153846154,4378.461538461539,4713.333333333334,4365.128205128206,4236.410256410257,4183.589743589744,4522.051282051282
187.91148,0.010011229,0.62957656,0.30856892,0.65754145,0,0.0,0.0,0.0,0.0,0.041873887,0,0,0.0,0.0,0,0,46.0,0.0,0.0,4616.410256410257,3925.6410256410263,4514.358974358975,4403.589743589744,4251.282051282052,4538.461538461539,4442.051282051282,4393.333333333334,4380.000000000001,4722.051282051282,4358.461538461539,4235.8974358974365,4183.589743589744,4518.461538461539
188.1617,0.0,0.59100324,0.3059086,0.6547144,0,0.0,0.0,0.0,0.0,0.09097903,0,0,0.0,0.0,0,0,78.0,0.0,542.0,4616.410256410257,3936.9230769230776,4512.820512820514,4414.358974358975,4263.589743589744,4545.641025641026,4439.48717948718,4403.589743589744,4391.794871794872,4741.538461538462,4362.564102564103,4247.6923076923085,4183.076923076924,4530.256410256411
188.41191,0.0,0.59100324,0.3059086,0.6547144,0,0.0,0.0,0.0,0.0,0.082760245,0,0,0.0,0.0,0,0,110.0,0.0,542.0,4617.435897435898,3962.0512820512827,4515.384615384616,4444.615384615385,4255.8974358974365,4542.564102564103,4428.717948717949,4407.6923076923085,4400.512820512821,4753.333333333334,4373.846153846154,4254.871794871796,4202.051282051282,4537.435897435898
188.66214,0.0,0.53733927,0.30235034,0.6561358,0,0.0,0.0,0.0,0.0,0.048697993,0,0,0.0,0.0,0,0,13.0,0.0,489.0,4616.410256410257,3969.2307692307695,4512.307692307693,4449.2307692307695,4248.205128205129,4545.641025641026,4428.205128205129,4401.025641025642,4395.384615384616,4748.717948717949,4365.641025641026,4245.641025641026,4181.025641025642,4523.076923076924
188.91235,0.0,0.53733927,0.30235034,0.6561358,0,0.0,0.0,0.0,0.0,0.14324926,0,0,0.0,0.0,0,0,45.0,0.0,0.0,4668.205128205129,4090.2564102564106,4532.307692307693,4566.666666666667,4248.205128205129,4526.666666666667,4399.48717948718,4360.512820512821,4368.205128205129,4702.051282051282,4344.615384615385,4278.974358974359,4186.666666666667,4633.846153846154
189.16257,0.022634532,0.50157475,0.29883593,0.6594067,0,0.0,0.0,0.0,0.0,0.12673467,0,0,0.0,0.0,0,0,77.0,0.0,489.0,4632.307692307693,3968.205128205129,4514.871794871796,4455.384615384616,4230.256410256411,4537.435897435898,4442.564102564103,4413.333333333334,4397.435897435898,4732.820512820514,4328.717948717949,4258.974358974359,4149.2307692307695,4494.871794871796
189.41278,0.022634532,0.50157475,0.29883593,0.6594067,0,0.0,0.0,0.0,0.0,0.06686083,0,0,0.0,0.0,0,0,109.0,0.0,489.0,4620.512820512821,3908.717948717949,4501.025641025642,4402.051282051282,4242.051282051282,4554.358974358975,4449.2307692307695,4442.051282051282,4404.615384615385,4727.6923076923085,4321.025641025642,4237.948717948719,4154.358974358975,4475.8974358974365
189.663,0.0,0.4935078,0.29529864,0.6616008,0,0.0,0.0,0.0,0.0,0.030210048,0,0,0.0,0.0,0,0,12.0,0.0,519.0,4616.410256410257,3881.0256410256416,4503.076923076924,4365.641025641026,4245.641025641026,4532.307692307693,4460.000000000001,4433.333333333334,4375.8974358974365,4683.589743589744,4288.205128205129,4212.307692307693,4122.051282051282,4473.333333333334
189.91321,0.0,0.4935078,0.29529864,0.6616008,0,0.0,0.0,0.0,0.0,0.012260004,0,0,0.0,0.0,0,0,44.0,0.0,0.0,4596.410256410257,3853.8461538461543,4497.948717948719,4329.2307692307695,4234.358974358975,4504.615384615385,4461.025641025642,4444.615384615385,4365.128205128206,4670.769230769231,4301.025641025642,4192.820512820514,4123.589743589744,4475.8974358974365
190.16342,0.0,0.49703875,0.29211852,0.66207093,0,0.0,0.0,0.0,0.0,0.2292916,0,0,0.0,0.0,0,1,76.0,0.0,519.0,4602.564102564103,3879.48717948718,4498.461538461539,4348.205128205129,4246.666666666667,4483.076923076924,4444.615384615385,4424.615384615385,4353.333333333334,4689.743589743591,4347.6923076923085,4216.410256410257,4190.256410256411,4537.435897435898
190.41364,0.0,0.49703875,0.29211852,0.66207093,0,0.0,0.0,0.0,0.0,0.2686519,0,0,0.0,0.0,0,1,108.0,0.0,519.0,4589.743589743591,3896.9230769230776,4502.564102564103,4360.000000000001,4265.641025641026,4496.923076923077,4448.717948717949,4432.820512820514,4373.333333333334,4713.846153846154,4375.8974358974365,4204.102564102564,4203.076923076924,4511.282051282052
190.53874,0.0,0.49703875,0.29211852,0.66207093,0,0.0,0.0,0.0,0.0,0.36992094,0,0,0.0,0.0,0,0,124.0,0.0,519.0,4582.564102564103,3897.435897435898,4497.948717948719,4368.717948717949,4262.564102564103,4495.384615384616,4436.923076923077,4410.769230769231,4358.461538461539,4709.2307692307695,4371.794871794872,4183.076923076924,4183.589743589744,4493.846153846154
190.91406,0.0,0.50424707,0.28926015,0.66427255,0,0.0,0.0,0.0,0.0,0.08287223,0,0,0.0,0.0,0,0,43.0,0.0,0.0,4583.076923076924,3943.589743589744,4501.538461538462,4411.282051282052,4269.2307692307695,4523.076923076924,4440.000000000001,4385.641025641026,4364.615384615385,4720.000000000001,4378.974358974359,4184.615384615385,4193.846153846154,4468.717948717949
191.16428,0.009151618,0.47616047,0.28706658,0.6663603,0,0.0,0.0,0.0,0.0,0.27569318,0,0,0.0,0.0,0,0,75.0,0.0,500.0,4584.615384615385,3953.333333333334,4500.512820512821,4429.2307692307695,4262.051282051282,4539.48717948718,4444.615384615385,4411.282051282052,4387.179487179487,4747.6923076923085,4411.794871794872,4217.435897435898,4210.769230769231,4484.615384615385
191.4145,0.009151618,0.47616047,0.28706658,0.6663603,0,0.0,0.0,0.0,0.0,0.062022146,0,0,0.0,0.0,0,0,107.0,0.0,500.0,4592.307692307693,3989.7435897435903,4507.179487179488,4465.641025641026,4265.128205128206,4549.743589743591,4433.846153846154,4402.564102564103,4382.564102564103,4743.076923076924,4397.948717948719,4247.179487179487,4217.435897435898,4511.794871794872
191.66472,0.009694248,0.44663674,0.28576967,0.6673925,0,0.0,0.0,0.0,0.0,0.0,0,0,0.32978106,0.0,0,0,10.0,0.0,542.0,4600.000000000001,4007.692307692308,4510.769230769231,4482.051282051282,4261.538461538462,4569.2307692307695,4444.102564102564,4411.794871794872,4393.333333333334,4753.333333333334,4396.410256410257,4265.128205128206,4201.538461538462,4508.205128205129
191.91493,0.009694248,0.44663674,0.28576967,0.6673925,0,0.0,0.0,0.0,0.0,0.0,0,0,0.36201766,0.0,0,0,42.0,0.0,0.0,4609.2307692307695,3989.23076923077,4512.820512820514,4474.358974358975,4254.871794871796,4569.743589743591,4435.8974358974365,4409.2307692307695,4396.923076923077,4751.794871794872,4390.256410256411,4267.6923076923085,4204.102564102564,4513.846153846154
192.04004,0.009694248,0.44663674,0.28576967,0.6673925,0,0.0,0.0,0.0,0.0,0.060627513,0,0,0.0,0.0,0,0,58.0,0.0,0.0,4615.384615384616,4005.6410256410263,4516.410256410257,4486.153846153847,4243.589743589744,4567.179487179488,4429.743589743591,4406.666666666667,4396.923076923077,4748.717948717949,4388.717948717949,4275.384615384616,4200.512820512821,4507.179487179488
192.41536,0.051340014,0.4120472,0.28460664,0.66830975,0,0.0,0.0,0.0,0.0,0.0608242,0,0,0.0,0.0,0,0,106.0,0.0,542.0,4622.051282051282,4004.1025641025644,4522.564102564103,4488.717948717949,4245.641025641026,4570.769230769231,4441.025641025642,4425.641025641026,4409.743589743591,4764.102564102564,4384.615384615385,4281.538461538462,4217.435897435898,4509.2307692307695
192.54047,0.051340014,0.4120472,0.28460664,0.66830975,0,0.0,0.0,0.0,0.0,0.031157583,0,0,0.0,0.0,0,0,122.0,0.0,542.0,4623.589743589744,3998.9743589743593,4518.974358974359,4488.205128205129,4246.666666666667,4567.179487179488,4422.564102564103,4407.6923076923085,4397.948717948719,4750.256410256411,4377.948717948719,4280.512820512821,4213.333333333334,4510.256410256411
192.91579,0.027408797,0.38683257,0.28356424,0.6691236,0,0.0,0.0,0.0,0.0,0.0,0,0,0.26813552,0.0,0,0,41.0,0.0,0.0,4629.2307692307695,3971.7948717948725,4510.256410256411,4453.846153846154,4229.74358974359,4568.717948717949,4443.076923076924,4414.871794871796,4397.948717948719,4738.974358974359,4359.48717948718,4272.307692307693,4184.102564102564,4515.8974358974365
193.166,0.036042623,0.3654387,0.28179687,0.6687009,0,0.0,0.0,0.0,0.0,0.0,0,0,0.45555055,0.0,0,0,73.0,0.0,479.0,4625.641025641026,3980.0000000000005,4500.000000000001,4457.435897435898,4231.794871794872,4569.2307692307695,4430.256410256411,4413.846153846154,4402.051282051282,4727.6923076923085,4350.769230769231,4263.589743589744,4183.076923076924,4522.051282051282
193.41621,0.036042623,0.3654387,0.28179687,0.6687009,0,0.0,0.0,0.0,0.0,0.0,0,0,0.18088873,0.0,0,0,105.0,0.0,489.0,4632.820512820514,3980.0000000000005,4498.974358974359,4462.051282051282,4229.2307692307695,4555.384615384616,4437.435897435898,4422.051282051282,4406.666666666667,4733.333333333334,4347.6923076923085,4264.102564102564,4186.153846153847,4521.025641025642
193.66643,0.0,0.33335924,0.28167936,0.6673491,0,0.0,0.0,0.0,0.0,0.0,0,0,0.21015993,0.0,0,0,4.0,0.0,569.0,4631.282051282052,3982.564102564103,4494.871794871796,4458.461538461539,4233.846153846154,4569.2307692307695,4441.538461538462,4429.743589743591,4413.333333333334,4728.205128205129,4349.743589743591,4266.666666666667,4185.128205128206,4513.333333333334
193.91664,0.0,0.33335924,0.28167936,0.6673491,0,0.0,0.0,0.0,0.0,0.22546612,0,0,0.0,0.0,0,0,40.0,0.0,0.0,4681.538461538462,4096.410256410257,4518.974358974359,4554.871794871796,4232.307692307693,4542.564102564103,4419.48717948718,4397.948717948719,4401.025641025642,4706.666666666667,4379.48717948718,4304.615384615385,4250.256410256411,4670.256410256411
194.04175,0.0,0.33335924,0.28167936,0.6673491,1,0.0,0.0,0.0,0.0,0.19784196,0,0,0.0,0.0,0,0,56.0,0.0,0.0,4680.512820512821,4088.717948717949,4515.384615384616,4544.102564102564,4219.48717948718,4525.641025641026,4411.282051282052,4378.974358974359,4393.846153846154,4711.794871794872,4376.923076923077,4306.666666666667,4255.8974358974365,4657.948717948719
194.41708,0.0,0.33309948,0.2815781,0.66612375,0,0.0,0.0,0.0,0.0,0.17498818,0,0,0.0,0.0,0,0,104.0,0.0,519.0,4612.820512820514,3927.692307692308,4481.538461538462,4413.846153846154,4259.48717948718,4573.333333333334,4457.435897435898,4416.410256410257,4408.717948717949,4715.8974358974365,4270.769230769231,4195.384615384616,4071.7948717948725,4378.461538461539
194.54219,0.0,0.33309948,0.2815781,0.66612375,0,0.0,0.0,0.0,0.0,0.22334847,0,0,0.0,0.0,0,0,120.0,0.0,519.0,4608.205128205129,3921.0256410256416,4476.923076923077,4398.974358974359,4257.435897435898,4578.461538461539,4459.48717948718,4427.6923076923085,4414.358974358975,4717.948717948719,4267.6923076923085,4192.820512820514,4073.8461538461543,4364.102564102564
194.91751,0.0,0.34089005,0.28077918,0.66598654,0,0.0,0.0,0.0,0.0,0.16369899,0,0,0.0,0.0,0,0,39.0,0.0,0.0,4618.461538461539,3936.410256410257,4476.410256410257,4425.641025641026,4260.000000000001,4571.282051282052,4457.948717948719,4415.384615384616,4416.410256410257,4731.794871794872,4274.871794871796,4213.333333333334,4110.769230769231,4409.743589743591
195.04262,0.0,0.34089005,0.28077918,0.66598654,0,0.0,0.0,0.0,0.0,0.31149858,0,0,0.0,0.0,0,0,55.0,0.0,0.0,4624.615384615385,3926.666666666667,4480.512820512821,4421.538461538462,4254.358974358975,4575.384615384616,4460.512820512821,4416.410256410257,4418.461538461539,4727.6923076923085,4292.307692307693,4227.179487179487,4138.461538461539,4428.717948717949
195.41794,0.06607859,0.35821518,0.28187516,0.66487867,0,0.0,0.0,0.0,0.0,0.14877069,0,0,0.0,0.0,0,0,103.0,0.0,500.0,4632.307692307693,3925.1282051282055,4483.076923076924,4416.410256410257,4243.076923076924,4566.153846153847,4456.923076923077,4427.179487179487,4408.205128205129,4711.282051282052,4319.48717948718,4231.282051282052,4149.74358974359,4446.666666666667
195.54305,0.06607859,0.35821518,0.28187516,0.66487867,0,0.0,0.0,0.0,0.0,0.13825688,0,0,0.0,0.0,0,0,119.0,0.0,500.0,4655.384615384616,3968.717948717949,4501.538461538462,4460.000000000001,4251.282051282052,4569.2307692307695,4471.282051282052,4449.2307692307695,4421.538461538462,4738.974358974359,4345.641025641026,4256.410256410257,4188.717948717949,4512.307692307693
195.91837,0.10014341,0.3743806,0.28349942,0.6612876,0,0.0,0.0,0.0,0.0,0.24093606,0,0,0.0,0.0,0,0,38.0,0.0,0.0,4664.102564102564,3964.1025641025644,4509.743589743591,4453.846153846154,4224.102564102564,4542.564102564103,4456.410256410257,4430.256410256411,4403.589743589744,4718.461538461539,4343.589743589744,4270.769230769231,4181.025641025642,4491.794871794872
196.04347,0.10014341,0.3743806,0.28349942,0.6612876,0,0.0,0.0,0.0,0.0,0.2574161,0,0,0.0,0.0,0,0,54.0,0.0,0.0,4663.076923076924,3940.5128205128212,4511.794871794872,4429.2307692307695,4203.076923076924,4539.48717948718,4465.128205128206,4445.128205128206,4417.948717948719,4746.153846153847,4377.948717948719,4292.307692307693,4232.307692307693,4505.128205128206
196.4188,0.07391356,0.38137108,0.28496543,0.6616113,0,0.0,0.0,0.0,0.0,0.39738086,0,0,0.0,0.0,0,0,102.0,0.0,542.0,4650.256410256411,3972.820512820513,4517.435897435898,4457.435897435898,4248.205128205129,4562.564102564103,4461.538461538462,4431.282051282052,4397.435897435898,4695.8974358974365,4315.384615384616,4248.205128205129,4146.666666666667,4456.410256410257
196.5439,0.07391356,0.38137108,0.28496543,0.6616113,0,0.0,0.0,0.0,0.0,0.32000834,0,0,0.0,0.0,0,0,118.0,0.0,542.0,4647.6923076923085,3957.435897435898,4511.282051282052,4440.000000000001,4234.358974358975,4551.282051282052,4460.000000000001,4429.743589743591,4396.923076923077,4683.076923076924,4307.179487179487,4247.179487179487,4151.794871794872,4457.435897435898
196.79413,0.08607526,0.37941796,0.2862889,0.6627491,0,0.0,0.0,0.0,0.0,0.0,0,0,0.9821321,0.0,0,0,21.0,0.0,0.0,4649.743589743591,3893.8461538461543,4500.512820512821,4385.641025641026,4244.615384615385,4566.666666666667,4476.410256410257,4467.6923076923085,4432.307692307693,4783.076923076924,4422.564102564103,4292.307692307693,4301.538461538462,4532.820512820514
197.04434,0.08607526,0.37941796,0.2862889,0.6627491,0,0.0,0.0,0.0,0.0,0.26911914,0,0,0.0,0.0,0,0,53.0,0.0,0.0,4643.589743589744,3899.48717948718,4502.051282051282,4383.076923076924,4246.666666666667,4560.512820512821,4474.871794871796,4468.205128205129,4431.282051282052,4764.615384615386,4383.076923076924,4268.205128205129,4242.051282051282,4507.179487179488
197.29456,0.13817687,0.3782949,0.28748396,0.6658657,0,0.0,0.0,0.0,0.0,0.035794098,0,0,0.0,0.0,0,0,85.0,0.0,489.0,4638.974358974359,3902.564102564103,4504.615384615385,4390.769230769231,4249.2307692307695,4562.564102564103,4474.358974358975,4441.538461538462,4420.512820512821,4761.025641025642,4379.48717948718,4263.076923076924,4230.256410256411,4518.461538461539
197.54477,0.13817687,0.3782949,0.28748396,0.6658657,1,0.0,0.0,0.0,0.0,0.12820353,0,0,0.0,0.0,0,0,117.0,0.0,489.0,4660.512820512821,3981.538461538462,4527.179487179488,4460.512820512821,4246.153846153847,4544.615384615385,4462.564102564103,4431.282051282052,4412.307692307693,4736.410256410257,4378.461538461539,4287.6923076923085,4204.102564102564,4557.948717948719
197.79498,0.14534284,0.40701213,0.29210943,0.6677146,0,0.0,0.0,0.0,0.0,0.30568856,0,0,0.0,0.0,0,0,20.0,0.0,0.0,4634.358974358975,4035.8974358974365,4528.205128205129,4499.48717948718,4285.641025641026,4547.179487179488,4438.974358974359,4376.410256410257,4364.615384615385,4651.794871794872,4245.128205128206,4195.384615384616,4021.0256410256416,4431.794871794872
198.0452,0.14534284,0.40701213,0.29210943,0.6677146,0,0.0,0.0,0.0,0.0,0.6064245,0,0,0.0,0.0,0,0,52.0,0.0,0.0,4634.871794871796,3996.410256410257,4530.769230769231,4472.307692307693,4282.564102564103,4555.384615384616,4446.153846153847,4412.820512820514,4390.256410256411,4695.384615384616,4283.076923076924,4219.48717948718,4074.358974358975,4449.2307692307695
198.29541,0.20703228,0.4193454,0.30548337,0.669366,0,0.0,0.0,0.0,0.0,0.08629696,0,0,0.0,0.0,0,0,84.0,0.0,519.0,4636.410256410257,3984.615384615385,4516.923076923077,4455.8974358974365,4260.000000000001,4543.076923076924,4437.948717948719,4396.923076923077,4380.512820512821,4691.282051282052,4275.8974358974365,4201.538461538462,4072.307692307693,4447.6923076923085
198.54562,0.20703228,0.4193454,0.30548337,0.669366,0,0.0,0.0,0.0,0.0,0.11002713,0,0,0.0,0.0,0,0,116.0,0.0,519.0,4642.051282051282,3983.589743589744,4523.589743589744,4460.512820512821,4253.333333333334,4540.512820512821,4440.512820512821,4427.6923076923085,4397.948717948719,4699.48717948718,4307.179487179487,4218.461538461539,4124.102564102564,4474.358974358975
198.79584,0.2172943,0.44262967,0.32424867,0.6708396,0,0.0,0.0,0.0,0.0,0.0,0,0,0.31986436,0.0,0,0,19.0,0.0,0.0,4637.435897435898,3968.717948717949,4517.948717948719,4441.538461538462,4252.820512820514,4553.846153846154,4441.538461538462,4408.205128205129,4392.820512820514,4687.6923076923085,4307.179487179487,4214.871794871796,4132.307692307693,4480.000000000001
199.04605,0.2172943,0.44262967,0.32424867,0.6708396,0,0.0,0.0,0.0,0.0,0.5837491,0,0,0.0,0.0,0,0,51.0,0.0,0.0,4647.6923076923085,3940.5128205128212,4517.948717948719,4423.076923076924,4248.717948717949,4555.8974358974365,4464.102564102564,4456.923076923077,4426.153846153847,4747.179487179488,4371.282051282052,4252.307692307693,4224.102564102564,4548.205128205129
199.29626,0.20266333,0.44150212,0.3411382,0.6688796,0,0.0,0.0,0.0,0.0,0.36036745,0,0,0.0,0.0,0,0,83.0,0.0,500.0,4648.205128205129,3936.9230769230776,4517.435897435898,4422.564102564103,4248.205128205129,4538.461538461539,4451.794871794872,4437.948717948719,4414.871794871796,4751.282051282052,4387.6923076923085,4247.6923076923085,4241.025641025642,4548.717948717949
199.5465,0.20266333,0.44150212,0.3411382,0.6688796,0,0.0,0.0,0.0,0.0,0.31083548,0,0,0.0,0.0,0,0,115.0,0.0,500.0,4652.820512820514,3909.7435897435903,4517.948717948719,4398.461538461539,4233.333333333334,4552.820512820514,4476.410256410257,4494.358974358975,4446.153846153847,4800.000000000001,4463.589743589744,4295.384615384616,4333.333333333334,4596.410256410257
199.7967,0.24140504,0.43013784,0.35633817,0.66710764,0,0.0,0.0,0.0,0.0,0.22698912,0,0,0.0,0.0,0,0,18.0,0.0,0.0,4653.333333333334,3924.615384615385,4515.8974358974365,4412.307692307693,4245.641025641026,4537.948717948719,4454.871794871796,4443.076923076924,4426.666666666667,4778.974358974359,4437.948717948719,4289.74358974359,4291.282051282052,4584.102564102564
200.04692,0.24140504,0.43013784,0.35633817,0.66710764,0,0.0,0.0,0.0,0.0,0.0,0,0,0.21046826,0.0,0,0,50.0,0.0,0.0,4649.2307692307695,3925.1282051282055,4508.717948717949,4407.6923076923085,4237.948717948719,4538.974358974359,4445.128205128206,4429.743589743591,4424.102564102564,4765.641025641026,4401.025641025642,4266.153846153847,4267.6923076923085,4554.358974358975
200.29713,0.33853576,0.4189682,0.36436412,0.6608998,0,0.0,0.0,0.0,0.0,0.14210904,0,0,0.0,0.0,0,0,82.0,0.0,542.0,4649.2307692307695,3931.2820512820517,4510.256410256411,4421.538461538462,4247.6923076923085,4550.769230769231,4443.589743589744,4439.48717948718,4426.666666666667,4767.179487179488,4393.333333333334,4276.923076923077,4249.2307692307695,4549.743589743591
200.54735,0.33853576,0.4189682,0.36436412,0.6608998,0,0.0,0.0,0.0,0.0,0.18727985,0,0,0.0,0.0,0,0,114.0,0.0,542.0,4629.743589743591,3902.564102564103,4491.282051282052,4394.358974358975,4256.923076923077,4570.256410256411,4458.974358974359,4448.205128205129,4430.256410256411,4784.615384615386,4379.48717948718,4260.000000000001,4231.794871794872,4511.794871794872
200.79756,0.31172708,0.40630057,0.36747834,0.6550147,0,0.0,0.0,0.0,0.0,0.12917034,0,0,0.0,0.0,0,0,17.0,0.0,0.0,4632.820512820514,3913.333333333334,4488.205128205129,4405.128205128206,4248.205128205129,4558.461538461539,4460.512820512821,4442.564102564103,4418.974358974359,4778.461538461539,4368.205128205129,4249.2307692307695,4226.153846153847,4509.743589743591
201.04778,0.31172708,0.40630057,0.36747834,0.6550147,0,0.0,0.0,0.0,0.0,0.096325345,0,0,0.0,0.0,0,0,49.0,0.0,0.0,4630.769230769231,3911.7948717948725,4491.794871794872,4403.076923076924,4230.769230769231,4538.461538461539,4455.384615384616,4432.307692307693,4405.641025641026,4749.743589743591,4343.076923076924,4257.435897435898,4183.589743589744,4476.923076923077
201.29799,0.29954904,0.39028254,0.36761683,0.6500651,0,0.0,0.0,0.0,0.0,0.0,0,0,0.37230954,0.0,0,0,81.0,0.0,489.0,4630.256410256411,3877.435897435898,4479.48717948718,4373.846153846154,4216.410256410257,4541.538461538462,4451.282051282052,4427.179487179487,4389.2307692307695,4703.589743589744,4310.769230769231,4246.153846153847,4176.923076923077,4475.384615384616
201.57948,0.29954904,0.39028254,0.36761683,0.6500651,1,0.0,0.0,0.0,0.0,0.0,0,0,1.0,0.0,0,0,117.0,0.0,489.0,4646.153846153847,3857.9487179487182,4484.615384615385,4355.8974358974365,4206.666666666667,4496.410256410257,4458.974358974359,4404.102564102564,4338.974358974359,4620.000000000001,4275.384615384616,4243.589743589744,4142.051282051282,4519.48717948718
201.79842,0.2328118,0.36940625,0.36411324,0.6473877,0,0.0,0.0,0.0,0.0,0.0,0,0,0.30314717,0.0,0,0,16.0,0.0,0.0,4630.256410256411,3832.820512820513,4473.333333333334,4322.564102564103,4217.435897435898,4483.076923076924,4468.717948717949,4445.128205128206,4335.384615384616,4624.102564102564,4281.538461538462,4207.6923076923085,4126.153846153847,4484.615384615385
202.04863,0.2328118,0.36940625,0.36411324,0.6473877,0,0.0,0.0,0.0,0.0,0.0,0,0,0.19114274,0.0,0,0,48.0,0.0,0.0,4620.000000000001,3831.2820512820517,4472.307692307693,4319.48717948718,4217.435897435898,4462.564102564103,4458.461538461539,4446.153846153847,4337.435897435898,4644.102564102564,4311.794871794872,4197.948717948719,4142.051282051282,4476.923076923077
202.29886,0.2091067,0.36213925,0.3586228,0.64467716,0,0.0,0.0,0.0,0.0,0.0,0,0,0.27692452,0.0,0,0,80.0,0.0,518.0,4614.871794871796,3841.0256410256416,4473.333333333334,4327.179487179487,4230.256410256411,4472.307692307693,4443.076923076924,4445.641025641026,4334.871794871796,4652.307692307693,4336.410256410257,4196.410256410257,4159.48717948718,4475.8974358974365
202.54907,0.2091067,0.36213925,0.3586228,0.64467716,0,0.0,0.0,0.0,0.0,0.0,0,0,0.1210363,0.0,0,0,112.0,0.0,518.0,4614.871794871796,3874.358974358975,4469.2307692307695,4354.871794871796,4245.128205128206,4485.641025641026,4442.564102564103,4456.923076923077,4358.974358974359,4697.948717948719,4359.48717948718,4200.000000000001,4176.923076923077,4488.717948717949
202.79929,0.2597126,0.35079056,0.35676268,0.6403959,0,0.0,0.0,0.0,0.0,0.0,0,0,0.063630685,0.0,0,0,15.0,0.0,501.0,4616.410256410257,3917.435897435898,4471.282051282052,4394.871794871796,4255.8974358974365,4499.48717948718,4428.717948717949,4440.000000000001,4368.717948717949,4707.179487179488,4384.615384615385,4213.333333333334,4195.384615384616,4510.256410256411
203.0495,0.2597126,0.35079056,0.35676268,0.6403959,0,0.0,0.0,0.0,0.0,0.023493512,0,0,0.0,0.0,0,0,47.0,0.0,0.0,4632.307692307693,3979.48717948718,4483.589743589744,4460.000000000001,4278.974358974359,4524.102564102564,4430.256410256411,4438.461538461539,4394.871794871796,4748.205128205129,4414.871794871796,4244.102564102564,4242.564102564103,4560.512820512821
203.36226,0.2547088,0.32318208,0.3534659,0.6365383,0,0.0,0.0,0.0,0.0,0.14275816,0,0,0.0,0.0,0,0,87.0,0.0,501.0,4637.435897435898,4014.8717948717954,4499.48717948718,4506.666666666667,4309.743589743591,4569.2307692307695,4444.615384615385,4462.051282051282,4423.589743589744,4794.871794871796,4430.769230769231,4280.000000000001,4261.538461538462,4557.948717948719
203.54993,0.2547088,0.32318208,0.3534659,0.6365383,0,0.0,0.0,0.0,0.0,0.43105614,0,0,0.0,0.0,0,0,111.0,0.0,501.0,4637.948717948719,4029.7435897435903,4500.000000000001,4512.820512820514,4308.205128205129,4577.948717948719,4441.025641025642,4443.076923076924,4421.538461538462,4782.051282051282,4412.820512820514,4283.589743589744,4247.179487179487,4551.794871794872
203.80014,0.24100396,0.30086604,0.3490308,0.6343457,0,0.0,0.0,0.0,0.0,0.088491224,0,0,0.0,0.0,0,0,14.0,0.0,542.0,4646.153846153847,4016.410256410257,4509.743589743591,4508.205128205129,4301.025641025642,4600.000000000001,4452.820512820514,4449.743589743591,4432.820512820514,4796.923076923077,4414.871794871796,4296.923076923077,4220.512820512821,4539.48717948718
204.05035,0.24100396,0.30086604,0.3490308,0.6343457,0,0.0,0.0,0.0,0.0,0.13342752,0,0,0.0,0.0,0,0,46.0,0.0,0.0,4648.205128205129,4000.5128205128212,4511.794871794872,4501.025641025642,4285.641025641026,4590.256410256411,4445.641025641026,4447.179487179487,4428.205128205129,4784.102564102564,4409.743589743591,4293.333333333334,4228.717948717949,4542.051282051282
204.30057,0.32613954,0.30044788,0.34650552,0.6300942,0,0.0,0.0,0.0,0.0,0.10513724,0,0,0.0,0.0,0,0,78.0,0.0,542.0,4655.384615384616,4013.333333333334,4515.8974358974365,4509.2307692307695,4281.025641025642,4584.615384615385,4455.8974358974365,4450.769230769231,4410.769230769231,4743.589743589744,4331.282051282052,4282.051282051282,4172.307692307693,4527.6923076923085
204.55078,0.32613954,0.30044788,0.34650552,0.6300942,0,0.0,0.0,0.0,0.0,0.03633478,0,0,0.0,0.0,0,0,110.0,0.0,542.0,4648.205128205129,3976.9230769230776,4509.743589743591,4475.8974358974365,4263.589743589744,4570.256410256411,4458.461538461539,4442.051282051282,4395.384615384616,4724.615384615386,4362.564102564103,4263.076923076924,4181.538461538462,4523.076923076924
204.801,0.31233674,0.30398104,0.3454877,0.6262646,0,0.0,0.0,0.0,0.0,0.030324064,0,0,0.0,0.0,0,0,13.0,0.0,489.0,4633.333333333334,3944.615384615385,4508.717948717949,4445.641025641026,4264.615384615385,4541.538461538462,4490.256410256411,4453.333333333334,4368.205128205129,4687.179487179488,4343.076923076924,4232.820512820514,4171.794871794872,4531.282051282052
205.05122,0.31233674,0.30398104,0.3454877,0.6262646,0,0.0,0.0,0.0,0.0,0.57204884,0,0,0.0,0.0,0,1,45.0,0.0,0.0,4633.333333333334,3896.9230769230776,4503.076923076924,4361.025641025642,4249.74358974359,4516.923076923077,4497.948717948719,4460.512820512821,4357.948717948719,4712.307692307693,4395.8974358974365,4242.564102564103,4258.974358974359,4600.000000000001
205.36398,0.29081407,0.30153707,0.3445707,0.6243083,0,0.0,0.0,0.0,0.0,0.2347359,0,0,0.0,0.0,0,0,85.0,0.0,489.0,4625.128205128206,3907.692307692308,4500.512820512821,4372.820512820514,4262.051282051282,4511.794871794872,4473.846153846154,4465.641025641026,4360.512820512821,4729.743589743591,4412.820512820514,4213.333333333334,4245.128205128206,4584.102564102564
205.55165,0.29081407,0.30153707,0.3445707,0.6243083,0,0.0,0.0,0.0,0.0,0.0,0,0,0.12014049,0.0,0,0,109.0,0.0,489.0,4627.179487179488,3934.8717948717954,4504.615384615385,4400.512820512821,4265.128205128206,4524.615384615385,4472.820512820514,4462.564102564103,4372.820512820514,4745.128205128206,4414.358974358975,4194.358974358975,4251.794871794872,4592.820512820514
205.80186,0.23953795,0.3023555,0.34320164,0.6231333,0,0.0,0.0,0.0,0.0,0.0,0,0,0.10446797,0.0,0,0,12.0,0.0,518.0,4632.820512820514,3950.2564102564106,4506.666666666667,4422.051282051282,4264.615384615385,4530.256410256411,4461.025641025642,4463.076923076924,4378.974358974359,4756.410256410257,4418.461538461539,4209.74358974359,4238.461538461539,4601.538461538462
206.05208,0.23953795,0.3023555,0.34320164,0.6231333,0,0.0,0.0,0.0,0.0,0.0,0,0,0.09849782,0.0,0,0,44.0,0.0,0.0,4623.589743589744,3957.435897435898,4508.717948717949,4442.564102564103,4270.769230769231,4540.000000000001,4443.589743589744,4442.564102564103,4380.512820512821,4765.641025641026,4414.871794871796,4228.717948717949,4234.871794871796,4577.948717948719
206.30229,0.17597564,0.29756078,0.34220046,0.6225378,0,0.0,0.0,0.0,0.0,0.0,0,0,0.24632321,0.0,0,0,76.0,0.0,518.0,4632.307692307693,3971.2820512820517,4520.512820512821,4458.974358974359,4268.717948717949,4557.435897435898,4456.410256410257,4453.846153846154,4396.923076923077,4765.641025641026,4400.000000000001,4238.974358974359,4221.025641025642,4561.025641025642
206.5525,0.17597564,0.29756078,0.34220046,0.6225378,0,0.0,0.0,0.0,0.0,0.42965695,0,0,0.0,0.0,0,0,108.0,0.0,518.0,4630.769230769231,3977.9487179487182,4528.717948717949,4471.794871794872,4256.923076923077,4558.974358974359,4447.179487179487,4456.923076923077,4397.435897435898,4761.025641025642,4386.666666666667,4263.076923076924,4184.102564102564,4537.435897435898
206.80272,0.13956004,0.2785483,0.34129867,0.62199736,0,0.0,0.0,0.0,0.0,0.0,0,0,0.41235083,0.0,0,0,11.0,0.0,501.0,4631.794871794872,3945.1282051282055,4526.666666666667,4439.48717948718,4249.2307692307695,4561.025641025642,4460.000000000001,4450.769230769231,4387.6923076923085,4721.025641025642,4350.256410256411,4253.846153846154,4180.000000000001,4517.435897435898
207.05293,0.13956004,0.2785483,0.34129867,0.62199736,0,0.0,0.0,0.0,0.0,0.023586396,0,0,0.0,0.0,0,0,43.0,0.0,0.0,4633.846153846154,3828.717948717949,4517.948717948719,4346.153846153847,4210.256410256411,4520.000000000001,4476.410256410257,4460.512820512821,4363.589743589744,4674.871794871796,4320.512820512821,4243.076923076924,4137.948717948719,4497.435897435898
207.30315,0.19371384,0.24611533,0.33839515,0.6270143,0,0.0,0.0,0.0,0.0,0.023663724,0,0,0.0,0.0,0,0,75.0,0.0,501.0,4624.615384615385,3777.435897435898,4508.205128205129,4291.282051282052,4198.974358974359,4489.743589743591,4474.871794871796,4457.948717948719,4343.589743589744,4653.846153846154,4297.948717948719,4218.974358974359,4123.076923076924,4472.307692307693
207.55336,0.19371384,0.24611533,0.33839515,0.6270143,0,0.0,0.0,0.0,0.0,0.13892831,0,0,0.0,0.0,0,0,107.0,0.0,501.0,4616.410256410257,3801.0256410256416,4500.512820512821,4295.384615384616,4202.051282051282,4479.48717948718,4452.307692307693,4445.641025641026,4343.076923076924,4657.948717948719,4287.179487179487,4182.051282051282,4107.179487179487,4443.076923076924
207.80359,0.35655826,0.21189475,0.3329554,0.6347871,0,0.0,0.0,0.0,0.0,0.018814871,0,0,0.0,0.0,0,0,10.0,0.0,542.0,4607.179487179488,3841.0256410256416,4496.923076923077,4329.2307692307695,4213.333333333334,4485.128205128206,4442.564102564103,4422.564102564103,4347.6923076923085,4664.102564102564,4278.461538461539,4162.564102564103,4122.564102564103,4449.743589743591
208.0538,0.35655826,0.21189475,0.3329554,0.6347871,0,0.0,0.0,0.0,0.0,0.050306268,0,0,0.0,0.0,0,0,42.0,0.0,0.0,4600.512820512821,3863.076923076924,4494.871794871796,4346.666666666667,4230.769230769231,4502.564102564103,4440.512820512821,4412.307692307693,4354.358974358975,4692.307692307693,4308.717948717949,4167.179487179487,4150.256410256411,4445.128205128206
208.30402,0.41454595,0.18191287,0.3250908,0.6436207,0,0.0,0.0,0.0,0.0,0.03556264,0,0,0.0,0.0,0,0,74.0,0.0,542.0,4600.512820512821,3913.333333333334,4485.641025641026,4396.923076923077,4248.205128205129,4514.871794871796,4438.974358974359,4407.6923076923085,4353.333333333334,4698.461538461539,4324.615384615385,4171.282051282052,4156.410256410257,4462.564102564103
208.55423,0.41454595,0.18191287,0.3250908,0.6436207,0,0.0,0.0,0.0,0.0,0.028003931,0,0,0.0,0.0,0,0,106.0,0.0,542.0,4597.948717948719,3932.307692307693,4494.871794871796,4420.512820512821,4264.615384615385,4538.461538461539,4440.512820512821,4403.589743589744,4364.615384615385,4714.871794871796,4343.076923076924,4167.6923076923085,4172.820512820514,4472.820512820514
208.80444,0.4147908,0.16451646,0.31577227,0.6518576,0,0.0,0.0,0.0,0.0,0.21525516,0,0,0.0,0.0,0,1,9.0,0.0,479.0,4637.948717948719,4032.820512820513,4514.358974358975,4507.179487179488,4265.128205128206,4532.820512820514,4424.102564102564,4372.820512820514,4350.256410256411,4701.538461538462,4387.179487179487,4201.538461538462,4247.6923076923085,4636.923076923077
209.08594,0.4147908,0.16451646,0.31577227,0.6518576,0,0.0,0.0,0.0,0.0,0.17090264,0,0,0.0,0.0,0,0,45.0,0.0,0.0,4650.256410256411,4056.410256410257,4515.8974358974365,4532.820512820514,4275.8974358974365,4537.948717948719,4411.282051282052,4352.307692307693,4335.8974358974365,4704.102564102564,4396.410256410257,4266.666666666667,4242.564102564103,4647.179487179488
209.30487,0.54162943,0.17961495,0.30738708,0.65921545,0,0.0,0.0,0.0,0.0,0.07427129,0,0,0.0,0.0,0,0,73.0,0.0,479.0,4630.256410256411,4024.1025641025644,4503.589743589744,4505.128205128206,4278.974358974359,4571.794871794872,4449.2307692307695,4419.48717948718,4383.589743589744,4745.641025641026,4411.282051282052,4268.205128205129,4246.153846153847,4605.128205128206
209.55508,0.54162943,0.17961495,0.30738708,0.65921545,0,0.0,0.0,0.0,0.0,0.12981327,0,0,0.0,0.0,0,0,105.0,0.0,489.0,4608.205128205129,3956.9230769230776,4493.846153846154,4451.282051282052,4286.153846153847,4590.256410256411,4461.538461538462,4446.666666666667,4396.923076923077,4763.589743589744,4395.384615384616,4270.769230769231,4200.000000000001,4526.153846153847
209.8053,0.47123355,0.21107599,0.2998427,0.66371,0,0.0,0.0,0.0,0.0,0.0,0,0,0.08696916,0.0,0,0,8.0,0.0,395.0,4612.820512820514,3974.358974358975,4493.333333333334,4472.307692307693,4294.358974358975,4595.8974358974365,4461.538461538462,4426.666666666667,4402.564102564103,4780.000000000001,4390.256410256411,4279.48717948718,4201.538461538462,4537.948717948719
210.05551,0.47123355,0.21107599,0.2998427,0.66371,0,0.0,0.0,0.0,0.0,0.0386259,0,0,0.0,0.0,0,0,40.0,0.0,0.0,4614.871794871796,3976.410256410257,4487.6923076923085,4464.615384615385,4265.641025641026,4585.641025641026,4443.589743589744,4402.564102564103,4380.512820512821,4734.358974358975,4375.8974358974365,4290.256410256411,4181.538461538462,4508.717948717949
210.30573,0.44376227,0.24336435,0.29498956,0.66305655,0,0.0,0.0,0.0,0.0,0.11057882,0,0,0.0,0.0,0,0,72.0,0.0,395.0,4616.923076923077,3957.9487179487182,4493.333333333334,4447.179487179487,4251.282051282052,4573.333333333334,4457.948717948719,4426.153846153847,4389.743589743591,4734.358974358975,4365.641025641026,4303.589743589744,4195.8974358974365,4508.205128205129
210.55595,0.44376227,0.24336435,0.29498956,0.66305655,0,0.0,0.0,0.0,0.0,0.03234782,0,0,0.0,0.0,0,0,104.0,0.0,518.0,4622.051282051282,3905.6410256410263,4485.128205128206,4404.102564102564,4226.153846153847,4552.307692307693,4464.615384615385,4443.589743589744,4362.051282051282,4696.410256410257,4342.564102564103,4286.153846153847,4172.307692307693,4485.641025641026
210.80617,0.40594888,0.25175667,0.29489443,0.65851456,0,0.0,0.0,0.0,0.0,0.011798151,0,0,0.0,0.0,0,0,7.0,0.0,461.0,4617.948717948719,3883.589743589744,4482.051282051282,4383.076923076924,4227.6923076923085,4525.641025641026,4472.307692307693,4456.923076923077,4349.743589743591,4682.564102564103,4317.948717948719,4255.8974358974365,4150.256410256411,4456.923076923077
211.05638,0.40594888,0.25175667,0.29489443,0.65851456,0,0.0,0.0,0.0,0.0,0.02843039,0,0,0.0,0.0,0,0,39.0,0.0,0.0,4616.410256410257,3893.8461538461543,4480.000000000001,4386.666666666667,4234.358974358975,4519.48717948718,4471.794871794872,4461.538461538462,4358.461538461539,4697.435897435898,4328.205128205129,4235.8974358974365,4158.461538461539,4477.948717948719
211.3066,0.4099409,0.23487899,0.2952785,0.6495874,0,0.0,0.0,0.0,0.0,0.0,0,0,0.69357103,0.0,0,0,71.0,0.0,461.0,4603.076923076924,3875.8974358974365,4465.641025641026,4374.871794871796,4239.48717948718,4524.615384615385,4474.358974358975,4456.923076923077,4357.948717948719,4712.307692307693,4323.589743589744,4213.846153846154,4162.564102564103,4454.871794871796
211.55681,0.4099409,0.23487899,0.2952785,0.6495874,0,0.0,0.0,0.0,0.0,0.0,0,0,0.06387388,0.0,0,0,103.0,0.0,501.0,4603.076923076924,3930.2564102564106,4475.8974358974365,4411.282051282052,4247.179487179487,4525.641025641026,4460.000000000001,4441.025641025642,4362.051282051282,4717.435897435898,4360.000000000001,4231.282051282052,4173.846153846154,4471.794871794872
211.80702,0.3817742,0.21184532,0.29562718,0.6415525,0,0.0,0.0,0.0,0.0,0.0,0,0,0.038883712,0.0,0,0,6.0,0.0,539.0,4601.538461538462,3947.1794871794878,4481.025641025642,4429.743589743591,4254.358974358975,4538.974358974359,4455.8974358974365,4440.512820512821,4382.051282051282,4730.769230769231,4364.102564102564,4255.8974358974365,4191.282051282052,4496.923076923077
212.05724,0.3817742,0.21184532,0.29562718,0.6415525,0,0.0,0.0,0.0,0.0,0.0,0,0,0.4423573,0.0,0,0,38.0,0.0,0.0,4584.615384615385,3926.666666666667,4478.461538461539,4412.820512820514,4262.564102564103,4555.384615384616,4460.512820512821,4457.435897435898,4401.025641025642,4766.666666666667,4384.615384615385,4264.615384615385,4206.153846153847,4470.769230769231
212.40129,0.325909,0.18652074,0.29594404,0.63431984,1,0.0,0.0,0.0,0.0,0.0,0,0,0.20991865,0.0,0,0,82.0,0.0,542.0,4616.923076923077,4005.6410256410263,4498.461538461539,4490.256410256411,4255.8974358974365,4556.923076923077,4437.948717948719,4423.076923076924,4394.871794871796,4748.205128205129,4369.2307692307695,4309.2307692307695,4200.512820512821,4543.589743589744
212.55766,0.325909,0.18652074,0.29594404,0.63431984,0,0.0,0.0,0.0,0.0,0.14725298,0,0,0.0,0.0,0,0,102.0,0.0,542.0,4613.846153846154,3984.1025641025644,4495.384615384616,4474.871794871796,4246.666666666667,4558.974358974359,4441.025641025642,4435.8974358974365,4399.48717948718,4738.974358974359,4371.282051282052,4313.333333333334,4172.307692307693,4509.743589743591
212.80788,0.31015238,0.1867983,0.2923078,0.6357205,0,0.0,0.0,0.0,0.0,0.24368382,0,0,0.0,0.0,0,0,5.0,0.0,566.0,4617.948717948719,3957.9487179487182,4498.461538461539,4458.461538461539,4222.564102564103,4542.051282051282,4442.051282051282,4427.6923076923085,4394.871794871796,4711.794871794872,4341.025641025642,4314.871794871796,4167.6923076923085,4492.820512820514
213.05809,0.31015238,0.1867983,0.2923078,0.6357205,0,0.0,0.0,0.0,0.0,0.0213042,0,0,0.0,0.0,0,0,37.0,0.0,0.0,4615.8974358974365,3860.0000000000005,4492.820512820514,4369.2307692307695,4201.025641025642,4523.589743589744,4463.589743589744,4445.641025641026,4358.974358974359,4633.333333333334,4277.435897435898,4282.051282051282,4113.333333333334,4458.974358974359
213.30832,0.31324047,0.21019429,0.28903866,0.642277,0,0.0,0.0,0.0,0.0,0.012116785,0,0,0.0,0.0,0,0,69.0,0.0,566.0,4606.153846153847,3788.205128205129,4482.564102564103,4291.282051282052,4168.717948717949,4460.512820512821,4480.512820512821,4460.000000000001,4326.666666666667,4581.025641025642,4237.435897435898,4240.000000000001,4056.9230769230776,4437.948717948719
213.55853,0.31324047,0.21019429,0.28903866,0.642277,0,0.0,0.0,0.0,0.0,0.04294618,0,0,0.0,0.0,0,0,101.0,0.0,489.0,4592.820512820514,3782.0512820512827,4483.076923076924,4269.2307692307695,4159.48717948718,4426.153846153847,4463.076923076924,4424.102564102564,4301.538461538462,4572.820512820514,4230.769230769231,4184.102564102564,4061.538461538462,4432.820512820514
213.80875,0.44938415,0.23346561,0.28610015,0.64816636,0,0.0,0.0,0.0,0.0,0.026489686,0,0,0.0,0.0,0,0,4.0,0.0,569.0,4566.666666666667,3807.1794871794878,4499.48717948718,4281.025641025642,4171.282051282052,4416.410256410257,4442.051282051282,4389.2307692307695,4304.102564102564,4599.48717948718,4244.615384615385,4150.256410256411,4089.7435897435903,4432.307692307693
214.05896,0.44938415,0.23346561,0.28610015,0.64816636,0,0.0,0.0,0.0,0.0,0.025125347,0,0,0.0,0.0,0,0,36.0,0.0,0.0,4552.307692307693,3839.48717948718,4500.000000000001,4303.589743589744,4187.179487179487,4436.410256410257,4422.051282051282,4347.179487179487,4300.512820512821,4619.48717948718,4253.846153846154,4131.794871794872,4095.8974358974365,4440.512820512821
214.30917,0.5021333,0.23188403,0.28239232,0.6534545,0,0.0,0.0,0.0,0.0,0.04441608,0,0,0.0,0.0,0,0,68.0,0.0,569.0,4534.358974358975,3878.461538461539,4499.48717948718,4341.025641025642,4217.948717948719,4469.2307692307695,4403.076923076924,4359.48717948718,4312.820512820514,4652.820512820514,4295.384615384616,4143.589743589744,4137.435897435898,4487.6923076923085
214.55939,0.5021333,0.23188403,0.28239232,0.6534545,0,0.0,0.0,0.0,0.0,0.0727085,0,0,0.0,0.0,0,0,100.0,0.0,518.0,4537.435897435898,3911.7948717948725,4502.564102564103,4374.358974358975,4229.74358974359,4490.769230769231,4395.384615384616,4393.333333333334,4326.153846153847,4687.179487179488,4341.025641025642,4154.871794871796,4162.564102564103,4515.384615384616
214.8096,0.52635974,0.20798169,0.27905968,0.6558136,0,0.0,0.0,0.0,0.0,0.040513474,0,0,0.0,0.0,0,0,3.0,0.0,549.0,4549.743589743591,3945.1282051282055,4499.48717948718,4410.256410256411,4261.025641025642,4524.102564102564,4399.48717948718,4385.641025641026,4353.333333333334,4716.410256410257,4369.2307692307695,4189.74358974359,4182.564102564103,4543.076923076924
215.05981,0.52635974,0.20798169,0.27905968,0.6558136,0,0.0,0.0,0.0,0.0,0.030611182,0,0,0.0,0.0,0,0,35.0,0.0,0.0,4563.589743589744,3968.717948717949,4502.564102564103,4443.589743589744,4278.974358974359,4567.6923076923085,4425.641025641026,4401.025641025642,4380.000000000001,4748.717948717949,4412.820512820514,4232.820512820514,4219.48717948718,4555.8974358974365
215.31003,0.61072487,0.19288099,0.2764198,0.6579263,0,0.0,0.0,0.0,0.0,0.03618272,0,0,0.0,0.0,0,0,67.0,0.0,549.0,4571.282051282052,3990.2564102564106,4508.205128205129,4471.794871794872,4279.48717948718,4584.102564102564,4428.717948717949,4397.435897435898,4404.102564102564,4754.358974358975,4428.717948717949,4265.641025641026,4226.666666666667,4567.179487179488
215.56024,0.61072487,0.19288099,0.2764198,0.6579263,0,0.0,0.0,0.0,0.0,0.09413803,0,0,0.0,0.0,0,0,99.0,0.0,501.0,4586.153846153847,4021.0256410256416,4513.333333333334,4506.153846153847,4284.102564102564,4595.8974358974365,4443.589743589744,4413.846153846154,4409.743589743591,4748.205128205129,4397.948717948719,4276.410256410257,4187.179487179487,4549.2307692307695
215.81047,0.5270611,0.18299097,0.27404875,0.65656924,0,0.0,0.0,0.0,0.0,0.062089745,0,0,0.0,0.0,0,0,2.0,0.0,225.0,4601.025641025642,4025.6410256410263,4515.8974358974365,4520.512820512821,4277.435897435898,4597.948717948719,4445.641025641026,4412.820512820514,4403.076923076924,4710.256410256411,4381.538461538462,4281.025641025642,4170.769230769231,4537.435897435898
216.06068,0.5270611,0.18299097,0.27404875,0.65656924,0,0.0,0.0,0.0,0.0,0.07814575,0,0,0.0,0.0,0,0,34.0,0.0,0.0,4605.128205128206,3985.1282051282055,4516.923076923077,4484.615384615385,4248.205128205129,4585.641025641026,4460.000000000001,4425.641025641026,4400.512820512821,4699.48717948718,4372.307692307693,4286.666666666667,4182.051282051282,4536.410256410257
216.3109,0.52264,0.18118589,0.27191982,0.6554595,0,0.0,0.0,0.0,0.0,0.030919842,0,0,0.0,0.0,0,0,66.0,0.0,225.0,4605.641025641026,3884.615384615385,4504.102564102564,4386.666666666667,4199.48717948718,4544.102564102564,4478.461538461539,4429.743589743591,4356.410256410257,4616.923076923077,4307.6923076923085,4261.025641025642,4116.410256410257,4507.6923076923085
216.56111,0.52264,0.18118589,0.27191982,0.6554595,0,0.0,0.0,0.0,0.0,0.01945902,0,0,0.0,0.0,0,0,98.0,0.0,544.0,4600.000000000001,3799.48717948718,4494.358974358975,4293.846153846154,4167.6923076923085,4489.743589743591,4468.717948717949,4442.051282051282,4335.8974358974365,4608.717948717949,4273.333333333334,4214.871794871796,4120.512820512821,4500.000000000001
216.81133,0.51856613,0.19903994,0.270009,0.65547496,0,0.0,0.0,0.0,0.0,0.030029742,0,0,0.0,0.0,0,0,1.0,0.0,514.0,4585.641025641026,3790.7692307692314,4488.717948717949,4279.48717948718,4184.102564102564,4462.051282051282,4418.461538461539,4431.794871794872,4328.717948717949,4618.974358974359,4278.974358974359,4168.205128205129,4123.076923076924,4492.307692307693
217.06154,0.51856613,0.19903994,0.270009,0.65547496,0,0.0,0.0,0.0,0.0,0.0,0,0,0.23928753,0.0,0,0,33.0,0.0,0.0,4584.102564102564,3825.1282051282055,4490.769230769231,4300.512820512821,4198.974358974359,4478.974358974359,4425.641025641026,4446.153846153847,4359.48717948718,4673.333333333334,4305.128205128206,4164.102564102564,4142.564102564103,4502.564102564103
217.31175,0.47263974,0.20691268,0.2696549,0.65873134,0,0.0,0.0,0.0,0.0,0.0,0,0,0.1922978,0.0,0,0,65.0,0.0,514.0,4585.128205128206,3871.2820512820517,4495.384615384616,4344.102564102564,4219.48717948718,4493.333333333334,4412.820512820514,4420.000000000001,4369.743589743591,4690.769230769231,4354.871794871796,4180.000000000001,4187.179487179487,4528.717948717949
217.56197,0.47263974,0.20691268,0.2696549,0.65873134,0,0.0,0.0,0.0,0.0,0.022813238,0,0,0.0,0.0,0,0,97.0,0.0,489.0,4583.589743589744,3895.8974358974365,4494.871794871796,4367.6923076923085,4243.076923076924,4523.589743589744,4428.205128205129,4402.564102564103,4390.769230769231,4724.615384615386,4382.051282051282,4195.384615384616,4215.384615384616,4534.871794871796
217.81218,0.47784883,0.21283194,0.2708392,0.6648535,0,0.0,0.0,0.0,0.0,0.061001457,0,0,0.0,0.0,0,0,0.0,0.0,279.0,4586.666666666667,3945.6410256410263,4501.538461538462,4410.769230769231,4268.717948717949,4551.282051282052,4444.102564102564,4405.128205128206,4403.589743589744,4735.8974358974365,4406.666666666667,4207.179487179487,4211.282051282052,4524.102564102564
218.0624,0.47784883,0.21283194,0.2708392,0.6648535,0,0.0,0.0,0.0,0.0,0.1770311,0,0,0.0,0.0,0,0,32.0,0.0,0.0,4590.256410256411,3989.23076923077,4510.769230769231,4458.974358974359,4294.871794871796,4581.025641025642,4444.102564102564,4396.410256410257,4413.846153846154,4757.948717948719,4407.179487179487,4218.461538461539,4207.6923076923085,4526.153846153847
218.3126,0.50920105,0.22101915,0.27191,0.67209125,0,0.0,0.0,0.0,0.0,0.47020236,0,0,0.0,0.0,0,0,64.0,0.0,279.0,4602.051282051282,4011.2820512820517,4513.846153846154,4485.128205128206,4278.974358974359,4587.179487179488,4460.512820512821,4407.179487179487,4428.717948717949,4749.743589743591,4396.923076923077,4262.564102564103,4175.8974358974365,4486.666666666667
218.56284,0.50920105,0.22101915,0.27191,0.67209125,0,0.0,0.0,0.0,0.0,0.19683112,0,0,0.0,0.0,0,0,96.0,0.0,513.0,4610.256410256411,3984.1025641025644,4516.410256410257,4480.512820512821,4281.538461538462,4602.564102564103,4470.769230769231,4409.2307692307695,4417.948717948719,4740.512820512821,4381.025641025642,4280.512820512821,4174.358974358975,4490.769230769231
218.81305,0.50400203,0.22599222,0.27287862,0.68733555,0,0.0,0.0,0.0,0.0,0.23795159,0,0,0.0,0.0,0,0,128.0,0.0,513.0,4621.025641025642,4008.717948717949,4519.48717948718,4501.025641025642,4287.6923076923085,4620.512820512821,4482.564102564103,4414.358974358975,4431.794871794872,4752.307692307693,4390.256410256411,4316.410256410257,4197.435897435898,4540.000000000001
219.06326,0.50400203,0.22599222,0.27287862,0.68733555,0,0.0,0.0,0.0,0.0,0.0,0,0,0.6542934,0.0,0,0,31.0,0.0,0.0,4636.410256410257,3996.410256410257,4529.743589743591,4492.307692307693,4264.102564102564,4613.846153846154,4503.589743589744,4444.102564102564,4451.282051282052,4781.538461538462,4404.615384615385,4357.435897435898,4263.589743589744,4607.179487179488
219.31348,0.5386809,0.23744959,0.27262697,0.7037325,0,0.0,0.0,0.17847705,0.0,0.0,0,0,0.0,0.0,0,0,63.0,0.0,0.0,4639.48717948718,3991.2820512820517,4529.2307692307695,4493.846153846154,4262.051282051282,4617.435897435898,4504.102564102564,4443.076923076924,4442.051282051282,4783.589743589744,4431.282051282052,4354.358974358975,4241.538461538462,4605.128205128206
219.56369,0.5386809,0.23744959,0.27262697,0.7037325,0,0.0,0.0,0.2901125,0.0,0.0,0,0,0.0,0.0,0,0,95.0,0.0,501.0,4653.333333333334,4005.6410256410263,4546.666666666667,4508.205128205129,4277.435897435898,4623.589743589744,4506.666666666667,4445.128205128206,4457.948717948719,4787.6923076923085,4429.2307692307695,4364.102564102564,4263.076923076924,4614.871794871796
219.8139,0.6312235,0.25644654,0.27240542,0.7184381,0,0.0,0.0,0.0,0.0,0.0,0,0,0.0,0.2564349,0,0,127.0,0.0,501.0,4661.538461538462,4013.8461538461543,4555.8974358974365,4508.205128205129,4279.48717948718,4617.948717948719,4497.948717948719,4432.820512820514,4446.153846153847,4795.8974358974365,4424.102564102564,4367.6923076923085,4254.871794871796,4602.051282051282
220.06412,0.6312235,0.25644654,0.27240542,0.7184381,0,0.0,0.0,0.0,0.0,0.0,0,0,0.0,0.22699095,0,0,30.0,0.0,0.0,4662.564102564103,4009.23076923077,4563.076923076924,4514.358974358975,4281.025641025642,4620.512820512821,4500.512820512821,4443.589743589744,4445.128205128206,4788.717948717949,4434.871794871796,4373.333333333334,4262.564102564103,4598.974358974359
220.31433,0.7088352,0.28555378,0.27221093,0.7316157,0,0.0,0.0,0.0,0.0,0.0,0,0,0.0,0.749545,0,0,62.0,0.0,0.0,4662.564102564103,4030.2564102564106,4577.948717948719,4532.820512820514,4285.641025641026,4615.384615384616,4493.333333333334,4427.179487179487,4430.769230769231,4747.179487179488,4370.769230769231,4338.974358974359,4172.307692307693,4532.820512820514
220.56454,0.7088352,0.28555378,0.27221093,0.7316157,0,0.0,0.0,0.0,0.0,0.0,0,0,0.0,0.47276995,0,0,94.0,0.0,544.0,4665.641025641026,4055.3846153846157,4578.461538461539,4551.282051282052,4286.153846153847,4618.461538461539,4491.282051282052,4413.846153846154,4425.641025641026,4757.435897435898,4387.179487179487,4337.948717948719,4189.74358974359,4552.820512820514
220.81476,0.6696234,0.30194512,0.27252904,0.7425651,0,0.0,0.0,0.0,0.0,0.0,0,0,0.2328225,0.0,0,0,126.0,0.0,544.0,4668.205128205129,4029.23076923077,4574.871794871796,4524.102564102564,4263.076923076924,4599.48717948718,4478.461538461539,4413.333333333334,4421.025641025642,4759.48717948718,4382.051282051282,4331.794871794872,4200.000000000001,4555.384615384616
221.06497,0.6696234,0.30194512,0.27252904,0.7425651,0,0.0,0.0,0.0,0.0,0.0,0,0,0.102297924,0.0,0,0,29.0,0.0,0.0,4663.076923076924,4005.1282051282055,4559.48717948718,4506.153846153847,4253.333333333334,4590.769230769231,4478.461538461539,4442.051282051282,4427.179487179487,4754.871794871796,4365.641025641026,4315.384615384616,4187.179487179487,4525.128205128206
221.3152,0.6304371,0.29323226,0.27755493,0.7504272,0,0.0,0.0,0.0,0.0,0.0,0,0,0.09019455,0.0,0,0,61.0,0.0,0.0,4664.102564102564,3995.8974358974365,4548.717948717949,4498.461538461539,4248.717948717949,4580.000000000001,4461.025641025642,4430.256410256411,4411.282051282052,4734.871794871796,4355.384615384616,4302.564102564103,4182.564102564103,4523.076923076924
221.56541,0.6304371,0.29323226,0.27755493,0.7504272,0,0.0,0.0,0.0,0.0,0.0,0,0,0.17288741,0.0,0,0,93.0,0.0,489.0,4661.538461538462,3999.48717948718,4547.6923076923085,4498.461538461539,4247.6923076923085,4580.512820512821,4459.48717948718,4435.8974358974365,4407.6923076923085,4724.615384615386,4353.333333333334,4296.410256410257,4181.538461538462,4509.2307692307695
221.81563,0.5651452,0.28647828,0.28496578,0.75014067,0,0.0,0.0,0.0,0.0,0.0,0,0,0.29125506,0.0,0,0,125.0,0.0,489.0,4670.256410256411,3988.205128205129,4553.846153846154,4488.717948717949,4244.102564102564,4580.512820512821,4464.615384615385,4443.589743589744,4415.8974358974365,4730.769230769231,4338.461538461539,4296.410256410257,4188.205128205129,4515.8974358974365
222.06584,0.5651452,0.28647828,0.28496578,0.75014067,0,0.0,0.0,0.0,0.0,0.0,0,0,0.38544032,0.0,0,0,28.0,0.0,0.0,4666.666666666667,3995.8974358974365,4567.179487179488,4492.307692307693,4240.000000000001,4580.000000000001,4469.743589743591,4444.615384615385,4418.461538461539,4743.076923076924,4357.435897435898,4306.153846153847,4210.256410256411,4508.717948717949
222.31606,0.49722025,0.27797204,0.29163897,0.7496091,0,0.0,0.0,0.0,0.0,0.0,0,0,0.28325513,0.0,0,0,60.0,0.0,0.0,4667.179487179488,3966.1538461538466,4562.564102564103,4469.743589743591,4244.102564102564,4582.564102564103,4485.128205128206,4481.025641025642,4441.025641025642,4773.846153846154,4402.564102564103,4309.2307692307695,4247.6923076923085,4527.6923076923085
222.56627,0.49722025,0.27797204,0.29163897,0.7496091,0,0.0,0.0,0.0,0.0,0.03848781,0,0,0.0,0.0,0,0,92.0,0.0,516.0,4661.538461538462,3959.48717948718,4558.974358974359,4462.051282051282,4246.153846153847,4594.358974358975,4488.205128205129,4485.128205128206,4445.128205128206,4767.179487179488,4383.076923076924,4291.282051282052,4234.871794871796,4522.051282051282
222.81648,0.47494787,0.2692987,0.29426903,0.7519878,0,0.0,0.0,0.0,0.0,0.042108286,0,0,0.0,0.0,0,0,124.0,0.0,516.0,4667.6923076923085,3973.8461538461543,4570.256410256411,4472.820512820514,4243.589743589744,4585.128205128206,4487.179487179488,4473.333333333334,4444.102564102564,4776.923076923077,4384.102564102564,4297.435897435898,4249.74358974359,4535.384615384616
223.09798,0.47494787,0.2692987,0.29426903,0.7519878,1,0.0,0.0,0.0,0.0,0.0,0,0,0.32931596,0.0,0,0,31.0,0.0,0.0,4680.512820512821,4014.8717948717954,4576.923076923077,4502.051282051282,4237.948717948719,4578.461538461539,4475.384615384616,4458.461538461539,4431.794871794872,4756.923076923077,4368.717948717949,4265.128205128206,4233.846153846154,4569.743589743591
223.41075,0.41906068,0.26959392,0.29489267,0.75028646,1,0.0,0.0,0.0,0.0,0.0,0,0,0.2713192,0.0,0,0,71.0,0.0,461.0,4716.923076923077,4120.000000000001,4593.333333333334,4578.974358974359,4208.717948717949,4536.410256410257,4437.435897435898,4410.769230769231,4402.051282051282,4702.564102564103,4368.717948717949,4288.205128205129,4258.461538461539,4715.384615384616
223.56712,0.41906068,0.26959392,0.29489267,0.75028646,0,0.0,0.0,0.0,0.0,0.210249,0,0,0.0,0.0,0,0,91.0,0.0,498.0,4661.538461538462,3986.1538461538466,4564.102564102564,4459.48717948718,4209.2307692307695,4563.076923076924,4455.384615384616,4425.641025641026,4412.820512820514,4738.461538461539,4331.282051282052,4230.256410256411,4185.641025641026,4539.48717948718
223.81734,0.40534458,0.32254925,0.29834947,0.74585,0,0.0,0.0,0.0,0.0,0.17593384,0,0,0.0,0.0,0,0,123.0,0.0,498.0,4649.2307692307695,3937.9487179487182,4535.384615384616,4417.435897435898,4213.846153846154,4568.717948717949,4456.923076923077,4431.794871794872,4411.794871794872,4731.794871794872,4325.641025641026,4225.641025641026,4149.74358974359,4508.717948717949
224.06757,0.40534458,0.32254925,0.29834947,0.74585,0,0.0,0.0,0.0,0.0,0.07922423,0,0,0.0,0.0,0,0,26.0,0.0,0.0,4648.717948717949,3927.692307692308,4528.205128205129,4406.153846153847,4203.589743589744,4553.846153846154,4460.000000000001,4422.564102564103,4402.051282051282,4710.256410256411,4314.358974358975,4232.307692307693,4144.615384615385,4489.2307692307695
224.31778,0.40612835,0.39533722,0.30146325,0.74107146,0,0.0,0.0,0.0,0.0,0.18010998,0,0,0.0,0.0,0,0,58.0,0.0,0.0,4658.461538461539,3944.615384615385,4527.179487179488,4422.564102564103,4202.051282051282,4548.717948717949,4457.948717948719,4427.6923076923085,4398.974358974359,4720.000000000001,4322.051282051282,4244.615384615385,4152.820512820514,4491.794871794872
224.568,0.40612835,0.39533722,0.30146325,0.74107146,0,0.0,0.0,0.0,0.0,0.10586135,0,0,0.0,0.0,0,0,90.0,0.0,544.0,4658.461538461539,3960.0000000000005,4522.051282051282,4430.256410256411,4200.512820512821,4540.512820512821,4458.461538461539,4435.384615384616,4398.461538461539,4718.461538461539,4309.2307692307695,4237.435897435898,4150.769230769231,4508.205128205129
224.8182,0.37304494,0.46484482,0.3044561,0.73661673,0,0.0,0.0,0.0,0.0,0.12143886,0,0,0.0,0.0,0,0,122.0,0.0,544.0,4662.051282051282,3953.8461538461543,4526.666666666667,4425.128205128206,4208.717948717949,4556.410256410257,4455.8974358974365,4428.205128205129,4383.076923076924,4709.743589743591,4303.589743589744,4244.615384615385,4151.794871794872,4523.589743589744
225.06842,0.37304494,0.46484482,0.3044561,0.73661673,0,0.0,0.0,0.0,0.0,0.0,0,0,0.23130448,0.0,0,0,25.0,0.0,0.0,4662.564102564103,3963.589743589744,4520.000000000001,4430.256410256411,4216.923076923077,4552.307692307693,4454.871794871796,4437.948717948719,4393.333333333334,4711.282051282052,4336.410256410257,4264.615384615385,4167.179487179487,4540.512820512821
225.31863,0.41809303,0.47325408,0.30715188,0.7325956,0,0.0,0.0,0.0,0.0,0.09970152,0,0,0.0,0.0,0,0,57.0,0.0,0.0,4661.025641025642,3981.0256410256416,4526.666666666667,4444.102564102564,4210.769230769231,4548.717948717949,4455.384615384616,4454.358974358975,4407.6923076923085,4717.948717948719,4332.820512820514,4261.025641025642,4166.153846153847,4541.025641025642
225.56885,0.41809303,0.47325408,0.30715188,0.7325956,0,0.0,0.0,0.0,0.0,0.06597288,0,0,0.0,0.0,0,0,89.0,0.0,489.0,4659.48717948718,3954.8717948717954,4511.794871794872,4420.000000000001,4203.589743589744,4545.128205128206,4443.589743589744,4451.282051282052,4405.641025641026,4713.333333333334,4316.410256410257,4250.256410256411,4155.384615384616,4515.384615384616
225.81906,0.4033903,0.45694745,0.30958006,0.72693354,0,0.0,0.0,0.0,0.0,0.0,0,0,0.2241306,0.0,0,0,121.0,0.0,489.0,4669.743589743591,3982.0512820512827,4515.384615384616,4449.743589743591,4218.461538461539,4540.512820512821,4445.128205128206,4446.666666666667,4410.769230769231,4715.8974358974365,4340.512820512821,4263.076923076924,4190.769230769231,4562.051282051282
226.06927,0.4033903,0.45694745,0.30958006,0.72693354,0,0.0,0.0,0.0,0.0,0.0,0,0,0.18805018,0.0,0,0,24.0,0.0,0.0,4655.8974358974365,3957.9487179487182,4507.179487179488,4429.2307692307695,4204.102564102564,4537.948717948719,4443.076923076924,4444.102564102564,4411.282051282052,4722.051282051282,4334.871794871796,4249.2307692307695,4176.923076923077,4508.717948717949
226.31949,0.37008807,0.44425333,0.30945757,0.72141755,0,0.0,0.0,0.0,0.0,0.26907656,0,0,0.0,0.0,0,0,56.0,0.0,0.0,4651.794871794872,3950.2564102564106,4502.564102564103,4416.923076923077,4206.666666666667,4538.461538461539,4445.128205128206,4429.743589743591,4413.846153846154,4727.179487179488,4331.794871794872,4248.717948717949,4176.410256410257,4489.743589743591
226.5697,0.37008807,0.44425333,0.30945757,0.72141755,0,0.0,0.0,0.0,0.0,0.0,0,0,0.16182213,0.0,0,0,88.0,0.0,521.0,4650.769230769231,3935.3846153846157,4495.8974358974365,4408.205128205129,4207.6923076923085,4538.461538461539,4438.461538461539,4413.333333333334,4398.974358974359,4705.128205128206,4311.794871794872,4239.48717948718,4147.6923076923085,4480.512820512821
226.81993,0.33402014,0.44473284,0.30743223,0.7164461,0,0.0,0.0,0.0,0.0,0.0,0,0,0.28078684,0.0,0,0,120.0,0.0,521.0,4662.564102564103,3943.589743589744,4499.48717948718,4418.461538461539,4207.6923076923085,4542.051282051282,4458.461538461539,4436.410256410257,4409.743589743591,4722.564102564103,4334.358974358975,4257.435897435898,4166.666666666667,4510.769230769231
227.07014,0.33402014,0.44473284,0.30743223,0.7164461,0,0.0,0.0,0.0,0.0,0.13941379,0,0,0.0,0.0,0,0,23.0,0.0,0.0,4662.564102564103,3951.7948717948725,4502.051282051282,4429.2307692307695,4200.512820512821,4534.871794871796,4460.000000000001,4442.564102564103,4404.102564102564,4722.051282051282,4345.641025641026,4267.179487179487,4169.2307692307695,4516.923076923077
227.32036,0.27762592,0.46167624,0.3056114,0.7133163,0,0.0,0.0,0.0,0.0,0.0,0,0,0.60302716,0.0,0,0,55.0,0.0,0.0,4653.333333333334,3975.3846153846157,4502.564102564103,4451.282051282052,4202.564102564103,4542.051282051282,4463.076923076924,4440.512820512821,4395.384615384616,4702.051282051282,4332.820512820514,4252.307692307693,4171.282051282052,4514.871794871796
227.57057,0.27762592,0.46167624,0.3056114,0.7133163,0,0.0,0.0,0.0,0.0,0.0,0,0,0.1517597,0.0,0,0,87.0,0.0,500.0,4644.615384615385,3936.410256410257,4494.358974358975,4412.307692307693,4200.512820512821,4537.435897435898,4471.282051282052,4436.410256410257,4394.871794871796,4704.102564102564,4313.333333333334,4225.641025641026,4179.48717948718,4477.948717948719
227.82079,0.25773138,0.45897838,0.30178696,0.7125426,0,0.0,0.0,0.0,0.0,0.0,0,0,0.67935246,0.0,0,1,119.0,0.0,500.0,4653.846153846154,3937.435897435898,4497.948717948719,4411.282051282052,4206.666666666667,4529.2307692307695,4479.48717948718,4431.282051282052,4380.000000000001,4675.8974358974365,4311.794871794872,4247.6923076923085,4189.74358974359,4554.871794871796
228.16483,0.25773138,0.45897838,0.30178696,0.7125426,0,0.0,0.0,0.0,0.0,0.0,0,0,0.46404183,0.0,0,0,34.0,0.0,0.0,4635.8974358974365,3890.7692307692314,4478.461538461539,4365.128205128206,4211.794871794872,4474.871794871796,4447.179487179487,4432.307692307693,4372.820512820514,4666.153846153847,4285.128205128206,4224.615384615385,4170.769230769231,4528.205128205129
228.32121,0.20574583,0.45398587,0.29834747,0.71182984,0,0.0,0.0,0.0,0.0,0.0,0,0,0.14769115,0.0,0,0,54.0,0.0,0.0,4634.871794871796,3910.2564102564106,4482.564102564103,4385.641025641026,4233.333333333334,4490.769230769231,4427.179487179487,4414.358974358975,4360.000000000001,4659.48717948718,4289.2307692307695,4230.769230769231,4153.846153846154,4548.717948717949
228.57143,0.20574583,0.45398587,0.29834747,0.71182984,0,0.0,0.0,0.0,0.0,0.0,0,0,0.12635495,0.0,0,0,86.0,0.0,544.0,4633.333333333334,3922.0512820512827,4481.025641025642,4393.333333333334,4230.769230769231,4490.256410256411,4423.076923076924,4397.948717948719,4360.000000000001,4641.538461538462,4306.666666666667,4226.153846153847,4150.769230769231,4521.538461538462
228.82164,0.16456845,0.4575939,0.2952547,0.71431607,0,0.0,0.0,0.0,0.0,0.0,0,0,0.0,0.11629516,0,0,118.0,0.0,544.0,4656.410256410257,3965.1282051282055,4493.846153846154,4435.8974358974365,4250.256410256411,4504.615384615385,4438.461538461539,4411.282051282052,4378.461538461539,4673.333333333334,4369.743589743591,4246.153846153847,4160.000000000001,4538.974358974359
229.07185,0.16456845,0.4575939,0.2952547,0.71431607,0,0.0,0.0,0.0,0.0,0.0,0,0,0.0,0.42111254,0,0,21.0,0.0,0.0,4654.358974358975,3965.1282051282055,4486.153846153847,4443.589743589744,4255.384615384616,4522.564102564103,4435.8974358974365,4396.923076923077,4369.743589743591,4698.461538461539,4377.435897435898,4243.589743589744,4160.512820512821,4525.128205128206
