timestamp,excitement,frustration,meditation,engagementBoredom,blink,clench,laugh,smile,eyebrow,furrowBrow,lookLeft,lookRight,smirkLeft,smirkRight,winkLeft,winkRight,eeg0,eeg1,eeg2,eeg3,eeg4,eeg5,eeg6,eeg7,eeg8,eeg9,eeg10,eeg11,eeg12,eeg13,eeg14,eeg15,eeg16
296.02002,0.6343154,0.4845891,0.3458069,0.633894,0,0.0,0.0,0.0,0.0,0.05630225,0,0,0.0,0.0,0,0,59.0,0.0,0.0,4802.564102564103,4018.9743589743593,4630.769230769231,4477.948717948719,4231.282051282052,4592.820512820514,4552.820512820514,4333.333333333334,4417.435897435898,4708.205128205129,3723.589743589744,4370.769230769231,4177.435897435898,4220.000000000001
296.27023,0.5832414,0.52481663,0.34455854,0.6257241,0,0.0,0.0,0.0,0.0,0.0,0,0,0.0,0.1266562,0,0,91.0,0.0,516.0,4871.282051282052,4000.5128205128212,4635.384615384616,4466.153846153847,4212.820512820514,4592.307692307693,4569.743589743591,4537.948717948719,4433.846153846154,4719.48717948718,3841.538461538462,4354.358974358975,4191.794871794872,4800.512820512821
296.52045,0.5832414,0.52481663,0.34455854,0.6257241,0,0.0,0.0,0.0,0.0,1.0,0,0,0.0,0.0,0,0,123.0,0.0,516.0,4909.743589743591,4034.8717948717954,4647.6923076923085,4478.461538461539,4215.384615384616,4621.538461538462,4588.717948717949,4663.589743589744,4509.743589743591,4796.410256410257,3981.538461538462,4409.743589743591,4236.410256410257,5112.307692307693
296.77066,0.6189116,0.5610214,0.34343502,0.6183711,0,0.0,0.0,0.0,0.0,1.0,0,0,0.0,0.0,0,0,26.0,0.0,0.0,4888.717948717949,4035.8974358974365,4616.923076923077,4462.564102564103,4203.076923076924,4603.589743589744,4569.743589743591,4648.205128205129,4487.179487179488,4780.000000000001,4018.9743589743593,4386.666666666667,4214.358974358975,4826.666666666667
297.02087,0.6189116,0.5610214,0.34343502,0.6183711,0,0.0,0.0,0.0,0.0,1.0,0,0,0.0,0.0,0,0,58.0,0.0,0.0,4841.538461538462,4011.2820512820517,4605.128205128206,4426.153846153847,4208.205128205129,4614.871794871796,4571.282051282052,4662.564102564103,4486.153846153847,4809.2307692307695,4111.282051282052,4415.8974358974365,4206.666666666667,4642.051282051282
297.2711,0.6492954,0.59360564,0.34241652,0.61171603,0,0.0,0.0,0.0,0.0,1.0,0,0,0.0,0.0,0,0,90.0,0.0,537.0,4826.666666666667,4023.076923076924,4594.358974358975,4417.435897435898,4217.948717948719,4595.384615384616,4569.2307692307695,4697.435897435898,4475.8974358974365,4830.769230769231,4203.076923076924,4397.948717948719,4202.564102564103,4445.641025641026
297.2711,0.6492954,0.59360564,0.34241652,0.61171603,0,0.0,0.0,0.0,0.0,1.0,0,0,0.0,0.0,0,0,90.0,0.0,537.0,4826.666666666667,4023.076923076924,4594.358974358975,4417.435897435898,4217.948717948719,4595.384615384616,4569.2307692307695,4697.435897435898,4475.8974358974365,4830.769230769231,4203.076923076924,4397.948717948719,4202.564102564103,4445.641025641026
297.7715,0.67636836,0.6229315,0.34150016,0.6057291,0,0.0,0.0,0.0,0.0,1.0,0,0,0.0,0.0,0,0,25.0,0.0,0.0,4764.102564102564,4034.358974358975,4551.794871794872,4457.435897435898,4214.871794871796,4552.820512820514,4525.128205128206,4648.205128205129,4435.384615384616,4786.666666666667,4257.435897435898,4354.871794871796,4183.589743589744,4407.6923076923085
297.7715,0.67636836,0.6229315,0.34150016,0.6057291,0,0.0,0.0,0.0,0.0,1.0,0,0,0.0,0.0,0,0,25.0,0.0,0.0,4764.102564102564,4034.358974358975,4551.794871794872,4457.435897435898,4214.871794871796,4552.820512820514,4525.128205128206,4648.205128205129,4435.384615384616,4786.666666666667,4257.435897435898,4354.871794871796,4183.589743589744,4407.6923076923085
298.27194,0.65171593,0.6493247,0.34068072,0.6003678,0,0.0,0.0,0.0,0.0,0.72903997,0,0,0.0,0.0,0,0,89.0,0.0,451.0,4792.820512820514,3861.0256410256416,4518.974358974359,4286.153846153847,4245.128205128206,4458.461538461539,4443.589743589744,4496.410256410257,4408.205128205129,4748.717948717949,4326.153846153847,4403.076923076924,4198.974358974359,4642.051282051282
298.39706,0.65171593,0.6493247,0.34068072,0.6003678,0,0.0,0.0,0.0,0.0,1.0,0,0,0.0,0.0,0,0,105.0,0.0,451.0,4746.153846153847,3808.205128205129,4497.948717948719,4256.923076923077,4261.538461538462,4473.846153846154,4461.025641025642,4470.769230769231,4394.358974358975,4725.641025641026,4276.410256410257,4383.076923076924,4137.948717948719,4335.384615384616
298.77237,0.6800216,0.67307866,0.3399386,0.59552044,0,0.0,0.0,0.0,0.0,1.0,0,0,0.0,0.0,0,0,24.0,0.0,0.0,4630.769230769231,3669.7435897435903,4459.48717948718,4191.282051282052,4289.74358974359,4398.461538461539,4369.743589743591,4366.666666666667,4254.871794871796,4536.410256410257,4400.512820512821,4310.256410256411,3929.2307692307695,4414.871794871796
299.0226,0.6800216,0.67307866,0.3399386,0.59552044,0,0.0,0.0,0.0,0.0,0.2191953,0,0,0.0,0.0,0,0,56.0,0.0,0.0,4616.923076923077,3705.1282051282055,4367.179487179487,4252.820512820514,4302.564102564103,4364.615384615385,4286.153846153847,4269.2307692307695,4201.538461538462,4459.48717948718,4496.923076923077,4203.076923076924,3898.9743589743593,4391.282051282052
299.27283,0.6023706,0.69445723,0.3392716,0.59116215,0,0.0,0.0,0.0,0.0,0.017683964,0,0,0.0,0.0,0,0,88.0,0.0,493.0,4661.025641025642,3790.7692307692314,4309.2307692307695,4344.102564102564,4282.564102564103,4409.2307692307695,4266.666666666667,4232.820512820514,4235.8974358974365,4541.538461538462,4570.769230769231,4108.205128205129,3978.461538461539,4532.820512820514
299.52304,0.6023706,0.69445723,0.3392716,0.59116215,0,0.0,0.0,0.0,0.0,1.0,0,0,0.0,0.0,0,1,120.0,0.0,493.0,4735.384615384616,3895.3846153846157,4323.589743589744,4446.153846153847,4261.538461538462,4446.153846153847,4275.8974358974365,4317.948717948719,4286.153846153847,4633.846153846154,4557.435897435898,4054.358974358975,4088.205128205129,4925.641025641026
299.77325,0.6772592,0.7136979,0.3386715,0.58724093,0,0.0,0.0,0.0,0.0,1.0,0,0,0.0,0.0,0,0,23.0,0.0,0.0,4688.717948717949,4073.333333333334,4358.974358974359,4605.128205128206,4233.333333333334,4504.102564102564,4350.769230769231,4387.6923076923085,4372.820512820514,4754.358974358975,4578.974358974359,4055.8974358974365,4187.179487179487,4798.974358974359
299.77325,0.6772592,0.7136979,0.3386715,0.58724093,0,0.0,0.0,0.0,0.0,1.0,0,0,0.0,0.0,0,0,23.0,0.0,0.0,4688.717948717949,4073.333333333334,4358.974358974359,4605.128205128206,4233.333333333334,4504.102564102564,4350.769230769231,4387.6923076923085,4372.820512820514,4754.358974358975,4578.974358974359,4055.8974358974365,4187.179487179487,4798.974358974359
300.27368,0.6877135,0.7310145,0.33813533,0.5837304,0,0.0,0.0,0.0,0.0,0.2502454,0,0,0.0,0.0,0,0,87.0,0.0,502.0,4687.179487179488,4165.641025641026,4400.000000000001,4674.358974358975,4181.538461538462,4518.974358974359,4442.051282051282,4451.282051282052,4444.102564102564,4795.384615384616,4435.8974358974365,4011.7948717948725,4274.871794871796,4636.410256410257
300.5239,0.6877135,0.7310145,0.33813533,0.5837304,0,0.0,0.0,0.0,0.0,0.3500008,0,0,0.0,0.0,0,0,119.0,0.0,502.0,4703.076923076924,4129.2307692307695,4444.102564102564,4618.974358974359,4190.256410256411,4552.307692307693,4508.205128205129,4443.589743589744,4488.205128205129,4818.461538461539,4394.871794871796,4123.076923076924,4357.948717948719,4557.948717948719
300.7741,0.6150336,0.7465995,0.33765382,0.58057535,0,0.0,0.0,0.0,0.0,0.9115573,0,0,0.0,0.0,0,0,22.0,0.0,0.0,4683.076923076924,4091.7948717948725,4482.051282051282,4571.794871794872,4208.205128205129,4520.000000000001,4489.2307692307695,4372.820512820514,4442.564102564103,4749.2307692307695,4340.512820512821,4160.512820512821,4283.589743589744,4361.025641025642
301.02432,0.6150336,0.7465995,0.33765382,0.58057535,0,0.0,0.0,0.0,0.0,0.70920575,0,0,0.0,0.0,0,0,54.0,0.0,0.0,4656.923076923077,4078.9743589743593,4487.179487179488,4551.794871794872,4230.256410256411,4490.256410256411,4442.564102564103,4427.6923076923085,4413.333333333334,4742.051282051282,4326.666666666667,4164.102564102564,4236.923076923077,4462.051282051282
301.27454,0.54682565,0.76062596,0.33722132,0.5777398,0,0.0,0.0,0.0,0.0,0.17385575,0,0,0.0,0.0,0,0,86.0,0.0,534.0,4654.871794871796,4073.333333333334,4480.000000000001,4537.948717948719,4216.923076923077,4515.384615384616,4434.358974358975,4369.2307692307695,4473.333333333334,4715.8974358974365,4231.282051282052,3794.358974358975,4178.461538461539,4342.564102564103
301.52475,0.54682565,0.76062596,0.33722132,0.5777398,0,0.0,0.0,0.0,0.0,0.15138431,0,0,0.0,0.0,0,0,118.0,0.0,534.0,4674.358974358975,4014.8717948717954,4407.6923076923085,4444.615384615385,4226.666666666667,4441.538461538462,4298.461538461539,4230.256410256411,4344.102564102564,4613.333333333334,4068.205128205129,3714.8717948717954,4128.205128205129,4316.410256410257
301.77496,0.5446358,0.77324975,0.33683252,0.5751897,0,0.0,0.0,0.0,0.0,1.0,0,0,0.0,0.0,0,0,21.0,0.0,0.0,4614.871794871796,3980.0000000000005,4294.358974358975,4367.179487179487,4233.333333333334,4361.025641025642,4185.128205128206,4115.384615384616,4249.2307692307695,4557.435897435898,3976.410256410257,3692.820512820513,3995.3846153846157,4753.846153846154
302.02518,0.5446358,0.77324975,0.33683252,0.5751897,0,0.0,0.0,0.0,0.0,0.45892367,0,0,0.0,0.0,0,0,53.0,0.0,0.0,4623.076923076924,4029.7435897435903,4308.205128205129,4412.820512820514,4229.74358974359,4412.820512820514,4231.794871794872,4026.1538461538466,4167.6923076923085,4494.358974358975,3972.820512820513,3792.307692307693,3942.0512820512827,4645.641025641026
302.2754,0.58474886,0.78461117,0.3364801,0.57288325,0,0.0,0.0,0.0,0.0,0.25868276,0,0,0.0,0.0,0,0,85.0,0.0,448.0,4648.717948717949,4090.7692307692314,4347.179487179487,4472.307692307693,4229.2307692307695,4474.358974358975,4307.6923076923085,4056.410256410257,4202.564102564103,4515.8974358974365,3972.307692307693,3910.7692307692314,3971.7948717948725,4547.179487179488
302.5256,0.58474886,0.78461117,0.3364801,0.57288325,0,0.0,0.0,0.0,0.23442307,0.0,0,0,0.0,0.0,0,0,117.0,0.0,448.0,4649.743589743591,4135.384615384616,4353.333333333334,4497.435897435898,4248.717948717949,4526.153846153847,4358.974358974359,4145.128205128206,4194.871794871796,4509.2307692307695,3891.7948717948725,3963.076923076924,3870.2564102564106,4418.461538461539
302.77582,0.60958827,0.79483646,0.33616266,0.5708064,0,0.0050609536,0.0,0.0,0.0,0.0,0,0,0.0,0.0,0,0,20.0,0.0,0.0,4718.974358974359,4092.307692307693,4494.358974358975,4625.641025641026,4216.923076923077,4495.8974358974365,4388.717948717949,4463.076923076924,4095.8974358974365,4664.615384615386,3966.666666666667,4071.2820512820517,4060.0000000000005,4429.2307692307695
303.02603,0.60958827,0.79483646,0.33616266,0.5708064,0,0.063738234,0.0,0.0,0.0,0.0,0,0,0.0,0.0,0,1,52.0,0.0,0.0,4789.2307692307695,4169.74358974359,4707.6923076923085,4665.641025641026,4231.282051282052,4567.179487179488,4557.435897435898,4672.307692307693,4284.102564102564,4876.410256410257,3748.205128205129,4331.282051282052,4343.589743589744,4604.102564102564
303.27625,0.7176954,0.80403924,0.3358788,0.5689454,0,0.0,0.0,0.0,0.0,0.0,0,0,0.0,1.0,0,1,84.0,0.0,496.0,4769.743589743591,4183.076923076924,4671.794871794872,4684.615384615386,4214.358974358975,4550.256410256411,4553.333333333334,4731.282051282052,4293.846153846154,4792.307692307693,3961.538461538462,4345.641025641026,4332.820512820514,4793.846153846154
303.52646,0.7176954,0.80403924,0.3358788,0.5689454,1,0.0,0.0,0.0,0.0,1.0,0,0,0.0,0.0,0,0,116.0,0.0,496.0,4720.512820512821,4122.564102564103,4640.512820512821,4635.384615384616,4202.051282051282,4525.128205128206,4553.333333333334,4718.461538461539,4280.000000000001,4763.589743589744,4134.358974358975,4346.666666666667,4285.128205128206,4781.538461538462
303.77667,0.8044819,0.8123217,0.3356217,0.5672634,0,0.0,0.0,0.0,0.0,1.0,0,0,0.0,0.0,0,0,19.0,0.0,0.0,4663.076923076924,3974.8717948717954,4627.179487179488,4521.538461538462,4215.384615384616,4472.307692307693,4518.461538461539,4629.2307692307695,4199.48717948718,4618.974358974359,4287.179487179487,4289.74358974359,4153.846153846154,4357.435897435898
303.77667,0.8044819,0.8123217,0.3356217,0.5672634,0,0.0,0.0,0.0,0.0,1.0,0,0,0.0,0.0,0,0,19.0,0.0,0.0,4663.076923076924,3974.8717948717954,4627.179487179488,4521.538461538462,4215.384615384616,4472.307692307693,4518.461538461539,4629.2307692307695,4199.48717948718,4618.974358974359,4287.179487179487,4289.74358974359,4153.846153846154,4357.435897435898
304.2771,0.83695245,0.81977594,0.33539066,0.565751,0,0.0,0.0,0.0,0.0,0.52936494,0,0,0.0,0.0,0,0,83.0,0.0,510.0,4603.076923076924,3923.076923076924,4406.666666666667,4487.179487179488,4249.74358974359,4365.641025641026,4352.307692307693,4449.743589743591,4107.179487179487,4458.461538461539,4560.000000000001,4035.8974358974365,3977.435897435898,4269.2307692307695
304.52734,0.83695245,0.81977594,0.33539066,0.565751,0,0.0,0.0,0.0,0.0,0.22553279,0,0,0.0,0.0,0,0,115.0,0.0,510.0,4621.025641025642,3928.205128205129,4394.358974358975,4488.717948717949,4250.256410256411,4402.051282051282,4380.000000000001,4428.717948717949,4159.48717948718,4524.102564102564,4608.205128205129,4002.564102564103,4028.717948717949,4277.435897435898
304.77756,0.7752587,0.8264848,0.33518276,0.5643902,0,0.0,0.0,0.0,0.0,0.27780527,0,0,0.0,0.0,0,0,18.0,0.0,0.0,4766.153846153847,3972.307692307693,4447.6923076923085,4535.384615384616,4244.102564102564,4461.538461538462,4426.666666666667,4433.333333333334,4246.153846153847,4598.974358974359,4608.717948717949,4111.794871794872,4144.615384615385,4333.846153846154
305.02777,0.7752587,0.8264848,0.33518276,0.5643902,0,0.0,0.0,0.0,0.0,0.96824056,0,0,0.0,0.0,0,0,50.0,0.0,0.0,4704.102564102564,3969.2307692307695,4415.384615384616,4506.666666666667,4247.6923076923085,4488.205128205129,4425.641025641026,4416.923076923077,4296.923076923077,4631.282051282052,4564.615384615385,4151.282051282052,4190.769230769231,4535.384615384616
305.27798,0.67678344,0.8325227,0.3349955,0.56316555,0,0.0,0.0,0.0,0.0,0.35742173,0,0,0.0,0.0,0,0,82.0,0.0,534.0,4722.051282051282,3961.538461538462,4432.307692307693,4480.000000000001,4231.282051282052,4527.179487179488,4461.538461538462,4414.871794871796,4529.2307692307695,4750.256410256411,4499.48717948718,4289.2307692307695,4286.666666666667,4527.179487179488
305.5282,0.67678344,0.8325227,0.3349955,0.56316555,0,0.0,0.0,0.0,0.0,1.0,0,0,0.0,0.0,0,0,114.0,0.0,534.0,4733.333333333334,4018.461538461539,4431.282051282052,4457.435897435898,4217.435897435898,4545.641025641026,4443.589743589744,4371.282051282052,4454.358974358975,4763.076923076924,4357.948717948719,4205.128205128206,4192.307692307693,4143.589743589744
305.7784,0.5906373,0.83795685,0.33482704,0.56206435,0,0.0,0.0,0.0,0.0,1.0,0,0,0.0,0.0,0,0,17.0,0.0,0.0,4720.512820512821,3972.307692307693,4535.384615384616,4443.589743589744,4213.333333333334,4536.410256410257,4506.153846153847,4442.564102564103,4480.000000000001,4786.666666666667,4357.948717948719,4327.179487179487,4233.333333333334,4495.8974358974365
305.7784,0.5906373,0.83795685,0.33482704,0.56206435,0,0.0,0.0,0.0,0.0,1.0,0,0,0.0,0.0,0,0,17.0,0.0,0.0,4720.512820512821,3972.307692307693,4535.384615384616,4443.589743589744,4213.333333333334,4536.410256410257,4506.153846153847,4442.564102564103,4480.000000000001,4786.666666666667,4357.948717948719,4327.179487179487,4233.333333333334,4495.8974358974365
306.27884,0.613067,0.8428476,0.33467564,0.56107277,0,0.0,0.0,0.0,0.0,0.9710799,0,0,0.0,0.0,0,0,64.0,0.0,512.0,4677.435897435898,3908.717948717949,4555.384615384616,4415.8974358974365,4220.000000000001,4588.205128205129,4536.410256410257,4394.358974358975,4577.435897435898,4834.358974358975,4303.076923076924,4422.051282051282,4250.256410256411,4692.307692307693
306.40393,0.613067,0.8428476,0.33467564,0.56107277,0,0.0,0.0,0.0,0.0,1.0,0,0,0.0,0.0,0,0,97.0,0.0,450.0,4669.2307692307695,3938.9743589743593,4567.6923076923085,4433.846153846154,4214.871794871796,4568.717948717949,4490.256410256411,4311.282051282052,4520.512820512821,4735.8974358974365,4287.6923076923085,4342.564102564103,4058.461538461539,4362.051282051282
306.77927,0.60314447,0.8472492,0.34022984,0.56094944,0,0.0,0.0,0.0,0.0,0.7594922,0,0,0.0,0.0,0,0,16.0,0.0,0.0,4657.435897435898,3923.076923076924,4533.846153846154,4426.153846153847,4230.256410256411,4580.000000000001,4458.461538461539,4264.102564102564,4508.717948717949,4712.307692307693,4296.923076923077,4263.589743589744,4017.9487179487182,4351.282051282052
306.90436,0.60314447,0.8472492,0.34022984,0.56094944,0,0.0,0.0,0.0,0.0,1.0,0,0,0.0,0.0,0,0,32.0,0.0,0.0,4636.410256410257,3961.0256410256416,4504.102564102564,4463.589743589744,4227.179487179487,4551.794871794872,4424.615384615385,4201.025641025642,4423.076923076924,4734.358974358975,4189.2307692307695,4256.923076923077,4031.7948717948725,4306.666666666667
307.2797,0.6964714,0.8512107,0.35294285,0.5660017,0,0.0,0.0,0.0,0.0,0.67616224,0,0,0.0,0.0,0,0,66.0,0.0,259.0,4582.564102564103,3811.2820512820517,4370.256410256411,4248.717948717949,4193.333333333334,4421.025641025642,4255.8974358974365,4101.025641025642,4244.615384615385,4605.128205128206,4055.3846153846157,4076.9230769230776,3910.7692307692314,3985.6410256410263
307.5299,0.6964714,0.8512107,0.35294285,0.5660017,0,0.0,0.0,0.0,0.0,1.0,0,0,0.0,0.0,0,0,112.0,0.0,495.0,4569.2307692307695,4087.1794871794878,4468.205128205129,4525.128205128206,4204.615384615385,4503.589743589744,4336.923076923077,4181.538461538462,4400.000000000001,4650.256410256411,4136.923076923077,4118.974358974359,4065.1282051282055,4626.666666666667
307.78012,0.79882586,0.854776,0.36438292,0.57054794,0,0.0,0.0,0.0,0.0,1.0,0,0,0.0,0.0,0,0,15.0,0.0,505.0,4611.282051282052,4117.435897435898,4489.2307692307695,4584.615384615385,4211.794871794872,4569.743589743591,4418.461538461539,4262.564102564103,4409.743589743591,4695.8974358974365,4142.564102564103,4214.358974358975,4089.7435897435903,4438.461538461539
308.03033,0.79882586,0.854776,0.36438292,0.57054794,0,0.0,0.0,0.0,0.0,1.0,0,0,0.0,0.0,0,0,47.0,0.0,0.0,4583.589743589744,4187.179487179487,4507.6923076923085,4650.256410256411,4204.615384615385,4611.282051282052,4491.794871794872,4286.153846153847,4360.512820512821,4725.641025641026,4161.025641025642,4244.102564102564,4104.102564102564,4237.948717948719
308.28055,0.75545394,0.85798484,0.37944207,0.57463837,0,0.020894684,0.0,0.0,0.0,0.0,0,0,0.0,0.0,0,0,79.0,0.0,509.0,4569.743589743591,4112.307692307693,4539.48717948718,4610.769230769231,4205.128205128206,4572.820512820514,4506.666666666667,4343.589743589744,4410.256410256411,4715.8974358974365,4266.666666666667,4324.615384615385,4138.974358974359,4385.128205128206
308.53076,0.75545394,0.85798484,0.37944207,0.57463837,0,0.0,0.0,0.0,0.0,1.0,0,0,0.0,0.0,0,0,111.0,0.0,509.0,4567.179487179488,4104.615384615385,4542.051282051282,4624.615384615385,4216.410256410257,4551.794871794872,4496.923076923077,4357.435897435898,4397.435897435898,4714.358974358975,4316.410256410257,4362.051282051282,4193.333333333334,4542.564102564103
308.78098,0.6669308,0.86087275,0.3957124,0.57906723,0,0.0,0.0,0.0,0.0,0.08383891,0,0,0.0,0.0,0,0,14.0,0.0,531.0,4575.8974358974365,4083.076923076924,4506.666666666667,4603.589743589744,4230.769230769231,4521.538461538462,4490.256410256411,4379.48717948718,4412.820512820514,4691.794871794872,3692.820512820513,4366.153846153847,4247.179487179487,4411.794871794872
309.0312,0.6669308,0.86087275,0.3957124,0.57906723,0,0.0,0.0,0.0,0.0,0.0,0,0,0.0,0.25974146,0,0,46.0,0.0,0.0,4567.179487179488,4094.8717948717954,4474.358974358975,4589.2307692307695,4246.153846153847,4553.846153846154,4491.794871794872,4363.076923076924,4399.48717948718,4686.666666666667,3896.9230769230776,4336.923076923077,4239.48717948718,4203.589743589744
309.2814,0.6101741,0.8634719,0.40766314,0.5830685,0,0.0,0.0,0.0,0.0,0.0,0,0,0.0,0.054249205,0,0,78.0,0.0,531.0,4547.179487179488,4060.5128205128212,4448.205128205129,4551.794871794872,4244.102564102564,4560.512820512821,4459.48717948718,4347.179487179487,4380.512820512821,4678.974358974359,4028.205128205129,4296.923076923077,4202.051282051282,4500.000000000001
309.40652,0.6101741,0.8634719,0.40766314,0.5830685,0,0.0,0.0,0.0,0.0,1.0,0,0,0.0,0.0,0,0,94.0,0.0,531.0,4562.051282051282,4067.692307692308,4466.666666666667,4556.410256410257,4238.974358974359,4558.461538461539,4458.461538461539,4359.48717948718,4396.923076923077,4714.871794871796,4092.820512820513,4309.743589743591,4215.8974358974365,4492.820512820514
309.78186,0.5459275,0.8233168,0.41313496,0.58588666,0,0.0,0.0,0.0,0.0,0.4919226,0,0,0.0,0.0,0,0,7.0,0.0,435.0,4600.512820512821,4046.666666666667,4517.435897435898,4542.564102564103,4223.589743589744,4582.051282051282,4490.769230769231,4297.435897435898,4381.025641025642,4764.102564102564,4166.153846153847,4366.666666666667,4178.974358974359,4286.153846153847
309.90695,0.5459275,0.8233168,0.41313496,0.58588666,0,0.0,0.0,0.0,0.0,1.0,0,0,0.0,0.0,0,0,29.0,0.0,0.0,4589.743589743591,4028.205128205129,4504.102564102564,4522.564102564103,4225.128205128206,4590.256410256411,4490.769230769231,4288.205128205129,4358.974358974359,4751.794871794872,4132.307692307693,4296.923076923077,4126.153846153847,4042.0512820512827
310.2823,0.5449592,0.8029188,0.41032857,0.5825033,0,0.0,0.0,0.0,0.47146896,0.0,0,0,0.0,0.0,0,0,52.0,0.0,0.0,4636.923076923077,4062.564102564103,4520.512820512821,4546.153846153847,4217.435897435898,4573.333333333334,4479.48717948718,4329.2307692307695,4358.461538461539,4743.076923076924,4135.384615384616,4277.948717948719,4089.23076923077,3925.1282051282055
310.5325,0.5449592,0.8029188,0.41032857,0.5825033,0,0.0,0.0,0.0,0.0,0.17048554,0,0,0.0,0.0,0,0,109.0,0.0,453.0,4626.666666666667,4009.7435897435903,4554.871794871796,4506.153846153847,4215.384615384616,4571.794871794872,4510.256410256411,4412.307692307693,4396.410256410257,4745.641025641026,4217.948717948719,4248.717948717949,4169.2307692307695,3897.9487179487182
310.6576,0.5449592,0.8029188,0.41032857,0.5825033,0,0.0,0.0,0.0,0.0,1.0,0,0,0.0,0.0,0,0,125.0,0.0,453.0,4623.589743589744,3983.076923076924,4529.2307692307695,4475.8974358974365,4215.8974358974365,4569.2307692307695,4491.282051282052,4418.461538461539,4398.974358974359,4734.871794871796,4220.000000000001,4234.358974358975,4191.794871794872,4340.000000000001
310.7827,0.4762513,0.8056916,0.4025667,0.5794603,0,0.0,0.0,0.0,0.0,1.0,0,0,0.0,0.0,0,0,12.0,0.0,499.0,4626.666666666667,3957.9487179487182,4518.974358974359,4454.358974358975,4212.820512820514,4493.333333333334,4452.820512820514,4394.358974358975,4381.538461538462,4702.564102564103,4219.48717948718,4234.358974358975,4184.102564102564,4736.410256410257
310.7827,0.4762513,0.8056916,0.4025667,0.5794603,0,0.0,0.0,0.0,0.0,1.0,0,0,0.0,0.0,0,0,12.0,0.0,499.0,4626.666666666667,3957.9487179487182,4518.974358974359,4454.358974358975,4212.820512820514,4493.333333333334,4452.820512820514,4394.358974358975,4381.538461538462,4702.564102564103,4219.48717948718,4234.358974358975,4184.102564102564,4736.410256410257
311.31442,0.5044419,0.8102756,0.39562652,0.57673365,0,0.0,0.0,0.0,0.0,1.0,0,0,0.0,0.0,0,0,80.0,0.0,499.0,4565.641025641026,3802.564102564103,4473.846153846154,4352.820512820514,4242.564102564103,4373.846153846154,4343.076923076924,4356.410256410257,4217.435897435898,4508.205128205129,4464.615384615385,4270.256410256411,4005.1282051282055,4132.820512820514
311.78357,0.61614364,0.8155267,0.3893355,0.57426775,0,0.0,0.0,0.0,0.0,0.17044659,0,0,0.0,0.0,0,0,10.0,0.0,474.0,4587.179487179488,3768.717948717949,4263.589743589744,4341.538461538462,4243.076923076924,4378.974358974359,4264.102564102564,4240.512820512821,4170.769230769231,4491.282051282052,4488.717948717949,4132.820512820514,3892.820512820513,4001.538461538462
312.03378,0.61614364,0.8155267,0.3893355,0.57426775,0,0.0,0.0,0.0,0.0,0.1977385,0,0,0.0,0.0,0,0,43.0,0.0,0.0,4587.179487179488,3790.2564102564106,4296.410256410257,4357.435897435898,4231.282051282052,4430.769230769231,4281.025641025642,4260.512820512821,4197.435897435898,4599.48717948718,4442.564102564103,4109.74358974359,3957.435897435898,4090.7692307692314
312.284,0.7064217,0.8202527,0.38368112,0.5720504,0,0.0,0.0,0.0,0.0,1.0,0,0,0.0,0.0,0,0,73.0,0.0,437.0,4610.769230769231,3832.820512820513,4345.128205128206,4380.000000000001,4215.384615384616,4462.564102564103,4317.435897435898,4289.2307692307695,4241.538461538462,4673.333333333334,4418.461538461539,4109.2307692307695,4076.9230769230776,4108.717948717949
312.44037,0.7064217,0.8202527,0.38368112,0.5720504,0,0.0,0.0,0.0,0.0,1.0,0,0,0.0,0.0,0,1,95.0,0.0,509.0,4623.589743589744,3865.6410256410263,4382.051282051282,4401.025641025642,4201.538461538462,4488.717948717949,4323.076923076924,4322.051282051282,4284.102564102564,4701.538461538462,4391.282051282052,4094.358974358975,4148.205128205129,4683.076923076924
312.78442,0.71911645,0.82450604,0.37859398,0.5700552,0,0.0,0.0,0.0,0.0,0.21835826,0,0,0.0,0.0,0,0,112.0,0.0,486.0,4614.358974358975,3893.8461538461543,4412.307692307693,4414.358974358975,4187.6923076923085,4503.076923076924,4374.871794871796,4354.871794871796,4315.384615384616,4732.307692307693,4382.564102564103,4140.000000000001,4173.333333333334,4597.948717948719
313.03464,0.71911645,0.82450604,0.37859398,0.5700552,0,0.0,0.0,0.0,0.0,0.16570249,0,0,0.0,0.0,0,0,42.0,0.0,0.0,4770.256410256411,3971.2820512820517,4535.384615384616,4453.846153846154,4184.615384615385,4560.512820512821,4518.974358974359,4427.6923076923085,4438.974358974359,4773.846153846154,4262.051282051282,3886.666666666667,4264.102564102564,4518.461538461539
313.28485,0.6572528,0.8283341,0.37404865,0.5682684,0,0.0,0.0,0.0,0.0,0.43972677,0,0,0.0,0.0,0,0,69.0,0.0,563.0,4814.358974358975,3991.7948717948725,4588.205128205129,4473.846153846154,4183.589743589744,4588.717948717949,4556.923076923077,4445.641025641026,4480.000000000001,4796.410256410257,4253.846153846154,4023.076923076924,4326.666666666667,4492.307692307693
313.40997,0.6572528,0.8283341,0.37404865,0.5682684,0,0.0,0.0,0.0,0.0,0.0,0,0,0.0,0.0,0,0,90.0,0.0,533.0,4827.179487179488,4010.2564102564106,4629.743589743591,4478.461538461539,4184.102564102564,4605.641025641026,4572.820512820514,4454.358974358975,4486.666666666667,4796.923076923077,4229.74358974359,4069.7435897435903,4317.948717948719,4422.564102564103
313.40997,0.6572528,0.8283341,0.37404865,0.5682684,0,0.0,0.0,0.0,0.0,0.0,0,0,0.0,0.0,0,0,90.0,0.0,533.0,4827.179487179488,4010.2564102564106,4629.743589743591,4478.461538461539,4184.102564102564,4605.641025641026,4572.820512820514,4454.358974358975,4486.666666666667,4796.923076923077,4229.74358974359,4069.7435897435903,4317.948717948719,4422.564102564103
314.0355,0.5976094,0.83177936,0.36993745,0.5666548,0,0.0,0.0,0.0,0.0,1.0,0,0,0.0,0.0,0,0,30.0,0.0,0.0,4729.2307692307695,3997.435897435898,4695.8974358974365,4475.384615384616,4202.051282051282,4594.358974358975,4554.871794871796,4489.2307692307695,4463.076923076924,4763.589743589744,4278.461538461539,4242.564102564103,4189.74358974359,4677.435897435898
314.0355,0.5976094,0.83177936,0.36993745,0.5666548,0,0.0,0.0,0.0,0.0,1.0,0,0,0.0,0.0,0,0,41.0,0.0,0.0,4716.923076923077,3986.666666666667,4669.743589743591,4458.461538461539,4201.538461538462,4572.820512820514,4523.589743589744,4460.000000000001,4428.205128205129,4738.461538461539,4274.358974358975,4263.076923076924,4145.641025641026,4601.025641025642
314.2857,0.5927775,0.83488005,0.3662421,0.56520385,0,0.0,0.0,0.0,0.0,1.0,0,0,0.0,0.0,0,0,73.0,0.0,474.0,4718.461538461539,3977.435897435898,4675.8974358974365,4458.974358974359,4214.358974358975,4555.8974358974365,4525.641025641026,4472.820512820514,4412.307692307693,4733.333333333334,4310.769230769231,4328.717948717949,4118.461538461539,4426.153846153847
314.2857,0.5927775,0.83488005,0.3662421,0.56520385,0,0.0,0.0,0.0,0.0,1.0,0,0,0.0,0.0,0,0,73.0,0.0,474.0,4718.461538461539,3977.435897435898,4675.8974358974365,4458.974358974359,4214.358974358975,4555.8974358974365,4525.641025641026,4472.820512820514,4412.307692307693,4733.333333333334,4310.769230769231,4328.717948717949,4118.461538461539,4426.153846153847
314.78613,0.49271777,0.8376707,0.36291742,0.5638982,0,0.0,0.0,0.0,0.0,1.0,0,0,0.0,0.0,0,0,8.0,0.0,437.0,4726.666666666667,3957.435897435898,4642.564102564103,4442.051282051282,4214.871794871796,4542.051282051282,4502.564102564103,4454.358974358975,4381.025641025642,4706.153846153847,4302.051282051282,4329.2307692307695,4142.564102564103,4793.333333333334
315.16147,0.49271777,0.8376707,0.36291742,0.5638982,0,0.0,0.0,0.0,0.0,0.869813,0,0,0.0,0.0,0,0,56.0,0.0,0.0,4692.307692307693,3986.1538461538466,4613.846153846154,4460.512820512821,4209.2307692307695,4557.948717948719,4506.153846153847,4451.282051282052,4405.128205128206,4717.435897435898,4272.820512820514,4329.2307692307695,4193.846153846154,4646.666666666667
315.2866,0.43175167,0.84018224,0.35992584,0.56272334,0,0.0,0.0,0.0,0.0,1.0,0,0,0.0,0.0,0,0,72.0,0.0,437.0,4706.666666666667,3994.8717948717954,4609.2307692307695,4464.102564102564,4206.666666666667,4540.000000000001,4524.102564102564,4488.717948717949,4424.615384615385,4740.512820512821,4287.6923076923085,4343.076923076924,4243.076923076924,4573.333333333334
315.6619,0.43175167,0.84018224,0.35992584,0.56272334,0,0.0,0.0,0.0,0.0,0.38870922,0,0,0.0,0.0,0,0,120.0,0.0,494.0,4685.641025641026,3988.205128205129,4582.051282051282,4462.051282051282,4213.846153846154,4554.358974358975,4525.128205128206,4555.8974358974365,4415.8974358974365,4749.2307692307695,4278.461538461539,4340.000000000001,4244.615384615385,4379.48717948718
315.9434,0.3693647,0.76582026,0.35723683,0.5616669,1,0.0,0.0,0.0,0.0,0.75840217,0,0,0.0,0.0,0,0,27.0,0.0,0.0,4774.358974358975,3984.1025641025644,4587.6923076923085,4463.076923076924,4215.8974358974365,4567.179487179488,4507.179487179488,4537.435897435898,4398.461538461539,4751.794871794872,4314.358974358975,4399.48717948718,4168.205128205129,4384.615384615385
316.16232,0.3693647,0.76582026,0.35723683,0.5616669,0,0.0,0.0,0.0,0.0,0.73002577,0,0,0.0,0.0,0,0,55.0,0.0,0.0,4734.871794871796,3972.820512820513,4551.794871794872,4459.48717948718,4216.923076923077,4570.769230769231,4509.743589743591,4521.025641025642,4405.641025641026,4766.666666666667,4270.769230769231,4330.769230769231,4166.666666666667,4314.358974358975
316.28745,0.3322354,0.76273644,0.3565036,0.56071556,0,0.0,0.0,0.0,0.0,1.0,0,0,0.0,0.0,0,0,71.0,0.0,435.0,4713.333333333334,3963.589743589744,4536.923076923077,4429.743589743591,4203.589743589744,4538.461538461539,4473.333333333334,4486.153846153847,4382.051282051282,4746.153846153847,4278.974358974359,4330.769230769231,4144.102564102564,4827.6923076923085
316.28745,0.3322354,0.76273644,0.3565036,0.56071556,0,0.0,0.0,0.0,0.0,1.0,0,0,0.0,0.0,0,0,71.0,0.0,435.0,4713.333333333334,3963.589743589744,4536.923076923077,4429.743589743591,4203.589743589744,4538.461538461539,4473.333333333334,4486.153846153847,4382.051282051282,4746.153846153847,4278.974358974359,4330.769230769231,4144.102564102564,4827.6923076923085
316.91296,0.30420125,0.81747115,0.35743514,0.5651629,0,0.0,0.0,0.0,0.0,1.0,0,0,0.0,0.0,0,0,22.0,0.0,0.0,4764.615384615386,3975.8974358974365,4490.769230769231,4445.641025641026,4209.74358974359,4540.512820512821,4474.358974358975,4460.000000000001,4376.410256410257,4741.025641025642,4276.410256410257,4280.000000000001,4182.564102564103,4457.435897435898
316.91296,0.30420125,0.81747115,0.35743514,0.5651629,0,0.0,0.0,0.0,0.0,1.0,0,0,0.0,0.0,0,0,22.0,0.0,0.0,4764.615384615386,3975.8974358974365,4490.769230769231,4445.641025641026,4209.74358974359,4540.512820512821,4474.358974358975,4460.000000000001,4376.410256410257,4741.025641025642,4276.410256410257,4280.000000000001,4182.564102564103,4457.435897435898
317.2883,0.2765451,0.9230567,0.35827166,0.5797551,0,0.0,0.0,0.0,0.0,1.0,0,0,0.0,0.0,0,0,70.0,0.0,554.0,4718.461538461539,3949.2307692307695,4487.179487179488,4425.641025641026,4199.48717948718,4508.205128205129,4474.871794871796,4476.410256410257,4378.974358974359,4708.717948717949,4285.641025641026,4265.128205128206,4171.794871794872,4226.153846153847
317.6636,0.2765451,0.9230567,0.35827166,0.5797551,0,0.0,0.0,0.0,0.0,0.9692367,0,0,0.0,0.0,0,0,118.0,0.0,540.0,4686.666666666667,3974.358974358975,4540.512820512821,4456.410256410257,4206.666666666667,4504.615384615385,4475.384615384616,4484.615384615385,4357.435897435898,4688.717948717949,4365.641025641026,4280.512820512821,4136.410256410257,4203.076923076924
317.78873,0.2542056,1.0,0.36003762,0.6010139,0,0.0,0.0,0.0,0.0,1.0,0,0,0.0,0.0,0,0,5.0,0.0,557.0,4670.769230769231,3955.3846153846157,4538.974358974359,4442.051282051282,4210.769230769231,4507.6923076923085,4477.948717948719,4476.923076923077,4345.641025641026,4677.948717948719,4380.000000000001,4296.923076923077,4124.615384615385,4515.384615384616
317.78873,0.2542056,1.0,0.36003762,0.6010139,0,0.0,0.0,0.0,0.0,1.0,0,0,0.0,0.0,0,0,5.0,0.0,557.0,4670.769230769231,3955.3846153846157,4538.974358974359,4442.051282051282,4210.769230769231,4507.6923076923085,4477.948717948719,4476.923076923077,4345.641025641026,4677.948717948719,4380.000000000001,4296.923076923077,4124.615384615385,4515.384615384616
318.28915,0.24817461,0.97564954,0.36153045,0.6245249,0,0.0,0.0,0.0,0.0,1.0,0,0,0.0,0.0,0,0,69.0,0.0,557.0,4704.102564102564,3966.666666666667,4529.743589743591,4451.794871794872,4231.282051282052,4508.717948717949,4430.769230769231,4413.846153846154,4324.615384615385,4654.871794871796,4378.974358974359,4268.205128205129,4099.48717948718,4693.333333333334
318.28915,0.24817461,0.97564954,0.36153045,0.6245249,0,0.0,0.0,0.0,0.0,1.0,0,0,0.0,0.0,0,0,69.0,0.0,557.0,4704.102564102564,3966.666666666667,4529.743589743591,4451.794871794872,4231.282051282052,4508.717948717949,4430.769230769231,4413.846153846154,4324.615384615385,4654.871794871796,4378.974358974359,4268.205128205129,4099.48717948718,4693.333333333334
318.78958,0.22745024,0.88795966,0.36136994,0.6375446,0,0.0,0.0,0.0,0.0,1.0,0,0,0.0,0.0,0,0,4.0,0.0,563.0,4686.666666666667,3973.8461538461543,4525.128205128206,4457.948717948719,4216.923076923077,4537.435897435898,4463.076923076924,4440.000000000001,4364.615384615385,4720.000000000001,4414.358974358975,4294.871794871796,4171.282051282052,4568.205128205129
318.78958,0.22745024,0.88795966,0.36136994,0.6375446,0,0.0,0.0,0.0,0.0,1.0,0,0,0.0,0.0,0,0,4.0,0.0,563.0,4686.666666666667,3973.8461538461543,4525.128205128206,4457.948717948719,4216.923076923077,4537.435897435898,4463.076923076924,4440.000000000001,4364.615384615385,4720.000000000001,4414.358974358975,4294.871794871796,4171.282051282052,4568.205128205129
319.29,0.15393321,0.82536036,0.3593149,0.65921754,0,0.0,0.0,0.0,0.0,1.0,0,0,0.0,0.0,0,0,68.0,0.0,563.0,4671.282051282052,3969.7435897435903,4491.282051282052,4460.512820512821,4215.384615384616,4542.051282051282,4473.846153846154,4440.512820512821,4382.051282051282,4737.948717948719,4394.871794871796,4278.974358974359,4184.615384615385,4409.743589743591
319.29,0.15393321,0.82536036,0.3593149,0.65921754,0,0.0,0.0,0.0,0.0,1.0,0,0,0.0,0.0,0,0,68.0,0.0,563.0,4671.282051282052,3969.7435897435903,4491.282051282052,4460.512820512821,4215.384615384616,4542.051282051282,4473.846153846154,4440.512820512821,4382.051282051282,4737.948717948719,4394.871794871796,4278.974358974359,4184.615384615385,4409.743589743591
319.79044,0.13535324,0.78269553,0.35579574,0.692406,0,0.0,0.0,0.0,0.0,1.0,0,0,0.0,0.0,0,0,3.0,0.0,545.0,4694.358974358975,4060.5128205128212,4503.589743589744,4571.794871794872,4172.820512820514,4552.820512820514,4473.846153846154,4471.794871794872,4422.051282051282,4771.794871794872,4418.974358974359,4284.102564102564,4198.974358974359,4690.769230769231
319.79044,0.13535324,0.78269553,0.35579574,0.692406,0,0.0,0.0,0.0,0.0,1.0,0,0,0.0,0.0,0,0,3.0,0.0,545.0,4694.358974358975,4060.5128205128212,4503.589743589744,4571.794871794872,4172.820512820514,4552.820512820514,4473.846153846154,4471.794871794872,4422.051282051282,4771.794871794872,4418.974358974359,4284.102564102564,4198.974358974359,4690.769230769231
320.416,0.12586406,0.78958356,0.35200843,0.7084901,0,0.0,0.0,0.0,0.0,0.592932,0,0,0.0,0.0,0,0,83.0,0.0,507.0,4661.538461538462,3801.538461538462,4396.410256410257,4298.974358974359,4244.615384615385,4460.000000000001,4381.025641025642,4396.410256410257,4325.641025641026,4719.48717948718,4311.794871794872,4202.564102564103,4234.358974358975,4457.435897435898
320.6662,0.12586406,0.78958356,0.35200843,0.7084901,0,0.0,0.0,0.0,0.0,1.0,0,0,0.0,0.0,0,0,115.0,0.0,507.0,4706.666666666667,3877.435897435898,4380.000000000001,4366.153846153847,4247.179487179487,4458.461538461539,4364.102564102564,4341.538461538462,4280.000000000001,4682.564102564103,4240.000000000001,4141.538461538462,4229.74358974359,4346.153846153847
320.79132,0.13544896,0.8267372,0.34859845,0.71856475,0,0.0,0.0,0.0,0.0,1.0,1,0,0.0,0.0,0,0,2.0,0.0,260.0,4725.641025641026,3872.820512820513,4391.794871794872,4357.948717948719,4249.2307692307695,4463.076923076924,4373.333333333334,4355.8974358974365,4290.256410256411,4682.564102564103,4245.641025641026,4145.641025641026,4233.846153846154,4276.410256410257
321.04153,0.13544896,0.8267372,0.34859845,0.71856475,0,0.0,0.0,0.0,0.0,1.0,0,0,0.0,0.0,0,0,34.0,0.0,0.0,4691.282051282052,3858.9743589743593,4414.871794871796,4341.538461538462,4248.717948717949,4475.8974358974365,4397.948717948719,4365.641025641026,4302.051282051282,4698.461538461539,4270.769230769231,4168.205128205129,4206.666666666667,4338.461538461539
321.41684,0.1398055,0.8715048,0.34552836,0.7180359,0,0.0,0.0,0.0,0.0,0.55811334,0,0,0.0,0.0,0,0,82.0,0.0,536.0,4629.2307692307695,3719.48717948718,4478.974358974359,4214.358974358975,4267.179487179487,4443.589743589744,4384.102564102564,4304.615384615385,4199.48717948718,4613.333333333334,4325.128205128206,4175.384615384616,4100.000000000001,4247.179487179487
321.66705,0.1398055,0.8715048,0.34552836,0.7180359,0,0.0,0.0,0.0,0.0,0.0,0,0,0.827637,0.0,0,0,114.0,0.0,536.0,4664.615384615386,3767.1794871794878,4490.256410256411,4266.153846153847,4255.8974358974365,4402.051282051282,4369.2307692307695,4252.307692307693,4174.358974358975,4537.948717948719,4367.179487179487,4143.076923076924,4051.2820512820517,4246.666666666667
321.91727,0.24495216,0.9192844,0.3439728,0.7177339,0,0.0,0.0,0.0,0.0,0.0,0,0,0.3234264,0.0,0,0,17.0,0.0,0.0,4675.384615384616,3838.461538461539,4438.974358974359,4343.076923076924,4269.2307692307695,4401.025641025642,4331.282051282052,4218.974358974359,4164.615384615385,4512.307692307693,4376.410256410257,4064.1025641025644,4088.205128205129,4463.589743589744
322.16748,0.24495216,0.9192844,0.3439728,0.7177339,0,0.0,0.0,0.0,0.0,1.0,0,0,0.0,0.0,0,0,49.0,0.0,0.0,4669.743589743591,3891.7948717948725,4409.743589743591,4387.6923076923085,4262.564102564103,4441.025641025642,4335.8974358974365,4245.128205128206,4202.564102564103,4552.820512820514,4402.564102564103,4087.692307692308,4108.205128205129,4540.512820512821
322.4177,0.30752742,0.937944,0.34290162,0.71013224,0,0.0,0.0,0.0,0.0,0.5308587,0,0,0.0,0.0,0,0,81.0,0.0,458.0,4663.589743589744,3927.1794871794878,4420.000000000001,4430.256410256411,4261.025641025642,4506.666666666667,4391.282051282052,4310.256410256411,4287.179487179487,4649.2307692307695,4416.923076923077,4139.48717948718,4176.410256410257,4543.076923076924
322.6679,0.30752742,0.937944,0.34290162,0.71013224,0,0.0,0.0,0.0,0.0,0.20886292,0,0,0.0,0.0,0,0,113.0,0.0,458.0,4668.717948717949,3960.0000000000005,4431.794871794872,4431.282051282052,4242.564102564103,4549.2307692307695,4437.435897435898,4338.974358974359,4350.256410256411,4708.205128205129,4400.000000000001,4177.435897435898,4230.256410256411,4552.307692307693
322.79303,0.3302398,0.9309225,0.34193754,0.6979292,0,0.0,0.0,0.0,0.0,1.0,0,0,0.0,0.0,0,0,0.0,0.0,513.0,4668.205128205129,3962.0512820512827,4435.8974358974365,4425.128205128206,4240.000000000001,4552.820512820514,4426.666666666667,4353.333333333334,4357.435897435898,4734.358974358975,4372.820512820514,4182.051282051282,4242.564102564103,4809.2307692307695
322.79303,0.3302398,0.9309225,0.34193754,0.6979292,0,0.0,0.0,0.0,0.0,1.0,0,0,0.0,0.0,0,0,0.0,0.0,513.0,4668.205128205129,3962.0512820512827,4435.8974358974365,4425.128205128206,4240.000000000001,4552.820512820514,4426.666666666667,4353.333333333334,4357.435897435898,4734.358974358975,4372.820512820514,4182.051282051282,4242.564102564103,4809.2307692307695
323.41858,0.3524192,0.8911513,0.34107065,0.683232,0,0.0,0.0,0.0,0.0,0.8132417,0,0,0.0,0.0,0,0,80.0,0.0,497.0,4662.051282051282,4045.6410256410263,4479.48717948718,4501.538461538462,4234.358974358975,4660.512820512821,4535.384615384616,4483.589743589744,4490.256410256411,4826.666666666667,4327.179487179487,4280.000000000001,4275.8974358974365,4599.48717948718
323.6688,0.3524192,0.8911513,0.34107065,0.683232,0,0.0,0.0,0.0,0.0,1.0,0,0,0.0,0.0,0,0,112.0,0.0,497.0,4637.435897435898,4105.128205128206,4525.128205128206,4553.333333333334,4199.48717948718,4720.000000000001,4570.769230769231,4526.666666666667,4527.6923076923085,4894.358974358975,4366.666666666667,4342.051282051282,4329.743589743591,4828.205128205129
323.79388,0.41369942,0.8339446,0.3402885,0.6700123,0,0.0,0.0,0.0,0.0,1.0,0,0,0.0,0.0,0,0,128.0,0.0,497.0,4628.717948717949,4152.307692307693,4526.666666666667,4601.538461538462,4200.000000000001,4666.666666666667,4553.333333333334,4507.6923076923085,4506.666666666667,4855.8974358974365,4342.051282051282,4326.666666666667,4280.000000000001,4813.846153846154
323.79388,0.41369942,0.8339446,0.3402885,0.6700123,0,0.0,0.0,0.0,0.0,1.0,0,0,0.0,0.0,0,0,128.0,0.0,497.0,4628.717948717949,4152.307692307693,4526.666666666667,4601.538461538462,4200.000000000001,4666.666666666667,4553.333333333334,4507.6923076923085,4506.666666666667,4855.8974358974365,4342.051282051282,4326.666666666667,4280.000000000001,4813.846153846154
324.54453,0.49253598,0.8173681,0.33958328,0.65811896,0,0.0,0.0,0.0,0.0,0.47766882,0,0,0.0,0.0,0,0,91.0,0.0,510.0,4673.333333333334,4122.051282051282,4585.641025641026,4602.564102564103,4197.435897435898,4582.051282051282,4520.512820512821,4552.820512820514,4477.948717948719,4814.358974358975,4562.051282051282,4441.538461538462,4233.333333333334,4393.333333333334
324.66965,0.49253598,0.8173681,0.33958328,0.65811896,0,0.0,0.0,0.0,0.0,1.0,0,0,0.0,0.0,0,0,111.0,0.0,510.0,4674.358974358975,4092.820512820513,4566.153846153847,4593.846153846154,4200.000000000001,4567.179487179488,4486.153846153847,4553.846153846154,4473.333333333334,4808.205128205129,4603.589743589744,4441.538461538462,4245.641025641026,4730.256410256411
324.82602,0.40505898,0.7819964,0.3389531,0.6475125,0,0.0,0.0,0.0,0.0,1.0,0,0,0.0,0.0,0,0,2.0,0.0,260.0,4660.512820512821,4068.205128205129,4539.48717948718,4574.358974358975,4204.615384615385,4555.384615384616,4489.743589743591,4551.282051282052,4447.6923076923085,4793.846153846154,4602.051282051282,4435.384615384616,4250.769230769231,4720.000000000001
325.17007,0.40505898,0.7819964,0.3389531,0.6475125,0,0.0,0.0,0.0,0.0,0.86493987,0,0,0.0,0.0,0,0,46.0,0.0,0.0,4656.410256410257,4049.7435897435903,4520.512820512821,4572.820512820514,4214.871794871796,4569.743589743591,4505.128205128206,4524.615384615385,4443.076923076924,4795.8974358974365,4549.743589743591,4400.000000000001,4233.846153846154,4537.435897435898
325.4203,0.3798561,0.7480245,0.33838353,0.63792616,0,0.0,0.0,0.0,0.0,0.9681335,0,0,0.0,0.0,0,0,78.0,0.0,537.0,4685.128205128206,4054.358974358975,4519.48717948718,4583.076923076924,4202.051282051282,4585.128205128206,4504.102564102564,4505.128205128206,4446.153846153847,4810.769230769231,4506.666666666667,4365.641025641026,4230.256410256411,4471.794871794872
325.63922,0.3798561,0.7480245,0.33838353,0.63792616,0,0.0,0.0,0.0,0.0,1.0,0,0,0.0,0.0,0,1,106.0,0.0,537.0,4685.128205128206,4034.8717948717954,4508.205128205129,4567.179487179488,4200.512820512821,4610.769230769231,4516.410256410257,4508.205128205129,4434.358974358975,4815.384615384616,4473.846153846154,4341.538461538462,4215.384615384616,4737.435897435898
325.98328,0.37847158,0.717612,0.33787274,0.6293025,0,0.0,0.0,0.0,0.0,1.0,0,0,0.0,0.0,0,0,21.0,0.0,0.0,4680.512820512821,4054.8717948717954,4507.179487179488,4571.794871794872,4204.102564102564,4618.974358974359,4525.128205128206,4474.871794871796,4442.564102564103,4815.8974358974365,4401.538461538462,4295.384615384616,4207.179487179487,4535.8974358974365
325.98328,0.37847158,0.717612,0.33787274,0.6293025,0,0.0,0.0,0.0,0.0,1.0,0,0,0.0,0.0,0,0,21.0,0.0,0.0,4680.512820512821,4054.8717948717954,4507.179487179488,4571.794871794872,4204.102564102564,4618.974358974359,4525.128205128206,4474.871794871796,4442.564102564103,4815.8974358974365,4401.538461538462,4295.384615384616,4207.179487179487,4535.8974358974365
326.29605,0.28820828,0.65935946,0.33741432,0.6215486,0,0.0,0.0,0.0,0.0,1.0,0,0,0.0,0.0,0,0,61.0,0.0,0.0,4662.564102564103,4059.48717948718,4521.538461538462,4553.846153846154,4191.282051282052,4627.179487179488,4546.666666666667,4490.256410256411,4457.435897435898,4831.282051282052,4360.000000000001,4279.48717948718,4203.589743589744,4374.358974358975
326.29605,0.28820828,0.65935946,0.33741432,0.6215486,0,0.0,0.0,0.0,0.0,1.0,0,0,0.0,0.0,0,0,61.0,0.0,0.0,4662.564102564103,4059.48717948718,4521.538461538462,4553.846153846154,4191.282051282052,4627.179487179488,4546.666666666667,4490.256410256411,4457.435897435898,4831.282051282052,4360.000000000001,4279.48717948718,4203.589743589744,4374.358974358975
326.92157,0.27873582,0.61053205,0.3370014,0.6145687,0,0.0,0.0,0.0,0.0,0.09492166,0,0,0.0,0.0,0,0,12.0,0.0,492.0,4653.333333333334,3605.1282051282055,4552.820512820514,4200.000000000001,4211.794871794872,4598.461538461539,4554.358974358975,4488.205128205129,4425.128205128206,4804.102564102564,4350.769230769231,4265.128205128206,4155.384615384616,4460.512820512821
327.17178,0.27873582,0.61053205,0.3370014,0.6145687,0,0.0,0.0,0.0,0.0,0.5132872,0,0,0.0,0.0,0,0,44.0,0.0,0.0,4653.333333333334,4014.8717948717954,4553.846153846154,4470.256410256411,4213.333333333334,4588.205128205129,4549.743589743591,4492.820512820514,4425.128205128206,4805.641025641026,4366.153846153847,4266.666666666667,4167.179487179487,4385.641025641026
327.422,0.23188283,0.5635791,0.3366324,0.6083181,0,0.0,0.0,0.0,0.0,0.27112147,0,0,0.0,0.0,0,0,76.0,0.0,492.0,4654.358974358975,4087.1794871794878,4537.435897435898,4538.461538461539,4218.461538461539,4586.666666666667,4524.615384615385,4476.410256410257,4425.641025641026,4789.743589743591,4345.641025641026,4250.256410256411,4154.871794871796,4587.179487179488
327.6722,0.23188283,0.5635791,0.3366324,0.6083181,0,0.0,0.0,0.0,0.0,1.0,0,0,0.0,0.0,0,0,108.0,0.0,492.0,4634.871794871796,4021.0256410256416,4540.512820512821,4506.666666666667,4226.153846153847,4562.051282051282,4509.2307692307695,4465.128205128206,4374.871794871796,4749.2307692307695,4407.179487179487,4258.461538461539,4142.564102564103,4496.410256410257
327.79733,0.18332995,0.5110117,0.33629876,0.60267437,0,0.0,0.0,0.0,0.0,1.0,0,0,0.0,0.0,0,0,124.0,0.0,492.0,4632.820512820514,4005.6410256410263,4573.846153846154,4496.410256410257,4231.794871794872,4537.948717948719,4497.435897435898,4428.717948717949,4340.000000000001,4703.589743589744,4431.794871794872,4264.615384615385,4093.333333333334,4403.589743589744
328.17264,0.18332995,0.5110117,0.33629876,0.60267437,0,0.0,0.0,0.0,0.0,0.6420288,0,0,0.0,0.0,0,0,43.0,0.0,0.0,4607.6923076923085,3989.23076923077,4572.307692307693,4490.256410256411,4246.153846153847,4488.205128205129,4442.051282051282,4361.025641025642,4262.564102564103,4591.794871794872,4455.384615384616,4196.923076923077,4016.9230769230776,4257.435897435898
328.42285,0.2930347,0.46766686,0.33599922,0.5976001,0,0.0,0.0,0.0,0.0,0.711024,0,0,0.0,0.0,0,0,75.0,0.0,512.0,4653.846153846154,4015.8974358974365,4536.923076923077,4511.794871794872,4233.333333333334,4474.871794871796,4388.205128205129,4325.641025641026,4225.641025641026,4558.974358974359,4409.743589743591,4120.000000000001,3963.076923076924,4482.564102564103
328.67307,0.2930347,0.46766686,0.33599922,0.5976001,0,0.0,0.0,0.0,0.0,0.8799344,0,0,0.0,0.0,0,0,107.0,0.0,512.0,4752.820512820514,4045.1282051282055,4544.102564102564,4545.641025641026,4253.333333333334,4517.435897435898,4425.641025641026,4353.333333333334,4289.74358974359,4633.333333333334,4439.48717948718,4156.923076923077,4042.0512820512827,4482.051282051282
328.9233,0.40243587,0.4857065,0.33573002,0.59303415,0,0.0,0.0,0.0,0.0,1.0,0,0,0.0,0.0,0,0,10.0,0.0,537.0,4738.974358974359,4091.7948717948725,4579.48717948718,4588.717948717949,4290.769230769231,4582.564102564103,4504.102564102564,4423.589743589744,4389.2307692307695,4762.051282051282,4536.410256410257,4234.871794871796,4167.6923076923085,4449.2307692307695
328.9233,0.40243587,0.4857065,0.33573002,0.59303415,0,0.0,0.0,0.0,0.0,1.0,0,0,0.0,0.0,0,0,10.0,0.0,537.0,4738.974358974359,4091.7948717948725,4579.48717948718,4588.717948717949,4290.769230769231,4582.564102564103,4504.102564102564,4423.589743589744,4389.2307692307695,4762.051282051282,4536.410256410257,4234.871794871796,4167.6923076923085,4449.2307692307695
329.54883,0.44884527,0.50194705,0.33548775,0.5889281,0,0.0,0.0,0.0,0.0,0.6904589,0,0,0.0,0.0,0,0,90.0,0.0,537.0,4718.461538461539,4106.666666666667,4425.641025641026,4608.205128205129,4302.051282051282,4605.641025641026,4471.794871794872,4471.282051282052,4470.256410256411,4857.948717948719,4601.538461538462,4281.025641025642,4259.48717948718,4539.48717948718
329.79904,0.5228886,0.5165636,0.33527002,0.58523107,0,0.0,0.0,0.0,0.0,1.0,0,0,0.0,0.0,0,0,112.0,0.0,488.0,4683.076923076924,4054.8717948717954,4378.461538461539,4556.410256410257,4261.538461538462,4571.794871794872,4425.641025641026,4405.641025641026,4442.564102564103,4827.6923076923085,4544.615384615385,4270.769230769231,4227.179487179487,4405.641025641026
330.04926,0.5228886,0.5165636,0.33527002,0.58523107,0,0.0,0.0,0.0,0.0,0.863666,0,0,0.0,0.0,0,0,9.0,0.0,476.0,4731.794871794872,4106.666666666667,4438.461538461539,4601.025641025642,4256.410256410257,4584.615384615385,4451.282051282052,4443.589743589744,4444.102564102564,4826.666666666667,4474.358974358975,4288.717948717949,4217.948717948719,4350.769230769231
330.17438,0.5228886,0.5165636,0.33527002,0.58523107,0,0.0,0.0,0.0,0.0,1.0,0,0,0.0,0.0,0,0,41.0,0.0,0.0,4716.410256410257,4062.564102564103,4446.153846153847,4563.589743589744,4248.205128205129,4614.358974358975,4474.871794871796,4466.153846153847,4456.923076923077,4823.076923076924,4399.48717948718,4297.435897435898,4231.794871794872,4602.564102564103
330.29947,0.44998923,0.52971846,0.33769447,0.58850145,0,0.0,0.0,0.0,0.0,1.0,0,0,0.0,0.0,0,0,57.0,0.0,0.0,4718.974358974359,4049.23076923077,4478.974358974359,4553.846153846154,4243.589743589744,4632.820512820514,4506.153846153847,4507.6923076923085,4508.205128205129,4875.8974358974365,4449.2307692307695,4355.8974358974365,4323.076923076924,4661.538461538462
330.7999,0.49971193,0.5415578,0.34236613,0.6021026,0,0.0,0.0,0.0,0.0,0.84783953,0,0,0.0,0.0,0,0,110.0,0.0,451.0,4777.948717948719,4080.0000000000005,4589.743589743591,4576.923076923077,4258.974358974359,4704.615384615386,4608.717948717949,4592.307692307693,4587.6923076923085,4943.076923076924,4473.846153846154,4444.102564102564,4410.769230769231,4575.384615384616
331.0501,0.49971193,0.5415578,0.34236613,0.6021026,0,0.0,0.0,0.0,0.0,0.8671106,0,0,0.0,0.0,0,0,24.0,0.0,0.0,4758.461538461539,4031.7948717948725,4587.6923076923085,4521.538461538462,4233.333333333334,4698.974358974359,4610.769230769231,4568.717948717949,4553.333333333334,4915.8974358974365,4437.948717948719,4408.205128205129,4333.333333333334,4655.8974358974365
331.17523,0.49971193,0.5415578,0.34236613,0.6021026,0,0.0,0.0,0.0,0.0,1.0,0,0,0.0,0.0,0,0,40.0,0.0,0.0,4756.923076923077,4034.8717948717954,4601.025641025642,4524.102564102564,4241.538461538462,4678.461538461539,4595.384615384616,4582.051282051282,4551.282051282052,4922.051282051283,4445.128205128206,4420.512820512821,4336.923076923077,4641.025641025642
331.55057,0.54793423,0.55221325,0.34731573,0.62410975,0,0.0,0.0,0.0,0.0,0.51046693,0,0,0.0,0.0,0,0,80.0,0.0,488.0,4751.282051282052,4060.0000000000005,4616.410256410257,4554.871794871796,4202.051282051282,4660.000000000001,4600.000000000001,4576.923076923077,4523.589743589744,4874.871794871796,4400.512820512821,4425.641025641026,4247.179487179487,4566.153846153847
331.80078,0.57502973,0.5618031,0.35176936,0.65074736,0,0.0,0.0,0.0,0.0,0.90839547,0,0,0.0,0.0,0,0,119.0,0.0,506.0,4708.717948717949,3969.7435897435903,4570.769230769231,4457.435897435898,4190.256410256411,4607.179487179488,4573.333333333334,4542.051282051282,4474.871794871796,4822.051282051282,4315.384615384616,4386.666666666667,4162.051282051282,4387.179487179487
331.92587,0.57502973,0.5618031,0.35176936,0.65074736,0,0.0,0.0,0.0,0.0,1.0,0,0,0.0,0.0,0,0,7.0,0.0,433.0,4690.256410256411,3940.5128205128212,4542.051282051282,4441.538461538462,4186.666666666667,4572.820512820514,4534.871794871796,4514.871794871796,4440.512820512821,4798.461538461539,4325.128205128206,4328.717948717949,4161.025641025642,4562.564102564103
332.1761,0.57502973,0.5618031,0.35176936,0.65074736,0,0.0,0.0,0.0,1.0,0.0,0,0,0.0,0.0,0,0,39.0,0.0,0.0,4670.256410256411,3928.205128205129,4523.076923076924,4433.333333333334,4184.102564102564,4554.871794871796,4508.717948717949,4489.2307692307695,4417.435897435898,4782.564102564103,4331.282051282052,4320.512820512821,4152.820512820514,4555.8974358974365
332.55142,0.54525083,0.57043403,0.35639748,0.6781138,0,0.0,0.0,0.0,0.0,0.63436913,0,0,0.0,0.0,0,0,87.0,0.0,514.0,4676.410256410257,3945.1282051282055,4508.205128205129,4443.076923076924,4201.025641025642,4536.410256410257,4489.2307692307695,4427.179487179487,4385.128205128206,4748.205128205129,4277.948717948719,4260.000000000001,4123.076923076924,4485.641025641026
332.6765,0.54525083,0.57043403,0.35639748,0.6781138,0,0.0,0.0,0.0,0.0,0.44972175,0,0,0.0,0.0,0,0,103.0,0.0,514.0,4665.128205128206,3941.538461538462,4497.435897435898,4443.076923076924,4198.974358974359,4524.615384615385,4494.358974358975,4442.564102564103,4392.307692307693,4749.2307692307695,4292.307692307693,4266.666666666667,4133.846153846154,4487.179487179488
332.80164,0.5263263,0.55054903,0.36030272,0.7188647,0,0.0,0.0,0.0,0.0,1.0,0,0,0.0,0.0,0,0,119.0,0.0,514.0,4664.102564102564,3928.717948717949,4492.820512820514,4431.794871794872,4205.128205128206,4523.589743589744,4474.871794871796,4444.615384615385,4396.410256410257,4749.2307692307695,4296.410256410257,4271.794871794872,4129.2307692307695,4736.410256410257
332.80164,0.5263263,0.55054903,0.36030272,0.7188647,0,0.0,0.0,0.0,0.0,1.0,0,0,0.0,0.0,0,0,119.0,0.0,514.0,4664.102564102564,3928.717948717949,4492.820512820514,4431.794871794872,4205.128205128206,4523.589743589744,4474.871794871796,4444.615384615385,4396.410256410257,4749.2307692307695,4296.410256410257,4271.794871794872,4129.2307692307695,4736.410256410257
333.30206,0.53542495,0.51327634,0.36306745,0.76988596,0,0.0,0.0,0.0,0.0,1.0,0,0,0.0,0.0,0,0,54.0,0.0,0.0,4614.358974358975,3930.2564102564106,4503.589743589744,4432.307692307693,4212.820512820514,4532.307692307693,4489.743589743591,4438.974358974359,4396.410256410257,4735.8974358974365,4300.512820512821,4275.384615384616,4144.615384615385,4512.820512820514
333.30206,0.53542495,0.51327634,0.36306745,0.76988596,0,0.0,0.0,0.0,0.0,1.0,0,0,0.0,0.0,0,0,54.0,0.0,0.0,4614.358974358975,3930.2564102564106,4503.589743589744,4432.307692307693,4212.820512820514,4532.307692307693,4489.743589743591,4438.974358974359,4396.410256410257,4735.8974358974365,4300.512820512821,4275.384615384616,4144.615384615385,4512.820512820514
334.0527,0.49995026,0.46796873,0.36457467,0.8039276,0,0.0,0.0,0.0,0.0,0.50706965,0,0,0.0,0.0,0,0,18.0,0.0,0.0,4593.333333333334,4202.051282051282,4488.717948717949,4690.256410256411,4203.589743589744,4508.205128205129,4458.974358974359,4418.461538461539,4373.846153846154,4704.102564102564,4284.102564102564,4266.153846153847,4139.48717948718,4422.051282051282
334.1778,0.49995026,0.46796873,0.36457467,0.8039276,0,0.0,0.0,0.0,0.0,1.0,0,0,0.0,0.0,0,0,37.0,0.0,0.0,4601.538461538462,4151.794871794872,4486.666666666667,4646.153846153847,4202.564102564103,4522.051282051282,4459.48717948718,4427.6923076923085,4381.025641025642,4719.48717948718,4323.589743589744,4262.051282051282,4131.282051282052,4331.794871794872
334.42804,0.524634,0.44324958,0.363389,0.82047707,0,0.0,0.0,0.0,0.0,1.0,0,0,0.0,0.0,0,0,69.0,0.0,556.0,4617.948717948719,4120.512820512821,4523.076923076924,4621.025641025642,4205.641025641026,4555.384615384616,4480.512820512821,4441.025641025642,4390.769230769231,4736.410256410257,4394.871794871796,4300.000000000001,4123.589743589744,4344.102564102564
334.42804,0.524634,0.44324958,0.363389,0.82047707,0,0.0,0.0,0.0,0.0,1.0,0,0,0.0,0.0,0,0,69.0,0.0,556.0,4617.948717948719,4120.512820512821,4523.076923076924,4621.025641025642,4205.641025641026,4555.384615384616,4480.512820512821,4441.025641025642,4390.769230769231,4736.410256410257,4394.871794871796,4300.000000000001,4123.589743589744,4344.102564102564
335.05356,0.45706162,0.41174862,0.3623005,0.83471054,0,0.0,0.0,0.0,0.0,1.0,0,0,0.0,0.0,0,0,19.0,0.0,0.0,4598.461538461539,4022.564102564103,4492.820512820514,4537.948717948719,4233.333333333334,4521.025641025642,4456.923076923077,4427.6923076923085,4370.256410256411,4751.794871794872,4375.384615384616,4270.256410256411,4143.589743589744,4380.000000000001
335.05356,0.45706162,0.41174862,0.3623005,0.83471054,0,0.0,0.0,0.0,0.0,1.0,0,0,0.0,0.0,0,0,20.0,0.0,0.0,4594.358974358975,4030.2564102564106,4496.410256410257,4533.333333333334,4232.820512820514,4519.48717948718,4447.6923076923085,4412.820512820514,4341.538461538462,4736.923076923077,4366.153846153847,4275.384615384616,4131.282051282052,4363.076923076924
335.554,0.40583706,0.4116765,0.35980865,0.827777,0,0.0,0.0,0.0,0.0,0.7412488,0,0,0.0,0.0,0,1,78.0,0.0,539.0,4585.641025641026,3996.410256410257,4508.205128205129,4507.6923076923085,4246.153846153847,4505.641025641026,4408.717948717949,4368.205128205129,4293.846153846154,4641.538461538462,4343.076923076924,4245.128205128206,4015.3846153846157,4323.589743589744
335.77292,0.40583706,0.4116765,0.35980865,0.827777,0,0.0,0.0,0.0,0.0,0.5385642,0,0,0.0,0.0,0,0,112.0,0.0,494.0,4594.358974358975,3989.23076923077,4523.589743589744,4502.564102564103,4250.769230769231,4506.666666666667,4396.923076923077,4355.8974358974365,4287.179487179487,4624.102564102564,4389.2307692307695,4270.769230769231,4026.1538461538466,4299.48717948718
335.92932,0.41717708,0.40899655,0.35714173,0.79973656,0,0.0,0.0,0.0,0.0,0.0,0,0,0.0,0.0,0,0,3.0,0.0,545.0,4601.025641025642,3970.7692307692314,4510.256410256411,4476.410256410257,4248.205128205129,4506.666666666667,4390.256410256411,4342.051282051282,4277.435897435898,4588.205128205129,4365.641025641026,4265.641025641026,4019.48717948718,4258.461538461539
336.17953,0.41717708,0.40899655,0.35714173,0.79973656,0,0.0,0.0,0.0,0.0,0.6754248,0,0,0.0,0.0,0,0,35.0,0.0,0.0,4605.128205128206,3972.307692307693,4509.2307692307695,4476.410256410257,4233.333333333334,4521.025641025642,4405.128205128206,4343.589743589744,4308.205128205129,4628.205128205129,4369.743589743591,4272.820512820514,4105.128205128206,4407.179487179487
336.30463,0.39484084,0.40322387,0.35473573,0.7745836,0,0.0,0.0,0.0,0.0,1.0,0,0,0.0,0.0,0,0,51.0,0.0,0.0,4615.8974358974365,3975.3846153846157,4510.769230769231,4478.461538461539,4249.2307692307695,4523.589743589744,4402.051282051282,4347.179487179487,4319.48717948718,4643.076923076924,4368.717948717949,4276.923076923077,4124.102564102564,4554.871794871796
336.30463,0.39484084,0.40322387,0.35473573,0.7745836,0,0.0,0.0,0.0,0.0,1.0,0,0,0.0,0.0,0,0,51.0,0.0,0.0,4615.8974358974365,3975.3846153846157,4510.769230769231,4478.461538461539,4249.2307692307695,4523.589743589744,4402.051282051282,4347.179487179487,4319.48717948718,4643.076923076924,4368.717948717949,4276.923076923077,4124.102564102564,4554.871794871796
336.93018,0.4179739,0.41609406,0.35256672,0.75200427,0,0.0,0.0,0.0,0.0,1.0,0,0,0.0,0.0,0,0,2.0,0.0,260.0,4652.307692307693,3991.2820512820517,4493.846153846154,4491.794871794872,4237.435897435898,4534.358974358975,4456.410256410257,4385.128205128206,4344.615384615385,4686.666666666667,4362.051282051282,4232.820512820514,4145.128205128206,4458.461538461539
337.1804,0.4179739,0.41609406,0.35256672,0.75200427,0,0.0,0.0,0.0,0.0,0.9487594,0,0,0.0,0.0,0,1,34.0,0.0,0.0,4648.717948717949,3992.307692307693,4493.333333333334,4491.794871794872,4223.076923076924,4555.8974358974365,4474.871794871796,4401.538461538462,4361.025641025642,4731.282051282052,4320.512820512821,4237.435897435898,4154.358974358975,4589.2307692307695
337.49316,0.3450715,0.42487583,0.35061535,0.7320894,0,0.0,0.0,0.0,0.0,1.0,0,0,0.0,0.0,0,0,74.0,0.0,541.0,4634.358974358975,3995.8974358974365,4492.820512820514,4490.769230769231,4211.282051282052,4557.948717948719,4502.051282051282,4432.307692307693,4405.128205128206,4766.666666666667,4345.128205128206,4263.589743589744,4169.74358974359,4676.923076923077
337.68082,0.3450715,0.42487583,0.35061535,0.7320894,0,0.0,0.0,0.0,0.0,0.4158907,0,0,0.0,0.0,0,0,98.0,0.0,541.0,4620.000000000001,3973.333333333334,4475.384615384616,4470.256410256411,4214.871794871796,4572.307692307693,4521.025641025642,4444.615384615385,4412.307692307693,4767.179487179488,4340.512820512821,4232.820512820514,4166.153846153847,4563.076923076924
337.80594,0.2947173,0.44330785,0.348862,0.71419275,0,0.0,0.0,0.0,0.0,1.0,0,0,0.0,0.0,0,0,114.0,0.0,541.0,4633.846153846154,3987.1794871794878,4504.615384615385,4488.717948717949,4200.512820512821,4557.435897435898,4523.076923076924,4441.538461538462,4420.000000000001,4792.820512820514,4348.205128205129,4247.179487179487,4205.128205128206,4503.589743589744
337.80594,0.2947173,0.44330785,0.348862,0.71419275,0,0.0,0.0,0.0,0.0,1.0,0,0,0.0,0.0,0,0,114.0,0.0,541.0,4633.846153846154,3987.1794871794878,4504.615384615385,4488.717948717949,4200.512820512821,4557.435897435898,4523.076923076924,4441.538461538462,4420.000000000001,4792.820512820514,4348.205128205129,4247.179487179487,4205.128205128206,4503.589743589744
338.55658,0.28491798,0.4635179,0.34740287,0.7029798,0,0.0,0.0,0.0,0.0,0.91386366,0,0,0.0,0.0,0,0,73.0,0.0,436.0,4596.923076923077,3974.358974358975,4488.205128205129,4473.846153846154,4221.025641025642,4562.564102564103,4506.666666666667,4477.435897435898,4434.358974358975,4797.435897435898,4369.743589743591,4244.102564102564,4221.025641025642,4582.564102564103
338.68167,0.28491798,0.4635179,0.34740287,0.7029798,0,0.0,0.0,0.0,0.0,1.0,0,0,0.0,0.0,0,0,97.0,0.0,455.0,4594.871794871796,3972.307692307693,4501.025641025642,4474.358974358975,4229.2307692307695,4556.923076923077,4507.6923076923085,4470.769230769231,4432.307692307693,4794.358974358975,4358.974358974359,4248.717948717949,4215.8974358974365,4510.769230769231
338.8068,0.26005322,0.45790184,0.3460812,0.7092695,0,0.0,0.0,0.0,0.0,1.0,0,0,0.0,0.0,0,0,113.0,0.0,455.0,4610.769230769231,3956.410256410257,4488.717948717949,4458.974358974359,4227.179487179487,4554.871794871796,4491.794871794872,4461.025641025642,4437.948717948719,4805.641025641026,4352.820512820514,4245.641025641026,4205.128205128206,4705.128205128206
338.8068,0.26005322,0.45790184,0.3460812,0.7092695,0,0.0,0.0,0.0,0.0,1.0,0,0,0.0,0.0,0,0,113.0,0.0,455.0,4610.769230769231,3956.410256410257,4488.717948717949,4458.974358974359,4227.179487179487,4554.871794871796,4491.794871794872,4461.025641025642,4437.948717948719,4805.641025641026,4352.820512820514,4245.641025641026,4205.128205128206,4705.128205128206
339.30722,0.24876119,0.4469061,0.34365585,0.71051794,0,0.0,0.0,0.0,0.0,1.0,0,0,0.0,0.0,0,0,48.0,0.0,0.0,4674.871794871796,3960.5128205128212,4518.461538461539,4472.307692307693,4223.076923076924,4539.48717948718,4494.358974358975,4476.923076923077,4430.769230769231,4784.615384615386,4373.846153846154,4266.666666666667,4216.410256410257,4556.923076923077
339.7451,0.24876119,0.4469061,0.34365585,0.71051794,0,0.0,0.0,0.0,0.0,1.0,0,0,0.0,0.0,0,1,104.0,0.0,492.0,4644.615384615385,3944.1025641025644,4506.666666666667,4454.871794871796,4226.666666666667,4540.512820512821,4470.256410256411,4445.128205128206,4427.179487179487,4757.948717948719,4311.794871794872,4261.025641025642,4229.2307692307695,4714.358974358975
339.80765,0.19833967,0.4431129,0.3417389,0.724398,0,0.0,0.0,0.0,0.0,1.0,0,0,0.0,0.0,0,1,112.0,0.0,492.0,4637.948717948719,3943.589743589744,4501.025641025642,4455.384615384616,4230.769230769231,4539.48717948718,4461.025641025642,4430.769230769231,4414.358974358975,4746.666666666667,4310.769230769231,4232.307692307693,4214.358974358975,4646.666666666667
340.08914,0.19833967,0.4431129,0.3417389,0.724398,0,0.0,0.0,0.0,0.0,1.0,0,0,0.0,0.0,0,0,19.0,0.0,0.0,4631.794871794872,3957.9487179487182,4492.820512820514,4460.000000000001,4231.282051282052,4537.948717948719,4461.025641025642,4406.153846153847,4398.974358974359,4736.923076923077,4273.846153846154,4225.641025641026,4203.076923076924,4507.179487179488
340.30807,0.16738898,0.42689386,0.33831176,0.74333954,0,0.0,0.0,0.0,0.0,1.0,0,0,0.0,0.0,0,0,47.0,0.0,0.0,4639.48717948718,3968.717948717949,4490.769230769231,4470.769230769231,4233.846153846154,4541.025641025642,4472.820512820514,4387.6923076923085,4385.641025641026,4726.153846153847,4286.153846153847,4197.948717948719,4185.128205128206,4360.000000000001
340.30807,0.16738898,0.42689386,0.33831176,0.74333954,0,0.0,0.0,0.0,0.0,1.0,0,0,0.0,0.0,0,0,47.0,0.0,0.0,4639.48717948718,3968.717948717949,4490.769230769231,4470.769230769231,4233.846153846154,4541.025641025642,4472.820512820514,4387.6923076923085,4385.641025641026,4726.153846153847,4286.153846153847,4197.948717948719,4185.128205128206,4360.000000000001
340.93362,0.1733146,0.4087018,0.33522835,0.7606102,0,0.0,0.0,0.0,0.0,0.0,0,0,0.0,0.1517871,0,0,127.0,0.0,511.0,4616.923076923077,3941.538461538462,4491.794871794872,4445.641025641026,4255.8974358974365,4522.564102564103,4433.333333333334,4341.025641025642,4354.871794871796,4683.076923076924,4166.153846153847,4226.666666666667,4137.435897435898,4507.179487179488
341.18384,0.1733146,0.4087018,0.33522835,0.7606102,0,0.0,0.0,0.0,0.0,0.0,0,0,0.0,0.101140626,0,0,30.0,0.0,0.0,4602.051282051282,3975.3846153846157,4491.794871794872,4476.923076923077,4251.282051282052,4527.179487179488,4446.666666666667,4369.743589743591,4369.2307692307695,4704.102564102564,4264.102564102564,4217.435897435898,4141.538461538462,4474.358974358975
341.43405,0.15663028,0.38738483,0.3324539,0.7704885,1,0.0,0.0,0.0,0.0,0.0,0,0,0.0,0.2922905,0,0,62.0,0.0,0.0,4658.461538461539,3969.7435897435903,4486.153846153847,4472.820512820514,4234.871794871796,4525.128205128206,4427.179487179487,4373.846153846154,4365.641025641026,4695.8974358974365,4317.948717948719,4231.282051282052,4142.564102564103,4569.2307692307695
341.68427,0.15663028,0.38738483,0.3324539,0.7704885,0,0.0,0.0,0.0,0.0,0.99533916,0,0,0.0,0.0,0,0,94.0,0.0,538.0,4677.435897435898,3971.2820512820517,4474.871794871796,4473.333333333334,4237.435897435898,4530.256410256411,4447.179487179487,4391.282051282052,4359.48717948718,4706.153846153847,4358.974358974359,4230.769230769231,4147.179487179487,4504.102564102564
341.93448,0.118488975,0.38269773,0.33155283,0.7606057,0,0.0,0.0,0.0,0.0,0.76337355,0,0,0.0,0.0,0,0,126.0,0.0,538.0,4688.717948717949,3983.076923076924,4491.794871794872,4480.000000000001,4235.384615384616,4532.307692307693,4458.974358974359,4390.256410256411,4356.923076923077,4719.48717948718,4381.025641025642,4231.794871794872,4170.256410256411,4586.153846153847
342.1847,0.118488975,0.38269773,0.33155283,0.7606057,0,0.0,0.0,0.0,0.0,0.27183834,0,0,0.0,0.0,0,0,29.0,0.0,0.0,4687.6923076923085,3964.615384615385,4486.153846153847,4466.153846153847,4228.717948717949,4550.256410256411,4480.000000000001,4405.641025641026,4380.512820512821,4735.8974358974365,4400.000000000001,4229.74358974359,4156.410256410257,4587.179487179488
342.30978,0.06766066,0.39460418,0.33173215,0.7395162,0,0.0,0.0,0.0,0.0,0.0,0,0,0.0,0.0,0,0,45.0,0.0,0.0,4696.923076923077,3959.48717948718,4481.538461538462,4461.025641025642,4232.820512820514,4543.589743589744,4458.461538461539,4410.256410256411,4375.8974358974365,4747.179487179488,4389.2307692307695,4234.358974358975,4140.512820512821,4602.564102564103
342.56003,0.06766066,0.39460418,0.33173215,0.7395162,0,0.0,0.0,0.0,0.0,1.0,0,0,0.0,0.0,0,0,77.0,0.0,455.0,4684.615384615386,3955.3846153846157,4462.051282051282,4454.358974358975,4232.820512820514,4542.564102564103,4458.974358974359,4395.384615384616,4385.641025641026,4760.000000000001,4344.102564102564,4212.820512820514,4142.051282051282,4534.871794871796
342.93533,0.024212675,0.4097978,0.33189365,0.7205672,0,0.0,0.0,0.0,0.0,0.7053239,0,0,0.0,0.0,0,0,125.0,0.0,455.0,4721.538461538462,3953.8461538461543,4474.871794871796,4453.333333333334,4217.435897435898,4536.410256410257,4474.871794871796,4401.025641025642,4379.48717948718,4726.153846153847,4323.589743589744,4200.512820512821,4120.512820512821,4443.589743589744
343.18555,0.024212675,0.4097978,0.33189365,0.7205672,0,0.0,0.0,0.0,0.0,0.97132957,0,0,0.0,0.0,0,0,28.0,0.0,0.0,4698.461538461539,3945.1282051282055,4472.307692307693,4444.615384615385,4222.051282051282,4539.48717948718,4459.48717948718,4400.512820512821,4375.8974358974365,4713.333333333334,4336.410256410257,4204.615384615385,4113.846153846154,4510.769230769231
343.43576,0.0,0.44176134,0.33203912,0.7035345,0,0.0,0.0,0.0,0.0,0.9151868,0,0,0.0,0.0,0,0,60.0,0.0,0.0,4663.589743589744,3939.48717948718,4508.717948717949,4442.564102564103,4219.48717948718,4520.512820512821,4470.256410256411,4380.512820512821,4325.128205128206,4653.333333333334,4345.641025641026,4185.128205128206,4082.564102564103,4415.384615384616
343.68597,0.0,0.44176134,0.33203912,0.7035345,0,0.0,0.0,0.0,0.0,0.17240238,0,0,0.0,0.0,0,0,92.0,0.0,499.0,4646.153846153847,3945.1282051282055,4510.256410256411,4447.6923076923085,4234.358974358975,4513.846153846154,4474.871794871796,4335.384615384616,4291.794871794872,4613.333333333334,4369.2307692307695,4124.102564102564,4052.820512820513,4362.564102564103
343.8111,0.033318568,0.46027702,0.3319396,0.70071995,0,0.0,0.0,0.0,0.0,0.0,0,0,0.0,0.0,0,0,108.0,0.0,499.0,4631.282051282052,3939.48717948718,4505.128205128206,4443.589743589744,4230.769230769231,4518.461538461539,4457.435897435898,4298.461538461539,4261.538461538462,4583.589743589744,4364.102564102564,4092.820512820513,4030.7692307692314,4325.641025641026
343.8111,0.033318568,0.46027702,0.3319396,0.70071995,0,0.0,0.0,0.0,0.0,0.0,0,0,0.0,0.0,0,0,108.0,0.0,499.0,4631.282051282052,3939.48717948718,4505.128205128206,4443.589743589744,4230.769230769231,4518.461538461539,4457.435897435898,4298.461538461539,4261.538461538462,4583.589743589744,4364.102564102564,4092.820512820513,4030.7692307692314,4325.641025641026
344.4366,0.050897837,0.46848524,0.33185014,0.70766103,0,0.0,0.0,0.0,0.0,1.0,0,0,0.0,0.0,0,0,59.0,0.0,0.0,4644.615384615385,3942.0512820512827,4490.256410256411,4436.923076923077,4225.641025641026,4509.743589743591,4455.8974358974365,4304.102564102564,4320.000000000001,4640.000000000001,4391.282051282052,4120.000000000001,4099.48717948718,4400.512820512821
344.7181,0.050897837,0.46848524,0.33185014,0.70766103,0,0.0,0.0,0.0,0.0,0.6024243,0,0,0.0,0.0,0,1,95.0,0.0,511.0,4650.256410256411,3941.0256410256416,4494.871794871796,4430.769230769231,4216.923076923077,4537.948717948719,4476.410256410257,4343.589743589744,4357.435897435898,4692.307692307693,4426.153846153847,4169.74358974359,4156.923076923077,4561.538461538462
344.9058,0.078533,0.4842436,0.33067802,0.71387804,0,0.0,0.0,0.0,0.0,1.0,0,0,0.0,0.0,0,0,119.0,0.0,511.0,4651.282051282052,3938.461538461539,4490.256410256411,4431.282051282052,4220.000000000001,4528.205128205129,4460.512820512821,4359.48717948718,4371.282051282052,4727.6923076923085,4440.512820512821,4189.74358974359,4181.538461538462,4737.435897435898
345.1873,0.078533,0.4842436,0.33067802,0.71387804,0,0.0,0.0,0.0,0.0,0.94333583,0,0,0.0,0.0,0,0,26.0,0.0,0.0,4646.153846153847,3943.589743589744,4494.358974358975,4446.153846153847,4229.2307692307695,4552.307692307693,4478.461538461539,4345.641025641026,4400.512820512821,4766.666666666667,4463.589743589744,4250.256410256411,4217.948717948719,4577.948717948719
345.31238,0.10997003,0.4709456,0.327103,0.71944255,0,0.0,0.0,0.0,0.0,1.0,0,0,0.0,0.0,0,0,42.0,0.0,0.0,4647.6923076923085,3952.820512820513,4508.205128205129,4457.435897435898,4228.717948717949,4537.948717948719,4474.358974358975,4354.358974358975,4395.8974358974365,4761.025641025642,4447.179487179487,4265.128205128206,4228.717948717949,4498.461538461539
345.6877,0.10997003,0.4709456,0.327103,0.71944255,0,0.0,0.0,0.0,0.0,0.19062862,0,0,0.0,0.0,0,0,90.0,0.0,538.0,4631.794871794872,3937.435897435898,4491.282051282052,4443.589743589744,4232.307692307693,4545.128205128206,4468.717948717949,4416.923076923077,4442.564102564103,4797.435897435898,4421.538461538462,4282.564102564103,4232.307692307693,4542.051282051282
345.93793,0.10547041,0.4764063,0.32575193,0.70935106,0,0.0,0.0,0.0,0.0,0.10332646,0,0,0.0,0.0,0,0,122.0,0.0,538.0,4628.205128205129,3981.538461538462,4489.2307692307695,4475.384615384616,4232.820512820514,4533.846153846154,4471.282051282052,4331.794871794872,4425.128205128206,4775.8974358974365,4365.128205128206,4276.410256410257,4215.8974358974365,4470.256410256411
346.18814,0.10547041,0.4764063,0.32575193,0.70935106,0,0.0,0.0,0.0,0.0,0.10589883,0,0,0.0,0.0,0,0,25.0,0.0,0.0,4618.461538461539,3988.717948717949,4485.128205128206,4476.410256410257,4245.641025641026,4540.512820512821,4475.8974358974365,4375.384615384616,4421.025641025642,4756.923076923077,4327.179487179487,4273.333333333334,4202.051282051282,4421.538461538462
346.43835,0.09579054,0.494338,0.3245365,0.6869182,0,0.0,0.0,0.0,0.0,0.22836012,0,0,0.0,0.0,0,0,57.0,0.0,0.0,4620.000000000001,3987.692307692308,4491.282051282052,4474.871794871796,4232.820512820514,4538.461538461539,4470.256410256411,4390.256410256411,4443.076923076924,4777.948717948719,4334.358974358975,4270.256410256411,4214.871794871796,4546.666666666667
346.56345,0.09579054,0.494338,0.3245365,0.6869182,0,0.0,0.0,0.0,0.0,1.0,0,0,0.0,0.0,0,0,73.0,0.0,476.0,4630.256410256411,3975.3846153846157,4488.205128205129,4471.282051282052,4230.769230769231,4540.512820512821,4463.076923076924,4391.282051282052,4426.666666666667,4760.512820512821,4311.282051282052,4246.153846153847,4176.923076923077,4567.179487179488
346.93878,0.07303372,0.5228974,0.32344323,0.662106,0,0.0,0.0,0.0,0.0,0.5595589,0,0,0.0,0.0,0,0,121.0,0.0,456.0,4637.948717948719,3964.1025641025644,4504.102564102564,4462.051282051282,4233.846153846154,4538.974358974359,4461.025641025642,4423.589743589744,4459.48717948718,4814.358974358975,4368.205128205129,4291.794871794872,4236.410256410257,4690.256410256411
347.189,0.07303372,0.5228974,0.32344323,0.662106,0,0.0,0.0,0.0,0.0,0.4284861,0,0,0.0,0.0,0,0,24.0,0.0,0.0,4630.769230769231,3974.358974358975,4506.666666666667,4469.743589743591,4231.282051282052,4537.948717948719,4473.333333333334,4418.461538461539,4435.384615384616,4794.871794871796,4367.179487179487,4282.051282051282,4217.948717948719,4619.48717948718
347.5643,0.07126343,0.57501674,0.32245997,0.6340018,0,0.0,0.0,0.0,0.0,1.0,0,0,0.0,0.0,0,0,66.0,0.0,260.0,4616.923076923077,3971.7948717948725,4502.564102564103,4473.846153846154,4235.384615384616,4537.435897435898,4458.974358974359,4424.102564102564,4425.128205128206,4777.948717948719,4368.717948717949,4259.48717948718,4196.410256410257,4592.820512820514
347.5643,0.07126343,0.57501674,0.32245997,0.6340018,0,0.0,0.0,0.0,0.0,1.0,0,0,0.0,0.0,0,0,72.0,0.0,438.0,4613.846153846154,3972.820512820513,4504.615384615385,4473.846153846154,4233.846153846154,4540.512820512821,4468.205128205129,4431.282051282052,4431.282051282052,4782.564102564103,4374.358974358975,4264.102564102564,4200.000000000001,4583.076923076924
347.81454,0.0647258,0.58877134,0.3227508,0.6087148,0,0.0,0.0,0.0,0.0,1.0,0,0,0.0,0.0,0,0,104.0,0.0,496.0,4618.461538461539,3972.820512820513,4505.641025641026,4474.871794871796,4229.74358974359,4545.128205128206,4489.743589743591,4445.128205128206,4433.846153846154,4773.333333333334,4396.410256410257,4275.8974358974365,4204.102564102564,4467.6923076923085
347.81454,0.0647258,0.58877134,0.3227508,0.6087148,0,0.0,0.0,0.0,0.0,1.0,0,0,0.0,0.0,0,0,104.0,0.0,496.0,4618.461538461539,3972.820512820513,4505.641025641026,4474.871794871796,4229.74358974359,4545.128205128206,4489.743589743591,4445.128205128206,4433.846153846154,4773.333333333334,4396.410256410257,4275.8974358974365,4204.102564102564,4467.6923076923085
348.5652,0.02171199,0.5785015,0.3230133,0.58595806,0,0.0,0.0,0.0,0.0,0.0,0,0,0.0,0.0,0,0,68.0,0.0,563.0,4616.410256410257,3971.2820512820517,4480.000000000001,4471.282051282052,4246.153846153847,4535.8974358974365,4465.128205128206,4442.051282051282,4420.512820512821,4766.153846153847,4381.538461538462,4263.076923076924,4184.102564102564,4489.2307692307695
348.5652,0.02171199,0.5785015,0.3230133,0.58595806,0,0.0,0.0,0.0,0.0,0.0,0,0,0.0,0.0,0,0,71.0,0.0,438.0,4617.948717948719,3977.9487179487182,4489.2307692307695,4476.410256410257,4247.6923076923085,4538.461538461539,4472.820512820514,4431.794871794872,4410.769230769231,4754.358974358975,4374.871794871796,4257.435897435898,4183.589743589744,4489.743589743591
348.8154,0.0,0.5574352,0.32396576,0.57560194,0,0.0,0.0,0.0,0.0,0.0,0,0,0.0,0.0,0,0,103.0,0.0,510.0,4619.48717948718,3991.7948717948725,4511.282051282052,4491.282051282052,4250.769230769231,4543.076923076924,4491.282051282052,4457.948717948719,4440.000000000001,4782.564102564103,4390.256410256411,4280.000000000001,4196.410256410257,4506.666666666667
349.25327,0.0,0.5574352,0.32396576,0.57560194,0,0.0,0.0,0.0,0.0,0.0,0,0,0.0,0.0,0,0,30.0,0.0,0.0,4597.435897435898,3958.461538461539,4489.2307692307695,4458.974358974359,4233.846153846154,4520.512820512821,4442.564102564103,4397.435897435898,4382.051282051282,4730.256410256411,4349.2307692307695,4246.666666666667,4136.410256410257,4582.564102564103
349.56604,0.020078706,0.52372164,0.3250891,0.5815863,0,0.0,0.0,0.0,0.0,1.0,0,0,0.0,0.0,0,0,47.0,0.0,0.0,4591.282051282052,3942.564102564103,4492.307692307693,4449.743589743591,4231.282051282052,4522.564102564103,4458.461538461539,4402.051282051282,4369.743589743591,4717.948717948719,4371.282051282052,4258.461538461539,4110.256410256411,4502.051282051282
349.56604,0.020078706,0.52372164,0.3250891,0.5815863,0,0.0,0.0,0.0,0.0,1.0,0,0,0.0,0.0,0,0,70.0,0.0,553.0,4566.666666666667,3944.615384615385,4505.641025641026,4446.666666666667,4231.794871794872,4506.153846153847,4453.846153846154,4369.743589743591,4315.8974358974365,4652.820512820514,4387.6923076923085,4236.410256410257,4035.3846153846157,4337.435897435898
350.06647,0.067993216,0.49331552,0.32584617,0.5869703,0,0.0,0.0,0.0,0.0,0.5051924,0,0,0.0,0.0,0,0,5.0,0.0,556.0,4586.666666666667,3972.820512820513,4528.205128205129,4478.974358974359,4247.179487179487,4475.8974358974365,4427.6923076923085,4300.000000000001,4246.153846153847,4570.256410256411,4420.512820512821,4183.589743589744,3993.8461538461543,4328.205128205129
350.19156,0.067993216,0.49331552,0.32584617,0.5869703,0,0.0,0.0,0.0,0.0,0.8390836,0,0,0.0,0.0,0,0,21.0,0.0,0.0,4584.102564102564,3972.307692307693,4509.2307692307695,4474.871794871796,4248.717948717949,4474.358974358975,4428.717948717949,4294.871794871796,4231.794871794872,4567.179487179488,4419.48717948718,4152.307692307693,4007.1794871794878,4358.974358974359
350.5669,0.055868514,0.4617998,0.32579213,0.5918136,0,0.0,0.0,0.0,0.0,0.860564,0,0,0.0,0.0,0,0,69.0,0.0,556.0,4602.051282051282,3984.1025641025644,4523.076923076924,4488.205128205129,4235.384615384616,4491.282051282052,4458.461538461539,4325.641025641026,4266.153846153847,4618.461538461539,4386.666666666667,4166.153846153847,4072.820512820513,4432.820512820514
350.69202,0.055868514,0.4617998,0.32579213,0.5918136,0,0.0,0.0,0.0,0.0,1.0,0,0,0.0,0.0,0,0,85.0,0.0,456.0,4605.641025641026,3974.8717948717954,4514.871794871796,4457.948717948719,4231.794871794872,4504.615384615385,4461.538461538462,4362.051282051282,4308.717948717949,4658.974358974359,4401.538461538462,4184.615384615385,4108.205128205129,4637.948717948719
350.8171,0.09207033,0.44149238,0.3248139,0.6040841,0,0.0,0.0,0.0,0.0,1.0,0,0,0.0,0.0,0,0,101.0,0.0,456.0,4585.128205128206,3941.538461538462,4472.307692307693,4447.6923076923085,4233.333333333334,4493.846153846154,4433.846153846154,4346.153846153847,4318.461538461539,4672.307692307693,4383.076923076924,4171.794871794872,4142.564102564103,4712.820512820514
351.19244,0.09207033,0.44149238,0.3248139,0.6040841,0,0.0,0.0,0.0,0.0,0.31757107,0,0,0.0,0.0,0,0,20.0,0.0,0.0,4599.48717948718,3951.2820512820517,4472.820512820514,4458.461538461539,4233.846153846154,4550.769230769231,4471.282051282052,4405.128205128206,4405.641025641026,4763.076923076924,4362.564102564103,4225.128205128206,4234.358974358975,4694.871794871796
351.44266,0.10051251,0.44173738,0.32486483,0.6151216,0,0.0,0.0,0.0,0.0,1.0,0,0,0.0,0.0,0,0,52.0,0.0,0.0,4599.48717948718,3958.461538461539,4490.769230769231,4460.512820512821,4228.205128205129,4572.307692307693,4493.333333333334,4416.410256410257,4434.871794871796,4778.974358974359,4352.820512820514,4250.256410256411,4253.846153846154,4582.564102564103
351.6616,0.10051251,0.44173738,0.32486483,0.6151216,1,0.0,0.0,0.0,0.0,1.0,0,0,0.0,0.0,0,0,80.0,0.0,496.0,4597.948717948719,3957.435897435898,4476.410256410257,4458.461538461539,4220.000000000001,4573.333333333334,4460.000000000001,4411.794871794872,4444.102564102564,4792.307692307693,4344.102564102564,4248.717948717949,4254.358974358975,4601.538461538462
351.81796,0.10338554,0.44710842,0.32513013,0.62504786,0,0.0,0.0,0.0,0.0,1.0,0,0,0.0,0.0,0,0,100.0,0.0,496.0,4601.538461538462,3956.410256410257,4477.435897435898,4457.435897435898,4233.333333333334,4555.384615384616,4464.615384615385,4428.205128205129,4457.948717948719,4794.358974358975,4345.128205128206,4264.102564102564,4250.769230769231,4510.769230769231
352.1933,0.10338554,0.44710842,0.32513013,0.62504786,0,0.0,0.0,0.0,0.0,0.9599015,0,0,0.0,0.0,0,0,19.0,0.0,0.0,4643.076923076924,3960.5128205128212,4492.307692307693,4463.076923076924,4233.846153846154,4556.410256410257,4492.820512820514,4442.051282051282,4457.948717948719,4809.2307692307695,4356.923076923077,4277.948717948719,4247.179487179487,4419.48717948718
352.5686,0.07462198,0.44528863,0.32421836,0.6322204,0,0.0,0.0,0.0,0.0,1.0,0,0,0.0,0.0,0,0,67.0,0.0,545.0,4612.307692307693,3956.410256410257,4491.282051282052,4456.410256410257,4235.384615384616,4554.358974358975,4474.871794871796,4444.615384615385,4462.051282051282,4798.974358974359,4374.358974358975,4293.333333333334,4235.384615384616,4488.717948717949
352.5686,0.07462198,0.44528863,0.32421836,0.6322204,0,0.0,0.0,0.0,0.0,1.0,0,0,0.0,0.0,0,0,67.0,0.0,545.0,4612.307692307693,3956.410256410257,4491.282051282052,4456.410256410257,4235.384615384616,4554.358974358975,4474.871794871796,4444.615384615385,4462.051282051282,4798.974358974359,4374.358974358975,4293.333333333334,4235.384615384616,4488.717948717949
353.06903,0.11011402,0.42912376,0.32173014,0.6386668,0,0.0,0.0,0.0,0.0,0.0,0,0,0.0,0.0,0,0,2.0,0.0,260.0,4608.205128205129,3957.9487179487182,4505.641025641026,4458.461538461539,4234.871794871796,4553.846153846154,4494.358974358975,4451.282051282052,4477.435897435898,4805.641025641026,4395.384615384616,4288.205128205129,4235.8974358974365,4516.923076923077
353.06903,0.11011402,0.42912376,0.32173014,0.6386668,0,0.0,0.0,0.0,0.0,0.0,0,0,0.0,0.0,0,0,2.0,0.0,260.0,4608.205128205129,3957.9487179487182,4505.641025641026,4458.461538461539,4234.871794871796,4553.846153846154,4494.358974358975,4451.282051282052,4477.435897435898,4805.641025641026,4395.384615384616,4288.205128205129,4235.8974358974365,4516.923076923077
353.31927,0.08039408,0.42353004,0.31919426,0.644459,0,0.0,0.0,0.0,0.0,0.0,0,0,0.0,0.0,0,0,34.0,0.0,0.0,4618.461538461539,3925.1282051282055,4477.948717948719,4428.717948717949,4231.282051282052,4523.076923076924,4457.948717948719,4380.000000000001,4443.589743589744,4781.025641025642,4381.025641025642,4247.6923076923085,4203.076923076924,4603.589743589744
353.69458,0.08039408,0.42353004,0.31919426,0.644459,0,0.0,0.0,0.0,0.0,1.0,0,0,0.0,0.0,0,0,82.0,0.0,538.0,4606.153846153847,3909.2307692307695,4492.307692307693,4416.923076923077,4242.564102564103,4506.666666666667,4440.000000000001,4333.333333333334,4375.384615384616,4713.333333333334,4361.538461538462,4257.948717948719,4131.794871794872,4349.743589743591
353.8197,0.09391654,0.42389515,0.31715798,0.65174323,0,0.0,0.0,0.0,0.0,1.0,0,0,0.0,0.0,0,0,98.0,0.0,538.0,4594.358974358975,3911.7948717948725,4526.666666666667,4425.641025641026,4238.461538461539,4501.538461538462,4443.589743589744,4345.641025641026,4364.102564102564,4691.282051282052,4397.435897435898,4276.410256410257,4101.025641025642,4322.564102564103
354.195,0.09391654,0.42389515,0.31715798,0.65174323,0,0.0,0.0,0.0,0.0,0.90930235,0,0,0.0,0.0,0,0,17.0,0.0,0.0,4555.384615384616,3862.564102564103,4519.48717948718,4386.666666666667,4248.205128205129,4473.333333333334,4401.025641025642,4352.820512820514,4323.589743589744,4639.48717948718,4481.538461538462,4311.794871794872,4059.48717948718,4485.641025641026
354.44522,0.09563218,0.4148115,0.31532642,0.6496582,0,0.0,0.0,0.0,0.0,0.63103867,0,0,0.0,0.0,0,0,49.0,0.0,0.0,4591.794871794872,3820.0000000000005,4518.974358974359,4348.205128205129,4245.128205128206,4487.6923076923085,4417.948717948719,4405.128205128206,4306.153846153847,4667.6923076923085,4547.6923076923085,4355.8974358974365,4119.48717948718,4514.871794871796
354.69543,0.09563218,0.4148115,0.31532642,0.6496582,0,0.0,0.0,0.0,0.0,0.09767399,0,0,0.0,0.0,0,0,81.0,0.0,456.0,4571.794871794872,3701.538461538462,4413.333333333334,4234.871794871796,4288.205128205129,4400.000000000001,4340.000000000001,4317.435897435898,4250.256410256411,4582.051282051282,4438.974358974359,4246.153846153847,4041.0256410256416,4385.128205128206
354.94565,0.17402054,0.42838895,0.31367925,0.63828003,0,0.0,0.0,0.0,0.0,0.16221179,0,0,0.0,0.0,0,0,113.0,0.0,456.0,4537.948717948719,4404.615384615385,4327.6923076923085,4582.564102564103,4294.871794871796,4404.615384615385,4295.8974358974365,4247.6923076923085,4196.923076923077,4527.6923076923085,4307.6923076923085,4121.538461538462,3968.205128205129,4271.282051282052
355.19586,0.17402054,0.42838895,0.31367925,0.63828003,0,0.0,0.0,0.0,0.0,0.0,0,0,0.20047885,0.0,0,0,16.0,0.0,0.0,4535.384615384616,3820.0000000000005,4357.948717948719,4225.641025641026,4321.538461538462,4430.256410256411,4307.6923076923085,4265.641025641026,4242.564102564103,4587.179487179488,4307.6923076923085,4138.461538461539,4139.48717948718,4541.025641025642
355.44608,0.24527983,0.44053322,0.31479225,0.6243199,0,0.0,0.0,0.0,0.0,0.0,0,1,0.5597498,0.0,0,0,48.0,0.0,0.0,4585.641025641026,3586.1538461538466,4434.871794871796,4061.0256410256416,4291.794871794872,4504.102564102564,4388.205128205129,4332.820512820514,4320.512820512821,4676.410256410257,4307.6923076923085,4167.179487179487,4258.461538461539,4613.846153846154
355.6963,0.24527983,0.44053322,0.31479225,0.6243199,0,0.0,0.0,0.3033132,0.0,0.0,0,1,0.0,0.0,0,0,80.0,0.0,493.0,4585.128205128206,3561.0256410256416,4447.6923076923085,4075.8974358974365,4282.051282051282,4510.769230769231,4414.358974358975,4340.000000000001,4362.051282051282,4723.589743589744,4274.871794871796,4156.410256410257,4282.564102564103,4598.461538461539
356.04034,0.26858243,0.45146304,0.31664637,0.6171118,0,0.0,0.0,0.0,0.0,0.0,0,0,0.33889118,0.0,0,0,124.0,0.0,493.0,4560.000000000001,3611.794871794872,4448.717948717949,4135.8974358974365,4289.2307692307695,4535.384615384616,4413.333333333334,4323.076923076924,4364.102564102564,4708.717948717949,4230.769230769231,4155.8974358974365,4249.74358974359,4783.076923076924
356.19675,0.26858243,0.45146304,0.31664637,0.6171118,0,0.0,0.0,0.0,0.0,1.0,0,0,0.0,0.0,0,0,15.0,0.0,508.0,4569.743589743591,3681.538461538462,4437.948717948719,4211.282051282052,4277.435897435898,4535.384615384616,4405.128205128206,4312.820512820514,4351.282051282052,4673.846153846154,4197.948717948719,4120.000000000001,4174.871794871796,4645.128205128206
356.32184,0.28890765,0.46129993,0.31832546,0.6105916,0,0.0,0.0,0.0,0.0,1.0,0,0,0.0,0.0,0,0,31.0,0.0,0.0,4554.358974358975,3682.0512820512827,4444.102564102564,4217.435897435898,4260.512820512821,4535.8974358974365,4430.256410256411,4330.256410256411,4342.051282051282,4664.615384615386,4231.282051282052,4136.410256410257,4154.871794871796,4535.384615384616
356.32184,0.28890765,0.46129993,0.31832546,0.6105916,0,0.0,0.0,0.0,0.0,1.0,0,0,0.0,0.0,0,0,31.0,0.0,0.0,4554.358974358975,3682.0512820512827,4444.102564102564,4217.435897435898,4260.512820512821,4535.8974358974365,4430.256410256411,4330.256410256411,4342.051282051282,4664.615384615386,4231.282051282052,4136.410256410257,4154.871794871796,4535.384615384616
356.9474,0.2781085,0.4701531,0.31983766,0.60472184,0,0.0,0.0,0.0,0.0,0.33139724,0,0,0.0,0.0,0,0,111.0,0.0,508.0,4595.8974358974365,3783.589743589744,4429.2307692307695,4328.205128205129,4262.051282051282,4503.589743589744,4413.846153846154,4261.538461538462,4245.128205128206,4558.461538461539,4374.871794871796,4120.512820512821,4054.358974358975,4429.743589743591
357.1976,0.2781085,0.4701531,0.31983766,0.60472184,0,0.0,0.0,0.0,0.0,1.0,0,0,0.0,0.0,0,0,14.0,0.0,533.0,4608.717948717949,3809.7435897435903,4470.769230769231,4364.615384615385,4247.6923076923085,4536.923076923077,4456.923076923077,4312.820512820514,4296.410256410257,4616.923076923077,4400.000000000001,4154.358974358975,4094.358974358975,4338.461538461539
357.3227,0.28751853,0.4804638,0.32119954,0.59943736,0,0.0,0.0,0.0,0.0,1.0,0,0,0.0,0.0,0,0,30.0,0.0,0.0,4644.615384615385,3880.0000000000005,4494.358974358975,4415.8974358974365,4234.871794871796,4535.8974358974365,4461.538461538462,4326.666666666667,4310.256410256411,4628.205128205129,4389.743589743591,4171.282051282052,4088.205128205129,4286.153846153847
357.3227,0.28751853,0.4804638,0.32119954,0.59943736,0,0.0,0.0,0.0,0.0,1.0,0,0,0.0,0.0,0,0,30.0,0.0,0.0,4644.615384615385,3880.0000000000005,4494.358974358975,4415.8974358974365,4234.871794871796,4535.8974358974365,4461.538461538462,4326.666666666667,4310.256410256411,4628.205128205129,4389.743589743591,4171.282051282052,4088.205128205129,4286.153846153847
357.82312,0.28678802,0.48017895,0.32242605,0.5946797,0,0.0,0.0,0.0,0.0,1.0,0,0,0.0,0.0,0,0,94.0,0.0,533.0,4617.948717948719,3924.1025641025644,4491.282051282052,4441.025641025642,4230.769230769231,4582.051282051282,4475.8974358974365,4372.820512820514,4390.769230769231,4747.179487179488,4371.794871794872,4201.538461538462,4197.435897435898,4584.615384615385
358.19846,0.28678802,0.48017895,0.32242605,0.5946797,0,0.0,0.0,0.0,0.0,0.9109778,0,0,0.0,0.0,0,0,13.0,0.0,458.0,4620.512820512821,3972.307692307693,4516.410256410257,4491.794871794872,4217.435897435898,4588.717948717949,4502.564102564103,4414.871794871796,4470.769230769231,4811.794871794872,4389.743589743591,4272.820512820514,4254.358974358975,4600.000000000001
358.44867,0.32559463,0.48458737,0.32353067,0.5903991,0,0.0,0.0,0.0,0.0,1.0,0,0,0.0,0.0,0,0,45.0,0.0,0.0,4637.435897435898,4013.8461538461543,4522.564102564103,4537.948717948719,4202.051282051282,4599.48717948718,4490.769230769231,4426.666666666667,4475.8974358974365,4811.794871794872,4375.384615384616,4277.948717948719,4247.6923076923085,4780.000000000001
358.44867,0.32559463,0.48458737,0.32353067,0.5903991,0,0.0,0.0,0.0,0.0,1.0,0,0,0.0,0.0,0,0,45.0,0.0,0.0,4637.435897435898,4013.8461538461543,4522.564102564103,4537.948717948719,4202.051282051282,4599.48717948718,4490.769230769231,4426.666666666667,4475.8974358974365,4811.794871794872,4375.384615384616,4277.948717948719,4247.6923076923085,4780.000000000001
358.824,0.38149217,0.51371026,0.32578284,0.5865504,0,0.0,0.0,0.0,0.0,1.0,0,0,0.0,0.0,0,0,93.0,0.0,458.0,4675.384615384616,4019.48717948718,4526.666666666667,4524.615384615385,4213.333333333334,4585.641025641026,4503.076923076924,4428.717948717949,4467.6923076923085,4801.025641025642,4342.051282051282,4277.948717948719,4230.769230769231,4653.846153846154
359.1993,0.38149217,0.51371026,0.32578284,0.5865504,0,0.0,0.0,0.0,0.0,0.64500487,0,0,0.0,0.0,0,0,12.0,0.0,496.0,4646.666666666667,3987.1794871794878,4520.000000000001,4489.743589743591,4203.076923076924,4571.794871794872,4489.743589743591,4429.743589743591,4470.256410256411,4815.384615384616,4363.076923076924,4283.076923076924,4232.307692307693,4653.333333333334
359.4808,0.4231429,0.5144503,0.32780927,0.5844361,0,0.0,0.0,0.0,0.0,1.0,0,0,0.0,0.0,0,0,48.0,0.0,0.0,4620.000000000001,3973.8461538461543,4521.025641025642,4474.871794871796,4201.025641025642,4554.358974358975,4488.205128205129,4426.666666666667,4444.615384615385,4806.153846153847,4390.256410256411,4297.948717948719,4216.923076923077,4697.435897435898
359.4808,0.4231429,0.5144503,0.32780927,0.5844361,0,0.0,0.0,0.0,0.0,1.0,0,0,0.0,0.0,0,0,48.0,0.0,0.0,4620.000000000001,3973.8461538461543,4521.025641025642,4474.871794871796,4201.025641025642,4554.358974358975,4488.205128205129,4426.666666666667,4444.615384615385,4806.153846153847,4390.256410256411,4297.948717948719,4216.923076923077,4697.435897435898
359.82486,0.3901523,0.5101702,0.3296325,0.58966404,0,0.0,0.0,0.0,0.0,1.0,0,0,0.0,0.0,0,0,92.0,0.0,496.0,4586.666666666667,3960.0000000000005,4515.8974358974365,4467.6923076923085,4218.461538461539,4552.307692307693,4500.000000000001,4426.666666666667,4416.923076923077,4751.282051282052,4383.589743589744,4272.307692307693,4123.589743589744,4348.717948717949
359.82486,0.3901523,0.5101702,0.3296325,0.58966404,0,0.0,0.0,0.0,0.0,1.0,0,0,0.0,0.0,0,0,92.0,0.0,496.0,4586.666666666667,3960.0000000000005,4515.8974358974365,4467.6923076923085,4218.461538461539,4552.307692307693,4500.000000000001,4426.666666666667,4416.923076923077,4751.282051282052,4383.589743589744,4272.307692307693,4123.589743589744,4348.717948717949
360.3253,0.3874045,0.49978098,0.33076864,0.5943666,0,0.0,0.0,0.0,0.0,1.0,0,0,0.0,0.0,0,0,27.0,0.0,0.0,4584.615384615385,3960.5128205128212,4524.615384615385,4469.743589743591,4217.948717948719,4546.153846153847,4486.666666666667,4426.666666666667,4418.974358974359,4763.589743589744,4423.589743589744,4290.769230769231,4147.179487179487,4524.102564102564
360.7006,0.3874045,0.49978098,0.33076864,0.5943666,0,0.0,0.0,0.0,0.0,0.9446929,0,0,0.0,0.0,0,0,75.0,0.0,507.0,4568.205128205129,3946.1538461538466,4529.743589743591,4452.820512820514,4232.820512820514,4530.769230769231,4459.48717948718,4373.846153846154,4372.307692307693,4701.538461538462,4408.717948717949,4253.333333333334,4105.641025641026,4457.435897435898
360.9508,0.3340464,0.45757514,0.33008796,0.60817343,0,0.0,0.0,0.0,0.0,0.77610713,0,0,0.0,0.0,0,0,107.0,0.0,507.0,4589.2307692307695,3971.2820512820517,4529.743589743591,4478.461538461539,4223.076923076924,4513.846153846154,4430.256410256411,4351.794871794872,4368.205128205129,4704.102564102564,4430.256410256411,4247.6923076923085,4140.000000000001,4505.641025641026
361.20102,0.3340464,0.45757514,0.33008796,0.60817343,0,0.0,0.0,0.0,0.0,0.4054349,0,0,0.0,0.0,0,0,10.0,0.0,533.0,4586.666666666667,3971.7948717948725,4504.615384615385,4475.8974358974365,4233.846153846154,4506.666666666667,4413.333333333334,4356.410256410257,4386.666666666667,4729.2307692307695,4450.769230769231,4252.820512820514,4197.435897435898,4524.102564102564
361.45126,0.26553097,0.4141668,0.32871044,0.6285552,0,0.0,0.0,0.0,0.0,0.63162225,0,0,0.0,0.0,0,0,42.0,0.0,0.0,4612.307692307693,3974.8717948717954,4506.666666666667,4486.666666666667,4236.410256410257,4526.153846153847,4428.717948717949,4358.974358974359,4410.769230769231,4741.025641025642,4426.666666666667,4248.205128205129,4228.717948717949,4473.333333333334
361.70148,0.26553097,0.4141668,0.32871044,0.6285552,0,0.0,0.0,0.0,0.0,0.0,0,0,0.0,0.0,0,0,74.0,0.0,533.0,4633.333333333334,3998.461538461539,4521.025641025642,4498.461538461539,4234.358974358975,4552.307692307693,4456.410256410257,4396.923076923077,4427.6923076923085,4771.282051282052,4441.025641025642,4280.512820512821,4277.435897435898,4476.410256410257
361.9204,0.25226533,0.40508565,0.32747096,0.646883,1,0.0,0.0,0.0,0.0,0.0,0,0,0.0,0.0,0,0,102.0,0.0,533.0,4630.769230769231,3987.1794871794878,4488.717948717949,4488.205128205129,4231.794871794872,4568.205128205129,4458.974358974359,4406.666666666667,4443.589743589744,4781.538461538462,4413.846153846154,4264.102564102564,4276.410256410257,4659.48717948718
362.07678,0.25226533,0.40508565,0.32747096,0.646883,0,0.0,0.0,0.0,0.0,1.0,0,0,0.0,0.0,0,0,122.0,0.0,533.0,4627.179487179488,3967.692307692308,4471.794871794872,4466.666666666667,4221.538461538462,4555.384615384616,4456.923076923077,4397.435897435898,4434.871794871796,4775.8974358974365,4383.076923076924,4254.358974358975,4263.076923076924,4600.000000000001
362.45212,0.22095922,0.41816884,0.32635584,0.6489298,0,0.0,0.0,0.0,0.0,0.8906322,0,0,0.0,0.0,0,0,41.0,0.0,0.0,4661.025641025642,3989.7435897435903,4493.846153846154,4481.025641025642,4218.974358974359,4552.820512820514,4470.769230769231,4407.179487179487,4429.2307692307695,4775.384615384616,4357.435897435898,4275.384615384616,4235.384615384616,4407.6923076923085
362.70233,0.22095922,0.41816884,0.32635584,0.6489298,0,0.0,0.0,0.0,0.0,1.0,0,0,0.0,0.0,0,0,73.0,0.0,476.0,4660.000000000001,3976.410256410257,4522.564102564103,4474.358974358975,4235.384615384616,4582.564102564103,4492.820512820514,4427.6923076923085,4437.948717948719,4765.641025641026,4360.000000000001,4274.871794871796,4204.102564102564,4489.743589743591
362.82742,0.17650677,0.42004526,0.3248747,0.63329107,0,0.0,0.0,0.0,0.0,1.0,0,0,0.0,0.0,0,0,89.0,0.0,458.0,4644.102564102564,3974.8717948717954,4507.6923076923085,4475.384615384616,4241.025641025642,4555.8974358974365,4475.8974358974365,4413.333333333334,4413.333333333334,4737.948717948719,4364.102564102564,4265.128205128206,4171.794871794872,4422.564102564103
363.20276,0.17650677,0.42004526,0.3248747,0.63329107,0,0.0,0.0,0.0,0.0,0.92104197,0,0,0.0,0.0,0,0,8.0,0.0,440.0,4639.48717948718,3969.7435897435903,4507.6923076923085,4466.153846153847,4233.846153846154,4555.8974358974365,4504.615384615385,4399.48717948718,4383.589743589744,4690.769230769231,4401.538461538462,4265.128205128206,4123.589743589744,4278.461538461539
363.45297,0.18460539,0.43494964,0.32430947,0.6275076,0,0.0,0.0,0.0,0.0,1.0,0,0,0.0,0.0,0,0,40.0,0.0,0.0,4684.615384615386,4018.461538461539,4512.307692307693,4495.8974358974365,4218.461538461539,4557.948717948719,4493.846153846154,4381.538461538462,4358.461538461539,4659.48717948718,4388.717948717949,4170.256410256411,4094.8717948717954,4208.717948717949
363.45297,0.18460539,0.43494964,0.32430947,0.6275076,0,0.0,0.0,0.0,0.0,1.0,0,0,0.0,0.0,0,0,40.0,0.0,0.0,4684.615384615386,4018.461538461539,4512.307692307693,4495.8974358974365,4218.461538461539,4557.948717948719,4493.846153846154,4381.538461538462,4358.461538461539,4659.48717948718,4388.717948717949,4170.256410256411,4094.8717948717954,4208.717948717949
363.9534,0.19365788,0.47305152,0.32303363,0.6133101,0,0.0,0.0,0.0,0.0,0.91498184,0,0,0.0,0.0,0,0,104.0,0.0,496.0,4633.333333333334,3969.7435897435903,4490.256410256411,4476.410256410257,4232.307692307693,4560.000000000001,4489.743589743591,4386.666666666667,4388.717948717949,4704.615384615386,4382.051282051282,4381.025641025642,4162.051282051282,4466.666666666667
364.07852,0.19365788,0.47305152,0.32303363,0.6133101,0,0.0,0.0,0.0,0.0,1.0,0,0,0.0,0.0,0,0,120.0,0.0,496.0,4619.48717948718,3976.9230769230776,4511.282051282052,4480.000000000001,4229.74358974359,4565.128205128206,4513.333333333334,4416.923076923077,4413.846153846154,4732.820512820514,4377.948717948719,4401.538461538462,4177.948717948719,4490.769230769231
364.32874,0.18040164,0.47974256,0.32302025,0.5865586,0,0.0,0.0,0.0,0.0,1.0,0,0,0.0,0.0,0,0,23.0,0.0,0.0,4611.794871794872,3983.076923076924,4510.256410256411,4486.153846153847,4216.410256410257,4569.2307692307695,4519.48717948718,4427.6923076923085,4443.076923076924,4769.743589743591,4380.512820512821,4389.743589743591,4235.8974358974365,4561.025641025642
364.70404,0.18040164,0.47974256,0.32302025,0.5865586,0,0.0,0.0,0.0,0.0,0.23324336,0,0,0.0,0.0,0,0,71.0,0.0,438.0,4595.8974358974365,3970.7692307692314,4500.512820512821,4474.871794871796,4203.076923076924,4556.410256410257,4447.179487179487,4424.615384615385,4454.871794871796,4788.717948717949,4344.615384615385,4370.769230769231,4233.333333333334,4664.615384615386
364.95425,0.1281295,0.49773568,0.32456928,0.5595628,0,0.0,0.0,0.0,0.0,0.39803576,0,0,0.0,0.0,0,0,103.0,0.0,511.0,4595.8974358974365,3957.9487179487182,4502.564102564103,4461.538461538462,4210.769230769231,4572.307692307693,4461.538461538462,4429.2307692307695,4443.589743589744,4774.871794871796,4300.000000000001,4307.6923076923085,4197.948717948719,4560.000000000001
365.20447,0.1281295,0.49773568,0.32456928,0.5595628,0,0.0,0.0,0.0,0.0,1.0,0,0,0.0,0.0,0,0,6.0,0.0,554.0,4616.410256410257,3955.3846153846157,4491.794871794872,4451.794871794872,4201.025641025642,4570.256410256411,4463.076923076924,4444.102564102564,4444.102564102564,4794.871794871796,4311.282051282052,4269.74358974359,4214.871794871796,4882.564102564103
365.3296,0.108272925,0.50176823,0.33231348,0.5413236,0,0.0,0.0,0.0,0.0,1.0,0,0,0.0,0.0,0,0,22.0,0.0,0.0,4647.6923076923085,3962.564102564103,4489.743589743591,4456.923076923077,4212.307692307693,4550.256410256411,4443.076923076924,4428.205128205129,4427.6923076923085,4777.435897435898,4307.6923076923085,4247.6923076923085,4198.974358974359,4798.974358974359
365.3296,0.108272925,0.50176823,0.33231348,0.5413236,0,0.0,0.0,0.0,0.0,1.0,0,0,0.0,0.0,0,0,22.0,0.0,0.0,4647.6923076923085,3962.564102564103,4489.743589743591,4456.923076923077,4212.307692307693,4550.256410256411,4443.076923076924,4428.205128205129,4427.6923076923085,4777.435897435898,4307.6923076923085,4247.6923076923085,4198.974358974359,4798.974358974359
365.83002,0.06802612,0.52199215,0.33928332,0.53684,0,0.0,0.0,0.0,0.0,1.0,0,0,0.0,0.0,0,0,86.0,0.0,533.0,4743.589743589744,3968.717948717949,4530.256410256411,4471.794871794872,4220.512820512821,4552.820512820514,4476.923076923077,4457.435897435898,4429.2307692307695,4763.589743589744,4290.769230769231,4199.48717948718,4161.538461538462,4504.615384615385
365.83002,0.06802612,0.52199215,0.33928332,0.53684,0,0.0,0.0,0.0,0.0,1.0,0,0,0.0,0.0,0,0,86.0,0.0,533.0,4743.589743589744,3968.717948717949,4530.256410256411,4471.794871794872,4220.512820512821,4552.820512820514,4476.923076923077,4457.435897435898,4429.2307692307695,4763.589743589744,4290.769230769231,4199.48717948718,4161.538461538462,4504.615384615385
366.33044,0.023816854,0.55055267,0.34499553,0.52897185,0,0.0,0.0,0.0,0.0,1.0,0,0,0.0,0.0,0,0,21.0,0.0,0.0,4710.256410256411,3959.48717948718,4517.948717948719,4472.307692307693,4218.974358974359,4552.820512820514,4479.48717948718,4460.000000000001,4432.307692307693,4800.000000000001,4354.358974358975,4222.051282051282,4224.615384615385,4313.333333333334
366.70575,0.023816854,0.55055267,0.34499553,0.52897185,0,0.0,0.0,0.0,0.0,0.6890126,0,0,0.0,0.0,0,0,69.0,0.0,556.0,4658.461538461539,3941.538461538462,4525.128205128206,4456.923076923077,4221.538461538462,4521.025641025642,4472.820512820514,4458.974358974359,4418.974358974359,4779.48717948718,4342.051282051282,4232.307692307693,4212.820512820514,4276.923076923077
366.83087,0.038917877,0.57141244,0.35272956,0.5206714,0,0.0,0.0,0.0,0.0,1.0,0,0,0.0,0.0,0,0,85.0,0.0,458.0,4630.256410256411,3911.7948717948725,4520.512820512821,4430.256410256411,4213.333333333334,4553.846153846154,4476.923076923077,4459.48717948718,4406.666666666667,4763.076923076924,4351.794871794872,4238.974358974359,4172.820512820514,4472.820512820514
366.83087,0.038917877,0.57141244,0.35272956,0.5206714,0,0.0,0.0,0.0,0.0,1.0,0,0,0.0,0.0,0,0,85.0,0.0,458.0,4630.256410256411,3911.7948717948725,4520.512820512821,4430.256410256411,4213.333333333334,4553.846153846154,4476.923076923077,4459.48717948718,4406.666666666667,4763.076923076924,4351.794871794872,4238.974358974359,4172.820512820514,4472.820512820514
367.45642,0.09291534,0.5860811,0.3552405,0.52358454,0,0.0,0.0,0.0,0.0,1.0,0,0,0.0,0.0,0,0,36.0,0.0,0.0,4592.820512820514,3795.8974358974365,4440.512820512821,4353.846153846154,4260.512820512821,4394.871794871796,4345.641025641026,4360.512820512821,4190.256410256411,4521.025641025642,4570.256410256411,4151.282051282052,3981.538461538462,4556.923076923077
367.70663,0.09291534,0.5860811,0.3552405,0.52358454,0,0.0,0.0,0.0,0.0,0.86504424,0,0,0.0,0.0,0,0,68.0,0.0,563.0,4612.820512820514,3816.9230769230776,4399.48717948718,4371.794871794872,4260.512820512821,4427.6923076923085,4359.48717948718,4340.512820512821,4198.461538461539,4537.435897435898,4601.538461538462,4110.769230769231,4014.8717948717954,4458.974358974359
367.83173,0.12984437,0.59940326,0.35568017,0.52620757,0,0.0,0.0,0.0,0.0,1.0,0,0,0.0,0.0,0,0,84.0,0.0,492.0,4624.102564102564,3837.9487179487182,4403.076923076924,4393.846153846154,4249.74358974359,4434.871794871796,4375.384615384616,4353.333333333334,4220.512820512821,4565.641025641026,4600.000000000001,4109.74358974359,4048.205128205129,4416.410256410257
367.83173,0.12984437,0.59940326,0.35568017,0.52620757,0,0.0,0.0,0.0,0.0,1.0,0,0,0.0,0.0,0,0,84.0,0.0,492.0,4624.102564102564,3837.9487179487182,4403.076923076924,4393.846153846154,4249.74358974359,4434.871794871796,4375.384615384616,4353.333333333334,4220.512820512821,4565.641025641026,4600.000000000001,4109.74358974359,4048.205128205129,4416.410256410257
368.33215,0.13210875,0.6113932,0.3554221,0.5181784,0,0.0,0.0,0.0,0.0,1.0,0,0,0.0,0.0,0,0,19.0,0.0,0.0,4636.923076923077,3895.8974358974365,4441.538461538462,4428.205128205129,4228.717948717949,4494.358974358975,4411.794871794872,4352.820512820514,4311.794871794872,4672.820512820514,4519.48717948718,4122.051282051282,4161.025641025642,4319.48717948718
368.33215,0.13210875,0.6113932,0.3554221,0.5181784,0,0.0,0.0,0.0,0.0,1.0,0,0,0.0,0.0,0,0,19.0,0.0,0.0,4636.923076923077,3895.8974358974365,4441.538461538462,4428.205128205129,4228.717948717949,4494.358974358975,4411.794871794872,4352.820512820514,4311.794871794872,4672.820512820514,4519.48717948718,4122.051282051282,4161.025641025642,4319.48717948718
368.83258,0.19434322,0.62218416,0.3551884,0.5109547,0,0.0,0.0,0.0,0.0,1.0,0,0,0.0,0.0,0,0,83.0,0.0,508.0,4682.564102564103,3960.5128205128212,4500.512820512821,4475.8974358974365,4216.410256410257,4573.333333333334,4461.025641025642,4393.333333333334,4414.871794871796,4781.025641025642,4423.076923076924,4214.871794871796,4280.512820512821,4813.333333333334
368.83258,0.19434322,0.62218416,0.3551884,0.5109547,0,0.0,0.0,0.0,0.0,1.0,0,0,0.0,0.0,0,0,83.0,0.0,508.0,4682.564102564103,3960.5128205128212,4500.512820512821,4475.8974358974365,4216.410256410257,4573.333333333334,4461.025641025642,4393.333333333334,4414.871794871796,4781.025641025642,4423.076923076924,4214.871794871796,4280.512820512821,4813.333333333334
369.333,0.27825582,0.63189596,0.35575682,0.49968565,0,0.0,0.0,0.0,0.0,1.0,0,0,0.0,0.0,0,0,18.0,0.0,0.0,4684.102564102564,4028.717948717949,4572.820512820514,4508.205128205129,4216.410256410257,4628.717948717949,4526.666666666667,4428.205128205129,4456.923076923077,4812.820512820514,4318.974358974359,4270.769230769231,4269.74358974359,4538.461538461539
369.333,0.27825582,0.63189596,0.35575682,0.49968565,0,0.0,0.0,0.0,0.0,1.0,0,0,0.0,0.0,0,0,18.0,0.0,0.0,4684.102564102564,4028.717948717949,4572.820512820514,4508.205128205129,4216.410256410257,4628.717948717949,4526.666666666667,4428.205128205129,4456.923076923077,4812.820512820514,4318.974358974359,4270.769230769231,4269.74358974359,4538.461538461539
369.95856,0.33127645,0.6191859,0.3562669,0.48686495,0,0.0,0.0,0.0,0.0,0.6815695,0,0,0.0,0.0,0,0,98.0,0.0,533.0,4655.8974358974365,3955.8974358974365,4598.461538461539,4453.333333333334,4221.025641025642,4590.769230769231,4524.615384615385,4427.179487179487,4444.102564102564,4771.794871794872,4353.333333333334,4301.538461538462,4207.6923076923085,4428.717948717949
370.20877,0.33127645,0.6191859,0.3562669,0.48686495,0,0.0,0.0,0.0,0.0,0.98946,0,0,0.0,0.0,0,0,1.0,0.0,469.0,4666.666666666667,3942.0512820512827,4601.538461538462,4443.589743589744,4234.358974358975,4585.641025641026,4522.564102564103,4428.717948717949,4403.076923076924,4722.051282051282,4413.846153846154,4305.641025641026,4166.666666666667,4635.8974358974365
370.3339,0.25450942,0.6056807,0.35957026,0.46992952,0,0.0,0.0,0.0,0.0,1.0,0,0,0.0,0.0,0,0,17.0,0.0,0.0,4676.923076923077,3931.2820512820517,4595.8974358974365,4446.666666666667,4243.076923076924,4552.820512820514,4505.641025641026,4407.179487179487,4376.410256410257,4703.589743589744,4434.871794871796,4283.589743589744,4158.974358974359,4688.717948717949
370.7092,0.25450942,0.6056807,0.35957026,0.46992952,0,0.0,0.0,0.0,0.0,0.3282694,0,0,0.0,0.0,0,0,65.0,0.0,469.0,4695.8974358974365,3888.717948717949,4536.923076923077,4404.102564102564,4247.6923076923085,4521.025641025642,4456.923076923077,4354.358974358975,4337.435897435898,4663.076923076924,4402.564102564103,4246.666666666667,4123.076923076924,4602.564102564103
370.9594,0.27952024,0.5817425,0.36188707,0.46010894,0,0.0,0.0,0.0,0.0,1.0,0,0,0.0,0.0,0,0,97.0,0.0,458.0,4700.512820512821,3825.1282051282055,4522.564102564103,4344.615384615385,4257.948717948719,4522.564102564103,4458.974358974359,4341.025641025642,4351.794871794872,4686.153846153847,4388.205128205129,4247.179487179487,4155.8974358974365,4569.2307692307695
370.9594,0.27952024,0.5817425,0.36188707,0.46010894,0,0.0,0.0,0.0,0.0,1.0,0,0,0.0,0.0,0,0,97.0,0.0,458.0,4700.512820512821,3825.1282051282055,4522.564102564103,4344.615384615385,4257.948717948719,4522.564102564103,4458.974358974359,4341.025641025642,4351.794871794872,4686.153846153847,4388.205128205129,4247.179487179487,4155.8974358974365,4569.2307692307695
371.5224,0.2671996,0.56027365,0.36377436,0.47352734,0,0.0,0.0,0.0,0.0,0.10426048,0,1,0.0,0.0,0,0,40.0,0.0,0.0,4841.538461538462,3584.1025641025644,4748.717948717949,4201.538461538462,4599.48717948718,4765.128205128206,4727.179487179488,4641.025641025642,4648.205128205129,5073.333333333334,4582.564102564103,4486.666666666667,4597.948717948719,4820.512820512821
371.71005,0.2671996,0.56027365,0.36377436,0.47352734,0,0.0,0.0,0.0,0.0,0.10893024,0,0,0.0,0.0,0,0,64.0,0.0,511.0,4780.000000000001,3603.589743589744,4689.2307692307695,4155.384615384616,4489.2307692307695,4735.8974358974365,4682.564102564103,4609.2307692307695,4588.717948717949,5042.051282051283,4491.794871794872,4421.538461538462,4558.974358974359,4706.153846153847
371.96027,0.4451356,0.54095167,0.3654924,0.47451445,0,0.0,0.0,0.0,0.0,0.6648501,0,0,0.0,0.0,0,0,96.0,0.0,494.0,4735.8974358974365,3604.615384615385,4614.871794871796,4150.769230769231,4404.615384615385,4640.512820512821,4555.8974358974365,4506.153846153847,4483.589743589744,4946.153846153847,4380.000000000001,4349.2307692307695,4458.461538461539,4813.333333333334
372.2105,0.4451356,0.54095167,0.3654924,0.47451445,0,0.0,0.0,0.0,0.0,0.3540691,0,0,0.0,0.0,0,0,128.0,0.0,494.0,4681.025641025642,3616.410256410257,4561.025641025642,4152.307692307693,4366.153846153847,4576.923076923077,4493.846153846154,4441.538461538462,4399.48717948718,4814.871794871796,4315.384615384616,4272.820512820514,4322.051282051282,4560.512820512821
372.3356,0.5544506,0.5235619,0.3631129,0.48232734,0,0.0,0.0,0.0,0.0,1.0,0,0,0.0,0.0,0,0,15.0,0.0,507.0,4669.743589743591,3587.1794871794878,4566.666666666667,4128.205128205129,4409.2307692307695,4554.358974358975,4474.871794871796,4437.435897435898,4367.6923076923085,4764.102564102564,4361.025641025642,4256.410256410257,4271.282051282052,4436.410256410257
372.71094,0.5544506,0.5235619,0.3631129,0.48232734,0,0.0,0.0,0.0,0.0,0.0,0,0,1.0,0.0,0,0,63.0,0.0,0.0,4600.000000000001,3638.9743589743593,4459.48717948718,4200.000000000001,4347.179487179487,4415.8974358974365,4341.538461538462,4333.846153846154,4162.564102564103,4600.000000000001,4488.717948717949,4128.205128205129,4115.384615384616,4520.000000000001
373.02368,0.59470123,0.5079111,0.3601151,0.4893602,0,0.0,0.0,0.0,0.0,0.0,0,0,0.27196753,0.0,0,0,103.0,0.0,509.0,4577.435897435898,3638.9743589743593,4326.153846153847,4204.615384615385,4358.974358974359,4391.794871794872,4292.307692307693,4285.128205128206,4138.974358974359,4554.358974358975,4474.358974358975,4070.7692307692314,4092.307692307693,4578.974358974359
373.21136,0.59470123,0.5079111,0.3601151,0.4893602,0,0.0,0.0,0.0,0.0,0.2725757,0,0,0.0,0.0,0,0,127.0,0.0,509.0,4590.256410256411,3666.666666666667,4326.153846153847,4217.948717948719,4344.102564102564,4425.641025641026,4301.025641025642,4284.615384615385,4161.538461538462,4555.384615384616,4438.461538461539,4076.410256410257,4115.384615384616,4543.076923076924
373.46158,0.61606795,0.49382538,0.35741538,0.4956913,0,0.0,0.0,0.0,0.0,0.65796095,0,0,0.0,0.0,0,0,30.0,0.0,0.0,4634.358974358975,3734.8717948717954,4396.923076923077,4271.282051282052,4311.794871794872,4461.025641025642,4345.128205128206,4340.512820512821,4231.282051282052,4632.820512820514,4447.6923076923085,4151.794871794872,4186.666666666667,4724.615384615386
373.58667,0.61606795,0.49382538,0.35741538,0.4956913,0,0.0,0.0,0.0,0.0,1.0,0,0,0.0,0.0,0,0,46.0,0.0,0.0,4643.076923076924,3775.3846153846157,4404.102564102564,4297.948717948719,4262.051282051282,4457.948717948719,4338.461538461539,4331.282051282052,4241.025641025642,4638.974358974359,4408.717948717949,4150.769230769231,4191.282051282052,4811.282051282052
373.83688,0.6584912,0.4811482,0.3549841,0.5013909,0,0.0,0.0,0.0,0.0,1.0,0,0,0.0,0.0,0,0,78.0,0.0,529.0,4650.256410256411,3803.076923076924,4447.179487179487,4324.615384615385,4246.153846153847,4477.948717948719,4392.307692307693,4370.256410256411,4278.974358974359,4695.8974358974365,4379.48717948718,4205.128205128206,4234.358974358975,4663.589743589744
374.21222,0.6584912,0.4811482,0.3549841,0.5013909,0,0.0,0.0,0.0123663265,0.0,0.0,0,0,0.0,0.0,0,0,126.0,0.0,529.0,4700.512820512821,3909.2307692307695,4564.615384615385,4408.717948717949,4189.2307692307695,4569.743589743591,4522.564102564103,3536.410256410257,4375.8974358974365,4773.846153846154,4318.461538461539,4339.48717948718,4303.589743589744,4548.205128205129
374.46243,0.5949929,0.46973878,0.3527983,0.5065221,0,0.0,0.0,0.0,1.1406604E-4,0.0,0,0,0.0,0.0,0,0,29.0,0.0,0.0,4637.435897435898,3834.358974358975,4518.461538461539,4323.589743589744,4188.205128205129,4508.717948717949,4436.923076923077,3762.564102564103,4292.820512820514,4684.615384615386,4262.051282051282,4267.6923076923085,4176.923076923077,4525.128205128206
374.71265,0.5949929,0.46973878,0.3527983,0.5065221,0,0.0,0.0,0.0,0.02050766,0.0,0,0,0.0,0.0,0,0,61.0,0.0,0.0,4565.128205128206,3822.0512820512827,4478.461538461539,4326.666666666667,4216.410256410257,4452.820512820514,4410.256410256411,3930.2564102564106,4234.871794871796,4617.435897435898,4388.205128205129,4219.48717948718,4083.076923076924,4346.153846153847
374.96286,0.64982116,0.4594703,0.3508475,0.5111176,0,0.0,0.0,0.0,0.044902,0.0,0,0,0.0,0.0,0,0,93.0,0.0,456.0,4535.384615384616,3683.0769230769233,4391.282051282052,4205.128205128206,4205.641025641026,4415.384615384616,4381.025641025642,4020.0000000000005,4190.769230769231,4549.2307692307695,4446.666666666667,4106.153846153847,4010.2564102564106,4153.333333333334
375.21307,0.64982116,0.4594703,0.3508475,0.5111176,0,0.0,0.0,0.0,0.0,0.16276394,0,0,0.0,0.0,0,0,125.0,0.0,456.0,4542.051282051282,3742.0512820512827,4386.153846153847,4270.256410256411,4173.333333333334,4406.666666666667,4328.717948717949,4046.666666666667,4175.8974358974365,4523.589743589744,4441.538461538462,4063.076923076924,3972.820512820513,4315.384615384616
375.4633,0.670466,0.45022863,0.3490857,0.5152657,0,0.0,0.0,0.0,0.0,0.43517742,0,0,0.0,0.0,0,0,28.0,0.0,0.0,4496.923076923077,3954.8717948717954,4297.948717948719,4461.538461538462,3960.0000000000005,4335.384615384616,4223.589743589744,4008.205128205129,4126.666666666667,4481.025641025642,4359.48717948718,4046.1538461538466,3968.717948717949,4354.358974358975
375.7135,0.670466,0.45022863,0.3490857,0.5152657,0,0.0,0.0,0.0,0.0,0.13080645,0,0,0.0,0.0,0,0,60.0,0.0,0.0,4534.871794871796,4052.820512820513,4386.666666666667,4546.153846153847,3984.615384615385,4427.6923076923085,4329.743589743591,4123.076923076924,4234.871794871796,4571.282051282052,4370.769230769231,4157.435897435898,4059.48717948718,4326.666666666667
375.9637,0.77790874,0.44191116,0.3475001,0.5189902,0,0.0,0.0,0.10484881,0.0,0.0,0,0,0.0,0.0,0,0,92.0,0.0,494.0,4581.538461538462,4103.076923076924,4478.974358974359,4588.205128205129,4018.9743589743593,4505.128205128206,4423.076923076924,4213.846153846154,4308.205128205129,4649.743589743591,4345.128205128206,4250.769230769231,4129.74358974359,4371.282051282052
376.21393,0.77790874,0.44191116,0.3475001,0.5189902,0,0.0,0.0,0.0,0.0,0.0,0,0,0.0,0.37004763,0,0,124.0,0.0,494.0,4627.6923076923085,4136.923076923077,4535.8974358974365,4606.666666666667,4040.5128205128212,4545.128205128206,4473.846153846154,4297.948717948719,4389.743589743591,4711.282051282052,4280.000000000001,4342.564102564103,4171.794871794872,4577.948717948719
376.46414,0.8799485,0.43442544,0.3460741,0.52233636,0,0.0,0.0,0.0,0.0,0.3713722,0,0,0.0,0.0,0,0,27.0,0.0,0.0,4655.8974358974365,4168.205128205129,4586.153846153847,4633.333333333334,4066.1538461538466,4609.2307692307695,4538.461538461539,4352.820512820514,4459.48717948718,4762.564102564103,4231.794871794872,4382.051282051282,4213.846153846154,4570.769230769231
376.71436,0.8799485,0.43442544,0.3460741,0.52233636,0,0.0,0.0,0.0,0.0,0.0,0,0,0.0,0.09221298,0,0,59.0,0.0,0.0,4686.153846153847,4196.923076923077,4656.410256410257,4632.307692307693,4083.589743589744,4654.871794871796,4599.48717948718,4416.923076923077,4538.974358974359,4846.153846153847,4240.000000000001,4338.461538461539,4280.512820512821,4516.410256410257
376.99585,0.8940099,0.42768827,0.3447899,0.5253474,0,0.0,0.0,0.0,0.0,0.0,0,0,0.0,0.0,0,1,95.0,0.0,512.0,4684.615384615386,4167.6923076923085,4677.948717948719,4609.743589743591,4105.641025641026,4649.743589743591,4573.333333333334,4404.615384615385,4519.48717948718,4826.153846153847,4184.615384615385,4376.410256410257,4252.820512820514,4729.743589743591
377.21478,0.8940099,0.42768827,0.3447899,0.5253474,0,0.0,0.0,0.0,0.0,1.0,0,0,0.0,0.0,0,1,123.0,0.0,512.0,4732.820512820514,4178.461538461539,4712.820512820514,4624.102564102564,4129.74358974359,4648.205128205129,4587.179487179488,4426.666666666667,4524.615384615385,4818.461538461539,4206.666666666667,4415.384615384616,4224.615384615385,4637.948717948719
377.3712,0.9138209,0.42162484,0.34364012,0.52804345,0,0.0,0.0,0.0,0.0,1.0,0,0,0.0,0.0,0,0,14.0,0.0,532.0,4687.6923076923085,4147.179487179487,4695.384615384616,4598.461538461539,4136.410256410257,4638.461538461539,4584.102564102564,4415.8974358974365,4502.051282051282,4797.435897435898,4192.307692307693,4414.358974358975,4196.410256410257,4503.589743589744
377.71524,0.9138209,0.42162484,0.34364012,0.52804345,0,0.0,0.0,0.0,0.0,0.7428164,0,0,0.0,0.0,0,0,58.0,0.0,0.0,4652.307692307693,4105.641025641026,4694.871794871796,4554.358974358975,4155.8974358974365,4649.743589743591,4598.461538461539,4458.461538461539,4491.282051282052,4786.666666666667,4206.666666666667,4448.205128205129,4159.48717948718,4438.974358974359
377.84033,0.8840647,0.41616774,0.34260178,0.53047615,0,0.0,0.0,0.0,0.0,1.0,0,0,0.0,0.0,0,0,74.0,0.0,532.0,4639.48717948718,4093.333333333334,4669.2307692307695,4548.717948717949,4164.102564102564,4616.410256410257,4554.358974358975,4410.769230769231,4454.871794871796,4752.820512820514,4195.384615384616,4416.923076923077,4135.384615384616,4571.794871794872
378.21567,0.8840647,0.41616774,0.34260178,0.53047615,0,0.0,0.0,0.0,0.0,0.90441257,0,0,0.0,0.0,0,0,122.0,0.0,532.0,4662.051282051282,4042.564102564103,4631.794871794872,4505.641025641026,4192.307692307693,4587.179487179488,4551.282051282052,4443.076923076924,4443.076923076924,4748.205128205129,4218.461538461539,4412.820512820514,4115.8974358974365,4387.6923076923085
378.34076,0.8623451,0.41125634,0.34166825,0.5326638,0,0.0,0.0,0.0,0.0,1.0,0,0,0.0,0.0,0,0,9.0,0.0,473.0,4655.384615384616,4016.410256410257,4596.410256410257,4488.205128205129,4201.025641025642,4578.461538461539,4537.435897435898,4409.2307692307695,4416.410256410257,4707.6923076923085,4192.820512820514,4368.717948717949,4080.0000000000005,4307.179487179487
378.34076,0.8623451,0.41125634,0.34166825,0.5326638,0,0.0,0.0,0.0,0.0,1.0,0,0,0.0,0.0,0,0,9.0,0.0,473.0,4655.384615384616,4016.410256410257,4596.410256410257,4488.205128205129,4201.025641025642,4578.461538461539,4537.435897435898,4409.2307692307695,4416.410256410257,4707.6923076923085,4192.820512820514,4368.717948717949,4080.0000000000005,4307.179487179487
