timestamp,excitement,frustration,meditation,engagementBoredom,blink,clench,laugh,smile,eyebrow,furrowBrow,lookLeft,lookRight,smirkLeft,smirkRight,winkLeft,winkRight,eeg0,eeg1,eeg2,eeg3,eeg4,eeg5,eeg6,eeg7,eeg8,eeg9,eeg10,eeg11,eeg12,eeg13,eeg14,eeg15,eeg16
1453.6399,0.5421736,0.2594343,0.32339293,0.6520384,0,0.0,0.0,0.0,0.0,0.2238219,0,0,0.0,0.0,0,0,15.0,0.0,504.0,4696.923076923077,4120.512820512821,4570.769230769231,4617.435897435898,4217.435897435898,4570.256410256411,4563.589743589744,4525.641025641026,4491.282051282052,4843.076923076924,4461.025641025642,4265.641025641026,4296.410256410257,4783.589743589744
1453.7963,0.6358553,0.29680657,0.3243897,0.6420289,0,0.0,0.0,0.0,0.0,1.0,0,0,0.0,0.0,0,1,35.0,0.0,0.0,4691.794871794872,4103.589743589744,4559.48717948718,4620.000000000001,4195.8974358974365,4550.256410256411,4551.282051282052,4520.000000000001,4484.102564102564,4803.076923076924,4402.051282051282,4243.076923076924,4246.666666666667,4808.717948717949
1454.0465,0.6358553,0.29680657,0.3243897,0.6420289,0,0.0,0.0,0.0,0.0,1.0,0,0,0.0,0.0,0,0,67.0,0.0,542.0,4677.435897435898,4085.1282051282055,4544.102564102564,4602.564102564103,4188.717948717949,4534.871794871796,4512.820512820514,4505.128205128206,4477.435897435898,4797.948717948719,4398.461538461539,4260.000000000001,4248.717948717949,4931.794871794872
1454.3905,0.7423426,0.34013182,0.32528695,0.6425178,0,0.0,0.0,0.0,0.0,0.21333218,0,0,0.0,0.0,0,0,111.0,0.0,497.0,4656.410256410257,3984.615384615385,4573.846153846154,4473.846153846154,4217.948717948719,4541.538461538462,4524.102564102564,4540.512820512821,4463.589743589744,4800.000000000001,4423.589743589744,4343.076923076924,4235.384615384616,4876.410256410257
1454.6407,0.7423426,0.34013182,0.32528695,0.6425178,0,0.0,0.0,0.0,0.0,0.43790215,0,0,0.0,0.0,0,0,14.0,0.0,536.0,4643.076923076924,3960.0000000000005,4530.769230769231,4509.2307692307695,4247.179487179487,4540.000000000001,4508.717948717949,4522.564102564103,4401.025641025642,4784.615384615386,4457.948717948719,4313.846153846154,4188.717948717949,4812.307692307693
1454.8909,0.7842651,0.37516972,0.3257602,0.65784866,0,0.0,0.0,0.0,0.0,0.09946288,0,0,0.0,0.0,0,0,46.0,0.0,0.0,4656.410256410257,3986.666666666667,4460.512820512821,4727.6923076923085,4264.102564102564,4541.025641025642,4450.769230769231,4498.974358974359,4369.743589743591,4786.666666666667,4481.025641025642,4200.512820512821,4165.641025641026,4746.666666666667
1455.1411,0.7842651,0.37516972,0.3257602,0.65784866,0,0.0,0.0,0.0,0.0,0.7773812,0,0,0.0,0.0,0,0,78.0,0.0,535.0,4640.512820512821,3996.9230769230776,4393.333333333334,4745.128205128206,4264.615384615385,4552.820512820514,4426.153846153847,4471.794871794872,4335.8974358974365,4758.974358974359,4445.641025641026,4080.5128205128212,4143.589743589744,4578.461538461539
1455.2662,0.7039275,0.3663078,0.32342315,0.6724772,0,0.0,0.0,0.0,0.0,1.0,0,0,0.0,0.0,0,0,94.0,0.0,535.0,4644.102564102564,3988.205128205129,4393.846153846154,4717.948717948719,4262.051282051282,4554.358974358975,4428.205128205129,4475.384615384616,4344.615384615385,4745.128205128206,4426.153846153847,4063.589743589744,4105.128205128206,4504.615384615385
1455.2662,0.7039275,0.3663078,0.32342315,0.6724772,0,0.0,0.0,0.0,0.0,1.0,0,0,0.0,0.0,0,0,94.0,0.0,535.0,4644.102564102564,3988.205128205129,4393.846153846154,4717.948717948719,4262.051282051282,4554.358974358975,4428.205128205129,4475.384615384616,4344.615384615385,4745.128205128206,4426.153846153847,4063.589743589744,4105.128205128206,4504.615384615385
1455.8918,0.5992276,0.341544,0.3173522,0.68563336,0,0.0,0.0,0.0,0.0,0.15110959,0,0,0.0,0.0,0,0,45.0,0.0,0.0,4616.923076923077,3926.666666666667,4432.307692307693,4589.743589743591,4212.307692307693,4527.179487179488,4447.6923076923085,4488.205128205129,4460.000000000001,4795.384615384616,4427.179487179487,4185.128205128206,4247.6923076923085,4428.205128205129
1456.142,0.5992276,0.341544,0.3173522,0.68563336,0,0.0,0.0,0.0,0.0,0.17074364,0,0,0.0,0.0,0,0,77.0,0.0,460.0,4586.153846153847,3874.358974358975,4398.461538461539,4474.871794871796,4198.461538461539,4522.564102564103,4428.205128205129,4434.358974358975,4413.333333333334,4731.282051282052,4358.461538461539,4168.717948717949,4202.051282051282,4372.307692307693
1456.2671,0.6468173,0.32622296,0.31188866,0.6929686,0,0.0,0.0,0.0,0.0,0.0,0,0,0.0,0.0,0,0,93.0,0.0,460.0,4611.282051282052,3863.589743589744,4415.8974358974365,4362.051282051282,4264.102564102564,4559.48717948718,4418.461538461539,4423.076923076924,4392.307692307693,4711.794871794872,4342.051282051282,4186.153846153847,4167.179487179487,4375.8974358974365
1456.2671,0.6468173,0.32622296,0.31188866,0.6929686,0,0.0,0.0,0.0,0.0,0.0,0,0,0.0,0.0,0,0,93.0,0.0,460.0,4611.282051282052,3863.589743589744,4415.8974358974365,4362.051282051282,4264.102564102564,4559.48717948718,4418.461538461539,4423.076923076924,4392.307692307693,4711.794871794872,4342.051282051282,4186.153846153847,4167.179487179487,4375.8974358974365
1456.7988,0.7791993,0.31237307,0.30696687,0.6996104,0,0.0,1.0,0.0,0.0,0.0,0,0,0.0,0.0,0,0,32.0,0.0,0.0,4821.025641025642,4155.8974358974365,4923.076923076924,4600.512820512821,4767.179487179488,5070.769230769231,4916.923076923077,4906.153846153847,4796.923076923077,5244.102564102564,4829.2307692307695,4720.512820512821,4680.000000000001,4902.564102564103
1457.1428,0.7791993,0.31237307,0.30696687,0.6996104,0,0.0,0.0,0.19833715,0.0,0.0,0,0,0.0,0.0,0,0,76.0,0.0,498.0,4845.641025641026,4121.538461538462,4857.948717948719,4419.48717948718,4667.6923076923085,5023.076923076924,4842.564102564103,4953.333333333334,4773.333333333334,5221.538461538462,4796.923076923077,4775.8974358974365,4663.589743589744,5043.076923076924
1457.3931,0.8956953,0.29990816,0.30253726,0.6951987,0,0.0,0.0,0.0,0.0,0.0,0,0,0.11929402,0.0,0,0,108.0,0.0,498.0,4917.948717948719,4206.153846153847,4878.461538461539,4278.461538461539,4665.641025641026,5010.256410256411,4783.589743589744,4843.076923076924,4753.846153846154,5138.461538461539,4732.307692307693,4760.512820512821,4616.410256410257,5221.025641025642
1457.6433,0.8956953,0.29990816,0.30253726,0.6951987,0,0.0,0.0,0.0,0.0,0.24383385,0,0,0.0,0.0,0,0,11.0,0.0,486.0,4906.666666666667,4182.564102564103,4844.102564102564,4372.820512820514,4633.333333333334,4981.025641025642,4720.000000000001,4790.256410256411,4721.025641025642,5056.410256410257,4663.076923076924,4694.871794871796,4553.846153846154,5211.794871794872
1457.8936,0.9982119,0.28868976,0.30132014,0.68086535,0,0.0,0.0,0.0,0.0,0.080113426,0,0,0.0,0.0,0,0,43.0,0.0,0.0,4872.820512820514,4121.538461538462,4834.871794871796,4267.6923076923085,4598.974358974359,4922.051282051283,4678.974358974359,4791.282051282052,4731.794871794872,4978.461538461539,4611.282051282052,4687.6923076923085,4489.743589743591,5186.666666666667
1458.1437,0.9982119,0.28868976,0.30132014,0.68086535,0,0.0,0.0,0.0,0.0,0.03410996,0,0,0.0,0.0,0,0,75.0,0.0,486.0,4884.102564102564,4075.3846153846157,4586.666666666667,6706.153846153847,4432.307692307693,4748.205128205129,4507.6923076923085,4602.564102564103,4555.8974358974365,4810.769230769231,4456.410256410257,3988.205128205129,4284.615384615385,5069.743589743591
1458.3939,1.0,0.27859318,0.30452207,0.66799843,0,0.0,0.24278139,0.0,0.0,0.0,0,0,0.0,0.0,0,0,107.0,0.0,486.0,4906.666666666667,4094.8717948717954,4522.564102564103,6248.717948717949,4337.948717948719,4655.8974358974365,4460.000000000001,4492.307692307693,4521.025641025642,4760.512820512821,4422.564102564103,4066.1538461538466,4262.051282051282,5015.8974358974365
1458.6442,1.0,0.27859318,0.30452207,0.66799843,0,0.0,0.15047665,0.0,0.0,0.0,0,0,0.0,0.0,0,0,10.0,0.0,528.0,4876.923076923077,4140.512820512821,4545.641025641026,5845.128205128206,4287.179487179487,4622.051282051282,4534.358974358975,4518.974358974359,4568.717948717949,4802.564102564103,4438.974358974359,3384.615384615385,4312.820512820514,4708.717948717949
1458.8944,0.9382924,0.26950628,0.3074038,0.65642035,0,0.0,0.0,0.0,0.0,0.0,0,0,0.15317106,0.0,1,0,42.0,0.0,0.0,4863.589743589744,4061.538461538462,4488.717948717949,5581.538461538462,4246.666666666667,4585.128205128206,4507.179487179488,4509.743589743591,4506.153846153847,4761.025641025642,4382.051282051282,3690.2564102564106,4275.384615384616,4688.717948717949
1459.2384,0.9382924,0.26950628,0.3074038,0.65642035,0,0.0,0.0,0.0,0.0,0.0,0,0,0.21269354,0.0,0,0,86.0,0.0,533.0,4823.589743589744,3766.666666666667,4400.000000000001,5047.179487179488,4015.8974358974365,4389.2307692307695,4327.179487179487,4344.102564102564,4271.794871794872,4552.820512820514,4116.923076923077,3553.8461538461543,4048.717948717949,4481.538461538462
1459.3948,1.0,0.26132804,0.30999735,0.646,0,0.0,0.0,0.0,0.0,0.0,0,0,0.72361517,0.0,0,0,106.0,0.0,533.0,4840.512820512821,3786.1538461538466,4435.384615384616,4906.153846153847,4029.7435897435903,4390.769230769231,4340.512820512821,4311.794871794872,4284.615384615385,4543.589743589744,4091.7948717948725,3652.307692307693,4040.0000000000005,4381.538461538462
1459.645,1.0,0.26132804,0.30999735,0.646,0,0.0,0.0,0.0,0.0,0.23210576,0,0,0.0,0.0,0,1,9.0,0.0,472.0,4832.820512820514,3846.1538461538466,4504.102564102564,4812.307692307693,4037.435897435898,4388.205128205129,4363.076923076924,4301.025641025642,4297.435897435898,4552.820512820514,4108.717948717949,3808.717948717949,4045.1282051282055,4393.846153846154
1459.9578,1.0,0.25396764,0.31233096,0.6366239,0,0.0,0.0,0.0,0.0,1.0,0,0,0.0,0.0,0,0,49.0,0.0,0.0,4914.358974358975,3942.564102564103,4653.333333333334,4786.666666666667,4126.666666666667,4490.256410256411,4458.974358974359,4380.000000000001,4383.076923076924,4635.384615384616,4193.846153846154,4049.7435897435903,4151.282051282052,4553.333333333334
1460.1454,1.0,0.25396764,0.31233096,0.6366239,0,0.0,0.0,0.0,0.0,0.5967973,0,0,0.0,0.0,0,1,73.0,0.0,472.0,4839.48717948718,3911.2820512820517,4640.512820512821,4648.717948717949,4142.051282051282,4493.846153846154,4460.000000000001,4412.307692307693,4398.461538461539,4643.589743589744,4187.6923076923085,4086.666666666667,4150.256410256411,4474.358974358975
1460.3956,1.0,0.24734329,0.31443477,0.6281695,0,0.0,0.0,0.0,0.0,0.0,0,0,0.0,0.0,0,0,105.0,0.0,459.0,4827.6923076923085,3882.564102564103,4578.974358974359,4522.051282051282,4120.000000000001,4442.051282051282,4411.282051282052,4335.384615384616,4307.179487179487,4585.128205128206,4135.8974358974365,4042.564102564103,4089.23076923077,4490.769230769231
1460.6459,1.0,0.24734329,0.31443477,0.6281695,0,0.0,0.0,0.0,0.0,1.0,0,0,0.0,0.0,0,0,8.0,0.0,462.0,4855.384615384616,3878.461538461539,4569.743589743591,4477.435897435898,4107.6923076923085,4426.666666666667,4395.384615384616,4320.512820512821,4293.333333333334,4571.794871794872,4122.564102564103,4044.615384615385,4064.1025641025644,4557.948717948719
1460.771,1.0,0.24138136,0.31632856,0.6205601,0,0.0,0.0,0.0,0.0,1.0,0,0,0.0,0.0,0,0,24.0,0.0,0.0,4869.2307692307695,3894.8717948717954,4562.564102564103,4473.846153846154,4121.025641025642,4443.076923076924,4392.307692307693,4318.974358974359,4313.333333333334,4577.435897435898,4114.358974358975,4046.1538461538466,4066.1538461538466,4516.410256410257
1460.771,1.0,0.24138136,0.31632856,0.6205601,0,0.0,0.0,0.0,0.0,1.0,0,0,0.0,0.0,0,0,24.0,0.0,0.0,4869.2307692307695,3894.8717948717954,4562.564102564103,4473.846153846154,4121.025641025642,4443.076923076924,4392.307692307693,4318.974358974359,4313.333333333334,4577.435897435898,4114.358974358975,4046.1538461538466,4066.1538461538466,4516.410256410257
1461.3965,1.0,0.23601563,0.3180333,0.6137112,0,0.0,0.0,0.0,0.0,0.3829969,0,0,0.0,0.0,0,0,104.0,0.0,511.0,4818.974358974359,3924.615384615385,4583.076923076924,4444.102564102564,4183.589743589744,4502.051282051282,4445.641025641026,4386.666666666667,4426.153846153847,4695.384615384616,4266.153846153847,4268.717948717949,4196.923076923077,4504.615384615385
1461.7406,1.0,0.23601563,0.3180333,0.6137112,0,0.0,0.0,0.0,0.0,0.33757177,0,0,0.0,0.0,0,1,19.0,0.0,0.0,4865.128205128206,3942.0512820512827,4642.564102564103,4445.641025641026,4198.974358974359,4505.128205128206,4465.128205128206,4443.589743589744,4478.974358974359,4730.769230769231,4326.666666666667,4481.538461538462,4237.435897435898,4610.256410256411
1461.897,1.0,0.23118646,0.31956747,0.6075479,0,0.0,0.0,0.0,0.0,0.5089125,0,0,0.0,0.0,0,1,39.0,0.0,0.0,4811.282051282052,3878.9743589743593,4573.333333333334,4426.153846153847,4218.974358974359,4520.000000000001,4477.948717948719,4461.025641025642,4461.538461538462,4728.717948717949,4312.307692307693,4511.282051282052,4216.923076923077,4521.538461538462
1462.1472,1.0,0.23118646,0.31956747,0.6075479,0,0.0,0.0,0.0,0.0,0.7486816,0,0,0.0,0.0,0,0,71.0,0.0,457.0,4819.48717948718,3807.1794871794878,4557.435897435898,4351.794871794872,4214.358974358975,4507.6923076923085,4465.641025641026,4456.923076923077,4432.820512820514,4722.051282051282,4297.435897435898,4488.717948717949,4200.000000000001,4591.794871794872
1462.3973,0.8797401,0.22684023,0.32094783,0.60200274,0,0.0,0.0,0.0,0.0,0.67698324,0,0,0.0,0.0,0,0,103.0,0.0,506.0,4798.461538461539,3817.9487179487182,4548.205128205129,4344.615384615385,4210.769230769231,4492.307692307693,4446.666666666667,4464.615384615385,4409.2307692307695,4725.641025641026,4314.358974358975,4482.051282051282,4202.564102564103,4710.769230769231
1462.6476,0.8797401,0.22684023,0.32094783,0.60200274,0,0.0,0.0,0.0,0.0,1.0,0,0,0.0,0.0,0,0,6.0,0.0,554.0,4730.256410256411,3836.9230769230776,4505.641025641026,4356.410256410257,4215.8974358974365,4491.794871794872,4442.564102564103,4431.282051282052,4371.794871794872,4711.282051282052,4287.179487179487,4505.128205128206,4168.205128205129,4525.128205128206
1462.7727,0.780144,0.25560823,0.32219037,0.6065881,0,0.0,0.0,0.0,0.0,1.0,0,0,0.0,0.0,0,0,22.0,0.0,0.0,4714.871794871796,3827.1794871794878,4477.435897435898,4389.2307692307695,4221.538461538462,4491.794871794872,4426.666666666667,4400.000000000001,4329.2307692307695,4693.846153846154,4269.2307692307695,4475.384615384616,4141.025641025642,4468.205128205129
1463.2106,0.780144,0.25560823,0.32219037,0.6065881,1,0.0,0.0,0.0,0.0,1.0,0,0,0.0,0.0,0,0,78.0,0.0,533.0,4722.564102564103,3892.307692307693,4507.179487179488,4428.717948717949,4267.179487179487,4541.025641025642,4454.871794871796,4409.2307692307695,4358.461538461539,4687.6923076923085,4256.923076923077,4422.051282051282,4148.205128205129,4594.871794871796
1463.3982,0.7891813,0.31963548,0.32330889,0.61071354,0,0.0,0.0,0.0,0.0,0.7083015,0,0,0.0,0.0,0,0,102.0,0.0,533.0,4670.769230769231,3862.0512820512827,4490.769230769231,4389.743589743591,4264.615384615385,4540.000000000001,4456.410256410257,4415.8974358974365,4357.948717948719,4703.076923076924,4279.48717948718,4384.615384615385,4151.282051282052,4528.717948717949
1463.6484,0.7891813,0.31963548,0.32330889,0.61071354,0,0.0,0.0,0.0,0.0,0.6165275,0,0,0.0,0.0,0,0,5.0,0.0,557.0,4637.948717948719,3844.1025641025644,4490.256410256411,4380.512820512821,4280.512820512821,4542.564102564103,4444.615384615385,4400.000000000001,4340.000000000001,4704.615384615386,4307.179487179487,4349.743589743591,4123.076923076924,4470.769230769231
1463.8987,0.720082,0.33698827,0.32251698,0.61442494,0,0.0,0.0,0.0,0.0,0.4056523,0,0,0.0,0.0,0,0,37.0,0.0,0.0,4618.974358974359,3858.9743589743593,4507.6923076923085,4399.48717948718,4283.076923076924,4542.564102564103,4444.102564102564,4395.384615384616,4276.410256410257,4649.2307692307695,4313.333333333334,4335.8974358974365,4064.1025641025644,4434.358974358975
1464.1489,0.720082,0.33698827,0.32251698,0.61442494,0,0.0,0.0,0.0,0.0,0.0,0,0,0.0,0.0,0,0,69.0,0.0,557.0,4605.641025641026,3844.615384615385,4516.410256410257,4413.846153846154,4289.74358974359,4540.512820512821,4445.128205128206,4407.6923076923085,4245.128205128206,4623.589743589744,4353.846153846154,4324.102564102564,4023.589743589744,4437.435897435898
1464.274,0.6752174,0.32646304,0.3237507,0.6106256,0,0.0,0.0,0.0,0.0,0.0,0,0,0.0,0.0,0,0,85.0,0.0,454.0,4614.871794871796,3876.410256410257,4525.128205128206,4436.923076923077,4308.205128205129,4550.769230769231,4427.179487179487,4400.512820512821,4246.153846153847,4649.2307692307695,4384.102564102564,4298.461538461539,4040.5128205128212,4495.8974358974365
1464.274,0.6752174,0.32646304,0.3237507,0.6106256,0,0.0,0.0,0.0,0.0,0.0,0,0,0.0,0.0,0,0,85.0,0.0,454.0,4614.871794871796,3876.410256410257,4525.128205128206,4436.923076923077,4308.205128205129,4550.769230769231,4427.179487179487,4400.512820512821,4246.153846153847,4649.2307692307695,4384.102564102564,4298.461538461539,4040.5128205128212,4495.8974358974365
1464.8995,0.65704274,0.33904988,0.32486123,0.5967425,0,0.0,0.0,0.0,0.0,0.9394592,0,0,0.0,0.0,0,0,36.0,0.0,0.0,4632.307692307693,3969.7435897435903,4522.051282051282,4530.769230769231,4326.666666666667,4615.8974358974365,4491.282051282052,4526.153846153847,4433.846153846154,4815.8974358974365,4509.2307692307695,4349.2307692307695,4253.333333333334,4748.205128205129
1465.1498,0.65704274,0.33904988,0.32486123,0.5967425,0,0.0,0.0,0.0,0.0,0.5803088,0,0,0.0,0.0,0,0,68.0,0.0,562.0,4654.358974358975,3963.589743589744,4508.205128205129,4518.461538461539,4295.384615384616,4594.871794871796,4476.923076923077,4505.128205128206,4459.48717948718,4826.666666666667,4501.538461538462,4342.564102564103,4284.615384615385,4764.102564102564
1465.3999,0.708026,0.34307078,0.3258609,0.58424747,0,0.0,0.0,0.0,0.0,0.123539604,0,0,0.0,0.0,0,0,100.0,0.0,510.0,4644.102564102564,3961.538461538462,4488.717948717949,4493.846153846154,4265.128205128206,4570.256410256411,4477.435897435898,4477.435897435898,4474.358974358975,4810.769230769231,4458.461538461539,4320.000000000001,4309.743589743591,4749.743589743591
1465.6501,0.708026,0.34307078,0.3258609,0.58424747,0,0.0,0.0,0.0,0.0,0.092915334,0,0,0.0,0.0,0,0,3.0,0.0,546.0,4625.641025641026,3987.1794871794878,4501.025641025642,4506.666666666667,4240.512820512821,4544.615384615385,4475.384615384616,4459.48717948718,4491.282051282052,4821.025641025642,4443.076923076924,4328.717948717949,4357.948717948719,4727.6923076923085
1465.9004,0.7075235,0.35414022,0.3224356,0.5730017,0,0.0,0.0,0.0,0.0,0.74796927,0,0,0.0,0.0,0,0,35.0,0.0,0.0,4614.871794871796,3956.9230769230776,4494.358974358975,4475.384615384616,4227.6923076923085,4538.461538461539,4462.051282051282,4441.025641025642,4477.435897435898,4794.871794871796,4393.846153846154,4297.948717948719,4325.128205128206,4629.2307692307695
1466.1506,0.7075235,0.35414022,0.3224356,0.5730017,0,0.0,0.0,0.0,0.0,0.2491327,0,0,0.0,0.0,0,0,67.0,0.0,546.0,4618.974358974359,3956.9230769230776,4508.205128205129,4473.846153846154,4232.307692307693,4538.974358974359,4470.769230769231,4404.615384615385,4449.2307692307695,4769.2307692307695,4368.205128205129,4312.820512820514,4290.769230769231,4592.820512820514
1466.4009,0.69841367,0.35827032,0.31731743,0.56962675,0,0.0,0.0,0.0,0.0,0.136112,0,0,0.0,0.0,0,0,99.0,0.0,505.0,4585.641025641026,3907.692307692308,4489.2307692307695,4436.410256410257,4230.769230769231,4538.974358974359,4475.8974358974365,4412.307692307693,4397.435897435898,4737.435897435898,4376.923076923077,4312.820512820514,4200.000000000001,4556.923076923077
1466.651,0.69841367,0.35827032,0.31731743,0.56962675,0,0.0,0.0,0.0,0.0,0.058686495,0,0,0.0,0.0,0,0,2.0,0.0,235.0,4603.076923076924,3938.461538461539,4499.48717948718,4459.48717948718,4265.641025641026,4554.871794871796,4472.820512820514,4377.435897435898,4302.564102564103,4673.333333333334,4358.974358974359,4257.948717948719,4093.333333333334,4482.564102564103
1466.9012,0.65293807,0.35186395,0.3106948,0.5720658,0,0.0,0.0,0.0,0.0,0.7659058,0,0,0.0,0.0,0,0,34.0,0.0,0.0,4600.512820512821,3945.6410256410263,4462.564102564103,4488.205128205129,4281.538461538462,4570.769230769231,4491.282051282052,4416.923076923077,4324.615384615385,4689.2307692307695,4407.179487179487,4229.2307692307695,4117.435897435898,4487.179487179488
1467.1515,0.65293807,0.35186395,0.3106948,0.5720658,0,0.0,0.0,0.0,0.0,0.28591338,0,0,0.0,0.0,0,0,66.0,0.0,235.0,4602.564102564103,3965.6410256410263,4460.000000000001,4501.025641025642,4265.641025641026,4565.641025641026,4507.6923076923085,4456.923076923077,4377.948717948719,4737.948717948719,4454.871794871796,4273.846153846154,4185.128205128206,4555.8974358974365
1467.4017,0.6740664,0.34478915,0.3047349,0.57426053,0,0.0,0.0,0.0,0.0,0.2344766,0,0,0.0,0.0,0,0,98.0,0.0,533.0,4628.205128205129,3983.076923076924,4446.153846153847,4504.102564102564,4248.205128205129,4546.153846153847,4494.871794871796,4444.615384615385,4411.794871794872,4761.538461538462,4457.435897435898,4279.48717948718,4225.641025641026,4596.410256410257
1467.6519,0.6740664,0.34478915,0.3047349,0.57426053,0,0.0,0.0,0.0,0.0,0.0,0,0,0.0,0.0,0,0,1.0,0.0,465.0,4678.974358974359,3998.461538461539,4475.8974358974365,4493.846153846154,4216.410256410257,4516.410256410257,4504.615384615385,4450.256410256411,4445.128205128206,4794.358974358975,4446.153846153847,4310.256410256411,4278.461538461539,4616.410256410257
1467.777,0.5915712,0.35200155,0.29937154,0.5762354,0,0.0,0.0,0.0,0.0,0.0,0,0,0.0,0.0,0,0,17.0,0.0,0.0,4687.179487179488,4012.820512820513,4478.461538461539,4500.000000000001,4203.589743589744,4504.102564102564,4492.820512820514,4430.769230769231,4423.589743589744,4746.666666666667,4388.717948717949,4297.948717948719,4263.589743589744,4594.358974358975
1468.1523,0.5915712,0.35200155,0.29937154,0.5762354,0,0.0,0.0,0.0,0.0,0.054310642,0,0,0.0,0.0,0,0,65.0,0.0,465.0,4677.435897435898,4013.8461538461543,4516.923076923077,4491.794871794872,4156.923076923077,4477.435897435898,4493.333333333334,4472.307692307693,4474.358974358975,4761.538461538462,4355.8974358974365,4335.8974358974365,4300.000000000001,4604.102564102564
1468.4026,0.55042297,0.36813244,0.2975297,0.5718252,0,0.0,0.0,0.0,0.0,0.117006525,0,0,0.0,0.0,0,0,97.0,0.0,457.0,4679.48717948718,3997.435897435898,4521.538461538462,4450.256410256411,4153.846153846154,4461.025641025642,4458.461538461539,4450.256410256411,4474.358974358975,4732.307692307693,4345.641025641026,4322.564102564103,4309.2307692307695,4567.179487179488
1468.6527,0.55042297,0.36813244,0.2975297,0.5718252,0,0.0,0.0,0.0,0.0,0.0,0,0,0.0,0.0,0,0,0.0,0.0,512.0,4670.769230769231,3989.7435897435903,4522.564102564103,4424.615384615385,4169.2307692307695,4471.282051282052,4464.615384615385,4456.923076923077,4503.589743589744,4766.153846153847,4374.871794871796,4313.846153846154,4339.48717948718,4545.641025641026
1468.7778,0.5489321,0.37899923,0.29889178,0.566122,0,0.0,0.0,0.0,0.0,0.0,0,0,0.0,0.0,0,0,16.0,0.0,0.0,4665.128205128206,3974.358974358975,4512.820512820514,4396.410256410257,4154.358974358975,4471.794871794872,4458.461538461539,4429.743589743591,4473.333333333334,4733.333333333334,4334.871794871796,4282.564102564103,4292.307692307693,4472.820512820514
1468.7778,0.5489321,0.37899923,0.29889178,0.566122,0,0.0,0.0,0.0,0.0,0.0,0,0,0.0,0.0,0,0,16.0,0.0,0.0,4665.128205128206,3974.358974358975,4512.820512820514,4396.410256410257,4154.358974358975,4471.794871794872,4458.461538461539,4429.743589743591,4473.333333333334,4733.333333333334,4334.871794871796,4282.564102564103,4292.307692307693,4472.820512820514
1469.2783,0.5113857,0.3790421,0.30011833,0.56098896,0,0.0,0.0,0.0,0.0,0.0,0,0,0.0,0.0,0,0,80.0,0.0,512.0,4670.256410256411,3990.7692307692314,4521.025641025642,4444.102564102564,4195.8974358974365,4493.333333333334,4469.743589743591,4463.589743589744,4470.256410256411,4766.666666666667,4345.128205128206,4296.923076923077,4286.666666666667,4527.6923076923085
1469.2783,0.5113857,0.3790421,0.30011833,0.56098896,0,0.0,0.0,0.0,0.0,0.0,0,0,0.0,0.0,0,0,80.0,0.0,512.0,4670.256410256411,3990.7692307692314,4521.025641025642,4444.102564102564,4195.8974358974365,4493.333333333334,4469.743589743591,4463.589743589744,4470.256410256411,4766.666666666667,4345.128205128206,4296.923076923077,4286.666666666667,4527.6923076923085
1469.7787,0.46217704,0.3568786,0.3012228,0.556369,0,0.0,0.0,0.0,0.0,1.0,0,0,0.0,0.0,0,1,15.0,0.0,503.0,4678.974358974359,3950.7692307692314,4558.461538461539,4430.769230769231,4212.307692307693,4508.717948717949,4489.743589743591,4477.435897435898,4483.589743589744,4800.000000000001,4397.435897435898,4377.948717948719,4304.102564102564,4714.358974358975
1470.154,0.46217704,0.3568786,0.3012228,0.556369,0,0.0,0.0,0.0,0.0,0.3896344,0,0,0.0,0.0,0,0,63.0,0.0,0.0,4664.615384615386,3990.7692307692314,4558.974358974359,4498.461538461539,4283.589743589744,4568.717948717949,4528.205128205129,4516.410256410257,4479.48717948718,4828.717948717949,4388.717948717949,4367.6923076923085,4269.74358974359,4687.6923076923085
1470.4043,0.40962777,0.3579004,0.29933968,0.5640569,0,0.0,0.0,0.0,0.0,0.0,0,0,0.0,0.0,0,0,95.0,0.0,503.0,4655.384615384616,3959.48717948718,4543.589743589744,4474.871794871796,4286.666666666667,4555.8974358974365,4492.820512820514,4475.384615384616,4443.589743589744,4817.435897435898,4398.974358974359,4370.256410256411,4266.666666666667,4716.410256410257
1470.4043,0.40962777,0.3579004,0.29933968,0.5640569,0,0.0,0.0,0.0,0.0,0.0,0,0,0.0,0.0,0,0,95.0,0.0,503.0,4655.384615384616,3959.48717948718,4543.589743589744,4474.871794871796,4286.666666666667,4555.8974358974365,4492.820512820514,4475.384615384616,4443.589743589744,4817.435897435898,4398.974358974359,4370.256410256411,4266.666666666667,4716.410256410257
1470.9047,0.4492059,0.3663562,0.2976455,0.58413523,0,0.0,0.0,0.0,0.0,0.14156957,0,0,0.0,0.0,0,0,30.0,0.0,0.0,4608.717948717949,3910.7692307692314,4518.974358974359,4407.179487179487,4300.000000000001,4556.923076923077,4476.410256410257,4464.615384615385,4417.948717948719,4800.000000000001,4370.769230769231,4325.128205128206,4219.48717948718,4655.384615384616
1471.1549,0.4492059,0.3663562,0.2976455,0.58413523,0,0.0,0.0,0.0,0.0,0.09155757,0,0,0.0,0.0,0,0,62.0,0.0,0.0,4583.589743589744,3863.589743589744,4517.435897435898,4327.6923076923085,4322.051282051282,4570.256410256411,4477.435897435898,4445.128205128206,4362.051282051282,4774.871794871796,4365.128205128206,4290.769230769231,4157.435897435898,4617.948717948719
1471.4052,0.45896852,0.37277523,0.29671526,0.6022044,0,0.0,0.0,0.0,0.0,0.0,0,0,0.0,0.0,0,0,94.0,0.0,535.0,4577.948717948719,3901.0256410256416,4538.461538461539,4316.410256410257,4355.8974358974365,4600.000000000001,4499.48717948718,4440.512820512821,4334.871794871796,4745.641025641026,4371.282051282052,4248.205128205129,4125.641025641026,4607.6923076923085
1471.4052,0.45896852,0.37277523,0.29671526,0.6022044,0,0.0,0.0,0.0,0.0,0.0,0,0,0.0,0.0,0,0,94.0,0.0,535.0,4577.948717948719,3901.0256410256416,4538.461538461539,4316.410256410257,4355.8974358974365,4600.000000000001,4499.48717948718,4440.512820512821,4334.871794871796,4745.641025641026,4371.282051282052,4248.205128205129,4125.641025641026,4607.6923076923085
1471.9055,0.53550136,0.40294302,0.2989206,0.6184642,0,0.0,0.0,0.0,0.0,0.4413964,0,0,0.0,0.0,0,0,29.0,0.0,0.0,4619.48717948718,4105.641025641026,4584.615384615385,4568.717948717949,4376.410256410257,4632.820512820514,4567.6923076923085,4514.358974358975,4438.974358974359,4750.769230769231,4364.102564102564,4259.48717948718,4168.205128205129,4673.846153846154
1472.1558,0.53550136,0.40294302,0.2989206,0.6184642,0,0.0,0.0,0.0,0.0,1.0,0,0,0.0,0.0,0,0,61.0,0.0,0.0,4614.871794871796,4072.307692307693,4572.307692307693,4555.384615384616,4343.076923076924,4609.2307692307695,4538.974358974359,4501.538461538462,4460.512820512821,4766.153846153847,4382.051282051282,4292.307692307693,4206.153846153847,4877.948717948719
1472.2809,0.5435047,0.42506656,0.30656445,0.6172806,0,0.0,0.0,0.0,0.0,1.0,0,0,0.0,0.0,0,0,77.0,0.0,460.0,4602.051282051282,4043.076923076924,4562.564102564103,4543.076923076924,4324.102564102564,4599.48717948718,4524.615384615385,4489.743589743591,4458.974358974359,4761.538461538462,4379.48717948718,4306.666666666667,4216.410256410257,4864.102564102564
1472.6562,0.5435047,0.42506656,0.30656445,0.6172806,0,0.0,0.0,0.0,0.0,0.722343,0,0,0.0,0.0,0,0,125.0,0.0,460.0,4649.2307692307695,3960.5128205128212,4586.666666666667,4475.384615384616,4281.538461538462,4571.282051282052,4523.076923076924,4512.307692307693,4492.820512820514,4816.410256410257,4448.717948717949,4398.461538461539,4313.333333333334,5045.641025641026
1472.7812,0.49482933,0.48009676,0.31695208,0.60751164,0,0.0,0.0,0.0,0.0,1.0,0,0,0.0,0.0,0,0,12.0,0.0,512.0,4613.333333333334,3893.333333333334,4557.435897435898,4410.256410256411,4267.6923076923085,4555.8974358974365,4509.2307692307695,4513.846153846154,4473.333333333334,4808.205128205129,4449.2307692307695,4385.641025641026,4300.000000000001,5014.871794871796
1472.7812,0.49482933,0.48009676,0.31695208,0.60751164,0,0.0,0.0,0.0,0.0,1.0,0,0,0.0,0.0,0,0,12.0,0.0,512.0,4613.333333333334,3893.333333333334,4557.435897435898,4410.256410256411,4267.6923076923085,4555.8974358974365,4509.2307692307695,4513.846153846154,4473.333333333334,4808.205128205129,4449.2307692307695,4385.641025641026,4300.000000000001,5014.871794871796
1473.2817,0.5676381,0.57613367,0.32792777,0.59871924,0,0.0,0.0,0.0,0.0,1.0,0,0,0.0,0.0,0,0,76.0,0.0,512.0,4586.153846153847,3844.1025641025644,4492.307692307693,4352.307692307693,4257.948717948719,4536.923076923077,4465.641025641026,4457.435897435898,4444.615384615385,4771.794871794872,4373.846153846154,4341.538461538462,4263.589743589744,4714.358974358975
1473.6571,0.5676381,0.57613367,0.32792777,0.59871924,1,0.0,0.0,0.0,0.0,0.6892915,0,0,0.0,0.0,0,0,124.0,0.0,512.0,4586.153846153847,3864.1025641025644,4522.051282051282,4395.8974358974365,4256.410256410257,4537.948717948719,4460.000000000001,4463.076923076924,4446.666666666667,4770.256410256411,4381.025641025642,4350.769230769231,4244.102564102564,4646.153846153847
1473.7821,0.50216585,0.6238885,0.33780602,0.5848588,0,0.0,0.0,0.0,0.0,1.0,0,0,0.0,0.0,0,0,11.0,0.0,498.0,4617.435897435898,3881.0256410256416,4510.769230769231,4399.48717948718,4250.256410256411,4523.076923076924,4431.282051282052,4431.282051282052,4417.948717948719,4737.435897435898,4345.641025641026,4329.743589743591,4203.076923076924,4581.025641025642
1473.7821,0.50216585,0.6238885,0.33780602,0.5848588,0,0.0,0.0,0.0,0.0,1.0,0,0,0.0,0.0,0,0,11.0,0.0,498.0,4617.435897435898,3881.0256410256416,4510.769230769231,4399.48717948718,4250.256410256411,4523.076923076924,4431.282051282052,4431.282051282052,4417.948717948719,4737.435897435898,4345.641025641026,4329.743589743591,4203.076923076924,4581.025641025642
1474.4077,0.45850992,0.6729524,0.34318668,0.57745147,0,0.0,0.0,0.0,0.0,0.25539574,0,0,0.0,0.0,0,0,91.0,0.0,498.0,4627.6923076923085,3920.5128205128212,4495.8974358974365,4416.410256410257,4233.846153846154,4518.461538461539,4455.8974358974365,4440.512820512821,4419.48717948718,4764.102564102564,4369.743589743591,4284.615384615385,4199.48717948718,4471.282051282052
1474.5328,0.45850992,0.6729524,0.34318668,0.57745147,0,0.0,0.0,0.0,0.0,1.0,0,0,0.0,0.0,0,0,107.0,0.0,498.0,4619.48717948718,3928.205128205129,4497.435897435898,4414.358974358975,4233.846153846154,4507.179487179488,4432.820512820514,4415.384615384616,4393.333333333334,4755.384615384616,4358.974358974359,4266.153846153847,4184.615384615385,4436.923076923077
1474.9081,0.4873081,0.6784992,0.3413238,0.57673347,0,0.0,0.0,0.0,0.0,0.13438165,0,0,0.0,0.0,0,0,26.0,0.0,0.0,4622.051282051282,3899.48717948718,4505.128205128206,4412.307692307693,4228.205128205129,4509.2307692307695,4458.974358974359,4429.743589743591,4391.794871794872,4748.717948717949,4339.48717948718,4278.974358974359,4185.641025641026,4410.256410256411
1475.1583,0.4873081,0.6784992,0.3413238,0.57673347,0,0.0,0.0,0.0,0.0,0.095078744,0,0,0.0,0.0,0,0,58.0,0.0,0.0,4625.641025641026,3910.7692307692314,4514.358974358975,4428.205128205129,4233.333333333334,4521.025641025642,4469.2307692307695,4447.6923076923085,4410.256410256411,4749.743589743591,4351.282051282052,4281.538461538462,4202.051282051282,4397.435897435898
1475.4086,0.4421586,0.64718664,0.3338196,0.580249,0,0.0,0.0,0.0,0.0,0.14074288,0,0,0.0,0.0,0,0,90.0,0.0,535.0,4635.8974358974365,3927.692307692308,4530.256410256411,4441.538461538462,4246.153846153847,4527.6923076923085,4487.6923076923085,4456.923076923077,4420.000000000001,4746.666666666667,4364.615384615385,4292.820512820514,4201.025641025642,4428.205128205129
1475.6588,0.4421586,0.64718664,0.3338196,0.580249,0,0.0,0.0,0.0,0.0,0.45146033,0,0,0.0,0.0,0,0,122.0,0.0,535.0,4647.6923076923085,3956.9230769230776,4541.538461538462,4451.794871794872,4251.794871794872,4536.410256410257,4475.8974358974365,4462.564102564103,4445.641025641026,4767.6923076923085,4397.435897435898,4321.538461538462,4220.512820512821,4522.051282051282
1475.9089,0.47031626,0.6150192,0.3270658,0.5805878,0,0.0,0.0,0.0,0.0,0.35965228,0,0,0.0,0.0,0,0,25.0,0.0,0.0,4632.820512820514,3948.717948717949,4503.076923076924,4444.102564102564,4243.589743589744,4523.076923076924,4477.948717948719,4456.410256410257,4430.769230769231,4747.179487179488,4358.974358974359,4277.948717948719,4189.74358974359,4509.743589743591
1476.034,0.47031626,0.6150192,0.3270658,0.5805878,0,0.0,0.0,0.0,0.0,0.0,0,0,0.0,0.0,0,0,41.0,0.0,0.0,4624.615384615385,3940.0000000000005,4496.923076923077,4440.512820512821,4246.666666666667,4526.153846153847,4477.435897435898,4428.205128205129,4430.769230769231,4734.358974358975,4353.846153846154,4271.282051282052,4187.6923076923085,4511.794871794872
1476.2843,0.45065898,0.5813671,0.3209875,0.57360214,0,0.0,0.0,0.0,0.0,0.0,0,0,0.0,0.0,0,0,73.0,0.0,472.0,4641.538461538462,3944.1025641025644,4524.102564102564,4460.512820512821,4243.076923076924,4522.564102564103,4455.8974358974365,4424.615384615385,4416.410256410257,4725.641025641026,4373.846153846154,4292.307692307693,4191.794871794872,4524.102564102564
1476.2843,0.45065898,0.5813671,0.3209875,0.57360214,0,0.0,0.0,0.0,0.0,0.0,0,0,0.0,0.0,0,0,73.0,0.0,472.0,4641.538461538462,3944.1025641025644,4524.102564102564,4460.512820512821,4243.076923076924,4522.564102564103,4455.8974358974365,4424.615384615385,4416.410256410257,4725.641025641026,4373.846153846154,4292.307692307693,4191.794871794872,4524.102564102564
1476.8473,0.42058763,0.5510937,0.319675,0.5649508,0,0.0,0.0,0.0,0.0,0.0,0,0,0.0,0.0,0,1,16.0,0.0,0.0,4678.974358974359,4069.23076923077,4686.153846153847,4641.025641025642,4416.410256410257,4698.974358974359,4626.153846153847,4567.179487179488,4462.051282051282,4827.6923076923085,4583.076923076924,4470.256410256411,4250.769230769231,4663.076923076924
1477.1913,0.42058763,0.5510937,0.319675,0.5649508,0,0.0,0.0,0.0,0.0,0.41672206,0,0,0.0,0.0,0,0,60.0,0.0,0.0,4651.794871794872,4018.9743589743593,4553.846153846154,4590.769230769231,4345.641025641026,4631.794871794872,4552.820512820514,4523.076923076924,4408.717948717949,4796.410256410257,4571.794871794872,4407.6923076923085,4222.564102564103,4629.743589743591
1477.4103,0.5107276,0.52384764,0.32235265,0.557676,0,0.0,0.0,0.0,0.0,0.15386611,0,0,0.0,0.0,0,0,88.0,0.0,509.0,4652.820512820514,4038.9743589743593,4518.461538461539,4585.641025641026,4322.564102564103,4616.410256410257,4522.564102564103,4496.410256410257,4398.461538461539,4795.384615384616,4553.333333333334,4369.2307692307695,4229.74358974359,4635.8974358974365
1477.6605,0.5107276,0.52384764,0.32235265,0.557676,0,0.0,0.0,0.0,0.0,0.11820807,0,0,0.0,0.0,0,0,120.0,0.0,509.0,4639.48717948718,4016.9230769230776,4493.846153846154,4541.025641025642,4262.564102564103,4571.794871794872,4508.205128205129,4525.128205128206,4427.6923076923085,4784.615384615386,4508.717948717949,4343.589743589744,4237.948717948719,4633.846153846154
1477.9108,0.4955109,0.49932623,0.32476413,0.55112886,0,0.0,0.0,0.0,0.0,0.0,0,0,0.0,0.0,0,0,23.0,0.0,0.0,4648.205128205129,4005.6410256410263,4474.358974358975,4491.794871794872,4235.384615384616,4548.717948717949,4460.512820512821,3694.358974358975,4425.128205128206,4766.666666666667,4459.48717948718,4301.538461538462,4233.333333333334,4604.615384615385
1478.1609,0.4955109,0.49932623,0.32476413,0.55112886,0,0.0,0.0,0.0,0.0,0.0,0,0,0.0,0.0,0,0,55.0,0.0,0.0,4648.717948717949,3990.7692307692314,4457.435897435898,4442.051282051282,4192.820512820514,4508.205128205129,4430.769230769231,4062.564102564103,4431.794871794872,4751.282051282052,4392.820512820514,4254.358974358975,4214.871794871796,4570.256410256411
1478.3173,0.5836387,0.47725692,0.3269334,0.5452353,0,0.0,0.0,0.0,0.0,0.0,0,0,0.0,0.0,0,0,75.0,0.0,506.0,4646.666666666667,3991.2820512820517,4460.000000000001,4423.589743589744,4183.589743589744,4496.923076923077,4427.179487179487,4151.794871794872,4428.205128205129,4725.641025641026,4351.282051282052,4235.384615384616,4201.025641025642,4546.153846153847
1478.6614,0.5836387,0.47725692,0.3269334,0.5452353,0,0.0,0.0,0.0,0.0,0.011903639,0,0,0.0,0.0,0,0,119.0,0.0,506.0,4627.6923076923085,3955.8974358974365,4461.538461538462,4405.128205128206,4152.820512820514,4473.846153846154,4424.615384615385,4264.615384615385,4427.179487179487,4731.794871794872,4306.666666666667,4226.153846153847,4196.923076923077,4470.256410256411
1478.9116,0.57214737,0.42293927,0.32757482,0.54593664,0,0.0,0.0,0.0,0.0,0.073151946,0,0,0.0,0.0,0,0,22.0,0.0,0.0,4605.128205128206,3932.820512820513,4485.128205128206,4389.2307692307695,4165.128205128206,4483.076923076924,4430.256410256411,4329.2307692307695,4456.923076923077,4734.871794871796,4306.666666666667,4241.025641025642,4202.564102564103,4419.48717948718
1479.1617,0.57214737,0.42293927,0.32757482,0.54593664,0,0.0,0.0,0.0,0.0,0.119834505,0,0,0.0,0.0,0,0,54.0,0.0,0.0,4610.769230769231,3923.589743589744,4491.282051282052,4395.8974358974365,4182.564102564103,4500.000000000001,4438.974358974359,4358.461538461539,4429.2307692307695,4713.333333333334,4280.512820512821,4237.948717948719,4181.538461538462,4363.076923076924
1479.412,0.5051631,0.36690992,0.328152,0.54656804,0,0.0,0.0,0.0,0.0,0.22384043,0,0,0.0,0.0,0,0,86.0,0.0,535.0,4633.846153846154,3917.9487179487182,4509.2307692307695,4400.512820512821,4202.564102564103,4508.205128205129,4442.564102564103,4374.871794871796,4393.846153846154,4678.974358974359,4267.6923076923085,4233.333333333334,4113.846153846154,4318.974358974359
1479.6622,0.5051631,0.36690992,0.328152,0.54656804,0,0.0,0.0,0.0,0.0,0.0,0,0,0.0,0.0,0,0,118.0,0.0,535.0,4609.2307692307695,3907.692307692308,4503.589743589744,4397.435897435898,4213.333333333334,4508.717948717949,4427.179487179487,4375.384615384616,4350.769230769231,4663.589743589744,4277.435897435898,4215.384615384616,4086.666666666667,4360.000000000001
1479.9125,0.4179216,0.326991,0.32867143,0.54713637,0,0.0,0.0,0.0,0.0,0.19242728,0,0,0.0,0.0,0,0,21.0,0.0,0.0,4622.051282051282,3910.2564102564106,4505.128205128206,4406.666666666667,4218.461538461539,4513.846153846154,4426.666666666667,4321.025641025642,4346.153846153847,4673.333333333334,4303.589743589744,4203.076923076924,4103.589743589744,4445.128205128206
1480.1626,0.4179216,0.326991,0.32867143,0.54713637,0,0.0,0.0,0.0,0.0,0.19197938,0,0,0.0,0.0,0,0,53.0,0.0,0.0,4614.358974358975,3895.8974358974365,4491.282051282052,4398.461538461539,4214.871794871796,4506.666666666667,4426.153846153847,4321.025641025642,4336.410256410257,4678.974358974359,4312.820512820514,4196.410256410257,4128.717948717949,4491.794871794872
1480.4128,0.42833525,0.29621223,0.32913888,0.5476478,0,0.0,0.0,0.0,0.0,0.17855766,0,0,0.0,0.0,0,0,85.0,0.0,459.0,4607.6923076923085,3894.8717948717954,4511.282051282052,4391.794871794872,4214.871794871796,4508.205128205129,4441.025641025642,4368.205128205129,4371.794871794872,4710.256410256411,4326.153846153847,4206.666666666667,4170.256410256411,4527.179487179488
1480.6631,0.42833525,0.29621223,0.32913888,0.5476478,0,0.0,0.0,0.0,0.0,0.13025968,0,0,0.0,0.0,0,0,117.0,0.0,459.0,4604.102564102564,3881.0256410256416,4511.282051282052,4383.589743589744,4218.974358974359,4512.307692307693,4441.025641025642,4374.871794871796,4392.820512820514,4729.2307692307695,4334.358974358975,4199.48717948718,4186.153846153847,4527.6923076923085
1480.7882,0.40799618,0.2743468,0.32955965,0.5481082,0,0.0,0.0,0.0,0.0,0.0,0,0,0.0,0.0,0,0,4.0,0.0,562.0,4603.076923076924,3866.666666666667,4506.666666666667,4372.307692307693,4215.384615384616,4510.769230769231,4445.641025641026,4385.128205128206,4395.8974358974365,4732.820512820514,4335.8974358974365,4201.538461538462,4201.025641025642,4549.2307692307695
1481.1635,0.40799618,0.2743468,0.32955965,0.5481082,0,0.0,0.0,0.0,0.0,0.6678288,0,0,0.0,0.0,0,0,52.0,0.0,0.0,4612.820512820514,3840.512820512821,4506.153846153847,4352.307692307693,4215.384615384616,4521.538461538462,4474.871794871796,4460.000000000001,4457.435897435898,4790.256410256411,4386.666666666667,4248.717948717949,4267.6923076923085,4650.769230769231
1481.4137,0.4499511,0.26022285,0.3299384,0.5485224,0,0.0,0.0,0.0,0.0,0.22778167,0,0,0.0,0.0,0,0,84.0,0.0,512.0,4616.923076923077,3849.2307692307695,4486.153846153847,4355.8974358974365,4221.538461538462,4518.974358974359,4456.923076923077,4443.589743589744,4443.076923076924,4770.256410256411,4362.051282051282,4228.717948717949,4262.051282051282,4614.871794871796
1481.664,0.4499511,0.26022285,0.3299384,0.5485224,0,0.0,0.0,0.0,0.0,0.104517385,0,0,0.0,0.0,0,0,116.0,0.0,512.0,4609.2307692307695,3864.1025641025644,4493.846153846154,4359.48717948718,4233.846153846154,4523.589743589744,4461.025641025642,4460.000000000001,4445.128205128206,4766.666666666667,4371.282051282052,4247.6923076923085,4265.641025641026,4625.128205128206
1481.9142,0.45341828,0.243492,0.33027917,0.5488953,0,0.0,0.0,0.0,0.0,0.09348081,0,0,0.0,0.0,0,0,19.0,0.0,0.0,4598.461538461539,3833.8461538461543,4474.358974358975,4356.923076923077,4235.8974358974365,4527.179487179488,4470.256410256411,4462.564102564103,4428.205128205129,4746.666666666667,4340.512820512821,4232.820512820514,4228.205128205129,4589.2307692307695
1482.1643,0.45341828,0.243492,0.33027917,0.5488953,0,0.0,0.0,0.0,0.0,0.0,0,0,0.0,0.0,0,0,51.0,0.0,0.0,4603.076923076924,3864.615384615385,4495.384615384616,4371.794871794872,4228.717948717949,4518.461538461539,4459.48717948718,4443.589743589744,4423.589743589744,4748.205128205129,4355.384615384616,4247.6923076923085,4246.153846153847,4585.128205128206
1482.2894,0.4049834,0.23362634,0.32997552,0.5498518,0,0.0,0.0,0.0,0.0,0.0,0,0,0.0,0.0,0,0,67.0,0.0,546.0,4606.666666666667,3881.538461538462,4494.358974358975,4386.666666666667,4232.820512820514,4524.102564102564,4450.769230769231,4458.461538461539,4427.6923076923085,4752.307692307693,4368.717948717949,4256.923076923077,4250.769230769231,4587.6923076923085
1482.6648,0.4049834,0.23362634,0.32997552,0.5498518,0,0.0,0.0,0.0,0.0,0.25951156,0,0,0.0,0.0,0,0,115.0,0.0,508.0,4577.948717948719,3866.1538461538466,4487.179487179488,4367.6923076923085,4231.282051282052,4522.051282051282,4463.076923076924,4455.8974358974365,4437.435897435898,4763.589743589744,4367.179487179487,4257.435897435898,4247.179487179487,4541.538461538462
1482.915,0.35020536,0.22171737,0.32861817,0.552281,0,0.0,0.0,0.0,0.0,1.0,0,0,0.0,0.0,0,0,18.0,0.0,0.0,4572.307692307693,3881.0256410256416,4496.923076923077,4380.512820512821,4229.74358974359,4520.000000000001,4458.461538461539,4448.205128205129,4423.589743589744,4750.769230769231,4354.358974358975,4268.717948717949,4239.48717948718,4496.923076923077
1483.1653,0.35020536,0.22171737,0.32861817,0.552281,0,0.0,0.0,0.0,0.0,0.8992877,0,0,0.0,0.0,0,0,50.0,0.0,0.0,4575.8974358974365,3891.7948717948725,4501.025641025642,4389.743589743591,4242.051282051282,4529.743589743591,4459.48717948718,4443.076923076924,4412.307692307693,4763.589743589744,4355.8974358974365,4261.538461538462,4218.974358974359,4461.538461538462
1483.4154,0.3149101,0.19967948,0.32579818,0.5604508,0,0.0,0.0,0.0,0.0,0.24448189,0,0,0.0,0.0,0,0,82.0,0.0,535.0,4586.666666666667,3897.435897435898,4494.358974358975,4398.974358974359,4234.871794871796,4522.564102564103,4456.923076923077,4429.2307692307695,4399.48717948718,4750.769230769231,4354.358974358975,4246.666666666667,4196.923076923077,4457.948717948719
1483.6656,0.3149101,0.19967948,0.32579818,0.5604508,0,0.0,0.0,0.0,0.0,0.31795773,0,0,0.0,0.0,0,0,114.0,0.0,535.0,4594.871794871796,3882.564102564103,4504.615384615385,4386.153846153847,4229.74358974359,4522.051282051282,4461.025641025642,4432.307692307693,4409.2307692307695,4751.282051282052,4356.410256410257,4244.615384615385,4197.435897435898,4479.48717948718
1483.9159,0.2853672,0.18868636,0.32076338,0.57743716,0,0.0,0.0,0.0,0.0,0.59071696,0,0,0.0,0.0,0,0,17.0,0.0,0.0,4591.794871794872,3894.8717948717954,4478.461538461539,4367.6923076923085,4243.076923076924,4524.615384615385,4442.564102564103,4423.076923076924,4401.025641025642,4748.205128205129,4357.435897435898,4229.74358974359,4194.871794871796,4507.179487179488
1484.041,0.2853672,0.18868636,0.32076338,0.57743716,0,0.0,0.0,0.0,0.0,0.0,0,0,0.0,0.0,0,0,33.0,0.0,0.0,4604.615384615385,3910.2564102564106,4484.615384615385,4382.051282051282,4234.871794871796,4522.564102564103,4447.6923076923085,4428.717948717949,4411.282051282052,4749.2307692307695,4358.461538461539,4246.666666666667,4189.2307692307695,4520.512820512821
1484.4163,0.22499433,0.17723851,0.3126523,0.6036205,0,0.0,0.0,0.0,0.0,0.032429464,0,0,0.0,0.0,0,0,81.0,0.0,459.0,4609.2307692307695,3941.0256410256416,4477.435897435898,4417.435897435898,4233.846153846154,4524.615384615385,4448.205128205129,4398.974358974359,4401.025641025642,4736.923076923077,4358.974358974359,4243.076923076924,4198.974358974359,4509.743589743591
1484.6665,0.22499433,0.17723851,0.3126523,0.6036205,0,0.0,0.0,0.0,0.0,0.1413925,0,0,0.0,0.0,0,0,113.0,0.0,459.0,4606.153846153847,3950.7692307692314,4491.794871794872,4434.358974358975,4232.820512820514,4523.589743589744,4453.333333333334,4394.358974358975,4397.435897435898,4747.6923076923085,4361.025641025642,4251.794871794872,4207.179487179487,4496.410256410257
1484.9167,0.1834457,0.16531137,0.30147934,0.63430667,0,0.0,0.0,0.0,0.0,0.5093499,0,0,0.0,0.0,0,0,16.0,0.0,0.0,4623.076923076924,3957.9487179487182,4460.000000000001,4438.461538461539,4229.2307692307695,4521.025641025642,4427.6923076923085,4362.564102564103,4382.564102564103,4708.205128205129,4309.2307692307695,4204.102564102564,4165.128205128206,4416.923076923077
1485.167,0.1834457,0.16531137,0.30147934,0.63430667,0,0.0,0.0,0.0,0.0,0.6337438,0,0,0.0,0.0,0,0,48.0,0.0,0.0,4636.923076923077,3928.717948717949,4460.000000000001,4423.589743589744,4230.256410256411,4518.974358974359,4430.769230769231,4363.589743589744,4384.615384615385,4719.48717948718,4316.410256410257,4216.923076923077,4171.282051282052,4410.769230769231
1485.4171,0.1688884,0.16218124,0.2901139,0.6547908,0,0.0,0.0,0.0,0.0,0.20964646,0,0,0.0,0.0,0,0,80.0,0.0,512.0,4653.333333333334,3909.2307692307695,4488.717948717949,4413.846153846154,4230.769230769231,4522.051282051282,4445.128205128206,4399.48717948718,4401.538461538462,4737.948717948719,4347.179487179487,4253.333333333334,4197.435897435898,4430.769230769231
1485.6674,0.1688884,0.16218124,0.2901139,0.6547908,0,0.0,0.0,0.0,0.0,0.96086735,0,0,0.0,0.0,0,0,112.0,0.0,512.0,4640.512820512821,3880.0000000000005,4490.769230769231,4397.948717948719,4220.000000000001,4521.025641025642,4443.076923076924,4403.589743589744,4396.410256410257,4741.538461538462,4362.564102564103,4263.589743589744,4220.000000000001,4476.410256410257
1485.9176,0.14470667,0.16752875,0.28119665,0.66861975,0,0.0,0.0,0.0,0.0,0.20033921,0,0,0.0,0.0,0,0,15.0,0.0,508.0,4631.282051282052,3880.0000000000005,4487.179487179488,4400.000000000001,4229.74358974359,4525.641025641026,4458.461538461539,4425.128205128206,4415.384615384616,4751.282051282052,4373.846153846154,4279.48717948718,4230.769230769231,4492.307692307693
1486.1678,0.14470667,0.16752875,0.28119665,0.66861975,0,0.0,0.0,0.0,0.0,0.0,0,0,0.0,0.0,0,0,47.0,0.0,0.0,4619.48717948718,3868.717948717949,4499.48717948718,4387.6923076923085,4220.000000000001,4522.051282051282,4465.641025641026,4426.666666666667,4408.205128205129,4734.358974358975,4363.076923076924,4263.589743589744,4214.358974358975,4524.615384615385
1486.293,0.11220026,0.1753482,0.27704772,0.68386114,0,0.0,0.0,0.0,0.0,0.0,0,0,0.0,0.0,0,0,63.0,0.0,0.0,4620.000000000001,3868.205128205129,4503.076923076924,4389.743589743591,4215.8974358974365,4507.6923076923085,4458.974358974359,4411.794871794872,4394.871794871796,4733.333333333334,4363.589743589744,4267.179487179487,4212.307692307693,4550.256410256411
1486.293,0.11220026,0.1753482,0.27704772,0.68386114,0,0.0,0.0,0.0,0.0,0.0,0,0,0.0,0.0,0,0,63.0,0.0,0.0,4620.000000000001,3868.205128205129,4503.076923076924,4389.743589743591,4215.8974358974365,4507.6923076923085,4458.974358974359,4411.794871794872,4394.871794871796,4733.333333333334,4363.589743589744,4267.179487179487,4212.307692307693,4550.256410256411
1486.9185,0.09546236,0.17482921,0.27285394,0.69117236,0,0.0,0.0,0.0,0.0,0.69130945,0,0,0.0,0.0,0,0,14.0,0.0,535.0,4653.333333333334,3894.358974358975,4491.282051282052,4395.384615384616,4227.6923076923085,4516.923076923077,4444.615384615385,4397.435897435898,4364.102564102564,4702.564102564103,4311.794871794872,4224.615384615385,4172.307692307693,4460.000000000001
1487.1687,0.09546236,0.17482921,0.27285394,0.69117236,0,0.0,0.0,0.0,0.0,0.1971125,0,0,0.0,0.0,0,0,46.0,0.0,0.0,4633.846153846154,3893.333333333334,4488.205128205129,4390.256410256411,4218.461538461539,4515.8974358974365,4459.48717948718,4403.076923076924,4382.564102564103,4712.307692307693,4322.051282051282,4226.153846153847,4181.538461538462,4447.179487179487
1487.2938,0.04470052,0.16845083,0.2719638,0.6922641,0,0.0,0.0,0.0,0.0,0.0,0,0,0.0,0.0,0,0,62.0,0.0,0.0,4623.076923076924,3897.9487179487182,4505.641025641026,4389.743589743591,4216.923076923077,4519.48717948718,4461.025641025642,4409.743589743591,4376.923076923077,4717.948717948719,4326.666666666667,4245.128205128206,4186.153846153847,4453.333333333334
1487.2938,0.04470052,0.16845083,0.2719638,0.6922641,0,0.0,0.0,0.0,0.0,0.0,0,0,0.0,0.0,0,0,62.0,0.0,0.0,4623.076923076924,3897.9487179487182,4505.641025641026,4389.743589743591,4216.923076923077,4519.48717948718,4461.025641025642,4409.743589743591,4376.923076923077,4717.948717948719,4326.666666666667,4245.128205128206,4186.153846153847,4453.333333333334
1487.7942,0.034917597,0.15431637,0.2711639,0.6932417,0,0.0,0.0,0.0,0.0,0.0,0,0,0.0,0.0,0,0,126.0,0.0,535.0,4609.2307692307695,3902.564102564103,4510.256410256411,4390.769230769231,4233.846153846154,4533.846153846154,4491.794871794872,4426.666666666667,4408.205128205129,4737.435897435898,4345.128205128206,4249.74358974359,4203.076923076924,4425.641025641026
1487.7942,0.034917597,0.15431637,0.2711639,0.6932417,0,0.0,0.0,0.0,0.0,0.0,0,0,0.0,0.0,0,0,126.0,0.0,535.0,4609.2307692307695,3902.564102564103,4510.256410256411,4390.769230769231,4233.846153846154,4533.846153846154,4491.794871794872,4426.666666666667,4408.205128205129,4737.435897435898,4345.128205128206,4249.74358974359,4203.076923076924,4425.641025641026
1488.2947,0.0,0.14768337,0.2704452,0.6965676,0,0.0,0.0,0.0,0.0,0.0,0,0,0.0,0.0,0,0,61.0,0.0,0.0,4623.589743589744,3910.2564102564106,4503.076923076924,4411.794871794872,4231.282051282052,4535.384615384616,4475.8974358974365,4386.153846153847,4404.615384615385,4737.948717948719,4341.538461538462,4243.589743589744,4189.74358974359,4470.769230769231
1488.6699,0.0,0.14768337,0.2704452,0.6965676,0,0.0,0.0,0.0,0.0,0.021971006,0,0,0.0,0.0,0,0,109.0,0.0,460.0,4635.384615384616,3878.9743589743593,4494.871794871796,4401.538461538462,4229.74358974359,4519.48717948718,4458.461538461539,4292.820512820514,4391.794871794872,4724.615384615386,4328.205128205129,4232.820512820514,4174.871794871796,4515.8974358974365
1488.9202,0.025775222,0.14034772,0.26889616,0.6995545,0,0.0,0.0,0.0,0.0,0.192783,0,0,0.0,0.0,0,0,12.0,0.0,512.0,4643.589743589744,3896.410256410257,4503.076923076924,4421.538461538462,4233.333333333334,4522.051282051282,4475.8974358974365,4295.8974358974365,4375.384615384616,4703.076923076924,4324.615384615385,4230.256410256411,4167.6923076923085,4505.641025641026
1489.1704,0.025775222,0.14034772,0.26889616,0.6995545,0,0.0,0.0,0.0,0.0,0.060387865,0,0,0.0,0.0,0,0,44.0,0.0,0.0,4638.974358974359,3898.9743589743593,4507.6923076923085,4418.974358974359,4234.358974358975,4525.128205128206,4486.666666666667,4200.000000000001,4391.794871794872,4723.076923076924,4346.666666666667,4250.769230769231,4185.128205128206,4480.512820512821
1489.4207,0.038039863,0.14151303,0.26750332,0.6962717,0,0.0,0.0,0.0,0.0,6.533809E-4,0,0,0.0,0.0,0,0,76.0,0.0,512.0,4629.2307692307695,3879.48717948718,4496.923076923077,4394.358974358975,4232.820512820514,4525.641025641026,4489.2307692307695,4075.3846153846157,4393.846153846154,4716.923076923077,4339.48717948718,4246.666666666667,4176.923076923077,4426.153846153847
1489.6708,0.038039863,0.14151303,0.26750332,0.6962717,0,0.0,0.0,0.0,0.0,0.048622318,0,0,0.0,0.0,0,0,108.0,0.0,512.0,4626.153846153847,3880.512820512821,4503.589743589744,4383.076923076924,4232.820512820514,4523.076923076924,4476.923076923077,4059.48717948718,4389.743589743591,4701.025641025642,4338.974358974359,4249.2307692307695,4160.512820512821,4411.794871794872
1489.921,0.06864678,0.1355266,0.26617107,0.69331443,0,0.0,0.0,0.0,0.0,0.019154964,0,0,0.0,0.0,0,0,11.0,0.0,508.0,4629.743589743591,3892.307692307693,4514.358974358975,4393.846153846154,4231.794871794872,4523.589743589744,4476.410256410257,4121.025641025642,4379.48717948718,4702.564102564103,4343.076923076924,4255.8974358974365,4139.48717948718,4396.923076923077
1490.1713,0.06864678,0.1355266,0.26617107,0.69331443,0,0.0,0.0,0.0,0.0,0.0,0,0,0.0,0.0,0,0,43.0,0.0,0.0,4632.307692307693,3911.7948717948725,4522.564102564103,4413.846153846154,4248.717948717949,4537.435897435898,4473.333333333334,4139.48717948718,4334.871794871796,4687.6923076923085,4349.2307692307695,4251.282051282052,4107.6923076923085,4408.205128205129
1490.2964,0.041856684,0.12266885,0.26497337,0.6903869,0,0.0,0.0,0.0,0.0,0.0,0,0,0.0,0.0,0,0,59.0,0.0,0.0,4633.846153846154,3918.461538461539,4518.461538461539,4421.538461538462,4256.410256410257,4540.512820512821,4480.000000000001,4170.769230769231,4337.948717948719,4693.333333333334,4353.846153846154,4248.717948717949,4091.2820512820517,4413.846153846154
1490.2964,0.041856684,0.12266885,0.26497337,0.6903869,0,0.0,0.0,0.0,0.0,0.0,0,0,0.0,0.0,0,0,59.0,0.0,0.0,4633.846153846154,3918.461538461539,4518.461538461539,4421.538461538462,4256.410256410257,4540.512820512821,4480.000000000001,4170.769230769231,4337.948717948719,4693.333333333334,4353.846153846154,4248.717948717949,4091.2820512820517,4413.846153846154
1490.7968,0.08046551,0.119421735,0.26483548,0.681853,0,0.0,0.0,0.0,0.0,0.0,0,0,0.0,0.0,0,0,123.0,0.0,508.0,4650.256410256411,3953.8461538461543,4521.025641025642,4463.589743589744,4250.769230769231,4540.000000000001,4479.48717948718,4184.102564102564,4348.205128205129,4710.256410256411,4377.435897435898,4247.179487179487,4126.153846153847,4442.051282051282
1490.7968,0.08046551,0.119421735,0.26483548,0.681853,0,0.0,0.0,0.0,0.0,0.0,0,0,0.0,0.0,0,0,123.0,0.0,508.0,4650.256410256411,3953.8461538461543,4521.025641025642,4463.589743589744,4250.769230769231,4540.000000000001,4479.48717948718,4184.102564102564,4348.205128205129,4710.256410256411,4377.435897435898,4247.179487179487,4126.153846153847,4442.051282051282
1491.4224,0.0635335,0.12431729,0.26471272,0.66305846,0,0.0,0.0,0.0,0.0,0.019162776,0,0,0.0,0.0,0,0,74.0,0.0,535.0,4654.871794871796,3931.2820512820517,4522.051282051282,4458.974358974359,4246.666666666667,4536.410256410257,4473.846153846154,4331.282051282052,4380.512820512821,4734.871794871796,4392.820512820514,4270.769230769231,4237.948717948719,4520.000000000001
1491.6725,0.0635335,0.12431729,0.26471272,0.66305846,0,0.0,0.0,0.0,0.0,0.012698404,0,0,0.0,0.0,0,0,106.0,0.0,535.0,4649.2307692307695,3913.8461538461543,4504.615384615385,4445.641025641026,4230.769230769231,4523.076923076924,4461.025641025642,4381.538461538462,4372.307692307693,4740.512820512821,4382.051282051282,4266.153846153847,4262.051282051282,4532.307692307693
1491.9227,0.0934165,0.13160223,0.26460353,0.64096177,0,0.0,0.0,0.0,0.0,0.07232046,0,0,0.0,0.0,0,0,9.0,0.0,472.0,4653.333333333334,3929.2307692307695,4489.743589743591,4461.025641025642,4251.282051282052,4540.000000000001,4456.923076923077,4412.307692307693,4386.153846153847,4764.615384615386,4376.923076923077,4262.564102564103,4277.948717948719,4575.8974358974365
1492.173,0.0934165,0.13160223,0.26460353,0.64096177,0,0.0,0.0,0.0,0.0,0.16861546,0,0,0.0,0.0,0,0,41.0,0.0,0.0,4629.743589743591,3928.717948717949,4487.6923076923085,4454.871794871796,4250.256410256411,4539.48717948718,4460.000000000001,4424.615384615385,4364.615384615385,4748.717948717949,4367.179487179487,4258.461538461539,4260.512820512821,4583.076923076924
1492.4232,0.12448327,0.13332777,0.2608031,0.62107664,0,0.0,0.0,0.0,0.0,0.12875222,0,0,0.0,0.0,0,0,73.0,0.0,472.0,4632.307692307693,3954.8717948717954,4494.358974358975,4475.384615384616,4234.871794871796,4534.871794871796,4448.205128205129,4442.564102564103,4343.589743589744,4736.923076923077,4340.512820512821,4251.282051282052,4236.410256410257,4543.589743589744
1492.6733,0.12448327,0.13332777,0.2608031,0.62107664,0,0.0,0.0,0.0,0.0,0.1721187,0,0,0.0,0.0,0,0,105.0,0.0,460.0,4603.076923076924,3926.1538461538466,4487.6923076923085,4448.205128205129,4234.871794871796,4525.641025641026,4446.666666666667,4458.461538461539,4314.358974358975,4727.179487179488,4329.2307692307695,4239.48717948718,4216.410256410257,4600.512820512821
1492.9236,0.11164693,0.13649908,0.25367713,0.6031807,0,0.0,0.0,0.0,0.0,0.811173,0,0,0.0,0.0,0,0,8.0,0.0,464.0,4594.358974358975,3927.692307692308,4473.846153846154,4441.538461538462,4226.153846153847,4512.820512820514,4443.076923076924,4483.076923076924,4310.769230769231,4727.179487179488,4336.410256410257,4235.384615384616,4214.358974358975,4628.205128205129
1493.1738,0.11164693,0.13649908,0.25367713,0.6031807,0,0.0,0.0,0.0,0.0,0.0,0,0,0.0,0.0,0,0,40.0,0.0,0.0,4588.717948717949,3910.7692307692314,4488.205128205129,4424.102564102564,4226.666666666667,4519.48717948718,4445.641025641026,4506.666666666667,4261.538461538462,4736.410256410257,4354.871794871796,4261.025641025642,4234.871794871796,4606.666666666667
1493.299,0.10920689,0.13713528,0.24726562,0.5931265,0,0.0,0.0,0.0,0.0,0.0,0,0,0.0,0.0,0,0,56.0,0.0,0.0,4591.794871794872,3906.666666666667,4490.256410256411,4415.8974358974365,4229.2307692307695,4523.076923076924,4457.948717948719,4524.102564102564,4278.461538461539,4744.615384615386,4363.589743589744,4262.051282051282,4235.384615384616,4586.666666666667
1493.299,0.10920689,0.13713528,0.24726562,0.5931265,0,0.0,0.0,0.0,0.0,0.0,0,0,0.0,0.0,0,0,56.0,0.0,0.0,4591.794871794872,3906.666666666667,4490.256410256411,4415.8974358974365,4229.2307692307695,4523.076923076924,4457.948717948719,4524.102564102564,4278.461538461539,4744.615384615386,4363.589743589744,4262.051282051282,4235.384615384616,4586.666666666667
1493.7993,0.1397457,0.14678892,0.24149723,0.5890296,0,0.0,0.0,0.0,0.0,0.0,0,0,0.0,0.0,0,0,120.0,0.0,512.0,4588.717948717949,3913.333333333334,4476.923076923077,4413.333333333334,4233.846153846154,4524.102564102564,4443.076923076924,4519.48717948718,4305.128205128206,4727.179487179488,4338.974358974359,4230.769230769231,4187.179487179487,4535.8974358974365
1494.1747,0.1397457,0.14678892,0.24149723,0.5890296,0,0.0,0.0,0.0,0.0,0.22235972,0,0,0.0,0.0,0,0,39.0,0.0,0.0,4586.666666666667,3912.820512820513,4487.6923076923085,4413.846153846154,4235.384615384616,4527.6923076923085,4462.051282051282,4561.025641025642,4349.2307692307695,4753.846153846154,4378.974358974359,4252.820512820514,4232.820512820514,4506.153846153847
1494.4249,0.13939027,0.15898484,0.24272206,0.5907931,0,0.0,0.0,0.0,0.0,0.4175408,0,0,0.0,0.0,0,0,71.0,0.0,458.0,4577.435897435898,3911.2820512820517,4473.333333333334,4413.846153846154,4248.205128205129,4536.410256410257,4440.000000000001,4551.282051282052,4359.48717948718,4761.025641025642,4382.051282051282,4247.179487179487,4215.8974358974365,4470.256410256411
1494.6752,0.13939027,0.15898484,0.24272206,0.5907931,0,0.0,0.0,0.0,0.0,0.4259541,0,0,0.0,0.0,0,0,103.0,0.0,508.0,4598.461538461539,3911.2820512820517,4491.794871794872,4411.282051282052,4232.307692307693,4524.102564102564,4445.641025641026,4571.794871794872,4370.256410256411,4764.615384615386,4377.948717948719,4260.512820512821,4202.051282051282,4446.666666666667
1494.9253,0.11196636,0.1688782,0.25354668,0.5973588,0,0.0,0.0,0.0,0.0,0.21201694,0,0,0.0,0.0,0,0,6.0,0.0,554.0,4604.615384615385,3928.717948717949,4488.205128205129,4436.410256410257,4239.48717948718,4524.615384615385,4444.102564102564,4576.923076923077,4357.435897435898,4730.769230769231,4361.538461538462,4253.846153846154,4200.512820512821,4411.794871794872
1495.1755,0.11196636,0.1688782,0.25354668,0.5973588,0,0.0,0.0,0.0,0.0,0.1986973,0,0,0.0,0.0,0,0,38.0,0.0,0.0,4628.717948717949,3944.615384615385,4490.256410256411,4456.923076923077,4245.641025641026,4538.461538461539,4458.461538461539,4617.948717948719,4365.641025641026,4727.6923076923085,4334.871794871796,4243.076923076924,4174.358974358975,4446.153846153847
1495.4258,0.13030384,0.17564541,0.26362646,0.59828675,0,0.0,0.0,0.0,0.0,0.6028782,0,0,0.0,0.0,0,0,70.0,0.0,554.0,4635.8974358974365,3944.1025641025644,4491.794871794872,4457.435897435898,4244.615384615385,4524.102564102564,4447.6923076923085,4602.051282051282,4374.358974358975,4724.102564102564,4327.179487179487,4230.769230769231,4166.666666666667,4478.461538461539
1495.676,0.13030384,0.17564541,0.26362646,0.59828675,0,0.0,0.0,0.0,0.0,0.11689703,0,0,0.0,0.0,0,0,102.0,0.0,535.0,4606.153846153847,3925.1282051282055,4471.282051282052,4444.102564102564,4248.717948717949,4522.051282051282,4442.051282051282,4569.743589743591,4372.820512820514,4722.564102564103,4334.358974358975,4232.307692307693,4168.717948717949,4490.256410256411
1495.9261,0.10949559,0.17713185,0.27269933,0.5971847,0,0.0,0.0,0.0,0.0,0.13463572,0,0,0.0,0.0,0,0,5.0,0.0,557.0,4601.538461538462,3912.820512820513,4480.512820512821,4430.769230769231,4232.820512820514,4524.102564102564,4461.025641025642,4622.051282051282,4403.589743589744,4746.153846153847,4366.153846153847,4254.871794871796,4201.538461538462,4512.307692307693
1496.1764,0.10949559,0.17713185,0.27269933,0.5971847,0,0.0,0.0,0.0,0.0,0.011766906,0,0,0.0,0.0,0,0,37.0,0.0,0.0,4583.076923076924,3908.205128205129,4462.051282051282,4424.615384615385,4231.794871794872,4520.512820512821,4430.769230769231,4646.153846153847,4391.282051282052,4720.000000000001,4341.025641025642,4227.179487179487,4169.74358974359,4477.435897435898
1496.4266,0.08845095,0.17890328,0.28086588,0.60062206,0,0.0,0.0,0.0,0.0,0.1936566,0,0,0.0,0.0,0,0,69.0,0.0,557.0,4587.6923076923085,3906.1538461538466,4475.8974358974365,4421.025641025642,4235.384615384616,4525.128205128206,4442.051282051282,4629.743589743591,4412.307692307693,4750.256410256411,4360.512820512821,4240.512820512821,4182.564102564103,4455.8974358974365
1496.6769,0.08845095,0.17890328,0.28086588,0.60062206,0,0.0,0.0,0.0,0.0,0.4132875,0,0,0.0,0.0,0,0,101.0,0.0,460.0,4579.48717948718,3907.1794871794878,4457.948717948719,4416.923076923077,4231.282051282052,4505.128205128206,4426.666666666667,4586.666666666667,4369.2307692307695,4710.769230769231,4331.794871794872,4215.8974358974365,4158.461538461539,4357.435897435898
1496.802,0.10281467,0.17214999,0.2840279,0.60339415,0,0.0,0.0,0.0,0.0,1.0,0,0,0.0,0.0,0,0,117.0,0.0,460.0,4580.512820512821,3882.564102564103,4464.102564102564,4411.794871794872,4216.923076923077,4505.641025641026,4425.641025641026,4601.538461538462,4398.461538461539,4745.641025641026,4361.025641025642,4246.153846153847,4186.666666666667,4352.820512820514
1497.1772,0.10281467,0.17214999,0.2840279,0.60339415,0,0.0,0.0,0.0,0.0,0.88824564,0,0,0.0,0.0,0,0,36.0,0.0,0.0,4588.205128205129,3893.333333333334,4484.102564102564,4402.051282051282,4226.153846153847,4515.8974358974365,4455.8974358974365,4571.282051282052,4409.2307692307695,4714.871794871796,4327.6923076923085,4246.153846153847,4168.717948717949,4198.974358974359
1497.4275,0.06273605,0.16163877,0.285565,0.58575886,0,0.0,0.0,0.0,0.0,0.050064523,0,0,0.0,0.0,0,0,68.0,0.0,562.0,4595.8974358974365,3899.48717948718,4511.794871794872,4412.820512820514,4227.6923076923085,4518.974358974359,4460.000000000001,4680.000000000001,4414.871794871796,4734.871794871796,4320.000000000001,4254.871794871796,4184.102564102564,4327.179487179487
1497.6777,0.06273605,0.16163877,0.285565,0.58575886,0,0.0,0.0,0.0,0.0,0.21201274,0,0,0.0,0.0,0,0,100.0,0.0,512.0,4589.2307692307695,3894.8717948717954,4512.307692307693,4395.384615384616,4232.820512820514,4523.589743589744,4474.871794871796,4641.025641025642,4431.282051282052,4744.615384615386,4324.615384615385,4266.666666666667,4172.307692307693,4371.794871794872
1497.9279,0.041975264,0.14527708,0.28607947,0.5638757,0,0.0,0.0,0.0,0.0,0.09170281,0,0,0.0,0.0,0,0,3.0,0.0,543.0,4606.666666666667,3880.0000000000005,4507.179487179488,4392.820512820514,4237.435897435898,4537.948717948719,4476.923076923077,4568.205128205129,4422.564102564103,4747.6923076923085,4341.025641025642,4263.589743589744,4176.923076923077,4458.974358974359
1498.1781,0.041975264,0.14527708,0.28607947,0.5638757,0,0.0,0.0,0.0,0.0,0.11404832,0,0,0.0,0.0,0,0,35.0,0.0,0.0,4620.000000000001,3909.2307692307695,4505.128205128206,4414.358974358975,4240.512820512821,4536.410256410257,4474.358974358975,4539.48717948718,4441.538461538462,4763.589743589744,4355.384615384616,4274.871794871796,4198.461538461539,4479.48717948718
1498.4283,0.052425634,0.12928703,0.28654334,0.5555524,0,0.0,0.0,0.0,0.0,0.024054702,0,0,0.0,0.0,0,0,67.0,0.0,543.0,4612.307692307693,3928.205128205129,4525.641025641026,4441.538461538462,4254.871794871796,4542.564102564103,4492.307692307693,4524.615384615385,4460.512820512821,4776.410256410257,4378.974358974359,4290.256410256411,4225.128205128206,4508.717948717949
1498.6864,0.052425634,0.12928703,0.28654334,0.5555524,0,0.0,0.0,0.0,0.0,0.085714005,0,0,0.0,0.0,0,0,99.0,0.0,514.0,4604.102564102564,3948.205128205129,4534.871794871796,4457.435897435898,4247.179487179487,4548.717948717949,4503.589743589744,4522.051282051282,4460.512820512821,4763.589743589744,4380.000000000001,4280.512820512821,4212.820512820514,4490.769230769231
1498.9366,0.06254846,0.12341377,0.2869617,0.5480615,0,0.0,0.0,0.0,0.0,0.0,0,0,0.0,0.0,0,0,2.0,0.0,235.0,4586.666666666667,3955.8974358974365,4526.153846153847,4457.948717948719,4251.282051282052,4538.461538461539,4471.282051282052,4490.769230769231,4458.974358974359,4766.666666666667,4392.820512820514,4269.74358974359,4204.615384615385,4438.974358974359
1499.1868,0.06254846,0.12341377,0.2869617,0.5480615,0,0.0,0.0,0.0,0.0,0.11389426,0,0,0.0,0.0,0,0,34.0,0.0,0.0,4602.051282051282,3970.7692307692314,4525.641025641026,4479.48717948718,4262.051282051282,4552.820512820514,4475.384615384616,4474.871794871796,4426.666666666667,4745.641025641026,4383.076923076924,4267.179487179487,4191.794871794872,4467.179487179487
1499.437,0.090827405,0.12378243,0.28682297,0.5413197,0,0.0,0.0,0.0,0.0,0.9245702,0,0,0.0,0.0,0,0,66.0,0.0,235.0,4605.641025641026,3978.461538461539,4518.974358974359,4489.743589743591,4256.923076923077,4542.051282051282,4475.8974358974365,4464.102564102564,4397.948717948719,4719.48717948718,4364.615384615385,4260.000000000001,4164.615384615385,4542.564102564103
1499.6873,0.090827405,0.12378243,0.28682297,0.5413197,0,0.0,0.0,0.0,0.0,0.0,0,0,0.0,0.0,0,0,98.0,0.0,535.0,4675.8974358974365,4001.0256410256416,4555.384615384616,4508.717948717949,4258.461538461539,4541.025641025642,4465.128205128206,4429.2307692307695,4366.666666666667,4699.48717948718,4361.025641025642,4268.717948717949,4136.923076923077,4643.589743589744
1499.9375,0.118708275,0.14224036,0.28391317,0.5378602,0,0.0,0.0,0.0,0.0,0.34028858,0,0,0.0,0.0,0,0,1.0,0.0,466.0,4606.153846153847,3956.9230769230776,4503.076923076924,4465.128205128206,4273.333333333334,4553.846153846154,4457.435897435898,4427.179487179487,4383.589743589744,4718.974358974359,4352.820512820514,4053.333333333334,4154.871794871796,4539.48717948718
1500.0625,0.118708275,0.14224036,0.28391317,0.5378602,0,0.0,0.0,0.0,0.0,0.0,0,0,0.0,0.0,0,0,17.0,0.0,0.0,4614.358974358975,3955.8974358974365,4518.974358974359,4462.051282051282,4265.641025641026,4552.307692307693,4475.384615384616,4416.923076923077,4391.282051282052,4710.769230769231,4350.769230769231,4078.9743589743593,4161.025641025642,4521.538461538462
1500.344,0.125552,0.16316824,0.2823247,0.5374845,0,0.0,0.0,0.0,0.0,0.0,0,0,0.0,0.0,0,0,53.0,0.0,0.0,4617.435897435898,3941.0256410256416,4508.205128205129,4443.589743589744,4264.615384615385,4551.794871794872,4461.025641025642,4414.358974358975,4414.358974358975,4717.948717948719,4349.743589743591,4121.025641025642,4171.282051282052,4486.153846153847
1500.344,0.125552,0.16316824,0.2823247,0.5374845,0,0.0,0.0,0.0,0.0,0.0,0,0,0.0,0.0,0,0,53.0,0.0,0.0,4617.435897435898,3941.0256410256416,4508.205128205129,4443.589743589744,4264.615384615385,4551.794871794872,4461.025641025642,4414.358974358975,4414.358974358975,4717.948717948719,4349.743589743591,4121.025641025642,4171.282051282052,4486.153846153847
1500.8132,0.09089283,0.18802619,0.28610292,0.5389621,0,0.0,0.0,0.0,0.0,0.0,0,0,0.0,0.0,0,0,113.0,0.0,460.0,4625.641025641026,3912.307692307693,4503.589743589744,4434.358974358975,4256.410256410257,4539.48717948718,4457.435897435898,4410.256410256411,4433.846153846154,4734.871794871796,4348.717948717949,4162.051282051282,4187.6923076923085,4505.641025641026
1500.8132,0.09089283,0.18802619,0.28610292,0.5389621,0,0.0,0.0,0.0,0.0,0.0,0,0,0.0,0.0,0,0,113.0,0.0,460.0,4625.641025641026,3912.307692307693,4503.589743589744,4434.358974358975,4256.410256410257,4539.48717948718,4457.435897435898,4410.256410256411,4433.846153846154,4734.871794871796,4348.717948717949,4162.051282051282,4187.6923076923085,4505.641025641026
1501.4387,0.068164185,0.20960084,0.29083475,0.54029214,0,0.0,0.0,0.0,0.0,0.38013524,0,0,0.0,0.0,0,0,64.0,0.0,512.0,4610.256410256411,3926.666666666667,4520.000000000001,4442.051282051282,4265.641025641026,4539.48717948718,4457.435897435898,4447.179487179487,4458.461538461539,4741.025641025642,4357.435897435898,4218.461538461539,4161.025641025642,4448.205128205129
1501.689,0.068164185,0.20960084,0.29083475,0.54029214,0,0.0,0.0,0.0,0.0,0.05583238,0,0,0.0,0.0,0,0,96.0,0.0,512.0,4609.743589743591,3926.1538461538466,4538.974358974359,4443.076923076924,4281.538461538462,4545.128205128206,4475.8974358974365,4460.512820512821,4443.076923076924,4725.641025641026,4374.871794871796,4245.641025641026,4134.871794871796,4460.000000000001
1501.9392,0.03780317,0.1993,0.2950925,0.5414892,0,0.0,0.0,0.0,0.0,0.11560386,0,0,0.0,0.0,0,0,128.0,0.0,512.0,4638.461538461539,3942.564102564103,4554.358974358975,4456.923076923077,4295.384615384616,4555.8974358974365,4491.794871794872,4508.717948717949,4476.410256410257,4766.153846153847,4429.743589743591,4267.6923076923085,4171.794871794872,4508.205128205129
1502.1893,0.03780317,0.1993,0.2950925,0.5414892,0,0.0,0.0,0.0,0.0,0.0,0,0,0.0,0.0,0,0,31.0,0.0,0.0,4611.282051282052,3927.692307692308,4511.794871794872,4445.641025641026,4292.307692307693,4552.820512820514,4459.48717948718,4461.538461538462,4449.2307692307695,4744.102564102564,4411.794871794872,4232.307692307693,4166.666666666667,4479.48717948718
1502.3145,0.054068252,0.18436372,0.29892516,0.54256666,0,0.0,0.0,0.0,0.0,0.0,0,0,0.0,0.0,0,0,47.0,0.0,0.0,4621.538461538462,3913.333333333334,4514.871794871796,4436.923076923077,4278.974358974359,4551.794871794872,4477.435897435898,4488.205128205129,4476.410256410257,4780.000000000001,4465.128205128206,4273.846153846154,4231.282051282052,4588.205128205129
1502.6898,0.054068252,0.18436372,0.29892516,0.54256666,0,0.0,0.0,0.0,0.0,1.0,0,0,0.0,0.0,0,0,95.0,0.0,509.0,4606.666666666667,3947.1794871794878,4476.923076923077,4457.435897435898,4269.2307692307695,4538.461538461539,4438.974358974359,4423.589743589744,4438.461538461539,4735.8974358974365,4395.384615384616,4208.205128205129,4199.48717948718,4430.256410256411
1502.9401,0.086672634,0.1775167,0.30237514,0.5435368,0,0.0,0.0,0.0,0.0,0.8837719,0,0,0.0,0.0,0,0,127.0,0.0,509.0,4602.051282051282,3962.0512820512827,4474.871794871796,4447.179487179487,4249.74358974359,4523.589743589744,4429.743589743591,4416.410256410257,4433.846153846154,4738.461538461539,4374.871794871796,4215.384615384616,4207.179487179487,4417.435897435898
1503.1903,0.086672634,0.1775167,0.30237514,0.5435368,0,0.0,0.0,0.0,0.0,0.053342607,0,0,0.0,0.0,0,0,30.0,0.0,0.0,4594.358974358975,3956.9230769230776,4474.358974358975,4428.205128205129,4232.820512820514,4516.410256410257,4422.051282051282,4403.589743589744,4458.461538461539,4764.102564102564,4380.512820512821,4230.256410256411,4236.410256410257,4442.051282051282
1503.4404,0.068255104,0.17794818,0.3037284,0.54902744,0,0.0,0.0,0.0,0.0,0.12534346,0,0,0.0,0.0,0,0,62.0,0.0,0.0,4601.538461538462,3948.717948717949,4476.923076923077,4412.820512820514,4225.641025641026,4510.256410256411,4428.205128205129,4390.256410256411,4443.589743589744,4736.923076923077,4345.128205128206,4216.923076923077,4224.615384615385,4444.615384615385
1503.6907,0.068255104,0.17794818,0.3037284,0.54902744,0,0.0,0.0,0.0,0.0,0.0,0,0,0.0,0.0,0,0,94.0,0.0,535.0,4604.615384615385,3943.589743589744,4489.2307692307695,4403.076923076924,4232.820512820514,4526.666666666667,4445.641025641026,4399.48717948718,4462.564102564103,4765.641025641026,4350.769230769231,4227.179487179487,4249.2307692307695,4463.589743589744
1503.8158,0.068765864,0.1838306,0.30494687,0.55396885,0,0.0,0.0,0.0,0.0,0.0,0,0,0.0,0.0,0,0,110.0,0.0,535.0,4605.641025641026,3930.7692307692314,4495.8974358974365,4394.871794871796,4220.512820512821,4521.025641025642,4429.743589743591,4373.846153846154,4442.564102564103,4741.025641025642,4327.6923076923085,4220.000000000001,4230.769230769231,4458.974358974359
1503.8158,0.068765864,0.1838306,0.30494687,0.55396885,0,0.0,0.0,0.0,0.0,0.0,0,0,0.0,0.0,0,0,110.0,0.0,535.0,4605.641025641026,3930.7692307692314,4495.8974358974365,4394.871794871796,4220.512820512821,4521.025641025642,4429.743589743591,4373.846153846154,4442.564102564103,4741.025641025642,4327.6923076923085,4220.000000000001,4230.769230769231,4458.974358974359
1504.3162,0.06999478,0.1854073,0.30159703,0.5584159,0,0.0,0.0,0.0,0.0,0.0,0,0,0.0,0.0,0,0,45.0,0.0,0.0,4589.2307692307695,3894.358974358975,4474.358974358975,4366.666666666667,4214.871794871796,4520.000000000001,4444.102564102564,4382.051282051282,4425.128205128206,4729.743589743591,4312.820512820514,4216.410256410257,4198.974358974359,4458.461538461539
1504.3162,0.06999478,0.1854073,0.30159703,0.5584159,0,0.0,0.0,0.0,0.0,0.0,0,0,0.0,0.0,0,0,45.0,0.0,0.0,4589.2307692307695,3894.358974358975,4474.358974358975,4366.666666666667,4214.871794871796,4520.000000000001,4444.102564102564,4382.051282051282,4425.128205128206,4729.743589743591,4312.820512820514,4216.410256410257,4198.974358974359,4458.461538461539
1504.8167,0.078916095,0.1961889,0.29280034,0.5672952,0,0.0,0.0,0.0,0.0,0.0,0,0,0.0,0.0,0,0,109.0,0.0,460.0,4593.846153846154,3871.7948717948725,4491.282051282052,4353.846153846154,4228.717948717949,4523.076923076924,4448.717948717949,4395.8974358974365,4442.564102564103,4762.564102564103,4344.615384615385,4243.076923076924,4209.74358974359,4467.6923076923085
1505.192,0.078916095,0.1961889,0.29280034,0.5672952,0,0.0,0.0,0.0,0.0,0.38558966,0,0,0.0,0.0,0,0,28.0,0.0,0.0,4618.974358974359,3911.2820512820517,4501.538461538462,4388.717948717949,4216.923076923077,4514.871794871796,4440.512820512821,4373.846153846154,4400.000000000001,4731.794871794872,4323.076923076924,4237.948717948719,4180.512820512821,4444.102564102564
1505.4421,0.08948332,0.20620532,0.28160012,0.56550187,0,0.0,0.0,0.0,0.0,0.05674329,0,0,0.0,0.0,0,0,60.0,0.0,0.0,4616.410256410257,3925.6410256410263,4500.000000000001,4391.282051282052,4231.282051282052,4520.000000000001,4449.743589743591,4394.358974358975,4410.769230769231,4745.641025641026,4331.794871794872,4232.820512820514,4200.512820512821,4442.051282051282
1505.6924,0.08948332,0.20620532,0.28160012,0.56550187,0,0.0,0.0,0.0,0.0,0.07717594,0,0,0.0,0.0,0,0,92.0,0.0,512.0,4606.666666666667,3921.0256410256416,4493.846153846154,4382.051282051282,4232.820512820514,4522.564102564103,4458.974358974359,4417.948717948719,4415.384615384616,4742.564102564103,4338.974358974359,4240.000000000001,4186.153846153847,4428.205128205129
1505.9426,0.062798545,0.21557958,0.27750194,0.5577528,0,0.0,0.0,0.0,0.0,0.08308149,0,0,0.0,0.0,0,0,124.0,0.0,512.0,4603.076923076924,3921.0256410256416,4502.564102564103,4378.974358974359,4235.8974358974365,4523.589743589744,4447.179487179487,4414.871794871796,4415.384615384616,4748.717948717949,4351.282051282052,4249.2307692307695,4202.564102564103,4446.153846153847
1506.1929,0.062798545,0.21557958,0.27750194,0.5577528,0,0.0,0.0,0.0,0.0,0.09254293,0,0,0.0,0.0,0,0,27.0,0.0,0.0,4592.820512820514,3881.538461538462,4552.820512820514,4297.435897435898,4226.153846153847,4524.102564102564,4477.948717948719,4431.282051282052,4427.179487179487,4745.128205128206,4334.871794871796,4259.48717948718,4180.512820512821,4431.282051282052
1506.443,0.049992498,0.2280739,0.27310333,0.5473899,0,0.0,0.0,0.0,0.0,0.0,0,0,0.30508137,0.0,0,0,59.0,0.0,0.0,4627.179487179488,3910.2564102564106,4533.333333333334,4316.410256410257,4236.410256410257,4533.846153846154,4475.384615384616,4429.743589743591,4406.153846153847,4738.974358974359,4349.743589743591,4248.205128205129,4202.051282051282,4490.256410256411
1506.6932,0.049992498,0.2280739,0.27310333,0.5473899,0,0.072086334,0.0,0.0,0.0,0.0,0,0,0.0,0.0,0,0,91.0,0.0,509.0,4632.820512820514,3934.358974358975,4481.025641025642,4339.48717948718,4245.641025641026,4535.384615384616,4464.102564102564,4444.102564102564,4432.820512820514,4766.153846153847,4364.615384615385,4266.153846153847,4224.102564102564,4532.307692307693
1506.9435,0.026523631,0.25318965,0.2691458,0.5380635,0,0.06860959,0.0,0.0,0.0,0.0,0,0,0.0,0.0,0,0,123.0,0.0,509.0,4632.820512820514,3957.9487179487182,4500.000000000001,4371.794871794872,4233.333333333334,4524.615384615385,4461.025641025642,4441.025641025642,4418.461538461539,4747.179487179488,4370.769230769231,4248.205128205129,4187.6923076923085,4460.512820512821
1507.1937,0.026523631,0.25318965,0.2691458,0.5380635,0,0.0,0.0,0.0,0.0,0.0,0,0,0.5130939,0.0,0,0,26.0,0.0,0.0,4646.153846153847,3938.9743589743593,4518.974358974359,4363.076923076924,4246.666666666667,4540.000000000001,4474.358974358975,4461.025641025642,4446.153846153847,4784.615384615386,4428.717948717949,4280.000000000001,4251.794871794872,4541.025641025642
1507.4438,0.016150566,0.2754539,0.2733674,0.5330657,0,0.0,0.0,0.0,0.0,0.0,0,0,0.52915955,0.0,0,0,58.0,0.0,0.0,4637.435897435898,3937.9487179487182,4504.615384615385,4383.076923076924,4245.641025641026,4536.410256410257,4461.025641025642,4444.102564102564,4429.2307692307695,4752.307692307693,4395.8974358974365,4261.538461538462,4216.923076923077,4536.410256410257
1507.6941,0.016150566,0.2754539,0.2733674,0.5330657,0,0.0,0.0,0.0,0.0,0.0,0,0,0.35369632,0.0,0,0,90.0,0.0,535.0,4632.307692307693,3952.820512820513,4485.128205128206,4415.384615384616,4253.846153846154,4542.051282051282,4457.948717948719,4442.564102564103,4439.48717948718,4765.641025641026,4397.435897435898,4252.307692307693,4217.948717948719,4570.256410256411
1507.9443,0.011717664,0.2868253,0.27998292,0.52856797,0,0.0,0.0,0.0,0.0,0.0,0,0,0.24492905,0.0,0,0,122.0,0.0,535.0,4629.2307692307695,3942.0512820512827,4491.794871794872,4414.871794871796,4247.179487179487,4535.8974358974365,4461.025641025642,4444.102564102564,4443.589743589744,4766.666666666667,4397.948717948719,4263.589743589744,4214.358974358975,4587.6923076923085
1508.1946,0.011717664,0.2868253,0.27998292,0.52856797,0,0.0,0.0,0.0,0.0,0.26556256,0,0,0.0,0.0,0,0,25.0,0.0,0.0,4624.102564102564,3933.333333333334,4505.128205128206,4415.384615384616,4248.205128205129,4535.8974358974365,4460.000000000001,4438.461538461539,4433.333333333334,4768.205128205129,4402.051282051282,4281.538461538462,4205.128205128206,4558.974358974359
1508.4448,0.013243085,0.29321128,0.28750303,0.53828347,0,0.0,0.0,0.0,0.0,0.41359568,0,0,0.0,0.0,0,0,57.0,0.0,0.0,4623.076923076924,3943.076923076924,4493.333333333334,4433.333333333334,4260.000000000001,4541.025641025642,4455.384615384616,4433.846153846154,4427.6923076923085,4783.076923076924,4403.589743589744,4264.615384615385,4198.974358974359,4536.410256410257
1508.695,0.013243085,0.29321128,0.28750303,0.53828347,0,0.0,0.0,0.0,0.0,0.0,0,0,0.0,0.0,0,0,89.0,0.0,460.0,4635.8974358974365,3979.48717948718,4522.564102564103,4472.307692307693,4278.974358974359,4553.333333333334,4461.025641025642,4443.589743589744,4397.948717948719,4750.256410256411,4404.615384615385,4256.410256410257,4168.717948717949,4556.410256410257
1508.8201,0.0,0.28963548,0.29427192,0.54652596,0,0.0,0.0,0.0,0.0,0.0,0,0,0.0,0.0,0,0,105.0,0.0,460.0,4626.666666666667,3988.717948717949,4525.128205128206,4474.871794871796,4280.000000000001,4549.743589743591,4460.512820512821,4427.6923076923085,4366.153846153847,4737.948717948719,4398.461538461539,4233.846153846154,4138.974358974359,4552.820512820514
1508.8201,0.0,0.28963548,0.29427192,0.54652596,0,0.0,0.0,0.0,0.0,0.0,0,0,0.0,0.0,0,0,105.0,0.0,460.0,4626.666666666667,3988.717948717949,4525.128205128206,4474.871794871796,4280.000000000001,4549.743589743591,4460.512820512821,4427.6923076923085,4366.153846153847,4737.948717948719,4398.461538461539,4233.846153846154,4138.974358974359,4552.820512820514
1509.4457,0.0,0.27703148,0.30036458,0.56165534,0,0.0,0.0,0.0,0.0,0.15184088,0,0,0.0,0.0,0,0,56.0,0.0,0.0,4630.256410256411,3974.358974358975,4491.282051282052,4508.717948717949,4281.025641025642,4538.461538461539,4416.410256410257,4413.333333333334,4342.564102564103,4716.923076923077,4355.8974358974365,4164.102564102564,4116.410256410257,4570.256410256411
1509.6958,0.0,0.27703148,0.30036458,0.56165534,0,0.0,0.0,0.0,0.0,0.11503099,0,0,0.0,0.0,0,0,88.0,0.0,513.0,4618.974358974359,3952.820512820513,4488.717948717949,4501.538461538462,4267.6923076923085,4525.128205128206,4425.128205128206,4413.333333333334,4340.000000000001,4701.538461538462,4337.435897435898,4170.256410256411,4152.820512820514,4536.410256410257
1509.946,0.027410839,0.26326025,0.30574682,0.57527155,0,0.0,0.0,0.0,0.0,0.14070965,0,0,0.0,0.0,0,0,120.0,0.0,513.0,4636.410256410257,3935.3846153846157,4498.974358974359,4482.051282051282,4256.410256410257,4521.538461538462,4425.128205128206,4396.923076923077,4358.461538461539,4718.974358974359,4350.769230769231,4147.6923076923085,4189.74358974359,4514.871794871796
1510.1963,0.027410839,0.26326025,0.30574682,0.57527155,0,0.0,0.0,0.0,0.0,0.13995326,0,0,0.0,0.0,0,0,23.0,0.0,0.0,4637.435897435898,3920.0000000000005,4503.076923076924,4450.256410256411,4245.641025641026,4520.000000000001,4442.051282051282,4397.435897435898,4375.384615384616,4719.48717948718,4351.282051282052,4187.179487179487,4213.333333333334,4490.769230769231
1510.4465,0.0,0.26601166,0.30566722,0.58555245,1,0.0,0.0,0.0,0.0,0.49582386,0,0,0.0,0.0,0,0,55.0,0.0,0.0,4647.179487179488,3896.9230769230776,4517.948717948719,4423.076923076924,4230.769230769231,4509.2307692307695,4451.282051282052,4402.564102564103,4401.538461538462,4730.769230769231,4350.256410256411,4251.794871794872,4236.923076923077,4516.923076923077
1510.6967,0.0,0.26601166,0.30566722,0.58555245,0,0.0,0.0,0.0,0.0,0.84723735,0,0,0.0,0.0,0,0,87.0,0.0,505.0,4621.538461538462,3894.8717948717954,4487.6923076923085,4397.948717948719,4219.48717948718,4506.666666666667,4452.307692307693,4394.358974358975,4400.512820512821,4720.000000000001,4323.076923076924,4225.128205128206,4225.128205128206,4428.205128205129
1510.9469,0.0,0.27233946,0.30191353,0.59480435,0,0.0,0.0,0.0,0.0,0.7587632,0,0,0.0,0.0,0,0,119.0,0.0,505.0,4611.282051282052,3927.1794871794878,4508.205128205129,4428.205128205129,4214.871794871796,4510.256410256411,4458.461538461539,4412.307692307693,4415.384615384616,4737.435897435898,4337.435897435898,4268.717948717949,4250.769230769231,4491.794871794872
1511.1971,0.0,0.27233946,0.30191353,0.59480435,0,0.0,0.0,0.0,0.0,0.5399218,0,0,0.0,0.0,0,0,22.0,0.0,0.0,4591.282051282052,3909.2307692307695,4490.769230769231,4434.871794871796,4200.000000000001,4503.589743589744,4442.051282051282,4393.333333333334,4389.2307692307695,4721.538461538462,4316.410256410257,4266.666666666667,4219.48717948718,4444.615384615385
1511.4474,0.025176939,0.278392,0.2985358,0.60312986,0,0.0,0.0,0.0,0.0,0.88083375,0,0,0.0,0.0,0,0,54.0,0.0,0.0,4588.717948717949,3910.2564102564106,4500.512820512821,4433.333333333334,4237.948717948719,4536.410256410257,4457.435897435898,4390.256410256411,4383.076923076924,4735.8974358974365,4342.051282051282,4244.615384615385,4203.589743589744,4372.307692307693
1511.6975,0.025176939,0.278392,0.2985358,0.60312986,0,0.0,0.0,0.0,0.0,0.45029283,0,0,0.0,0.0,0,0,86.0,0.0,537.0,4602.564102564103,3939.48717948718,4529.743589743591,4442.564102564103,4266.153846153847,4550.769230769231,4486.666666666667,4451.282051282052,4366.666666666667,4723.076923076924,4345.128205128206,4265.641025641026,4131.282051282052,4334.871794871796
1511.9478,0.012782869,0.30213672,0.29549652,0.6157867,0,0.0,0.0,0.0,0.0,0.31895345,0,0,0.0,0.0,0,0,118.0,0.0,537.0,4607.6923076923085,3963.589743589744,4532.307692307693,4461.538461538462,4290.256410256411,4556.923076923077,4489.743589743591,4443.076923076924,4357.948717948719,4722.564102564103,4388.205128205129,4271.794871794872,4157.948717948719,4428.717948717949
1512.0729,0.012782869,0.30213672,0.29549652,0.6157867,0,0.0,0.0,0.0,0.0,1.0,0,0,0.0,0.0,0,0,5.0,0.0,557.0,4590.256410256411,3961.538461538462,4507.6923076923085,4465.641025641026,4278.461538461539,4553.333333333334,4500.512820512821,4472.820512820514,4378.974358974359,4749.743589743591,4441.025641025642,4283.589743589744,4184.615384615385,4521.025641025642
1512.4482,0.076490544,0.29511955,0.29534122,0.62749803,0,0.0,0.0,0.0,0.0,0.6445403,0,0,0.0,0.0,0,0,53.0,0.0,0.0,4602.051282051282,3995.8974358974365,4488.205128205129,4491.282051282052,4263.076923076924,4535.384615384616,4473.846153846154,4430.769230769231,4354.871794871796,4703.589743589744,4413.846153846154,4236.923076923077,4175.384615384616,4535.8974358974365
1512.6984,0.076490544,0.29511955,0.29534122,0.62749803,0,0.0,0.0,0.0,0.0,0.23266955,0,0,0.0,0.0,0,0,85.0,0.0,462.0,4603.589743589744,3991.7948717948725,4487.6923076923085,4493.846153846154,4248.717948717949,4525.128205128206,4461.538461538462,4426.153846153847,4355.384615384616,4694.358974358975,4397.948717948719,4243.076923076924,4198.461538461539,4572.820512820514
1512.9486,0.058080494,0.28262463,0.2990957,0.63803476,0,0.0,0.0,0.0,0.0,0.16485994,0,0,0.0,0.0,0,0,117.0,0.0,462.0,4597.948717948719,3975.3846153846157,4481.538461538462,4481.025641025642,4242.051282051282,4519.48717948718,4430.769230769231,4414.871794871796,4366.666666666667,4703.589743589744,4391.282051282052,4239.48717948718,4214.871794871796,4588.717948717949
1513.1989,0.058080494,0.28262463,0.2990957,0.63803476,0,0.0,0.0,0.0,0.0,0.08845631,0,0,0.0,0.0,0,0,20.0,0.0,0.0,4605.128205128206,3957.435897435898,4504.102564102564,4460.512820512821,4233.846153846154,4522.051282051282,4440.512820512821,4409.2307692307695,4381.025641025642,4709.2307692307695,4381.538461538462,4246.666666666667,4229.74358974359,4571.282051282052
1513.324,0.0577763,0.26787117,0.3065936,0.6475138,0,0.0,0.0,0.0,0.0,0.0,0,0,0.0,0.0,0,0,36.0,0.0,0.0,4594.358974358975,3906.1538461538466,4506.153846153847,4423.589743589744,4229.2307692307695,4522.564102564103,4443.589743589744,4413.846153846154,4401.025641025642,4720.000000000001,4376.923076923077,4236.923076923077,4222.564102564103,4541.025641025642
1513.324,0.0577763,0.26787117,0.3065936,0.6475138,0,0.0,0.0,0.0,0.0,0.0,0,0,0.0,0.0,0,0,36.0,0.0,0.0,4594.358974358975,3906.1538461538466,4506.153846153847,4423.589743589744,4229.2307692307695,4522.564102564103,4443.589743589744,4413.846153846154,4401.025641025642,4720.000000000001,4376.923076923077,4236.923076923077,4222.564102564103,4541.025641025642
1513.9495,0.07163902,0.28543714,0.31334218,0.6460666,0,0.0,0.0,0.0,0.0,0.46983197,0,0,0.0,0.0,0,0,116.0,0.0,514.0,4583.076923076924,3924.1025641025644,4480.512820512821,4380.512820512821,4230.769230769231,4524.615384615385,4430.769230769231,4370.769230769231,4386.153846153847,4701.538461538462,4310.256410256411,4184.615384615385,4138.461538461539,4458.461538461539
1514.1997,0.07163902,0.28543714,0.31334218,0.6460666,0,0.0,0.0,0.0,0.0,0.0,0,0,0.6610529,0.0,0,0,19.0,0.0,0.0,4604.102564102564,3960.5128205128212,4480.000000000001,4398.461538461539,4217.435897435898,4517.948717948719,4426.666666666667,4374.871794871796,4387.179487179487,4707.179487179488,4324.615384615385,4183.076923076924,4148.717948717949,4444.615384615385
1514.45,0.05447589,0.31200835,0.31941628,0.6447624,0,0.0,0.0,0.0,0.0,0.0,0,0,0.0,0.0,0,0,51.0,0.0,0.0,4608.717948717949,3974.358974358975,4474.871794871796,4402.051282051282,4215.8974358974365,4516.410256410257,4422.564102564103,4377.948717948719,4394.871794871796,4721.025641025642,4338.461538461539,4170.769230769231,4169.74358974359,4465.128205128206
1514.45,0.05447589,0.31200835,0.31941628,0.6447624,0,0.0,0.0,0.0,0.0,0.0,0,0,0.0,0.0,0,0,51.0,0.0,0.0,4608.717948717949,3974.358974358975,4474.871794871796,4402.051282051282,4215.8974358974365,4516.410256410257,4422.564102564103,4377.948717948719,4394.871794871796,4721.025641025642,4338.461538461539,4170.769230769231,4169.74358974359,4465.128205128206
1514.8252,0.030365514,0.33085263,0.32269067,0.64166296,0,0.0,0.0,0.0,0.0,0.0,0,0,0.0,0.0,0,0,99.0,0.0,511.0,4627.179487179488,3960.5128205128212,4461.025641025642,4386.666666666667,4221.538461538462,4518.974358974359,4411.282051282052,4371.794871794872,4377.435897435898,4693.333333333334,4327.179487179487,4150.769230769231,4145.641025641026,4486.153846153847
1515.2006,0.030365514,0.33085263,0.32269067,0.64166296,0,0.0,0.0,0.0,0.0,0.73322964,0,0,0.0,0.0,0,0,18.0,0.0,0.0,4635.8974358974365,3993.8461538461543,4476.923076923077,4437.435897435898,4249.74358974359,4538.974358974359,4427.179487179487,4394.358974358975,4415.384615384616,4733.846153846154,4348.717948717949,4187.6923076923085,4186.153846153847,4477.948717948719
1515.4508,0.028090594,0.37059334,0.32351068,0.6272267,0,0.0,0.0,0.0,0.0,0.59571147,0,0,0.0,0.0,0,0,50.0,0.0,0.0,4630.256410256411,4004.1025641025644,4467.179487179487,4447.6923076923085,4241.025641025642,4526.666666666667,4427.6923076923085,4390.256410256411,4418.461538461539,4731.794871794872,4353.846153846154,4216.410256410257,4192.820512820514,4483.589743589744
1515.5759,0.028090594,0.37059334,0.32351068,0.6272267,0,0.0,0.0,0.0,0.0,0.0,0,0,0.0,0.0,0,0,66.0,0.0,234.0,4654.358974358975,4012.820512820513,4474.358974358975,4461.538461538462,4224.102564102564,4518.461538461539,4425.641025641026,4372.820512820514,4396.923076923077,4707.179487179488,4332.307692307693,4226.666666666667,4174.358974358975,4468.205128205129
1515.9512,0.028291088,0.43607464,0.32424888,0.6258818,0,0.0,0.0,0.0,0.0,0.2708763,0,1,0.0,0.0,0,0,114.0,0.0,537.0,4686.666666666667,3930.2564102564106,4486.666666666667,4413.846153846154,4234.358974358975,4521.025641025642,4439.48717948718,4409.743589743591,4432.307692307693,4753.333333333334,4376.923076923077,4287.179487179487,4256.923076923077,4488.717948717949
1516.2014,0.028291088,0.43607464,0.32424888,0.6258818,0,0.0,0.0,0.0,0.0,0.4094042,0,0,0.0,0.0,0,0,17.0,0.0,0.0,4651.794871794872,3926.666666666667,4494.871794871796,4425.128205128206,4231.794871794872,4519.48717948718,4431.282051282052,4397.435897435898,4414.358974358975,4739.48717948718,4377.435897435898,4295.8974358974365,4199.48717948718,4467.179487179487
1516.4517,0.04245879,0.5320856,0.320833,0.63299525,0,0.0,0.0,0.0,0.0,0.4590823,0,0,0.0,0.0,0,0,49.0,0.0,0.0,4650.769230769231,3962.564102564103,4486.666666666667,4435.8974358974365,4244.102564102564,4526.666666666667,4436.923076923077,4343.076923076924,4322.564102564103,4644.102564102564,4297.435897435898,4216.410256410257,4041.0256410256416,4310.769230769231
1516.7019,0.04245879,0.5320856,0.320833,0.63299525,0,0.0,0.0,0.0,0.0,0.21843188,0,0,0.0,0.0,0,0,81.0,0.0,462.0,4631.794871794872,3960.5128205128212,4491.794871794872,4456.923076923077,4249.2307692307695,4537.948717948719,4444.615384615385,4292.820512820514,4207.6923076923085,4585.641025641026,4303.589743589744,4133.333333333334,3969.2307692307695,4291.282051282052
1516.952,0.07437677,0.62009716,0.3218401,0.6455433,0,0.0,0.0,0.0,0.0,0.08771627,0,0,0.0,0.0,0,0,113.0,0.0,462.0,4630.769230769231,3923.589743589744,4501.025641025642,4441.025641025642,4257.948717948719,4535.8974358974365,4440.512820512821,4271.794871794872,4155.8974358974365,4570.769230769231,4324.615384615385,4091.2820512820517,3922.0512820512827,4312.307692307693
1517.2023,0.07437677,0.62009716,0.3218401,0.6455433,0,0.0,0.0,0.0,0.0,0.0,0,0,0.17020924,0.0,0,0,16.0,0.0,0.0,4640.000000000001,3925.6410256410263,4510.256410256411,4433.333333333334,4258.974358974359,4530.769230769231,4443.589743589744,4318.974358974359,4201.538461538462,4605.128205128206,4365.641025641026,4122.564102564103,3940.5128205128212,4367.6923076923085
1517.4525,0.17798725,0.66105413,0.32752338,0.65382177,0,0.0,0.0,0.0,0.0,0.0,0,0,0.61059743,0.0,0,0,48.0,0.0,0.0,4629.743589743591,3936.9230769230776,4507.179487179488,4422.564102564103,4261.025641025642,4538.974358974359,4457.435897435898,4345.641025641026,4249.74358974359,4653.846153846154,4373.846153846154,4180.512820512821,4029.7435897435903,4433.846153846154
1517.7028,0.17798725,0.66105413,0.32752338,0.65382177,0,0.0,0.0,0.0,0.0,0.0,0,0,0.41188437,0.0,0,0,80.0,0.0,514.0,4656.410256410257,3955.3846153846157,4504.102564102564,4426.666666666667,4250.769230769231,4528.205128205129,4429.743589743591,4361.538461538462,4297.435897435898,4692.307692307693,4385.128205128206,4244.102564102564,4103.076923076924,4471.282051282052
1517.8279,0.18606567,0.6616401,0.33373547,0.66409016,0,0.0,0.0,0.0,0.0,0.0,0,0,0.0,0.0,0,0,96.0,0.0,514.0,4665.641025641026,3955.3846153846157,4506.666666666667,4425.128205128206,4248.717948717949,4525.641025641026,4445.128205128206,4404.102564102564,4355.384615384616,4738.461538461539,4429.743589743591,4280.512820512821,4158.974358974359,4523.589743589744
1517.8279,0.18606567,0.6616401,0.33373547,0.66409016,0,0.0,0.0,0.0,0.0,0.0,0,0,0.0,0.0,0,0,96.0,0.0,514.0,4665.641025641026,3955.3846153846157,4506.666666666667,4425.128205128206,4248.717948717949,4525.641025641026,4445.128205128206,4404.102564102564,4355.384615384616,4738.461538461539,4429.743589743591,4280.512820512821,4158.974358974359,4523.589743589744
1518.3282,0.20688924,0.6544357,0.33932635,0.67332536,0,0.0,0.0,0.0,0.0,0.0,0,0,0.0,0.0,0,0,31.0,0.0,0.0,4656.923076923077,3932.820512820513,4504.615384615385,4426.153846153847,4248.717948717949,4535.384615384616,4475.8974358974365,4473.846153846154,4472.820512820514,4798.974358974359,4412.307692307693,4384.615384615385,4285.128205128206,4600.512820512821
1518.7036,0.20688924,0.6544357,0.33932635,0.67332536,0,0.0,0.0,0.0,0.0,0.17355183,0,0,0.0,0.0,0,0,79.0,0.0,510.0,4640.512820512821,3953.8461538461543,4485.128205128206,4426.666666666667,4228.205128205129,4518.974358974359,4442.564102564103,4440.512820512821,4475.384615384616,4795.8974358974365,4368.717948717949,4355.384615384616,4287.179487179487,4533.846153846154
1518.9537,0.17861861,0.6355984,0.34683275,0.6808481,0,0.0,0.0,0.0,0.0,0.20254089,0,0,0.0,0.0,0,0,111.0,0.0,510.0,4633.333333333334,3931.2820512820517,4503.076923076924,4421.025641025642,4223.589743589744,4522.051282051282,4456.923076923077,4450.769230769231,4494.358974358975,4795.8974358974365,4376.410256410257,4362.564102564103,4271.794871794872,4508.205128205129
1519.204,0.17861861,0.6355984,0.34683275,0.6808481,0,0.0,0.0,0.0,0.0,0.0,0,0,0.0,0.0,0,0,14.0,0.0,537.0,4641.025641025642,3945.1282051282055,4506.666666666667,4432.307692307693,4247.6923076923085,4538.974358974359,4476.410256410257,4506.153846153847,4523.589743589744,4816.410256410257,4396.410256410257,4357.435897435898,4281.025641025642,4480.512820512821
1519.4542,0.16369121,0.61851037,0.35898817,0.6817382,0,0.0,0.0,0.0,0.0,0.0,0,0,0.25405678,0.0,0,0,46.0,0.0,0.0,4651.794871794872,3966.666666666667,4504.615384615385,4440.512820512821,4246.666666666667,4524.615384615385,4457.435897435898,4495.384615384616,4506.153846153847,4798.461538461539,4388.717948717949,4349.743589743591,4260.000000000001,4488.717948717949
1519.7045,0.16369121,0.61851037,0.35898817,0.6817382,0,0.0,0.0,0.0,0.0,0.0,0,0,0.36137313,0.0,0,0,78.0,0.0,537.0,4640.512820512821,3985.1282051282055,4508.205128205129,4460.512820512821,4244.615384615385,4525.641025641026,4471.794871794872,4496.923076923077,4495.384615384616,4789.2307692307695,4375.384615384616,4310.769230769231,4254.871794871796,4475.384615384616
1519.9547,0.16886911,0.59153754,0.36452666,0.68247783,0,0.0,0.0,0.0,0.0,0.15800169,0,0,0.0,0.0,0,0,110.0,0.0,537.0,4641.025641025642,3946.1538461538466,4512.307692307693,4451.794871794872,4246.666666666667,4527.6923076923085,4477.435897435898,4480.512820512821,4478.974358974359,4782.051282051282,4381.025641025642,4311.794871794872,4252.307692307693,4475.384615384616
1520.2048,0.16886911,0.59153754,0.36452666,0.68247783,0,0.0,0.0,0.0,0.0,0.0,0,0,0.0,0.0,0,0,13.0,0.0,462.0,4635.8974358974365,3940.5128205128212,4504.615384615385,4444.615384615385,4254.871794871796,4536.923076923077,4458.461538461539,4482.051282051282,4490.769230769231,4804.102564102564,4401.025641025642,4296.923076923077,4266.153846153847,4495.8974358974365
1520.4551,0.20428328,0.56592435,0.36586747,0.677359,0,0.0,0.0,0.0,0.0,0.0,0,0,0.0,0.0,0,0,45.0,0.0,0.0,4666.153846153847,3978.461538461539,4518.461538461539,4463.589743589744,4245.641025641026,4520.000000000001,4460.000000000001,4477.948717948719,4489.2307692307695,4801.538461538462,4400.000000000001,4297.435897435898,4266.153846153847,4518.974358974359
1520.4551,0.20428328,0.56592435,0.36586747,0.677359,0,0.0,0.0,0.0,0.0,0.0,0,0,0.0,0.0,0,0,45.0,0.0,0.0,4666.153846153847,3978.461538461539,4518.461538461539,4463.589743589744,4245.641025641026,4520.000000000001,4460.000000000001,4477.948717948719,4489.2307692307695,4801.538461538462,4400.000000000001,4297.435897435898,4266.153846153847,4518.974358974359
1520.8304,0.20503786,0.55395406,0.37003788,0.6651732,0,0.0,0.0,0.0,0.0,0.0,0,0,0.0,0.0,0,0,93.0,0.0,462.0,4657.435897435898,3940.5128205128212,4541.538461538462,4442.564102564103,4249.2307692307695,4528.717948717949,4476.410256410257,4477.948717948719,4470.256410256411,4794.871794871796,4411.794871794872,4296.410256410257,4254.358974358975,4469.2307692307695
1520.8304,0.20503786,0.55395406,0.37003788,0.6651732,0,0.0,0.0,0.0,0.0,0.0,0,0,0.0,0.0,0,0,93.0,0.0,462.0,4657.435897435898,3940.5128205128212,4541.538461538462,4442.564102564103,4249.2307692307695,4528.717948717949,4476.410256410257,4477.948717948719,4470.256410256411,4794.871794871796,4411.794871794872,4296.410256410257,4254.358974358975,4469.2307692307695
1521.3308,0.1597249,0.5405489,0.37933478,0.6461629,0,0.0,0.0,0.0,0.0,0.0,0,0,0.0,0.0,0,0,28.0,0.0,0.0,4630.256410256411,3952.820512820513,4538.461538461539,4488.205128205129,4321.025641025642,4553.333333333334,4463.589743589744,4512.307692307693,4328.205128205129,4748.717948717949,4510.769230769231,4282.051282051282,4109.2307692307695,4463.589743589744
1521.3308,0.1597249,0.5405489,0.37933478,0.6461629,0,0.0,0.0,0.0,0.0,0.0,0,0,0.0,0.0,0,0,28.0,0.0,0.0,4630.256410256411,3952.820512820513,4538.461538461539,4488.205128205129,4321.025641025642,4553.333333333334,4463.589743589744,4512.307692307693,4328.205128205129,4748.717948717949,4510.769230769231,4282.051282051282,4109.2307692307695,4463.589743589744
1521.9564,0.12270635,0.5221073,0.38787222,0.62905544,0,0.0,0.0,0.0,0.0,0.15692021,0,0,0.0,0.0,0,0,108.0,0.0,507.0,4604.102564102564,3940.0000000000005,4413.846153846154,4535.8974358974365,4297.948717948719,4555.384615384616,4409.2307692307695,4491.282051282052,4341.538461538462,4826.666666666667,4633.846153846154,4168.717948717949,4127.6923076923085,4551.282051282052
1522.0815,0.12270635,0.5221073,0.38787222,0.62905544,0,0.0,0.0,0.0,0.0,0.0,0,0,0.0,0.0,0,0,124.0,0.0,507.0,4595.384615384616,3957.9487179487182,4392.820512820514,4535.8974358974365,4280.000000000001,4551.794871794872,4409.2307692307695,4477.948717948719,4357.435897435898,4828.717948717949,4618.974358974359,4166.153846153847,4154.871794871796,4554.358974358975
1522.3317,0.110174656,0.5007357,0.39117885,0.6136594,0,0.0,0.0,0.0,0.0,0.0,0,0,0.0,0.0,0,0,27.0,0.0,0.0,4584.102564102564,3985.1282051282055,4409.2307692307695,4537.435897435898,4234.358974358975,4524.102564102564,4413.333333333334,4460.000000000001,4371.282051282052,4782.051282051282,4551.282051282052,4188.205128205129,4171.794871794872,4561.025641025642
1522.3317,0.110174656,0.5007357,0.39117885,0.6136594,0,0.0,0.0,0.0,0.0,0.0,0,0,0.0,0.0,0,0,27.0,0.0,0.0,4584.102564102564,3985.1282051282055,4409.2307692307695,4537.435897435898,4234.358974358975,4524.102564102564,4413.333333333334,4460.000000000001,4371.282051282052,4782.051282051282,4551.282051282052,4188.205128205129,4171.794871794872,4561.025641025642
1522.9573,0.113664106,0.47953856,0.39415365,0.59980303,0,0.0,0.0,0.0,0.0,0.036443386,0,0,0.0,0.0,0,0,107.0,0.0,510.0,4597.948717948719,3945.1282051282055,4485.128205128206,4470.256410256411,4191.282051282052,4508.717948717949,4445.641025641026,4429.743589743591,4410.256410256411,4746.153846153847,4427.179487179487,4240.512820512821,4202.564102564103,4539.48717948718
1523.2074,0.113664106,0.47953856,0.39415365,0.59980303,0,0.0,0.0,0.0,0.0,0.016576257,0,0,0.0,0.0,0,0,10.0,0.0,537.0,4608.717948717949,3968.717948717949,4522.564102564103,4469.743589743591,4201.025641025642,4523.076923076924,4477.435897435898,4410.769230769231,4394.871794871796,4706.153846153847,4387.179487179487,4247.179487179487,4196.923076923077,4534.871794871796
1523.4576,0.08720302,0.46666822,0.39682978,0.5918923,0,0.0,0.0,0.0,0.0,0.056188654,0,0,0.0,0.0,0,0,42.0,0.0,0.0,4617.948717948719,3994.358974358975,4540.000000000001,4493.333333333334,4198.974358974359,4522.564102564103,4481.025641025642,4391.282051282052,4404.615384615385,4693.333333333334,4353.333333333334,4230.256410256411,4196.923076923077,4502.051282051282
1523.7079,0.08720302,0.46666822,0.39682978,0.5918923,0,0.0,0.0,0.0,0.0,0.041963372,0,0,0.0,0.0,0,0,74.0,0.0,537.0,4621.538461538462,3984.1025641025644,4525.641025641026,4492.307692307693,4201.538461538462,4507.6923076923085,4461.538461538462,4361.025641025642,4395.8974358974365,4682.564102564103,4325.128205128206,4231.794871794872,4205.128205128206,4521.025641025642
1523.9581,0.05617782,0.44751388,0.39374343,0.58549666,0,0.0,0.0,0.0,0.0,0.26376763,0,0,0.0,0.0,0,0,106.0,0.0,537.0,4615.8974358974365,3928.717948717949,4553.846153846154,4440.512820512821,4198.974358974359,4505.641025641026,4474.871794871796,4357.435897435898,4410.256410256411,4685.128205128206,4309.2307692307695,4266.666666666667,4223.589743589744,4540.000000000001
1524.2083,0.05617782,0.44751388,0.39374343,0.58549666,0,0.0,0.0,0.0,0.0,0.080931164,0,0,0.0,0.0,0,0,9.0,0.0,472.0,4622.051282051282,3929.2307692307695,4552.820512820514,4428.205128205129,4201.025641025642,4519.48717948718,4484.102564102564,4379.48717948718,4431.794871794872,4707.179487179488,4312.307692307693,4298.974358974359,4244.615384615385,4533.846153846154
1524.4585,0.09323031,0.43121248,0.38806757,0.57974017,0,0.0,0.0,0.0,0.0,0.34241283,0,0,0.0,0.0,0,0,41.0,0.0,0.0,4653.333333333334,3955.8974358974365,4557.948717948719,4431.794871794872,4211.794871794872,4521.538461538462,4461.538461538462,4358.461538461539,4425.641025641026,4693.333333333334,4261.025641025642,4277.948717948719,4214.358974358975,4462.051282051282
1524.7244,0.09323031,0.43121248,0.38806757,0.57974017,0,0.0,0.0,0.0,0.0,0.32479167,0,0,0.0,0.0,0,0,77.0,0.0,462.0,4625.641025641026,3929.2307692307695,4560.000000000001,4426.153846153847,4220.000000000001,4534.358974358975,4465.641025641026,4372.820512820514,4448.205128205129,4718.974358974359,4279.48717948718,4301.025641025642,4250.769230769231,4489.2307692307695
1524.9434,0.096624695,0.42555928,0.381187,0.5745589,0,0.0,0.0,0.0,0.0,0.35278395,0,0,0.0,0.0,0,0,105.0,0.0,462.0,4630.256410256411,3926.666666666667,4544.102564102564,4427.179487179487,4250.769230769231,4556.410256410257,4490.256410256411,4412.307692307693,4485.641025641026,4766.153846153847,4317.948717948719,4338.461538461539,4286.153846153847,4540.000000000001
1525.1935,0.096624695,0.42555928,0.381187,0.5745589,0,0.0,0.0,0.0,0.0,0.076492816,0,0,0.0,0.0,0,0,8.0,0.0,466.0,4629.743589743591,3932.307692307693,4525.641025641026,4433.333333333334,4259.48717948718,4567.6923076923085,4482.051282051282,4410.769230769231,4461.538461538462,4753.333333333334,4309.2307692307695,4321.538461538462,4265.128205128206,4508.205128205129
1525.3186,0.13334976,0.42019117,0.37499365,0.5644516,0,0.0,0.0,0.0,0.0,0.0,0,0,0.0,0.0,0,0,24.0,0.0,0.0,4625.128205128206,3924.1025641025644,4507.179487179488,4423.076923076924,4263.076923076924,4557.948717948719,4474.871794871796,4412.820512820514,4472.307692307693,4752.307692307693,4308.205128205129,4317.435897435898,4258.974358974359,4504.615384615385
1525.3186,0.13334976,0.42019117,0.37499365,0.5644516,0,0.0,0.0,0.0,0.0,0.0,0,0,0.0,0.0,0,0,24.0,0.0,0.0,4625.128205128206,3924.1025641025644,4507.179487179488,4423.076923076924,4263.076923076924,4557.948717948719,4474.871794871796,4412.820512820514,4472.307692307693,4752.307692307693,4308.205128205129,4317.435897435898,4258.974358974359,4504.615384615385
1525.8191,0.13620329,0.40804082,0.371191,0.5553547,0,0.0,0.0,0.0,0.0,0.0,0,0,0.0,0.0,0,0,88.0,0.0,510.0,4598.461538461539,3927.692307692308,4506.153846153847,4427.6923076923085,4246.153846153847,4543.076923076924,4465.128205128206,4412.307692307693,4459.48717948718,4754.358974358975,4325.128205128206,4307.6923076923085,4263.589743589744,4480.512820512821
1525.8191,0.13620329,0.40804082,0.371191,0.5553547,0,0.0,0.0,0.0,0.0,0.0,0,0,0.0,0.0,0,0,88.0,0.0,510.0,4598.461538461539,3927.692307692308,4506.153846153847,4427.6923076923085,4246.153846153847,4543.076923076924,4465.128205128206,4412.307692307693,4459.48717948718,4754.358974358975,4325.128205128206,4307.6923076923085,4263.589743589744,4480.512820512821
1526.4446,0.14070842,0.38643402,0.37144578,0.54716754,0,0.0,0.0,0.0,0.0,0.0,0,0,0.8657426,0.0,0,0,39.0,0.0,0.0,4567.6923076923085,3883.589743589744,4551.282051282052,4409.2307692307695,4263.589743589744,4550.256410256411,4487.6923076923085,4384.615384615385,4341.025641025642,4682.564102564103,4348.717948717949,4266.153846153847,4106.666666666667,4393.333333333334
1526.6948,0.14070842,0.38643402,0.37144578,0.54716754,0,0.0,0.0,0.0,0.0,0.0,0,0,0.0,0.0,0,0,71.0,0.0,459.0,4558.974358974359,3925.1282051282055,4568.717948717949,4449.2307692307695,4278.974358974359,4545.641025641026,4478.461538461539,4366.666666666667,4272.820512820514,4663.076923076924,4400.000000000001,4217.948717948719,4058.9743589743593,4473.333333333334
1526.82,0.085095495,0.3473526,0.3717054,0.5426926,0,0.0,0.0,0.0,0.0,0.0,0,0,0.0,0.0,0,0,87.0,0.0,510.0,4561.538461538462,3926.666666666667,4548.717948717949,4465.641025641026,4283.076923076924,4546.666666666667,4479.48717948718,4372.820512820514,4262.564102564103,4674.358974358975,4419.48717948718,4168.205128205129,4051.7948717948725,4496.410256410257
1526.82,0.085095495,0.3473526,0.3717054,0.5426926,0,0.0,0.0,0.0,0.0,0.0,0,0,0.0,0.0,0,0,87.0,0.0,510.0,4561.538461538462,3926.666666666667,4548.717948717949,4465.641025641026,4283.076923076924,4546.666666666667,4479.48717948718,4372.820512820514,4262.564102564103,4674.358974358975,4419.48717948718,4168.205128205129,4051.7948717948725,4496.410256410257
1527.4454,0.08640255,0.31115058,0.3719384,0.5432563,0,0.0,0.0,0.0,0.0,0.30784753,0,0,0.0,0.0,0,0,38.0,0.0,0.0,4546.666666666667,3887.692307692308,4512.307692307693,4440.000000000001,4249.74358974359,4533.846153846154,4471.282051282052,4390.256410256411,4308.717948717949,4709.743589743591,4433.333333333334,4198.974358974359,4117.435897435898,4590.256410256411
1527.6957,0.08640255,0.31115058,0.3719384,0.5432563,0,0.0,0.0,0.0,0.0,0.0,0,0,0.0,0.0,0,0,70.0,0.0,554.0,4547.6923076923085,3908.205128205129,4495.384615384616,4442.564102564103,4223.589743589744,4519.48717948718,4462.051282051282,4391.282051282052,4354.871794871796,4720.512820512821,4402.051282051282,4234.358974358975,4170.769230769231,4594.358974358975
1527.8208,0.08249384,0.29232508,0.37214738,0.54376376,0,0.0,0.0,0.0,0.0,0.0,0,0,0.0,0.0,0,0,86.0,0.0,537.0,4555.8974358974365,3927.1794871794878,4504.102564102564,4444.615384615385,4229.74358974359,4521.538461538462,4457.948717948719,4383.589743589744,4365.641025641026,4714.871794871796,4368.205128205129,4231.794871794872,4181.025641025642,4596.410256410257
1527.8208,0.08249384,0.29232508,0.37214738,0.54376376,0,0.0,0.0,0.0,0.0,0.0,0,0,0.0,0.0,0,0,86.0,0.0,537.0,4555.8974358974365,3927.1794871794878,4504.102564102564,4444.615384615385,4229.74358974359,4521.538461538462,4457.948717948719,4383.589743589744,4365.641025641026,4714.871794871796,4368.205128205129,4231.794871794872,4181.025641025642,4596.410256410257
1528.3212,0.102428414,0.27295727,0.3684213,0.5442206,0,0.0,0.0,0.0,0.0,0.0,0,0,0.0,0.0,0,0,21.0,0.0,0.0,4557.948717948719,3894.8717948717954,4542.051282051282,4423.076923076924,4214.358974358975,4523.076923076924,4472.820512820514,4408.717948717949,4437.435897435898,4725.641025641026,4307.6923076923085,4308.717948717949,4228.205128205129,4621.538461538462
1528.3212,0.102428414,0.27295727,0.3684213,0.5442206,0,0.0,0.0,0.0,0.0,0.0,0,0,0.0,0.0,0,0,21.0,0.0,0.0,4557.948717948719,3894.8717948717954,4542.051282051282,4423.076923076924,4214.358974358975,4523.076923076924,4472.820512820514,4408.717948717949,4437.435897435898,4725.641025641026,4307.6923076923085,4308.717948717949,4228.205128205129,4621.538461538462
1528.8217,0.105661325,0.27327433,0.3650672,0.53823304,0,0.0,0.0,0.0,0.0,0.0,0,0,0.0,0.0,0,0,85.0,0.0,462.0,4551.282051282052,3908.717948717949,4550.769230769231,4412.820512820514,4238.974358974359,4537.948717948719,4472.820512820514,4418.974358974359,4460.000000000001,4749.2307692307695,4327.6923076923085,4337.948717948719,4209.2307692307695,4573.846153846154
1528.8217,0.105661325,0.27327433,0.3650672,0.53823304,0,0.0,0.0,0.0,0.0,0.0,0,0,0.0,0.0,0,0,85.0,0.0,462.0,4551.282051282052,3908.717948717949,4550.769230769231,4412.820512820514,4238.974358974359,4537.948717948719,4472.820512820514,4418.974358974359,4460.000000000001,4749.2307692307695,4327.6923076923085,4337.948717948719,4209.2307692307695,4573.846153846154
1529.322,0.09691742,0.29319865,0.36204797,0.5225988,0,0.0,0.0,0.0,0.0,0.0,0,0,0.0,0.0,0,0,20.0,0.0,0.0,4562.051282051282,3930.2564102564106,4532.307692307693,4425.128205128206,4245.641025641026,4550.256410256411,4469.743589743591,4411.794871794872,4450.769230769231,4721.025641025642,4293.333333333334,4320.000000000001,4182.564102564103,4493.333333333334
1529.6974,0.09691742,0.29319865,0.36204797,0.5225988,0,0.0,0.0,0.0,0.0,0.48516113,0,0,0.0,0.0,0,0,68.0,0.0,562.0,4570.256410256411,3957.9487179487182,4548.205128205129,4455.384615384616,4234.358974358975,4542.051282051282,4461.025641025642,4412.820512820514,4460.000000000001,4749.743589743591,4335.384615384616,4337.435897435898,4215.8974358974365,4457.948717948719
1529.8225,0.09224303,0.2979197,0.36291203,0.4968757,0,0.0,0.0,0.0,0.0,0.0,0,0,0.0,0.0,0,0,84.0,0.0,510.0,4566.153846153847,3967.692307692308,4551.282051282052,4470.769230769231,4238.974358974359,4542.051282051282,4459.48717948718,4405.641025641026,4430.256410256411,4738.974358974359,4331.794871794872,4328.205128205129,4201.538461538462,4435.8974358974365
1529.8225,0.09224303,0.2979197,0.36291203,0.4968757,0,0.0,0.0,0.0,0.0,0.0,0,0,0.0,0.0,0,0,84.0,0.0,510.0,4566.153846153847,3967.692307692308,4551.282051282052,4470.769230769231,4238.974358974359,4542.051282051282,4459.48717948718,4405.641025641026,4430.256410256411,4738.974358974359,4331.794871794872,4328.205128205129,4201.538461538462,4435.8974358974365
1530.323,0.088434845,0.31185892,0.36092612,0.47372866,0,0.0,0.0,0.0,0.0,0.0,0,0,0.0,0.0,0,0,19.0,0.0,0.0,4576.410256410257,4005.6410256410263,4527.6923076923085,4525.128205128206,4295.8974358974365,4571.794871794872,4426.666666666667,4416.923076923077,4348.205128205129,4716.923076923077,4401.025641025642,4231.794871794872,4124.102564102564,4414.358974358975
1530.323,0.088434845,0.31185892,0.36092612,0.47372866,0,0.0,0.0,0.0,0.0,0.0,0,0,0.0,0.0,0,0,19.0,0.0,0.0,4576.410256410257,4005.6410256410263,4527.6923076923085,4525.128205128206,4295.8974358974365,4571.794871794872,4426.666666666667,4416.923076923077,4348.205128205129,4716.923076923077,4401.025641025642,4231.794871794872,4124.102564102564,4414.358974358975
1530.9485,0.10584082,0.30516672,0.3591383,0.45290235,0,0.0,0.0,0.0,0.0,0.1816536,0,0,0.0,0.0,0,0,99.0,0.0,509.0,4595.8974358974365,4003.589743589744,4478.974358974359,4526.153846153847,4269.74358974359,4561.538461538462,4431.282051282052,4441.025641025642,4375.384615384616,4735.384615384616,4409.743589743591,4221.538461538462,4180.000000000001,4501.025641025642
1531.1987,0.10584082,0.30516672,0.3591383,0.45290235,0,0.0,0.0,0.0,0.0,0.051969446,0,0,0.0,0.0,0,0,2.0,0.0,232.0,4587.179487179488,3946.666666666667,4501.538461538462,4460.512820512821,4248.717948717949,4542.564102564103,4460.512820512821,4442.564102564103,4389.743589743591,4748.717948717949,4395.384615384616,4274.358974358975,4215.384615384616,4512.820512820514
1531.4489,0.078407355,0.3010344,0.3617607,0.4383192,0,0.0,0.0,0.0,0.0,0.05427314,0,0,0.0,0.0,0,0,34.0,0.0,0.0,4604.102564102564,3936.410256410257,4498.461538461539,4415.384615384616,4215.8974358974365,4521.025641025642,4444.102564102564,4411.794871794872,4395.8974358974365,4733.333333333334,4346.153846153847,4283.589743589744,4215.384615384616,4500.000000000001
1531.6991,0.078407355,0.3010344,0.3617607,0.4383192,0,0.0,0.0,0.0,0.0,0.6068175,0,0,0.0,0.0,0,0,66.0,0.0,232.0,4677.948717948719,3941.538461538462,4497.435897435898,4411.794871794872,4204.615384615385,4512.307692307693,4459.48717948718,4399.48717948718,4415.8974358974365,4731.794871794872,4313.333333333334,4312.307692307693,4231.282051282052,4498.974358974359
1531.9493,0.068273164,0.32683742,0.36412033,0.43797594,0,0.0,0.0,0.0,0.0,0.08114684,0,0,0.0,0.0,0,0,98.0,0.0,537.0,4646.666666666667,3944.1025641025644,4507.6923076923085,4412.307692307693,4186.153846153847,4495.384615384616,4456.410256410257,4350.769230769231,4398.461538461539,4715.384615384616,4269.2307692307695,4317.948717948719,4217.435897435898,4475.8974358974365
1532.1996,0.068273164,0.32683742,0.36412033,0.43797594,0,0.0,0.0,0.0,0.0,0.0,0,0,0.0,0.0,0,0,1.0,0.0,468.0,4615.384615384616,3913.8461538461543,4502.051282051282,4390.769230769231,4185.128205128206,4497.435897435898,4443.076923076924,4360.000000000001,4405.641025641026,4711.282051282052,4253.333333333334,4308.717948717949,4201.538461538462,4451.794871794872
1532.3247,0.103796944,0.33242944,0.36132705,0.4433093,0,0.0,0.0,0.0,0.0,0.0,0,0,0.0,0.0,0,0,17.0,0.0,0.0,4653.846153846154,3952.820512820513,4524.102564102564,4426.666666666667,4198.461538461539,4505.128205128206,4453.846153846154,4348.205128205129,4382.051282051282,4682.051282051282,4214.871794871796,4278.461538461539,4155.8974358974365,4412.820512820514
1532.3247,0.103796944,0.33242944,0.36132705,0.4433093,0,0.0,0.0,0.0,0.0,0.0,0,0,0.0,0.0,0,0,17.0,0.0,0.0,4653.846153846154,3952.820512820513,4524.102564102564,4426.666666666667,4198.461538461539,4505.128205128206,4453.846153846154,4348.205128205129,4382.051282051282,4682.051282051282,4214.871794871796,4278.461538461539,4155.8974358974365,4412.820512820514
1532.8251,0.11628528,0.36226884,0.35457844,0.4527873,0,0.0,0.0,0.0,0.0,0.0,0,0,0.0,0.0,0,0,81.0,0.0,462.0,4623.076923076924,3910.2564102564106,4519.48717948718,4390.256410256411,4217.948717948719,4522.051282051282,4460.512820512821,4350.769230769231,4402.051282051282,4706.153846153847,4243.589743589744,4273.333333333334,4170.769230769231,4442.564102564103
1532.8251,0.11628528,0.36226884,0.35457844,0.4527873,0,0.0,0.0,0.0,0.0,0.0,0,0,0.0,0.0,0,0,81.0,0.0,462.0,4623.076923076924,3910.2564102564106,4519.48717948718,4390.256410256411,4217.948717948719,4522.051282051282,4460.512820512821,4350.769230769231,4402.051282051282,4706.153846153847,4243.589743589744,4273.333333333334,4170.769230769231,4442.564102564103
1533.3256,0.13558319,0.39485288,0.3527392,0.4613175,0,0.0,0.0,0.0,0.0,0.0,0,0,0.0,0.0,0,0,16.0,0.0,0.0,4603.589743589744,3930.7692307692314,4524.102564102564,4413.333333333334,4230.256410256411,4536.410256410257,4474.358974358975,4356.923076923077,4431.794871794872,4718.974358974359,4264.615384615385,4261.025641025642,4183.589743589744,4455.8974358974365
1533.3256,0.13558319,0.39485288,0.3527392,0.4613175,0,0.0,0.0,0.0,0.0,0.0,0,0,0.0,0.0,0,0,16.0,0.0,0.0,4603.589743589744,3930.7692307692314,4524.102564102564,4413.333333333334,4230.256410256411,4536.410256410257,4474.358974358975,4356.923076923077,4431.794871794872,4718.974358974359,4264.615384615385,4261.025641025642,4183.589743589744,4455.8974358974365
1533.951,0.118353754,0.3737323,0.3510836,0.47243133,0,0.0,0.0,0.0,0.0,0.5385185,0,0,0.0,0.0,0,0,96.0,0.0,511.0,4582.564102564103,3889.7435897435903,4521.025641025642,4394.358974358975,4260.000000000001,4554.358974358975,4473.846153846154,4389.743589743591,4427.179487179487,4731.794871794872,4307.179487179487,4263.076923076924,4181.538461538462,4548.717948717949
1534.2013,0.118353754,0.3737323,0.3510836,0.47243133,0,0.0,0.0,0.0,0.0,1.0,0,0,0.0,0.0,0,0,128.0,0.0,511.0,4580.512820512821,3929.7435897435903,4517.435897435898,4426.153846153847,4277.948717948719,4573.333333333334,4492.820512820514,4417.948717948719,4446.153846153847,4756.923076923077,4329.743589743591,4266.153846153847,4211.794871794872,4601.538461538462
1534.4515,0.15783204,0.34056565,0.34443724,0.48351038,0,0.0,0.0,0.0,0.0,0.68004215,0,0,0.0,0.0,0,0,31.0,0.0,0.0,4567.179487179488,3953.333333333334,4507.6923076923085,4445.128205128206,4273.846153846154,4569.2307692307695,4477.948717948719,4396.410256410257,4424.615384615385,4729.743589743591,4308.717948717949,4249.2307692307695,4173.846153846154,4632.307692307693
1534.7017,0.15783204,0.34056565,0.34443724,0.48351038,0,0.0,0.0,0.0,0.0,0.27972323,0,0,0.0,0.0,0,0,63.0,0.0,0.0,4581.025641025642,4004.1025641025644,4520.000000000001,4488.205128205129,4261.538461538462,4556.410256410257,4473.333333333334,4395.8974358974365,4412.307692307693,4725.641025641026,4310.769230769231,4246.153846153847,4168.205128205129,4616.923076923077
1534.9519,0.15510963,0.31401017,0.3356073,0.5006646,0,0.0,0.0,0.0,0.0,0.30081785,0,0,0.0,0.0,0,0,95.0,0.0,509.0,4571.282051282052,3982.564102564103,4504.615384615385,4483.589743589744,4266.153846153847,4554.358974358975,4475.8974358974365,4413.333333333334,4414.358974358975,4730.256410256411,4321.025641025642,4243.076923076924,4170.256410256411,4623.589743589744
1535.077,0.15510963,0.31401017,0.3356073,0.5006646,0,0.0,0.0,0.0,0.0,0.0,0,0,0.0,0.0,0,0,111.0,0.0,509.0,4582.564102564103,3981.538461538462,4509.2307692307695,4473.333333333334,4277.948717948719,4567.6923076923085,4478.461538461539,4432.307692307693,4425.128205128206,4732.820512820514,4320.512820512821,4248.205128205129,4169.74358974359,4618.974358974359
1535.3273,0.16003448,0.29334086,0.3214682,0.5237541,0,0.0,0.0,0.0,0.0,0.0,0,0,0.0,0.0,0,0,14.0,0.0,537.0,4574.358974358975,3981.538461538462,4489.743589743591,4462.051282051282,4268.205128205129,4557.435897435898,4466.153846153847,4416.923076923077,4416.923076923077,4738.974358974359,4324.102564102564,4232.307692307693,4173.846153846154,4595.8974358974365
1535.3273,0.16003448,0.29334086,0.3214682,0.5237541,0,0.0,0.0,0.0,0.0,0.0,0,0,0.0,0.0,0,0,14.0,0.0,537.0,4574.358974358975,3981.538461538462,4489.743589743591,4462.051282051282,4268.205128205129,4557.435897435898,4466.153846153847,4416.923076923077,4416.923076923077,4738.974358974359,4324.102564102564,4232.307692307693,4173.846153846154,4595.8974358974365
1535.8276,0.14068744,0.28802517,0.30360729,0.54453486,0,0.0,0.0,0.0,0.0,0.0,0,0,0.0,0.0,0,0,78.0,0.0,537.0,4586.153846153847,3952.820512820513,4478.974358974359,4432.307692307693,4262.564102564103,4539.48717948718,4439.48717948718,4408.205128205129,4411.794871794872,4741.025641025642,4341.025641025642,4230.256410256411,4182.564102564103,4539.48717948718
1535.8276,0.14068744,0.28802517,0.30360729,0.54453486,0,0.0,0.0,0.0,0.0,0.0,0,0,0.0,0.0,0,0,78.0,0.0,537.0,4586.153846153847,3952.820512820513,4478.974358974359,4432.307692307693,4262.564102564103,4539.48717948718,4439.48717948718,4408.205128205129,4411.794871794872,4741.025641025642,4341.025641025642,4230.256410256411,4182.564102564103,4539.48717948718
