timestamp,excitement,frustration,meditation,engagementBoredom,blink,clench,laugh,smile,eyebrow,furrowBrow,lookLeft,lookRight,smirkLeft,smirkRight,winkLeft,winkRight,eeg0,eeg1,eeg2,eeg3,eeg4,eeg5,eeg6,eeg7,eeg8,eeg9,eeg10,eeg11,eeg12,eeg13,eeg14,eeg15,eeg16
919.5637,0.63273865,0.30062792,0.3203131,0.6036553,0,0.0,0.0,0.0,0.0,0.72256696,0,0,0.0,0.0,0,0,81.0,0.0,451.0,4730.769230769231,4005.6410256410263,4540.000000000001,4456.410256410257,4151.794871794872,4509.2307692307695,4478.461538461539,4371.794871794872,4438.461538461539,4703.589743589744,4228.717948717949,4194.358974358975,4195.8974358974365,4541.538461538462
919.8139,0.56597465,0.3146217,0.31760088,0.6103732,0,0.0,0.0,0.0,0.0,0.49983367,0,0,0.0,0.0,0,0,113.0,0.0,451.0,4721.538461538462,4014.358974358975,4557.435897435898,4490.769230769231,4171.794871794872,4515.384615384616,4474.358974358975,4391.794871794872,4443.589743589744,4713.846153846154,4220.000000000001,4196.410256410257,4203.589743589744,4545.128205128206
920.06415,0.56597465,0.3146217,0.31760088,0.6103732,0,0.0,0.0,0.0,0.0,0.0,0,0,0.0,0.0,0,0,16.0,0.0,0.0,4697.435897435898,4023.076923076924,4561.025641025642,4503.589743589744,4198.461538461539,4525.641025641026,4485.128205128206,4405.641025641026,4448.717948717949,4735.384615384616,4235.8974358974365,4199.48717948718,4200.000000000001,4539.48717948718
920.31433,0.5203748,0.32259807,0.31688726,0.61641675,0,0.0,0.0,0.0,0.0,0.0,0,0,0.0,0.0,0,0,48.0,0.0,0.0,4667.179487179488,3988.205128205129,4524.102564102564,4474.358974358975,4214.358974358975,4520.512820512821,4441.025641025642,4380.512820512821,4416.923076923077,4709.2307692307695,4236.410256410257,4181.025641025642,4195.384615384616,4490.256410256411
920.5646,0.5203748,0.32259807,0.31688726,0.61641675,0,0.0,0.0,0.0,0.0,0.13023426,0,0,0.0,0.0,0,0,80.0,0.0,504.0,4664.102564102564,3914.358974358975,4480.000000000001,4423.076923076924,4216.410256410257,4514.358974358975,4405.128205128206,4308.717948717949,4360.512820512821,4664.102564102564,4204.615384615385,4172.307692307693,4132.820512820514,4432.307692307693
920.81476,0.5344999,0.3311036,0.3166747,0.63172305,0,0.0,0.0,0.0,0.0,0.04657735,0,0,0.0,0.0,0,0,112.0,0.0,504.0,4669.743589743591,3864.615384615385,4507.6923076923085,4404.102564102564,4228.205128205129,4530.256410256411,4438.461538461539,4424.102564102564,4375.384615384616,4688.205128205129,4232.307692307693,4204.102564102564,4154.358974358975,4411.794871794872
921.065,0.5344999,0.3311036,0.3166747,0.63172305,0,0.0,0.0,0.0,0.0,0.014079447,0,0,0.0,0.0,0,0,15.0,0.0,509.0,4647.6923076923085,3832.307692307693,4493.333333333334,4375.8974358974365,4232.820512820514,4523.076923076924,4411.282051282052,4396.410256410257,4360.512820512821,4678.974358974359,4230.256410256411,4201.025641025642,4136.410256410257,4407.179487179487
921.3152,0.48441178,0.3307788,0.3161527,0.6494925,0,0.0,0.0,0.0,0.0,0.23054412,0,0,0.0,0.0,0,0,47.0,0.0,0.0,4728.205128205129,3899.48717948718,4507.179487179488,4417.948717948719,4230.256410256411,4508.205128205129,4398.461538461539,4366.153846153847,4348.205128205129,4671.794871794872,4204.615384615385,4184.102564102564,4078.9743589743593,4365.641025641026
921.5654,0.48441178,0.3307788,0.3161527,0.6494925,0,0.0,0.0,0.0,0.0,0.46021834,0,0,0.0,0.0,0,0,79.0,0.0,510.0,4695.384615384616,3843.076923076924,4511.794871794872,4410.769230769231,4266.153846153847,4555.8974358974365,4448.205128205129,4430.769230769231,4402.564102564103,4787.6923076923085,4282.051282051282,4203.589743589744,4165.128205128206,4437.435897435898
921.8156,0.49892676,0.36174312,0.3160147,0.6624407,0,0.0,0.0,0.0,0.0,0.75303876,0,0,0.0,0.0,0,0,111.0,0.0,510.0,4685.128205128206,3858.9743589743593,4513.333333333334,4412.820512820514,4251.282051282052,4535.8974358974365,4430.256410256411,4426.153846153847,4400.000000000001,4781.025641025642,4284.102564102564,4209.74358974359,4189.2307692307695,4411.282051282052
922.06586,0.49892676,0.36174312,0.3160147,0.6624407,0,0.0,0.0,0.0,0.0,0.58198524,0,0,0.0,0.0,0,0,14.0,0.0,536.0,4698.461538461539,3939.48717948718,4570.769230769231,4574.358974358975,4280.000000000001,4568.205128205129,4490.256410256411,4467.6923076923085,4444.615384615385,4818.974358974359,4342.564102564103,4245.128205128206,4236.923076923077,4428.205128205129
922.31604,0.5278246,0.40099862,0.31757328,0.6799984,0,0.0,0.0,0.0,0.0,0.0,0,0,0.0,0.0,0,0,46.0,0.0,0.0,4664.102564102564,3909.2307692307695,4545.641025641026,4522.564102564103,4291.282051282052,4554.358974358975,4465.128205128206,4426.153846153847,4413.846153846154,4783.589743589744,4341.025641025642,4230.769230769231,4223.076923076924,4426.153846153847
922.5663,0.5278246,0.40099862,0.31757328,0.6799984,0,0.0,0.0,0.0,0.0,0.082777865,0,0,0.0,0.0,0,0,78.0,0.0,536.0,4643.076923076924,3866.666666666667,4540.000000000001,4476.410256410257,4297.948717948719,4556.410256410257,4463.076923076924,4418.461538461539,4375.8974358974365,4740.000000000001,4357.435897435898,4238.461538461539,4160.512820512821,4358.461538461539
922.81647,0.566524,0.4201444,0.31897646,0.70448613,0,0.0,0.0,0.0,0.0,0.12023018,0,0,0.0,0.0,0,0,110.0,0.0,536.0,4601.538461538462,3804.615384615385,4551.794871794872,4409.2307692307695,4284.102564102564,4547.179487179488,4473.846153846154,4363.589743589744,4284.615384615385,4657.948717948719,4409.2307692307695,4264.102564102564,4051.7948717948725,4267.179487179487
922.9416,0.566524,0.4201444,0.31897646,0.70448613,0,0.0,0.0,0.0,0.0,0.0,0,0,0.0,0.0,0,0,126.0,0.0,536.0,4600.000000000001,3814.358974358975,4568.205128205129,4410.256410256411,4269.2307692307695,4537.435897435898,4476.923076923077,4345.128205128206,4252.307692307693,4628.717948717949,4444.102564102564,4262.051282051282,4022.564102564103,4296.410256410257
923.3169,0.5386193,0.42303503,0.3183546,0.73013824,0,0.0,0.0,0.0,0.0,0.0,0,0,0.0,0.0,0,0,45.0,0.0,0.0,4587.6923076923085,3815.8974358974365,4551.282051282052,4395.384615384616,4250.256410256411,4518.461538461539,4478.461538461539,4324.102564102564,4244.102564102564,4647.6923076923085,4492.307692307693,4245.641025641026,4080.0000000000005,4425.128205128206
923.3169,0.5386193,0.42303503,0.3183546,0.73013824,0,0.0,0.0,0.0,0.0,0.0,0,0,0.0,0.0,0,0,45.0,0.0,0.0,4587.6923076923085,3815.8974358974365,4551.282051282052,4395.384615384616,4250.256410256411,4518.461538461539,4478.461538461539,4324.102564102564,4244.102564102564,4647.6923076923085,4492.307692307693,4245.641025641026,4080.0000000000005,4425.128205128206
923.8173,0.5080419,0.41057232,0.3161842,0.74953467,0,0.0,0.0,0.0,0.0,0.0,0,0,0.0,0.0,0,0,109.0,0.0,453.0,4607.179487179488,3893.333333333334,4506.666666666667,4432.820512820514,4233.333333333334,4507.6923076923085,4442.051282051282,4332.820512820514,4318.461538461539,4698.461538461539,4465.128205128206,4217.435897435898,4155.384615384616,4500.512820512821
923.8173,0.5080419,0.41057232,0.3161842,0.74953467,0,0.0,0.0,0.0,0.0,0.0,0,0,0.0,0.0,0,0,109.0,0.0,453.0,4607.179487179488,3893.333333333334,4506.666666666667,4432.820512820514,4233.333333333334,4507.6923076923085,4442.051282051282,4332.820512820514,4318.461538461539,4698.461538461539,4465.128205128206,4217.435897435898,4155.384615384616,4500.512820512821
924.31775,0.4572079,0.40915778,0.31358847,0.7623662,0,0.0,0.0,0.0,0.0,3.412663E-4,0,0,0.0,0.0,0,0,44.0,0.0,0.0,4596.923076923077,3896.9230769230776,4472.820512820514,4400.512820512821,4204.615384615385,4507.179487179488,4456.410256410257,4051.7948717948725,4376.410256410257,4687.179487179488,4371.794871794872,4212.820512820514,4192.307692307693,4527.6923076923085
924.63055,0.4572079,0.40915778,0.31358847,0.7623662,0,0.0,0.0,0.0,0.0,0.120839216,0,0,0.0,0.0,0,0,84.0,0.0,502.0,4507.179487179488,3818.461538461539,4450.769230769231,4227.179487179487,4217.948717948719,4508.205128205129,4456.923076923077,4314.871794871796,4390.769230769231,4644.615384615385,4440.512820512821,4397.435897435898,4026.1538461538466,3873.8461538461543
924.8495,0.41555884,0.40784413,0.31124637,0.77405024,0,0.0,0.0,0.0,0.0,1.0,0,0,0.0,0.0,0,0,112.0,0.0,502.0,4455.384615384616,3765.6410256410263,4424.102564102564,4246.153846153847,4262.051282051282,4504.102564102564,4397.948717948719,4360.512820512821,4356.923076923077,4617.948717948719,4508.205128205129,4473.333333333334,3975.8974358974365,3588.205128205129
925.0684,0.41555884,0.40784413,0.31124637,0.77405024,0,0.0,0.0,0.0,0.0,0.5693782,0,0,0.0,0.0,0,0,11.0,0.0,509.0,4471.282051282052,3806.666666666667,4305.641025641026,4354.358974358975,4299.48717948718,4525.641025641026,4352.307692307693,4384.102564102564,4347.179487179487,4634.871794871796,4574.358974358975,4311.794871794872,3978.461538461539,3781.0256410256416
925.31866,0.40975586,0.4066618,0.30914566,0.7775211,0,0.0,0.0,0.0,0.0,1.0,0,0,0.0,0.0,0,0,43.0,0.0,0.0,4458.974358974359,3899.48717948718,4266.153846153847,4497.435897435898,4326.153846153847,4540.512820512821,4347.6923076923085,4398.974358974359,4338.974358974359,4691.282051282052,4560.512820512821,4085.6410256410263,4066.1538461538466,4330.256410256411
925.31866,0.40975586,0.4066618,0.30914566,0.7775211,0,0.0,0.0,0.0,0.0,1.0,0,0,0.0,0.0,0,0,43.0,0.0,0.0,4458.974358974359,3899.48717948718,4266.153846153847,4497.435897435898,4326.153846153847,4540.512820512821,4347.6923076923085,4398.974358974359,4338.974358974359,4691.282051282052,4560.512820512821,4085.6410256410263,4066.1538461538466,4330.256410256411
925.8191,0.36924618,0.40559775,0.3097321,0.7648855,0,0.0,0.0,0.0,0.0,1.0,0,0,0.0,0.0,0,0,107.0,0.0,506.0,4494.358974358975,3867.1794871794878,4387.6923076923085,4473.333333333334,4249.74358974359,4534.871794871796,4384.102564102564,4429.743589743591,4396.410256410257,4740.000000000001,4455.384615384616,4122.564102564103,4254.358974358975,4691.794871794872
926.0067,0.36924618,0.40559775,0.3097321,0.7648855,0,0.0,0.0,0.0,0.0,1.0,0,1,0.0,0.0,0,0,2.0,0.0,262.0,4469.2307692307695,3745.6410256410263,4402.564102564103,4405.128205128206,4228.717948717949,4538.974358974359,4413.846153846154,4451.282051282052,4416.923076923077,4747.6923076923085,4417.948717948719,4150.256410256411,4298.461538461539,4628.717948717949
926.3195,0.36762103,0.40464008,0.31209925,0.74349165,0,0.0,0.0,0.0,0.0,0.42232755,0,1,0.0,0.0,0,0,42.0,0.0,0.0,4498.461538461539,3802.564102564103,4419.48717948718,4391.794871794872,4200.512820512821,4528.717948717949,4426.153846153847,4422.051282051282,4437.435897435898,4658.974358974359,4300.000000000001,4177.435897435898,4223.076923076924,4532.307692307693
926.601,0.36762103,0.40464008,0.31209925,0.74349165,1,0.0,0.0,0.0,0.0,0.29165113,0,0,0.0,0.0,0,0,78.0,0.0,535.0,4551.794871794872,3847.692307692308,4469.2307692307695,4387.6923076923085,4181.538461538462,4490.256410256411,4423.076923076924,4372.820512820514,4475.384615384616,4631.282051282052,4146.666666666667,4184.615384615385,4291.282051282052,4651.794871794872
926.81995,0.37014902,0.4037782,0.31423172,0.72425365,0,0.0,0.0,0.0,0.0,0.6215436,0,0,0.0,0.0,0,0,106.0,0.0,535.0,4533.846153846154,3713.333333333334,4440.512820512821,4307.6923076923085,4168.205128205129,4435.8974358974365,4355.384615384616,4329.2307692307695,4401.025641025642,4572.307692307693,4053.8461538461543,4080.5128205128212,4232.307692307693,4595.8974358974365
926.945,0.37014902,0.4037782,0.31423172,0.72425365,0,0.0,0.0,0.0,0.0,1.0,0,0,0.0,0.0,0,0,122.0,0.0,535.0,4461.025641025642,3564.615384615385,4248.205128205129,4142.051282051282,4046.666666666667,4270.769230769231,4191.794871794872,4138.974358974359,4154.871794871796,4388.205128205129,3851.7948717948725,4007.692307692308,4047.692307692308,4470.769230769231
927.3516,0.5357312,0.40300247,0.3161464,0.70702916,0,0.0,0.0,0.0,0.0,1.0,0,0,0.0,0.0,0,0,45.0,0.0,0.0,4316.410256410257,3363.589743589744,3967.1794871794878,4121.025641025642,3697.9487179487182,3973.8461538461543,3910.2564102564106,3848.717948717949,3863.076923076924,4086.666666666667,3482.0512820512827,3729.2307692307695,3713.8461538461543,4149.74358974359
927.3516,0.5357312,0.40300247,0.3161464,0.70702916,0,0.0,0.0,0.0,0.0,1.0,0,0,0.0,0.0,0,0,45.0,0.0,0.0,4316.410256410257,3363.589743589744,3967.1794871794878,4121.025641025642,3697.9487179487182,3973.8461538461543,3910.2564102564106,3848.717948717949,3863.076923076924,4086.666666666667,3482.0512820512827,3729.2307692307695,3713.8461538461543,4149.74358974359
927.8208,0.6814434,0.40230435,0.3178728,0.6914774,0,0.0,0.0,0.0,0.0,1.0,0,0,0.0,0.0,0,0,105.0,0.0,455.0,4489.2307692307695,3627.692307692308,4215.8974358974365,4201.025641025642,3893.8461538461543,4165.128205128206,4093.8461538461543,4023.076923076924,4022.564102564103,4450.256410256411,3725.6410256410263,3861.0256410256416,3886.1538461538466,4729.2307692307695
928.071,0.6814434,0.40230435,0.3178728,0.6914774,0,0.0,0.0,0.0,0.0,0.7484348,0,0,0.0,0.0,0,0,8.0,0.0,454.0,4701.025641025642,3688.717948717949,4303.589743589744,4267.179487179487,3975.8974358974365,4232.307692307693,4138.461538461539,4060.0000000000005,4087.1794871794878,4503.076923076924,3780.0000000000005,3974.358974358975,3969.2307692307695,4978.461538461539
928.3212,0.8096702,0.40167603,0.3194251,0.6774945,0,0.0,0.0,0.0,0.0,0.54048175,0,0,0.0,0.0,0,0,40.0,0.0,0.0,4622.564102564103,3738.461538461539,4309.2307692307695,4165.641025641026,3956.410256410257,4230.769230769231,4114.871794871796,4067.692307692308,4107.179487179487,4422.051282051282,3777.435897435898,3913.333333333334,3889.7435897435903,4836.410256410257
928.5714,0.8096702,0.40167603,0.3194251,0.6774945,0,0.0,0.0,0.0,0.0,1.0,0,0,0.0,0.0,0,0,72.0,0.0,454.0,4598.974358974359,3917.9487179487182,4395.384615384616,4320.000000000001,4081.0256410256416,4340.000000000001,4197.435897435898,4147.6923076923085,4182.564102564103,4422.051282051282,3894.358974358975,3982.0512820512827,3940.5128205128212,4616.923076923077
928.82166,0.8680616,0.40111053,0.32082137,0.6649161,0,0.0,0.0,0.0,0.0,1.0,0,0,0.0,0.0,0,0,104.0,0.0,502.0,4603.076923076924,4044.615384615385,4576.923076923077,4473.333333333334,4295.384615384616,4522.051282051282,4372.307692307693,4382.564102564103,4369.2307692307695,4637.435897435898,4236.410256410257,4206.666666666667,4152.307692307693,4623.076923076924
929.07184,0.8680616,0.40111053,0.32082137,0.6649161,0,0.0,0.0,0.0,0.0,0.4227894,0,0,0.0,0.0,0,0,7.0,0.0,451.0,4620.512820512821,4084.1025641025644,4632.820512820514,4558.461538461539,4337.948717948719,4591.794871794872,4448.205128205129,4551.282051282052,4455.384615384616,4805.128205128206,4429.2307692307695,4320.512820512821,4284.102564102564,4596.923076923077
929.3221,0.9738943,0.4006016,0.32207838,0.6536036,0,0.0,0.0,0.0,0.0,0.7490316,0,0,0.0,0.0,0,0,39.0,0.0,0.0,4676.410256410257,4091.7948717948725,4687.179487179488,4476.410256410257,4307.179487179487,4601.538461538462,4489.2307692307695,4585.641025641026,4521.538461538462,4893.846153846154,4539.48717948718,4418.461538461539,4368.717948717949,4663.589743589744
929.6036,0.9738943,0.4006016,0.32207838,0.6536036,0,0.0,0.0,0.0,0.0,0.99607545,0,0,0.0,0.0,0,0,75.0,0.0,495.0,4675.384615384616,3994.358974358975,4614.358974358975,4506.153846153847,4273.333333333334,4580.000000000001,4505.128205128206,4554.871794871796,4505.128205128206,4766.666666666667,4477.435897435898,4426.666666666667,4327.6923076923085,4645.128205128206
929.8225,1.0,0.40014353,0.32321003,0.6434165,0,0.0,0.0,0.0,0.0,0.1974419,0,0,0.0,0.0,0,0,103.0,0.0,495.0,4598.461538461539,3873.8461538461543,4566.666666666667,4488.717948717949,4272.307692307693,4569.2307692307695,4484.615384615385,4493.846153846154,4462.051282051282,4731.794871794872,4424.102564102564,4397.948717948719,4287.6923076923085,4545.128205128206
930.0727,1.0,0.40014353,0.32321003,0.6434165,0,0.0,0.0,0.0,0.0,0.14803249,0,0,0.0,0.0,0,0,6.0,0.0,557.0,4605.641025641026,3837.9487179487182,4555.384615384616,4472.307692307693,4223.589743589744,4565.641025641026,4489.743589743591,4446.153846153847,4413.333333333334,4655.8974358974365,4376.923076923077,4368.205128205129,4244.102564102564,4478.974358974359
930.32294,1.0,0.3997313,0.33287913,0.6342482,0,0.0,0.0,0.0,0.0,0.20954488,0,0,0.0,0.0,0,0,38.0,0.0,0.0,4605.641025641026,3821.0256410256416,4538.974358974359,4433.333333333334,4219.48717948718,4562.051282051282,4487.179487179488,4427.179487179487,4389.743589743591,4655.384615384616,4352.820512820514,4360.000000000001,4211.794871794872,4492.307692307693
930.5732,1.0,0.3997313,0.33287913,0.6342482,0,0.0,0.0,0.0,0.0,0.0,0,0,0.0,0.0,0,0,70.0,0.0,557.0,4573.333333333334,3847.692307692308,4546.153846153847,4440.000000000001,4204.615384615385,4560.512820512821,4491.794871794872,4446.666666666667,4409.2307692307695,4683.076923076924,4321.538461538462,4366.153846153847,4165.128205128206,4462.051282051282
930.82336,0.97217673,0.39936027,0.34158087,0.6236643,0,0.0,0.0,0.0,0.0,0.5555624,0,0,0.0,0.0,0,0,102.0,0.0,532.0,4567.179487179488,3761.538461538462,4486.666666666667,4347.6923076923085,4120.512820512821,4490.769230769231,4420.512820512821,4359.48717948718,4341.538461538462,4638.461538461539,4259.48717948718,4257.435897435898,4129.2307692307695,4365.128205128206
931.0736,0.97217673,0.39936027,0.34158087,0.6236643,0,0.0,0.0,0.0,0.0,0.79830617,0,0,0.0,0.0,0,0,5.0,0.0,560.0,4576.410256410257,3741.0256410256416,4477.948717948719,4349.743589743591,4133.333333333334,4492.307692307693,4418.974358974359,4365.128205128206,4357.948717948719,4653.846153846154,4270.256410256411,4248.717948717949,4136.923076923077,4365.641025641026
931.3238,0.92285335,0.39902636,0.3494118,0.61414176,0,0.0,0.0,0.0,0.0,0.45219535,0,0,0.0,0.0,0,0,37.0,0.0,0.0,4628.205128205129,3878.9743589743593,4538.974358974359,4441.538461538462,4200.512820512821,4547.6923076923085,4474.871794871796,4414.358974358975,4414.358974358975,4715.8974358974365,4351.794871794872,4291.282051282052,4187.179487179487,4398.461538461539
931.57404,0.92285335,0.39902636,0.3494118,0.61414176,0,0.0,0.0,0.0,0.0,0.48846617,0,0,0.0,0.0,0,0,69.0,0.0,560.0,4641.538461538462,3884.1025641025644,4558.974358974359,4457.435897435898,4241.025641025642,4572.820512820514,4489.2307692307695,4423.589743589744,4447.6923076923085,4734.871794871796,4362.564102564103,4312.820512820514,4190.256410256411,4396.923076923077
931.8555,0.95633227,0.42619327,0.3560371,0.6067161,1,0.0,0.0,0.0,0.0,0.08590139,0,0,0.0,0.0,0,0,105.0,0.0,450.0,4815.384615384616,3795.8974358974365,4602.564102564103,4408.205128205129,4232.820512820514,4569.2307692307695,4506.666666666667,4124.102564102564,4473.333333333334,4776.410256410257,4406.153846153847,4361.025641025642,4218.461538461539,4608.717948717949
932.07446,0.95633227,0.42619327,0.3560371,0.6067161,0,0.0,0.0,0.0,0.0,0.040313683,0,0,0.0,0.0,0,0,4.0,0.0,558.0,4809.2307692307695,3790.7692307692314,4577.948717948719,4388.205128205129,4236.410256410257,4572.307692307693,4522.564102564103,4328.205128205129,4476.410256410257,4767.6923076923085,4375.384615384616,4325.128205128206,4183.076923076924,4504.615384615385
932.35596,0.9199963,0.5013527,0.3533441,0.59891343,0,0.0,0.0,0.0,0.0,0.065088704,0,0,0.0,0.0,0,0,40.0,0.0,0.0,4723.076923076924,4063.589743589744,4558.461538461539,4479.48717948718,4257.435897435898,4566.153846153847,4480.000000000001,4379.48717948718,4450.256410256411,4736.410256410257,4354.358974358975,4279.48717948718,4160.000000000001,4420.000000000001
932.5749,0.9199963,0.5013527,0.3533441,0.59891343,0,0.0,0.0,0.0,0.0,0.14484096,0,0,0.0,0.0,0,0,68.0,0.0,558.0,4741.025641025642,4038.9743589743593,4625.128205128206,4523.076923076924,4344.615384615385,4638.974358974359,4552.820512820514,4470.769230769231,4514.871794871796,4810.256410256411,4429.2307692307695,4318.974358974359,4226.153846153847,4489.2307692307695
932.8251,1.0,0.5690261,0.35091522,0.59423494,0,0.0,0.0,0.0,0.0,0.32690582,0,0,0.0,0.0,1,0,100.0,0.0,501.0,4765.641025641026,4084.615384615385,4676.923076923077,4551.282051282052,4432.307692307693,4718.974358974359,4641.025641025642,4564.615384615385,4621.538461538462,4914.871794871796,4514.871794871796,4414.871794871796,4356.410256410257,4573.846153846154
933.0753,1.0,0.5690261,0.35091522,0.59423494,0,0.0,0.0,0.0,0.0,0.11774379,0,0,0.0,0.0,0,0,3.0,0.0,543.0,4813.846153846154,4077.435897435898,4690.769230769231,4585.128205128206,4430.256410256411,4707.179487179488,4615.384615384616,4550.769230769231,4600.512820512821,4905.128205128206,4505.128205128206,4411.794871794872,4327.179487179487,4586.153846153847
933.3255,1.0,0.6299321,0.34872872,0.5900245,0,0.0,0.0,0.0,0.0,0.030439269,1,0,0.0,0.0,0,0,35.0,0.0,0.0,4752.307692307693,4158.974358974359,4613.333333333334,4553.846153846154,4354.871794871796,4642.051282051282,4542.564102564103,4477.948717948719,4525.641025641026,4816.923076923077,4416.410256410257,4329.743589743591,4250.769230769231,4526.153846153847
933.6383,1.0,0.6299321,0.34872872,0.5900245,0,0.0,0.0,0.0,0.0,1.0,0,0,0.0,0.0,0,0,75.0,0.0,505.0,4715.8974358974365,3991.2820512820517,4594.871794871796,4477.435897435898,4334.358974358975,4629.2307692307695,4565.128205128206,4478.461538461539,4518.974358974359,4826.666666666667,4411.794871794872,4338.461538461539,4263.589743589744,4649.743589743591
933.8259,0.98321646,0.6847475,0.34718314,0.5862363,0,0.0,0.0,0.0,0.0,0.6000563,0,0,0.0,0.0,0,0,99.0,0.0,505.0,4724.102564102564,4000.5128205128212,4566.666666666667,4460.512820512821,4305.128205128206,4582.564102564103,4507.6923076923085,4408.205128205129,4463.589743589744,4776.410256410257,4367.179487179487,4293.846153846154,4200.512820512821,4550.256410256411
934.0762,0.98321646,0.6847475,0.34718314,0.5862363,0,0.0,0.0,0.0,0.0,0.20871182,0,0,0.0,0.0,0,0,2.0,0.0,259.0,4693.333333333334,4015.8974358974365,4557.435897435898,4430.256410256411,4280.000000000001,4573.846153846154,4522.051282051282,4426.153846153847,4476.923076923077,4763.076923076924,4355.384615384616,4287.6923076923085,4189.74358974359,4563.076923076924
934.32635,0.93753123,0.7340814,0.34579226,0.5828243,0,0.0,0.0,0.0,0.0,0.32555062,0,0,0.0,0.0,0,0,34.0,0.0,0.0,4688.205128205129,3849.7435897435903,4572.307692307693,4366.666666666667,4276.410256410257,4570.256410256411,4481.538461538462,4462.051282051282,4492.820512820514,4798.974358974359,4390.769230769231,4310.256410256411,4219.48717948718,4652.820512820514
934.5766,0.93753123,0.7340814,0.34579226,0.5828243,0,0.0,0.0,0.0,0.0,0.05447124,0,0,0.0,0.0,0,0,66.0,0.0,259.0,4629.2307692307695,3848.205128205129,4539.48717948718,4318.461538461539,4277.948717948719,4536.923076923077,4377.435897435898,4400.512820512821,4429.2307692307695,4751.794871794872,4399.48717948718,4274.871794871796,4174.358974358975,4571.282051282052
934.8268,0.9058166,0.7784819,0.34454104,0.5797518,0,0.0,0.0,0.0,0.0,0.19732437,0,0,0.0,0.0,0,0,98.0,0.0,532.0,4553.846153846154,3798.461538461539,4550.769230769231,4293.333333333334,4331.794871794872,4524.102564102564,4335.384615384616,4429.743589743591,4390.256410256411,4734.871794871796,4284.102564102564,4309.743589743591,4134.871794871796,4501.025641025642
935.077,0.9058166,0.7784819,0.34454104,0.5797518,0,0.0,0.0,0.0,0.0,0.35537815,0,0,0.0,0.0,0,0,1.0,0.0,469.0,4499.48717948718,3837.9487179487182,4520.000000000001,4359.48717948718,4351.282051282052,4535.384615384616,4337.948717948719,4455.8974358974365,4364.615384615385,4731.794871794872,4424.615384615385,4385.641025641026,4103.589743589744,4586.153846153847
935.3585,0.90596724,0.7258768,0.34341916,0.5769931,0,0.0,0.0,0.0,0.0,1.0,0,0,0.0,0.0,0,0,37.0,0.0,0.0,4495.384615384616,3866.1538461538466,4442.051282051282,4372.307692307693,4352.820512820514,4552.820512820514,4323.076923076924,4454.358974358975,4320.000000000001,4704.102564102564,4472.307692307693,4357.948717948719,4058.9743589743593,4581.538461538462
935.57745,0.90596724,0.7258768,0.34341916,0.5769931,0,0.0,0.0,0.0,0.0,0.16423625,0,0,0.0,0.0,0,0,65.0,0.0,469.0,4432.820512820514,3961.538461538462,4363.076923076924,4400.512820512821,4331.282051282052,4541.538461538462,4307.179487179487,4432.820512820514,4327.179487179487,4668.717948717949,4430.769230769231,4268.205128205129,4020.5128205128212,4551.282051282052
935.8277,0.9299864,0.6786882,0.3424079,0.57450676,0,0.0,0.0,0.0,0.0,0.33195576,0,0,0.0,0.0,0,0,97.0,0.0,452.0,4598.461538461539,4286.666666666667,4596.410256410257,4611.282051282052,4733.333333333334,4862.051282051283,4607.6923076923085,4651.282051282052,4577.435897435898,4949.2307692307695,4657.435897435898,4497.435897435898,4329.743589743591,4874.358974358975
936.0779,0.9299864,0.6786882,0.3424079,0.57450676,0,0.0,0.0,0.0,0.0,0.18988864,0,0,0.0,0.0,0,0,0.0,0.0,514.0,4510.256410256411,4151.282051282052,4431.794871794872,4070.7692307692314,4356.410256410257,4617.948717948719,4456.923076923077,4458.974358974359,4397.435897435898,4732.307692307693,4395.8974358974365,4320.000000000001,4147.179487179487,4678.461538461539
936.3594,1.0,0.6362185,0.3415002,0.57227665,0,0.0,0.0,0.7158275,0.0,0.0,0,0,0.0,0.0,0,0,36.0,0.0,0.0,4528.717948717949,4009.23076923077,4429.743589743591,4267.6923076923085,4217.435897435898,4536.410256410257,4444.102564102564,4395.384615384616,4396.923076923077,4717.948717948719,4324.615384615385,4245.641025641026,4172.820512820514,4687.179487179488
936.5783,1.0,0.6362185,0.3415002,0.57227665,0,0.0,0.671469,0.0,0.0,0.0,0,0,0.0,0.0,0,0,64.0,0.0,514.0,4512.307692307693,4050.7692307692314,4442.564102564103,4243.076923076924,4171.794871794872,4509.2307692307695,4474.358974358975,4382.564102564103,4417.435897435898,4714.871794871796,4294.358974358975,3895.8974358974365,4185.641025641026,4650.256410256411
936.8598,0.8597947,0.5979957,0.34068352,0.5702718,0,0.0,0.14499106,0.0,0.0,0.0,0,0,0.0,0.0,0,0,100.0,0.0,501.0,4556.923076923077,4066.1538461538466,4495.8974358974365,4484.102564102564,4201.025641025642,4543.076923076924,4506.153846153847,4391.794871794872,4452.820512820514,4729.2307692307695,4292.307692307693,3981.0256410256416,4229.2307692307695,4596.923076923077
937.07874,0.8597947,0.5979957,0.34068352,0.5702718,0,0.0,0.0,0.0,0.0,0.0,0,0,0.32128453,0.0,0,0,128.0,0.0,501.0,4552.820512820514,4026.1538461538466,4496.923076923077,4516.923076923077,4241.025641025642,4561.538461538462,4489.743589743591,4428.717948717949,4502.564102564103,4780.000000000001,4338.461538461539,4073.8461538461543,4262.051282051282,4560.000000000001
937.3602,0.932397,0.56359524,0.3399485,0.5684679,0,0.0,0.0,0.0,0.0,1.0,0,0,0.0,0.0,0,1,35.0,0.0,0.0,4700.000000000001,4336.923076923077,4755.8974358974365,4845.128205128206,4711.282051282052,4909.743589743591,4779.48717948718,4740.000000000001,4797.435897435898,5118.461538461539,4687.179487179488,4447.6923076923085,4621.538461538462,4949.743589743591
937.6417,0.932397,0.56359524,0.3399485,0.5684679,0,0.0,0.0,0.0,0.0,0.58685946,0,0,0.0,0.0,0,0,71.0,0.0,444.0,4688.717948717949,4307.179487179487,4631.794871794872,4797.435897435898,4551.794871794872,4781.538461538462,4656.923076923077,4634.871794871796,4695.384615384616,4986.666666666667,4585.641025641026,4385.641025641026,4490.769230769231,4891.282051282052
937.86066,1.0,0.5326348,0.33928698,0.566845,0,0.0,0.0,0.0,0.0,0.8186837,0,0,0.0,0.0,0,0,99.0,0.0,495.0,4671.282051282052,4220.000000000001,4570.769230769231,4737.435897435898,4458.974358974359,4700.512820512821,4570.256410256411,4541.025641025642,4613.333333333334,4890.769230769231,4506.666666666667,4343.076923076924,4383.076923076924,4857.435897435898
938.0796,1.0,0.5326348,0.33928698,0.566845,0,0.0,0.0,0.0,0.0,0.540206,0,0,0.0,0.0,0,0,127.0,0.0,495.0,4636.410256410257,4160.512820512821,4569.743589743591,4673.846153846154,4352.307692307693,4627.179487179488,4537.948717948719,4472.307692307693,4520.512820512821,4828.205128205129,4444.102564102564,4266.666666666667,4294.358974358975,4764.615384615386
938.32983,1.0,0.5047704,0.33869004,0.56538117,0,0.0,0.0,0.0,0.0,0.15973474,0,0,0.0,0.0,0,0,30.0,0.0,0.0,4631.794871794872,4090.7692307692314,4568.205128205129,4650.256410256411,4311.794871794872,4617.948717948719,4551.282051282052,4459.48717948718,4508.205128205129,4783.589743589744,4396.410256410257,4234.871794871796,4260.000000000001,4692.820512820514
938.58,1.0,0.5047704,0.33869004,0.56538117,0,0.0,0.0,0.0,0.0,0.13267583,0,0,0.0,0.0,0,0,62.0,0.0,0.0,4591.282051282052,4034.8717948717954,4535.8974358974365,4493.333333333334,4277.948717948719,4583.589743589744,4518.974358974359,4380.000000000001,4421.025641025642,4718.974358974359,4329.2307692307695,4155.8974358974365,4166.153846153847,4555.8974358974365
938.8615,1.0,0.47969246,0.33815405,0.5640663,0,0.0,0.09513988,0.0,0.0,0.0,0,0,0.0,0.0,0,0,98.0,0.0,532.0,4590.769230769231,4027.1794871794878,4535.8974358974365,4612.820512820514,4240.512820512821,4556.410256410257,4505.641025641026,4328.717948717949,4375.384615384616,4707.179487179488,4331.794871794872,4128.205128205129,4122.564102564103,4492.820512820514
939.08044,1.0,0.47969246,0.33815405,0.5640663,0,0.0,0.07323256,0.0,0.0,0.0,0,0,0.0,0.0,0,0,126.0,0.0,532.0,4591.282051282052,3956.410256410257,4537.948717948719,4550.769230769231,4237.948717948719,4542.564102564103,4491.282051282052,4309.743589743591,4347.179487179487,4671.282051282052,4289.2307692307695,4110.769230769231,4101.538461538462,4421.025641025642
939.36194,0.98422265,0.4571223,0.33767167,0.5628829,0,0.0,0.0,0.0,0.0,0.21376276,0,0,0.0,0.0,0,0,33.0,0.0,0.0,4625.128205128206,3907.692307692308,4558.461538461539,4351.794871794872,4222.051282051282,4521.025641025642,4489.2307692307695,4307.179487179487,4354.871794871796,4661.538461538462,4275.384615384616,4126.153846153847,4105.641025641026,4354.358974358975
939.5809,0.98422265,0.4571223,0.33767167,0.5628829,0,0.0,0.0,0.0,0.0,0.0,0,0,0.19577506,0.0,0,0,61.0,0.0,0.0,4652.820512820514,3958.9743589743593,4536.923076923077,4528.717948717949,4246.666666666667,4495.8974358974365,4448.205128205129,4284.102564102564,4352.307692307693,4663.589743589744,4255.8974358974365,4095.8974358974365,4096.923076923077,4427.6923076923085
939.86237,1.0,0.4806794,0.3372377,0.5618182,0,0.0,0.0,0.0,0.0,0.0,0,0,0.25122252,0.0,0,0,97.0,0.0,454.0,4614.871794871796,3938.461538461539,4553.333333333334,4535.384615384616,4313.333333333334,4520.512820512821,4426.153846153847,4318.461538461539,4291.794871794872,4625.641025641026,4342.051282051282,4150.256410256411,4036.9230769230776,4421.538461538462
940.0813,1.0,0.4806794,0.3372377,0.5618182,0,0.0,0.0,0.0,0.0,0.4323609,0,0,0.0,0.0,0,0,125.0,0.0,454.0,4598.461538461539,3926.1538461538466,4518.461538461539,4537.948717948719,4294.871794871796,4472.820512820514,4387.6923076923085,4289.2307692307695,4246.666666666667,4615.8974358974365,4408.717948717949,4154.358974358975,4008.717948717949,4322.564102564103
940.33154,1.0,0.5072274,0.3368462,0.56085813,0,0.0,0.0,0.0,0.0,0.23684002,0,0,0.0,0.0,0,0,28.0,0.0,0.0,4582.564102564103,3910.2564102564106,4429.743589743591,4537.948717948719,4260.000000000001,4451.794871794872,4338.974358974359,4263.076923076924,4188.717948717949,4591.794871794872,4408.205128205129,4089.23076923077,3967.1794871794878,4390.769230769231
940.5817,1.0,0.5072274,0.3368462,0.56085813,0,0.0,0.0,0.0,0.0,1.0,0,0,0.0,0.0,0,0,60.0,0.0,0.0,4586.666666666667,3874.8717948717954,4382.051282051282,4380.512820512821,4244.615384615385,4456.923076923077,4366.666666666667,4298.974358974359,4231.794871794872,4631.282051282052,4442.051282051282,4104.615384615385,4014.8717948717954,4553.846153846154
940.8632,1.0,0.5233899,0.3364947,0.5599958,0,0.0,0.0,0.0,0.0,1.0,0,0,0.0,0.0,0,1,96.0,0.0,505.0,4577.948717948719,3909.7435897435903,4389.743589743591,4444.102564102564,4232.307692307693,4476.923076923077,4381.025641025642,4345.641025641026,4308.205128205129,4667.6923076923085,4422.051282051282,4108.205128205129,4107.6923076923085,4583.589743589744
941.0822,1.0,0.5233899,0.3364947,0.5599958,0,0.0,0.0,0.0,0.0,0.0,0,0,0.0,0.0,0,0,124.0,0.0,505.0,4576.410256410257,3884.615384615385,4414.358974358975,4428.717948717949,4198.974358974359,4461.538461538462,4382.564102564103,4335.384615384616,4335.384615384616,4677.948717948719,4411.282051282052,4133.333333333334,4140.000000000001,4576.410256410257
941.3324,0.9519736,0.5205119,0.33617753,0.559218,0,0.0,0.0,0.0,0.0,0.65200067,0,0,0.0,0.0,0,0,27.0,0.0,0.0,4575.384615384616,3877.435897435898,4449.2307692307695,4555.8974358974365,4200.512820512821,4491.282051282052,4402.564102564103,4355.8974358974365,4346.666666666667,4678.974358974359,4378.461538461539,4155.384615384616,4153.333333333334,4521.025641025642
941.58264,0.9519736,0.5205119,0.33617753,0.559218,0,0.0,0.0,0.0,0.0,0.53316945,0,0,0.0,0.0,0,0,59.0,0.0,0.0,4535.384615384616,3851.2820512820517,4455.384615384616,4525.641025641026,4200.000000000001,4502.051282051282,4415.8974358974365,4387.6923076923085,4355.8974358974365,4687.6923076923085,4398.461538461539,4201.025641025642,4161.025641025642,4462.564102564103
941.8328,0.8751609,0.49372435,0.33589208,0.558518,0,0.0,0.0,0.0,0.0,0.31831607,0,0,0.0,0.0,0,0,91.0,0.0,502.0,4509.2307692307695,3815.8974358974365,4367.6923076923085,4472.820512820514,4170.256410256411,4473.846153846154,4382.051282051282,4371.282051282052,4330.769230769231,4667.6923076923085,4380.512820512821,4203.589743589744,4149.2307692307695,4411.282051282052
941.95795,0.8751609,0.49372435,0.33589208,0.558518,0,0.0,0.0,0.0,0.0,0.0,0,0,0.0,0.0,0,0,107.0,0.0,502.0,4523.589743589744,3831.7948717948725,4374.358974358975,4481.538461538462,4168.205128205129,4476.410256410257,4375.384615384616,4369.2307692307695,4336.923076923077,4677.435897435898,4375.8974358974365,4201.025641025642,4169.74358974359,4457.948717948719
942.36456,0.81003743,0.47549322,0.3356359,0.5578894,0,0.0,0.0,0.0,0.0,0.0,0,0,0.0,0.0,0,0,30.0,0.0,0.0,4571.794871794872,3862.0512820512827,4427.179487179487,4292.307692307693,4167.6923076923085,4489.743589743591,4410.769230769231,4383.589743589744,4381.025641025642,4698.974358974359,4310.256410256411,4198.461538461539,4183.589743589744,4531.282051282052
942.5835,0.81003743,0.47549322,0.3356359,0.5578894,0,0.0,0.32700273,0.0,0.0,0.0,0,0,0.0,0.0,0,0,58.0,0.0,0.0,4622.051282051282,3901.538461538462,4489.2307692307695,4354.871794871796,4189.74358974359,4520.512820512821,4436.923076923077,4394.358974358975,4447.6923076923085,4764.102564102564,4356.923076923077,4240.512820512821,4258.974358974359,4603.076923076924
942.8337,0.8202559,0.48206732,0.3354048,0.5573227,0,0.0,0.0,0.0,0.0,0.0,0,0,0.8063572,0.0,0,0,90.0,0.0,535.0,4628.717948717949,3909.2307692307695,4488.205128205129,4613.846153846154,4157.435897435898,4489.2307692307695,4442.051282051282,4415.384615384616,4456.410256410257,4733.333333333334,4306.666666666667,4246.666666666667,4280.000000000001,4584.102564102564
943.0839,0.8202559,0.48206732,0.3354048,0.5573227,0,0.0,0.0,0.0,0.0,0.0,0,0,0.47061488,0.0,0,0,122.0,0.0,535.0,4663.589743589744,3984.1025641025644,4526.666666666667,4587.6923076923085,4167.179487179487,4494.358974358975,4477.948717948719,4387.6923076923085,4443.076923076924,4724.102564102564,4271.282051282052,4232.307692307693,4252.307692307693,4547.179487179488
943.3654,0.70159066,0.51372576,0.33519745,0.5568139,0,0.0,0.0,0.118541844,0.0,0.0,0,0,0.0,0.0,0,0,29.0,0.0,0.0,4662.051282051282,3956.9230769230776,4543.589743589744,3817.435897435898,4184.102564102564,4489.743589743591,4466.666666666667,4380.000000000001,4352.307692307693,4732.307692307693,4253.333333333334,4265.128205128206,4185.641025641026,4489.743589743591
943.58435,0.70159066,0.51372576,0.33519745,0.5568139,0,0.0,0.0,0.39617512,0.0,0.0,0,0,0.0,0.0,0,0,57.0,0.0,0.0,4597.435897435898,3809.7435897435903,4449.743589743591,4020.0000000000005,4157.948717948719,4406.153846153847,4358.974358974359,4276.410256410257,4201.538461538462,4518.974358974359,4207.6923076923085,4167.6923076923085,4004.615384615385,4352.307692307693
943.86584,0.7524191,0.54223585,0.33501092,0.55635613,0,0.0,0.3513717,0.0,0.0,0.0,0,0,0.0,0.0,0,0,93.0,0.0,454.0,4491.794871794872,3667.1794871794878,4190.256410256411,4589.743589743591,4136.410256410257,4297.948717948719,4161.538461538462,4012.307692307693,3894.358974358975,4353.333333333334,4141.025641025642,3947.1794871794878,3736.9230769230776,4202.051282051282
944.0848,0.7524191,0.54223585,0.33501092,0.55635613,0,0.0,0.15627353,0.0,0.0,0.0,0,0,0.0,0.0,0,0,121.0,0.0,454.0,4490.769230769231,3706.1538461538466,4101.025641025642,4514.358974358975,4184.615384615385,4230.769230769231,4059.48717948718,3844.615384615385,3836.9230769230776,4380.000000000001,4046.666666666667,3790.7692307692314,3670.7692307692314,4309.743589743591
944.3663,0.81727767,0.56789494,0.3348431,0.55594426,0,0.0,0.77581227,0.0,0.0,0.0,0,0,0.0,0.0,0,0,28.0,0.0,0.0,4504.102564102564,3774.358974358975,4138.461538461539,4672.307692307693,4090.2564102564106,4283.076923076924,4178.461538461539,3917.9487179487182,4078.9743589743593,4742.564102564103,4291.794871794872,3746.1538461538466,3736.9230769230776,4154.358974358975
944.5852,0.81727767,0.56789494,0.3348431,0.55594426,0,0.0,0.0,0.0,0.0,0.38174585,0,0,0.0,0.0,0,0,56.0,0.0,0.0,4484.102564102564,3765.1282051282055,4124.102564102564,4580.000000000001,4077.9487179487187,4263.589743589744,4117.435897435898,3970.2564102564106,4095.3846153846157,4595.8974358974365,4166.153846153847,3723.589743589744,3782.0512820512827,4232.307692307693
944.8354,0.9196241,0.59098816,0.33469173,0.5555729,0,0.0,0.0,0.0,0.0,0.07968029,0,0,0.0,0.0,0,0,88.0,0.0,505.0,4520.512820512821,3878.461538461539,4316.923076923077,4622.564102564103,4107.6923076923085,4388.205128205129,4230.769230769231,4238.461538461539,4292.820512820514,4654.358974358975,4302.051282051282,3918.9743589743593,3973.333333333334,4355.384615384616
945.08563,0.9196241,0.59098816,0.33469173,0.5555729,0,0.0,0.0,0.0,0.0,0.15092316,0,0,0.0,0.0,0,0,120.0,0.0,505.0,4560.512820512821,3943.589743589744,4391.794871794872,4542.051282051282,4137.948717948719,4441.025641025642,4297.435897435898,4350.769230769231,4351.794871794872,4750.769230769231,4296.923076923077,4059.48717948718,4080.0000000000005,4247.179487179487
945.3358,0.91293466,0.611772,0.33455545,0.5552386,0,0.0,0.0,0.0,0.0,0.4831612,0,0,0.0,0.0,0,0,23.0,0.0,0.0,4595.384615384616,3952.307692307693,4476.923076923077,4535.8974358974365,4143.076923076924,4446.666666666667,4362.564102564103,4350.769230769231,4380.000000000001,4787.6923076923085,4218.974358974359,4151.794871794872,4183.589743589744,4218.461538461539
945.58606,0.91293466,0.611772,0.33455545,0.5552386,0,0.0,0.0,0.0,0.0,0.5539758,0,0,0.0,0.0,0,0,55.0,0.0,0.0,4601.538461538462,3990.7692307692314,4518.974358974359,4512.307692307693,4158.461538461539,4457.435897435898,4395.8974358974365,4380.512820512821,4423.589743589744,4809.2307692307695,4156.410256410257,4226.666666666667,4223.589743589744,4110.256410256411
945.83624,0.91359305,0.6304775,0.33443278,0.55493766,0,0.0,0.0,0.0,0.0,0.8909003,0,0,0.0,0.0,0,0,87.0,0.0,515.0,4610.256410256411,3989.23076923077,4526.153846153847,4475.8974358974365,4160.512820512821,4463.076923076924,4412.307692307693,4373.846153846154,4449.743589743591,4781.538461538462,4107.179487179487,4218.461538461539,4218.461538461539,4040.5128205128212
946.0865,0.91359305,0.6304775,0.33443278,0.55493766,0,0.0,0.0,0.0,0.0,0.48880604,0,0,0.0,0.0,0,0,119.0,0.0,515.0,4614.871794871796,3943.076923076924,4551.282051282052,4433.333333333334,4151.794871794872,4462.051282051282,4430.256410256411,4375.384615384616,4454.871794871796,4804.615384615386,4091.2820512820517,4257.948717948719,4217.435897435898,4038.9743589743593
946.3367,0.85729665,0.6473124,0.33432236,0.5546668,0,0.0,0.0,0.0,0.0,0.2028013,0,0,0.0,0.0,0,0,22.0,0.0,0.0,4637.435897435898,3934.8717948717954,4550.256410256411,4412.820512820514,4155.8974358974365,4456.923076923077,4423.076923076924,4391.794871794872,4432.307692307693,4790.769230769231,4079.48717948718,4280.512820512821,4203.076923076924,4054.358974358975
946.4618,0.85729665,0.6473124,0.33432236,0.5546668,0,0.0,0.0,0.0,0.0,0.0,0,0,0.0,0.0,0,0,38.0,0.0,0.0,4634.871794871796,3915.3846153846157,4553.333333333334,4395.384615384616,4150.769230769231,4456.410256410257,4430.256410256411,4403.589743589744,4443.589743589744,4796.410256410257,4096.410256410257,4295.384615384616,4204.102564102564,4092.820512820513
946.83716,0.8090265,0.66246384,0.33422303,0.5544232,0,0.0,0.0,0.0,0.0,0.78018475,0,0,0.0,0.0,0,0,86.0,0.0,536.0,4629.743589743591,4014.8717948717954,4613.846153846154,4458.461538461539,4182.564102564103,4475.384615384616,4471.282051282052,4470.769230769231,4488.205128205129,4788.717948717949,4201.025641025642,4379.48717948718,4232.307692307693,3997.435897435898
947.08734,0.8090265,0.66246384,0.33422303,0.5544232,0,0.0,0.0,0.0,0.0,0.69277614,0,0,0.0,0.0,0,0,118.0,0.0,536.0,4642.564102564103,3999.48717948718,4562.564102564103,4490.769230769231,4166.666666666667,4458.461538461539,4454.871794871796,4406.666666666667,4430.769230769231,4715.8974358974365,4192.820512820514,4302.051282051282,4214.358974358975,3932.307692307693
947.3376,0.8214301,0.67094046,0.33553383,0.560421,0,0.058300827,0.0,0.0,0.0,0.0,0,0,0.0,0.0,0,0,21.0,0.0,0.0,4635.8974358974365,3966.1538461538466,4569.2307692307695,4472.820512820514,4183.076923076924,4473.333333333334,4442.051282051282,4408.205128205129,4426.666666666667,4720.000000000001,4196.923076923077,4316.923076923077,4196.410256410257,4120.512820512821
947.58777,0.8214301,0.67094046,0.33553383,0.560421,0,0.0066342033,0.0,0.0,0.0,0.0,0,0,0.0,0.0,0,0,53.0,0.0,0.0,4645.641025641026,3956.410256410257,4553.846153846154,4442.051282051282,4197.948717948719,4488.205128205129,4466.153846153847,4388.717948717949,4440.512820512821,4723.076923076924,4243.589743589744,4333.846153846154,4211.794871794872,4268.205128205129
947.838,0.7394062,0.68096364,0.33696166,0.5737791,0,0.0,0.0,0.0,0.0,0.3659015,0,0,0.0,0.0,0,0,85.0,0.0,447.0,4651.282051282052,3980.0000000000005,4575.384615384616,4467.6923076923085,4213.333333333334,4490.769230769231,4477.435897435898,4458.461538461539,4427.179487179487,4708.717948717949,4263.589743589744,4342.051282051282,4204.615384615385,4304.102564102564
948.0882,0.7394062,0.68096364,0.33696166,0.5737791,0,0.0,0.0,0.0,0.0,0.050144143,0,0,0.0,0.0,0,0,117.0,0.0,447.0,4667.179487179488,4015.8974358974365,4583.589743589744,4465.128205128206,4218.974358974359,4506.666666666667,4487.179487179488,4488.717948717949,4459.48717948718,4749.743589743591,4309.743589743591,4378.974358974359,4244.615384615385,4363.589743589744
948.33844,0.8112434,0.6900928,0.34308034,0.60089487,0,0.0,0.0,0.0,0.0,0.78107834,0,0,0.0,0.0,0,0,20.0,0.0,0.0,4447.179487179487,3597.435897435898,4127.179487179487,4022.564102564103,3693.333333333334,4061.538461538462,4033.8461538461543,4040.0000000000005,3991.2820512820517,4289.2307692307695,3863.589743589744,3964.615384615385,3801.0256410256416,3878.461538461539
948.52606,0.8112434,0.6900928,0.34308034,0.60089487,1,0.0,0.0,0.0,0.0,1.0,0,0,0.0,0.0,0,0,44.0,0.0,0.0,4486.153846153847,3676.410256410257,4255.384615384616,4142.564102564103,3845.6410256410263,4197.435897435898,4168.205128205129,4186.666666666667,4084.615384615385,4412.307692307693,3946.1538461538466,3956.410256410257,3902.0512820512827,4051.2820512820517
948.8701,0.92389417,0.69830906,0.34859133,0.62531596,0,0.0,0.0,0.0,0.0,0.7693666,0,0,0.0,0.0,0,0,88.0,0.0,503.0,4504.615384615385,3778.461538461539,4361.538461538462,4245.128205128206,3974.358974358975,4309.2307692307695,4294.358974358975,4281.538461538462,4192.307692307693,4557.948717948719,4102.051282051282,3922.0512820512827,4013.8461538461543,4183.589743589744
949.08905,0.92389417,0.69830906,0.34859133,0.62531596,0,0.0,0.0,0.0,0.0,0.35626522,0,0,0.0,0.0,0,0,116.0,0.0,503.0,4585.641025641026,3849.7435897435903,4445.128205128206,4305.128205128206,4034.8717948717954,4358.461538461539,4335.384615384616,4294.871794871796,4220.512820512821,4631.794871794872,4169.2307692307695,4033.333333333334,4073.8461538461543,4402.564102564103
949.37054,0.95111203,0.7057037,0.34871465,0.645552,0,0.0,0.0,0.0,0.0,0.525309,0,0,0.0,0.0,0,0,23.0,0.0,0.0,4582.051282051282,3902.0512820512827,4473.846153846154,4366.666666666667,4128.205128205129,4441.025641025642,4412.820512820514,4372.820512820514,4280.000000000001,4679.48717948718,4226.666666666667,4116.923076923077,4104.615384615385,4365.128205128206
949.5895,0.95111203,0.7057037,0.34871465,0.645552,0,0.0,0.0,0.0,0.0,0.6016133,0,0,0.0,0.0,0,0,51.0,0.0,0.0,4587.6923076923085,3929.2307692307695,4475.384615384616,4372.307692307693,4171.794871794872,4470.769230769231,4414.358974358975,4396.410256410257,4296.410256410257,4707.6923076923085,4258.461538461539,4016.410256410257,4133.333333333334,4445.641025641026
949.871,0.9720059,0.71235883,0.34742436,0.6424415,0,0.0,0.0,0.0,0.0,1.0,0,0,0.0,0.0,0,0,87.0,0.0,515.0,4643.076923076924,3977.9487179487182,4504.615384615385,4420.512820512821,4200.512820512821,4492.820512820514,4460.000000000001,4423.076923076924,4262.564102564103,4684.102564102564,4308.717948717949,4148.717948717949,4148.205128205129,4585.128205128206
950.0899,0.9720059,0.71235883,0.34742436,0.6424415,0,0.0,0.0,0.0,0.0,0.6893564,0,0,0.0,0.0,0,0,115.0,0.0,515.0,4650.256410256411,3950.2564102564106,4493.333333333334,4394.358974358975,4191.794871794872,4490.256410256411,4460.512820512821,4411.282051282052,4262.051282051282,4687.6923076923085,4322.051282051282,4225.128205128206,4149.2307692307695,4537.948717948719
950.34015,0.91948605,0.7183485,0.34601155,0.63339585,0,0.0,0.0,0.0,0.0,1.0,0,0,0.0,0.0,0,0,18.0,0.0,0.0,4622.564102564103,3929.2307692307695,4512.307692307693,4382.564102564103,4208.205128205129,4506.153846153847,4475.384615384616,4431.282051282052,4314.871794871796,4731.794871794872,4350.256410256411,4253.846153846154,4219.48717948718,4569.2307692307695
950.59033,0.91948605,0.7183485,0.34601155,0.63339585,0,0.0,0.0,0.0,0.0,0.7664101,0,0,0.0,0.0,0,0,50.0,0.0,0.0,4626.666666666667,3926.1538461538466,4490.769230769231,4392.820512820514,4220.512820512821,4508.205128205129,4457.948717948719,4427.6923076923085,4323.589743589744,4707.6923076923085,4326.153846153847,4246.153846153847,4207.6923076923085,4604.102564102564
950.8406,0.9082574,0.7459181,0.34473965,0.6252544,0,0.0,0.0,0.0,0.0,0.31305087,0,0,0.0,0.0,0,0,82.0,0.0,538.0,4649.2307692307695,3925.1282051282055,4521.025641025642,4404.615384615385,4227.179487179487,4518.974358974359,4470.256410256411,4445.641025641026,4355.8974358974365,4718.974358974359,4340.000000000001,4274.871794871796,4216.923076923077,4633.846153846154
950.9657,0.9082574,0.7459181,0.34473965,0.6252544,0,0.0,0.0,0.0,0.0,0.0,0,0,0.0,0.0,0,0,98.0,0.0,538.0,4638.461538461539,3911.2820512820517,4507.6923076923085,4394.871794871796,4229.2307692307695,4524.102564102564,4488.205128205129,4463.589743589744,4372.820512820514,4731.282051282052,4334.871794871796,4246.666666666667,4216.410256410257,4588.205128205129
951.341,0.95949244,0.74920934,0.34359464,0.6179265,0,0.0,0.0,0.0,0.0,0.0,0,0,0.0,0.0,0,0,17.0,0.0,0.0,4634.871794871796,3910.2564102564106,4525.128205128206,4403.589743589744,4247.179487179487,4524.615384615385,4458.974358974359,4440.000000000001,4354.358974358975,4733.846153846154,4381.025641025642,4292.307692307693,4183.076923076924,4491.794871794872
951.5912,0.95949244,0.74920934,0.34359464,0.6179265,0,0.0,0.0,0.0,0.0,1.0,0,0,0.0,0.0,0,0,49.0,0.0,0.0,4597.435897435898,3877.9487179487182,4552.820512820514,4379.48717948718,4263.589743589744,4537.948717948719,4457.435897435898,4425.641025641026,4298.974358974359,4690.256410256411,4394.358974358975,4257.948717948719,4124.102564102564,4385.128205128206
951.84143,0.9366487,0.70023584,0.34256417,0.6113326,0,0.0,0.0,0.0,0.0,0.7686255,0,0,0.0,0.0,0,0,81.0,0.0,456.0,4602.564102564103,3876.9230769230776,4579.48717948718,4423.589743589744,4265.128205128206,4523.076923076924,4446.666666666667,4419.48717948718,4251.282051282052,4661.025641025642,4476.410256410257,4286.666666666667,4042.0512820512827,4371.794871794872
952.0917,0.9366487,0.70023584,0.34256417,0.6113326,0,0.0,0.0,0.0,0.0,0.0,0,0,0.0,0.07116642,0,0,113.0,0.0,456.0,4600.512820512821,3895.8974358974365,4526.153846153847,4457.948717948719,4277.948717948719,4503.076923076924,4387.6923076923085,4361.025641025642,4201.538461538462,4649.743589743591,4494.358974358975,4237.435897435898,4030.7692307692314,4351.794871794872
952.34186,0.8565519,0.6552566,0.3416372,0.605401,0,0.0,0.0,0.0,0.3678047,0.0,0,0,0.0,0.0,0,0,16.0,0.0,0.0,4637.435897435898,3906.1538461538466,4497.435897435898,4476.410256410257,4261.538461538462,4491.794871794872,4381.538461538462,4377.948717948719,4236.410256410257,4653.846153846154,4507.179487179488,4224.615384615385,4079.48717948718,4548.717948717949
952.6546,0.8565519,0.6552566,0.3416372,0.605401,0,0.0,0.0,0.0,0.0,1.0,0,0,0.0,0.0,0,0,56.0,0.0,0.0,4635.8974358974365,3895.8974358974365,4464.615384615385,4447.6923076923085,4264.102564102564,4521.538461538462,4422.051282051282,4411.794871794872,4283.589743589744,4646.153846153847,4467.6923076923085,4236.923076923077,4147.6923076923085,4536.410256410257
952.8423,0.76929706,0.66663605,0.34102854,0.6000822,0,0.0,0.0,0.0,0.0,0.20723175,0,0,0.0,0.0,0,1,80.0,0.0,501.0,4610.256410256411,3803.589743589744,4410.769230769231,4326.153846153847,4243.589743589744,4505.128205128206,4406.666666666667,4367.179487179487,4304.615384615385,4630.256410256411,4410.256410256411,4216.923076923077,4181.025641025642,4536.410256410257
953.155,0.76929706,0.66663605,0.34102854,0.6000822,0,0.0,0.0,0.0,0.0,0.3929391,0,0,0.0,0.0,0,0,120.0,0.0,501.0,4607.6923076923085,3715.3846153846157,4398.974358974359,4334.358974358975,4248.205128205129,4519.48717948718,4427.179487179487,4366.666666666667,4354.871794871796,4664.615384615386,4306.666666666667,4226.153846153847,4229.2307692307695,4629.743589743591
953.3427,0.7298396,0.6771132,0.34048054,0.5953402,0,0.0,0.0,0.0,0.0,1.0,0,0,0.0,0.0,0,0,15.0,0.0,504.0,4614.358974358975,3709.7435897435903,4397.948717948719,4347.6923076923085,4231.794871794872,4519.48717948718,4412.307692307693,4417.948717948719,4340.512820512821,4671.282051282052,4298.974358974359,4299.48717948718,4287.6923076923085,4794.871794871796
953.59296,0.7298396,0.6771132,0.34048054,0.5953402,0,0.0,0.0,0.0,0.0,0.81959426,0,0,0.0,0.0,0,0,47.0,0.0,0.0,4675.8974358974365,3970.7692307692314,4557.435897435898,4513.846153846154,4277.435897435898,4638.974358974359,4525.641025641026,4570.769230769231,4589.2307692307695,4766.153846153847,4448.717948717949,4385.641025641026,4404.102564102564,4922.051282051283
953.84314,0.8522588,0.6866468,0.34139127,0.59107155,0,0.0,0.0,0.0,0.0,0.716013,0,0,0.0,0.0,0,0,79.0,0.0,494.0,4681.025641025642,4295.8974358974365,4537.435897435898,4856.923076923077,4258.461538461539,4617.435897435898,4507.179487179488,4535.8974358974365,4531.794871794872,4750.769230769231,4404.102564102564,4366.666666666667,4506.666666666667,4768.717948717949
954.0934,0.8522588,0.6866468,0.34139127,0.59107155,0,0.0,0.0,0.0,0.0,0.0,0,0,0.2961515,0.0,0,0,111.0,0.0,494.0,4787.6923076923085,5001.538461538462,4495.8974358974365,5596.923076923078,4214.871794871796,4532.307692307693,4445.128205128206,4448.205128205129,4412.820512820514,4626.153846153847,4227.6923076923085,4312.307692307693,4625.641025641026,4698.974358974359
954.3749,0.9136174,0.695227,0.34221327,0.5872379,0,0.0,0.0,0.096591435,0.0,0.0,0,0,0.0,0.0,0,0,18.0,0.0,0.0,4682.051282051282,4136.923076923077,4485.641025641026,4737.435897435898,4214.358974358975,4522.564102564103,4506.153846153847,4442.051282051282,4437.435897435898,4648.717948717949,4257.948717948719,4292.820512820514,4372.307692307693,4590.769230769231
954.5938,0.9136174,0.695227,0.34221327,0.5872379,1,0.0,0.0,0.16278924,0.0,0.0,0,0,0.0,0.0,0,0,46.0,0.0,0.0,4681.025641025642,3744.1025641025644,4493.846153846154,4525.128205128206,4353.846153846154,4557.435897435898,4584.102564102564,4352.307692307693,4389.2307692307695,4746.666666666667,4249.2307692307695,4322.564102564103,4282.051282051282,4628.717948717949
954.8753,0.8464077,0.7029492,0.34272876,0.58377624,0,0.0,0.0,0.0,0.0,0.0,0,0,1.0,0.0,0,0,82.0,0.0,532.0,4617.435897435898,3769.2307692307695,4457.435897435898,4465.641025641026,4422.051282051282,4538.461538461539,4506.153846153847,4266.153846153847,4427.179487179487,4676.923076923077,4138.461538461539,4252.307692307693,4207.6923076923085,4525.641025641026
955.09424,0.8464077,0.7029492,0.34272876,0.58377624,0,0.0,0.0,0.0,0.0,0.0,0,0,0.43297544,0.0,0,0,110.0,0.0,532.0,4685.128205128206,3813.8461538461543,4491.282051282052,4365.641025641026,4387.179487179487,4573.333333333334,4525.641025641026,4393.846153846154,4452.307692307693,4656.923076923077,4201.538461538462,4277.948717948719,4180.512820512821,4556.923076923077
955.3444,0.77425194,0.70989925,0.34178677,0.58061546,0,0.0,0.0,0.0,0.0,0.07099319,0,0,0.0,0.0,0,0,13.0,0.0,456.0,4678.461538461539,3935.8974358974365,4506.666666666667,4422.564102564103,4340.000000000001,4579.48717948718,4507.6923076923085,4421.538461538462,4395.384615384616,4604.615384615385,4196.410256410257,4267.6923076923085,4103.589743589744,4431.282051282052
955.59467,0.77425194,0.70989925,0.34178677,0.58061546,0,0.0,0.0,0.0,0.0,0.6483254,0,0,0.0,0.0,0,0,45.0,0.0,0.0,4641.025641025642,3887.1794871794878,4516.410256410257,4397.948717948719,4318.974358974359,4555.384615384616,4477.435897435898,4404.615384615385,4355.8974358974365,4583.589743589744,4314.871794871796,4279.48717948718,4021.0256410256416,4360.512820512821
955.84485,0.82659376,0.7161542,0.34093872,0.5777701,0,0.0,0.0,0.0,0.0,0.21744432,0,0,0.0,0.0,0,0,77.0,0.0,457.0,4650.256410256411,3835.8974358974365,4524.615384615385,4386.666666666667,4293.846153846154,4509.743589743591,4402.051282051282,4340.000000000001,4230.769230769231,4522.051282051282,4382.564102564103,4158.974358974359,3947.1794871794878,4339.48717948718
956.0951,0.82659376,0.7161542,0.34093872,0.5777701,0,0.0,0.0,0.0,0.05815934,0.0,0,0,0.0,0.0,0,0,109.0,0.0,457.0,4663.589743589744,3853.333333333334,4510.256410256411,4430.256410256411,4352.307692307693,4540.000000000001,4393.846153846154,4354.871794871796,4236.410256410257,4568.717948717949,4509.2307692307695,4173.333333333334,3944.1025641025644,4358.461538461539
956.3453,0.7883367,0.7217837,0.3401755,0.5752087,0,0.0,0.0,0.0,0.060150474,0.0,0,0,0.0,0.0,0,0,12.0,0.0,495.0,4646.666666666667,3848.205128205129,4427.179487179487,4427.179487179487,4318.461538461539,4520.512820512821,4371.282051282052,4337.435897435898,4286.153846153847,4589.743589743591,4468.717948717949,4080.0000000000005,3947.1794871794878,4387.6923076923085
956.5955,0.7883367,0.7217837,0.3401755,0.5752087,0,0.0,0.0,0.0,0.0,0.0,0,0,0.0,1.0,0,0,44.0,0.0,0.0,4661.025641025642,3899.48717948718,4397.435897435898,4455.384615384616,4263.076923076924,4522.564102564103,4370.256410256411,4356.923076923077,4311.794871794872,4616.410256410257,4458.461538461539,4093.333333333334,3997.435897435898,4409.2307692307695
956.8457,0.77624446,0.71502054,0.33948842,0.57290363,0,0.0,0.0,0.0,0.0,0.022207156,0,0,0.0,0.0,0,0,76.0,0.0,495.0,4665.641025641026,3982.0512820512827,4429.743589743591,4458.974358974359,4202.051282051282,4500.512820512821,4401.025641025642,4457.948717948719,4358.974358974359,4638.974358974359,4446.153846153847,4160.512820512821,4092.820512820513,4481.538461538462
957.09595,0.77624446,0.71502054,0.33948842,0.57290363,0,0.0,0.0,0.0,0.0,0.21226552,0,0,0.0,0.0,0,0,108.0,0.0,495.0,4669.743589743591,3958.9743589743593,4458.974358974359,4463.076923076924,4210.256410256411,4518.461538461539,4427.179487179487,4471.282051282052,4352.307692307693,4674.358974358975,4362.051282051282,4167.179487179487,4182.051282051282,4532.307692307693
957.3462,0.75748545,0.6894822,0.33887035,0.5708299,0,0.0,0.0,0.0,0.0,0.032474894,0,0,0.0,0.0,0,0,11.0,0.0,510.0,4689.743589743591,3975.3846153846157,4493.846153846154,4477.948717948719,4214.358974358975,4523.076923076924,4475.384615384616,4465.128205128206,4421.538461538462,4705.641025641026,4314.358974358975,4251.794871794872,4249.74358974359,4552.820512820514
957.5964,0.75748545,0.6894822,0.33887035,0.5708299,0,0.0,0.0,0.0,0.0,0.0,0,0,0.0,0.0,0,0,43.0,0.0,0.0,4688.205128205129,3965.6410256410263,4514.871794871796,4446.666666666667,4217.435897435898,4548.205128205129,4522.051282051282,4473.333333333334,4462.564102564103,4729.2307692307695,4280.000000000001,4322.051282051282,4269.2307692307695,4532.307692307693
957.8466,0.7842411,0.6801822,0.3394623,0.5980724,0,0.0,0.0,0.0,0.0,0.0,0,0,0.0,0.0,0,0,75.0,0.0,510.0,4703.589743589744,3986.1538461538466,4555.8974358974365,4458.974358974359,4232.820512820514,4554.358974358975,4538.974358974359,4489.2307692307695,4472.820512820514,4763.076923076924,4296.923076923077,4376.410256410257,4288.717948717949,4546.666666666667
958.0968,0.7842411,0.6801822,0.3394623,0.5980724,0,0.0,0.0,0.0,0.0,0.16096628,0,0,0.0,0.0,0,0,107.0,0.0,510.0,4672.307692307693,3953.8461538461543,4536.923076923077,4440.512820512821,4229.74358974359,4554.871794871796,4538.974358974359,4462.051282051282,4491.794871794872,4783.076923076924,4307.6923076923085,4407.6923076923085,4280.000000000001,4534.358974358975
958.34705,0.7888974,0.6614674,0.33999488,0.6375324,0,0.0,0.0,0.0,0.0,0.4847252,0,0,0.0,0.0,0,0,10.0,0.0,534.0,4662.051282051282,3914.8717948717954,4523.589743589744,4411.282051282052,4225.128205128206,4552.307692307693,4518.461538461539,4444.102564102564,4440.512820512821,4727.6923076923085,4321.538461538462,4368.717948717949,4211.282051282052,4419.48717948718
958.5972,0.7888974,0.6614674,0.33999488,0.6375324,0,0.0,0.0,0.0,0.0,0.5737138,0,0,0.0,0.0,0,0,42.0,0.0,0.0,4628.717948717949,3885.6410256410263,4556.923076923077,4396.923076923077,4249.2307692307695,4548.205128205129,4510.256410256411,4447.6923076923085,4385.128205128206,4712.307692307693,4406.153846153847,4345.128205128206,4133.333333333334,4375.384615384616
958.8475,0.7598269,0.6369846,0.34047404,0.67440623,0,0.0,0.0,0.0,0.0,0.0,0,0,0.0,0.0,0,0,74.0,0.0,535.0,4628.717948717949,3893.8461538461543,4535.8974358974365,4424.615384615385,4281.025641025642,4553.846153846154,4490.256410256411,4418.461538461539,4354.358974358975,4730.769230769231,4465.128205128206,4280.000000000001,4108.205128205129,4438.461538461539
958.8475,0.7598269,0.6369846,0.34047404,0.67440623,0,0.0,0.0,0.0,0.0,0.0,0,0,0.0,0.0,0,0,74.0,0.0,535.0,4628.717948717949,3893.8461538461543,4535.8974358974365,4424.615384615385,4281.025641025642,4553.846153846154,4490.256410256411,4418.461538461539,4354.358974358975,4730.769230769231,4465.128205128206,4280.000000000001,4108.205128205129,4438.461538461539
959.3479,0.69230086,0.6096788,0.34035292,0.70756173,0,0.0,0.0,0.0,0.0,0.0,0,0,0.0,0.0,0,0,9.0,0.0,473.0,4622.564102564103,3928.205128205129,4467.179487179487,4459.48717948718,4278.974358974359,4552.820512820514,4471.282051282052,4429.2307692307695,4381.025641025642,4764.615384615386,4474.871794871796,4188.205128205129,4152.820512820514,4461.538461538462
959.3479,0.69230086,0.6096788,0.34035292,0.70756173,0,0.0,0.0,0.0,0.0,0.0,0,0,0.0,0.0,0,0,9.0,0.0,473.0,4622.564102564103,3928.205128205129,4467.179487179487,4459.48717948718,4278.974358974359,4552.820512820514,4471.282051282052,4429.2307692307695,4381.025641025642,4764.615384615386,4474.871794871796,4188.205128205129,4152.820512820514,4461.538461538462
959.8483,0.6116201,0.5840173,0.33748716,0.7232028,0,0.0,0.0,0.0,0.0,0.0,0,0,0.0,0.0,0,0,73.0,0.0,473.0,4634.358974358975,3910.2564102564106,4469.2307692307695,4442.051282051282,4232.307692307693,4553.333333333334,4492.307692307693,4480.000000000001,4467.179487179487,4803.589743589744,4392.307692307693,4217.435897435898,4226.666666666667,4451.282051282052
959.8483,0.6116201,0.5840173,0.33748716,0.7232028,0,0.0,0.0,0.0,0.0,0.0,0,0,0.0,0.0,0,0,73.0,0.0,473.0,4634.358974358975,3910.2564102564106,4469.2307692307695,4442.051282051282,4232.307692307693,4553.333333333334,4492.307692307693,4480.000000000001,4467.179487179487,4803.589743589744,4392.307692307693,4217.435897435898,4226.666666666667,4451.282051282052
960.34875,0.49802905,0.55495596,0.33490786,0.7299302,0,0.0,0.0,0.0,0.0,0.2033195,0,0,0.0,0.0,0,0,8.0,0.0,453.0,4687.6923076923085,3972.307692307693,4541.538461538462,4463.589743589744,4217.435897435898,4525.641025641026,4476.410256410257,4493.846153846154,4460.000000000001,4738.461538461539,4315.384615384616,4342.564102564103,4256.923076923077,4455.8974358974365
960.59894,0.49802905,0.55495596,0.33490786,0.7299302,0,0.0,0.0,0.0,0.0,0.0,0,0,0.0,0.75889766,0,0,40.0,0.0,0.0,4672.820512820514,3951.2820512820517,4541.025641025642,4436.410256410257,4215.384615384616,4540.512820512821,4500.000000000001,4496.923076923077,4491.794871794872,4738.461538461539,4299.48717948718,4386.666666666667,4227.179487179487,4533.846153846154
960.8492,0.47870806,0.54403675,0.33090973,0.71998423,0,0.23966926,0.0,0.0,0.0,0.0,0,0,0.0,0.0,0,0,72.0,0.0,453.0,4695.384615384616,3966.666666666667,4571.282051282052,4446.666666666667,4202.564102564103,4552.820512820514,4517.435897435898,4523.076923076924,4505.641025641026,4754.358974358975,4310.769230769231,4413.846153846154,4246.666666666667,4569.2307692307695
961.09937,0.47870806,0.54403675,0.33090973,0.71998423,0,0.0,0.0,0.0,0.0,0.0,0,0,0.0,0.21264315,0,0,104.0,0.0,503.0,4684.615384615386,3958.461538461539,4586.153846153847,4434.871794871796,4216.923076923077,4542.564102564103,4519.48717948718,4487.6923076923085,4485.641025641026,4748.717948717949,4316.410256410257,4422.051282051282,4232.820512820514,4532.307692307693
961.3496,0.49293873,0.5329667,0.3262473,0.7110342,0,0.0,0.0,0.0,0.0,0.0,0,0,0.0,0.40294558,0,0,7.0,0.0,451.0,4670.256410256411,3928.717948717949,4568.205128205129,4418.974358974359,4222.051282051282,4538.461538461539,4482.051282051282,4439.48717948718,4472.307692307693,4741.538461538462,4264.102564102564,4405.128205128206,4220.512820512821,4492.820512820514
961.5998,0.49293873,0.5329667,0.3262473,0.7110342,0,0.0,0.0,0.0,0.0,0.0,0,0,0.0,0.21112932,0,0,39.0,0.0,0.0,4672.307692307693,3942.564102564103,4578.461538461539,4429.743589743591,4233.333333333334,4539.48717948718,4492.307692307693,4428.717948717949,4454.358974358975,4736.410256410257,4283.076923076924,4393.846153846154,4210.769230769231,4476.923076923077
961.85004,0.4015939,0.51027083,0.32176292,0.7029795,0,0.0,0.0,0.0,0.0,0.17853177,0,0,0.0,0.0,0,0,71.0,0.0,451.0,4671.794871794872,3943.589743589744,4568.205128205129,4432.307692307693,4228.717948717949,4534.871794871796,4481.025641025642,4444.102564102564,4464.102564102564,4760.512820512821,4276.923076923077,4381.538461538462,4231.794871794872,4521.025641025642
962.1002,0.4015939,0.51027083,0.32176292,0.7029795,0,0.0,0.0,0.0,0.0,0.4844787,0,0,0.0,0.0,0,0,103.0,0.0,501.0,4679.48717948718,3977.435897435898,4588.205128205129,4464.102564102564,4230.769230769231,4537.435897435898,4490.256410256411,4463.589743589744,4478.974358974359,4775.8974358974365,4277.435897435898,4385.128205128206,4260.512820512821,4565.641025641026
962.35046,0.41759193,0.48297334,0.31749552,0.70612407,0,0.0,0.0,0.0,0.0,0.0,0,0,0.0,0.0,0,0,6.0,0.0,557.0,4700.000000000001,3987.692307692308,4583.589743589744,4472.307692307693,4233.333333333334,4539.48717948718,4493.846153846154,4462.051282051282,4472.307692307693,4775.8974358974365,4304.102564102564,4387.6923076923085,4248.205128205129,4586.153846153847
962.35046,0.41759193,0.48297334,0.31749552,0.70612407,0,0.0,0.0,0.0,0.0,0.0,0,0,0.0,0.0,0,0,6.0,0.0,557.0,4700.000000000001,3987.692307692308,4583.589743589744,4472.307692307693,4233.333333333334,4539.48717948718,4493.846153846154,4462.051282051282,4472.307692307693,4775.8974358974365,4304.102564102564,4387.6923076923085,4248.205128205129,4586.153846153847
962.8509,0.34462747,0.4596688,0.31365532,0.7315156,0,0.0,0.0,0.0,0.0,0.0,0,0,0.0,0.0,0,0,70.0,0.0,557.0,4694.871794871796,3970.2564102564106,4564.615384615385,4463.589743589744,4247.6923076923085,4538.461538461539,4491.794871794872,4462.051282051282,4457.435897435898,4769.743589743591,4327.179487179487,4365.641025641026,4227.179487179487,4578.461538461539
962.8509,0.34462747,0.4596688,0.31365532,0.7315156,0,0.0,0.0,0.0,0.0,0.0,0,0,0.0,0.0,0,0,70.0,0.0,557.0,4694.871794871796,3970.2564102564106,4564.615384615385,4463.589743589744,4247.6923076923085,4538.461538461539,4491.794871794872,4462.051282051282,4457.435897435898,4769.743589743591,4327.179487179487,4365.641025641026,4227.179487179487,4578.461538461539
963.3513,0.32934532,0.4363872,0.30925345,0.7543229,0,0.0,0.0,0.0,0.0,0.0,0,0,0.0,0.0,0,0,5.0,0.0,558.0,4663.076923076924,3957.435897435898,4538.974358974359,4458.461538461539,4245.641025641026,4533.333333333334,4475.8974358974365,4422.564102564103,4431.282051282052,4749.743589743591,4324.102564102564,4309.743589743591,4195.8974358974365,4502.564102564103
963.3513,0.32934532,0.4363872,0.30925345,0.7543229,0,0.0,0.0,0.0,0.0,0.0,0,0,0.0,0.0,0,0,5.0,0.0,558.0,4663.076923076924,3957.435897435898,4538.974358974359,4458.461538461539,4245.641025641026,4533.333333333334,4475.8974358974365,4422.564102564103,4431.282051282052,4749.743589743591,4324.102564102564,4309.743589743591,4195.8974358974365,4502.564102564103
963.85175,0.28222567,0.4239957,0.30529252,0.77479714,0,0.0,0.0,0.0,0.0,0.0,0,0,0.0,0.0,0,0,69.0,0.0,558.0,4656.410256410257,3931.2820512820517,4521.025641025642,4440.512820512821,4260.512820512821,4547.6923076923085,4473.333333333334,4396.410256410257,4426.153846153847,4748.717948717949,4331.794871794872,4288.717948717949,4185.641025641026,4426.666666666667
963.85175,0.28222567,0.4239957,0.30529252,0.77479714,0,0.0,0.0,0.0,0.0,0.0,0,0,0.0,0.0,0,0,69.0,0.0,558.0,4656.410256410257,3931.2820512820517,4521.025641025642,4440.512820512821,4260.512820512821,4547.6923076923085,4473.333333333334,4396.410256410257,4426.153846153847,4748.717948717949,4331.794871794872,4288.717948717949,4185.641025641026,4426.666666666667
964.3522,0.1970805,0.41772994,0.30267528,0.77941835,0,0.0,0.0,0.0,0.0,0.0,0,0,0.0,0.0,0,0,4.0,0.0,562.0,4652.307692307693,3915.3846153846157,4542.051282051282,4426.153846153847,4277.435897435898,4555.384615384616,4488.717948717949,4439.48717948718,4426.153846153847,4747.6923076923085,4378.461538461539,4306.153846153847,4168.205128205129,4448.717948717949
964.3522,0.1970805,0.41772994,0.30267528,0.77941835,0,0.0,0.0,0.0,0.0,0.0,0,0,0.0,0.0,0,0,4.0,0.0,562.0,4652.307692307693,3915.3846153846157,4542.051282051282,4426.153846153847,4277.435897435898,4555.384615384616,4488.717948717949,4439.48717948718,4426.153846153847,4747.6923076923085,4378.461538461539,4306.153846153847,4168.205128205129,4448.717948717949
964.8526,0.251549,0.40978926,0.30158156,0.761028,0,0.0,0.0,0.0,0.0,0.0,0,0,0.0,0.0,0,0,68.0,0.0,562.0,4593.846153846154,3868.205128205129,4560.000000000001,4426.153846153847,4315.384615384616,4521.025641025642,4413.333333333334,4386.666666666667,4282.564102564103,4635.8974358974365,4486.666666666667,4302.564102564103,4019.48717948718,4401.025641025642
964.8526,0.251549,0.40978926,0.30158156,0.761028,0,0.0,0.0,0.0,0.0,0.0,0,0,0.0,0.0,0,0,68.0,0.0,562.0,4593.846153846154,3868.205128205129,4560.000000000001,4426.153846153847,4315.384615384616,4521.025641025642,4413.333333333334,4386.666666666667,4282.564102564103,4635.8974358974365,4486.666666666667,4302.564102564103,4019.48717948718,4401.025641025642
965.353,0.33485195,0.4057783,0.30156726,0.73735034,0,0.0,0.0,0.0,0.0,0.0,0,0,0.0,0.0,0,0,3.0,0.0,546.0,4568.717948717949,3881.538461538462,4425.641025641026,4460.512820512821,4307.6923076923085,4525.128205128206,4377.948717948719,4403.589743589744,4276.410256410257,4657.948717948719,4507.6923076923085,4334.358974358975,4047.1794871794878,4476.410256410257
965.353,0.33485195,0.4057783,0.30156726,0.73735034,0,0.0,0.0,0.0,0.0,0.0,0,0,0.0,0.0,0,0,3.0,0.0,546.0,4568.717948717949,3881.538461538462,4425.641025641026,4460.512820512821,4307.6923076923085,4525.128205128206,4377.948717948719,4403.589743589744,4276.410256410257,4657.948717948719,4507.6923076923085,4334.358974358975,4047.1794871794878,4476.410256410257
965.85345,0.33034307,0.40021563,0.30270258,0.7155952,0,0.0,0.0,0.0,0.0,0.025282143,0,0,0.0,0.0,0,0,67.0,0.0,546.0,4555.384615384616,3922.564102564103,4396.923076923077,4454.358974358975,4267.179487179487,4524.615384615385,4395.384615384616,4357.435897435898,4327.179487179487,4674.358974358975,4392.307692307693,4241.025641025642,4132.307692307693,4455.8974358974365
966.1037,0.33034307,0.40021563,0.30270258,0.7155952,0,0.0,0.0,0.0,0.0,0.17459574,0,0,0.0,0.0,0,0,99.0,0.0,506.0,4589.2307692307695,3943.076923076924,4437.948717948719,4460.000000000001,4233.846153846154,4523.076923076924,4428.205128205129,4406.153846153847,4381.025641025642,4726.666666666667,4375.384615384616,4262.564102564103,4213.846153846154,4461.538461538462
966.3539,0.3057412,0.41924143,0.30472055,0.6960274,0,0.0,0.0,0.0,0.0,0.53200334,0,0,0.0,0.0,0,0,2.0,0.0,262.0,4618.461538461539,3957.9487179487182,4452.307692307693,4455.8974358974365,4218.461538461539,4518.461538461539,4436.410256410257,4373.846153846154,4393.846153846154,4711.794871794872,4277.435897435898,4250.256410256411,4226.153846153847,4442.564102564103
966.6041,0.3057412,0.41924143,0.30472055,0.6960274,0,0.0,0.0,0.0,0.0,0.09466151,0,0,0.0,0.0,0,0,34.0,0.0,0.0,4630.256410256411,3958.461538461539,4491.794871794872,4452.307692307693,4213.846153846154,4525.641025641026,4457.948717948719,4398.461538461539,4427.6923076923085,4732.820512820514,4265.641025641026,4275.384615384616,4245.128205128206,4489.2307692307695
966.8543,0.27287987,0.43437216,0.30919042,0.6789264,0,0.0,0.0,0.0,0.0,0.21189888,0,0,0.0,0.0,0,0,66.0,0.0,262.0,4631.282051282052,3957.9487179487182,4489.743589743591,4441.538461538462,4214.871794871796,4538.461538461539,4479.48717948718,4396.410256410257,4443.076923076924,4731.282051282052,4247.6923076923085,4269.74358974359,4241.538461538462,4518.974358974359
967.10455,0.27287987,0.43437216,0.30919042,0.6789264,0,0.0,0.0,0.0,0.0,0.0,0,0,0.0,0.0,0,0,98.0,0.0,537.0,4633.846153846154,3954.8717948717954,4527.6923076923085,4440.512820512821,4231.794871794872,4548.717948717949,4467.179487179487,4414.871794871796,4465.641025641026,4764.102564102564,4313.333333333334,4308.717948717949,4253.846153846154,4539.48717948718
967.35474,0.21406898,0.4482524,0.3138327,0.66467947,0,0.0,0.0,0.0,0.0,0.12273376,0,0,0.0,0.0,0,0,1.0,0.0,464.0,4627.6923076923085,3941.0256410256416,4513.333333333334,4426.153846153847,4230.769230769231,4538.461538461539,4455.384615384616,4397.948717948719,4428.205128205129,4724.102564102564,4280.000000000001,4267.179487179487,4185.641025641026,4466.666666666667
967.605,0.21406898,0.4482524,0.3138327,0.66467947,0,0.0,0.0,0.0,0.0,0.19813539,0,0,0.0,0.0,0,0,33.0,0.0,0.0,4622.564102564103,3917.9487179487182,4523.589743589744,4410.256410256411,4230.769230769231,4541.538461538462,4476.923076923077,4443.076923076924,4428.717948717949,4720.512820512821,4297.435897435898,4301.025641025642,4136.410256410257,4427.179487179487
967.85516,0.15798704,0.4493726,0.3180113,0.65512735,0,0.0,0.0,0.0,0.0,0.101452805,0,0,0.0,0.0,0,0,65.0,0.0,464.0,4616.410256410257,3897.9487179487182,4504.615384615385,4395.384615384616,4245.128205128206,4540.512820512821,4440.000000000001,4432.307692307693,4426.153846153847,4718.974358974359,4318.974358974359,4266.153846153847,4134.871794871796,4397.948717948719
968.1054,0.15798704,0.4493726,0.3180113,0.65512735,0,0.0,0.0,0.0,0.0,0.043740846,0,0,0.0,0.0,0,0,97.0,0.0,453.0,4635.384615384616,3895.8974358974365,4501.538461538462,4402.051282051282,4231.794871794872,4522.564102564103,4426.666666666667,4402.051282051282,4407.6923076923085,4708.717948717949,4291.282051282052,4253.846153846154,4122.564102564103,4413.333333333334
968.35565,0.13478228,0.44133922,0.32177252,0.6571873,0,0.0,0.0,0.0,0.0,0.0,0,0,0.0,0.0,0,0,0.0,0.0,514.0,4632.820512820514,3897.9487179487182,4504.102564102564,4403.589743589744,4242.564102564103,4524.615384615385,4460.512820512821,4432.820512820514,4405.641025641026,4718.461538461539,4276.410256410257,4250.256410256411,4151.282051282052,4437.948717948719
968.35565,0.13478228,0.44133922,0.32177252,0.6571873,0,0.0,0.0,0.0,0.0,0.0,0,0,0.0,0.0,0,0,0.0,0.0,514.0,4632.820512820514,3897.9487179487182,4504.102564102564,4403.589743589744,4242.564102564103,4524.615384615385,4460.512820512821,4432.820512820514,4405.641025641026,4718.461538461539,4276.410256410257,4250.256410256411,4151.282051282052,4437.948717948719
968.8561,0.11007677,0.43231934,0.31913108,0.66688406,0,0.0,0.0,0.0,0.0,0.0,0,0,0.0,0.0,0,0,64.0,0.0,514.0,4637.435897435898,3911.7948717948725,4507.6923076923085,4416.923076923077,4248.205128205129,4533.333333333334,4447.179487179487,4413.333333333334,4411.282051282052,4716.410256410257,4292.820512820514,4248.717948717949,4171.282051282052,4438.974358974359
968.8561,0.11007677,0.43231934,0.31913108,0.66688406,0,0.0,0.0,0.0,0.0,0.0,0,0,0.0,0.0,0,0,64.0,0.0,514.0,4637.435897435898,3911.7948717948725,4507.6923076923085,4416.923076923077,4248.205128205129,4533.333333333334,4447.179487179487,4413.333333333334,4411.282051282052,4716.410256410257,4292.820512820514,4248.717948717949,4171.282051282052,4438.974358974359
969.3565,0.07289518,0.41943836,0.3118598,0.6666096,0,0.0,0.0,0.0,0.0,0.0,0,0,0.0,0.0,0,0,128.0,0.0,507.0,4665.128205128206,3924.615384615385,4534.871794871796,4425.641025641026,4245.128205128206,4540.000000000001,4493.846153846154,4436.410256410257,4426.666666666667,4746.153846153847,4298.974358974359,4262.564102564103,4207.6923076923085,4491.794871794872
969.3565,0.07289518,0.41943836,0.3118598,0.6666096,0,0.0,0.0,0.0,0.0,0.0,0,0,0.0,0.0,0,0,128.0,0.0,507.0,4665.128205128206,3924.615384615385,4534.871794871796,4425.641025641026,4245.128205128206,4540.000000000001,4493.846153846154,4436.410256410257,4426.666666666667,4746.153846153847,4298.974358974359,4262.564102564103,4207.6923076923085,4491.794871794872
969.85693,0.07898195,0.42670387,0.30522177,0.67149734,0,0.0,0.0,0.0,0.0,0.0,0,0,0.0,0.0,0,0,63.0,0.0,0.0,4672.307692307693,3939.48717948718,4537.948717948719,4440.512820512821,4247.6923076923085,4546.153846153847,4485.641025641026,4423.076923076924,4415.384615384616,4748.717948717949,4298.974358974359,4278.461538461539,4197.435897435898,4486.666666666667
969.85693,0.07898195,0.42670387,0.30522177,0.67149734,0,0.0,0.0,0.0,0.0,0.0,0,0,0.0,0.0,0,0,63.0,0.0,0.0,4672.307692307693,3939.48717948718,4537.948717948719,4440.512820512821,4247.6923076923085,4546.153846153847,4485.641025641026,4423.076923076924,4415.384615384616,4748.717948717949,4298.974358974359,4278.461538461539,4197.435897435898,4486.666666666667
970.3886,0.004305351,0.42198792,0.2992386,0.6759384,0,0.0,0.0,0.0,0.036372997,0.0,0,0,0.0,0.0,0,0,2.0,0.0,262.0,4686.666666666667,3958.461538461539,4561.025641025642,4470.256410256411,4250.256410256411,4541.538461538462,4503.589743589744,4446.666666666667,4429.743589743591,4766.153846153847,4373.333333333334,3559.48717948718,4217.948717948719,4495.384615384616
970.60754,0.004305351,0.42198792,0.2992386,0.6759384,0,0.0,0.0,0.0,0.05251856,0.0,0,0,0.0,0.0,0,0,30.0,0.0,0.0,4677.435897435898,3926.666666666667,4527.179487179488,4444.102564102564,4245.641025641026,4535.384615384616,4479.48717948718,4442.564102564103,4412.307692307693,4747.6923076923085,4327.179487179487,3099.4871794871797,4203.076923076924,4430.256410256411
970.88904,0.0,0.5027491,0.29470137,0.67039603,0,0.0,0.0,0.0,0.06103182,0.0,0,0,0.0,0.0,0,0,66.0,0.0,262.0,4696.923076923077,3926.1538461538466,4535.8974358974365,4442.051282051282,4250.256410256411,4538.974358974359,4475.8974358974365,4443.589743589744,4428.717948717949,4765.641025641026,4343.076923076924,3176.410256410257,4201.538461538462,4512.307692307693
971.108,0.0,0.5027491,0.29470137,0.67039603,0,0.0,0.17353262,0.0,0.0,0.0,0,0,0.0,0.0,0,0,94.0,0.0,537.0,4686.666666666667,3904.1025641025644,4522.564102564103,4423.589743589744,4248.205128205129,4537.948717948719,4478.974358974359,4445.641025641026,4412.307692307693,4750.256410256411,4346.666666666667,3494.3589743589746,4184.102564102564,4505.641025641026
971.38947,0.0,0.62619406,0.29463848,0.6585803,0,0.0,0.3938963,0.0,0.0,0.0,0,0,0.0,0.0,0,0,1.0,0.0,464.0,4689.743589743591,3911.2820512820517,4521.025641025642,4428.717948717949,4248.205128205129,4541.025641025642,4492.307692307693,4463.589743589744,4445.641025641026,4777.435897435898,4376.923076923077,3961.538461538462,4209.74358974359,4507.179487179488
971.6084,0.0,0.62619406,0.29463848,0.6585803,0,0.0,0.0,0.0,0.0,0.0,0,0,0.0,0.0,0,0,29.0,0.0,0.0,4700.000000000001,3926.1538461538466,4533.333333333334,4444.102564102564,4252.307692307693,4537.435897435898,4473.333333333334,4442.564102564103,4426.666666666667,4748.205128205129,4367.179487179487,3780.512820512821,4184.102564102564,4423.589743589744
971.8899,0.0,0.7237673,0.29850796,0.6479462,0,0.0,0.0,0.0,0.0,0.0,0,0,0.42254862,0.0,0,0,65.0,0.0,464.0,4678.461538461539,3945.1282051282055,4551.794871794872,4475.384615384616,4271.282051282052,4557.948717948719,4474.871794871796,4455.8974358974365,4427.179487179487,4761.538461538462,4407.6923076923085,3743.589743589744,4205.128205128206,4431.794871794872
972.1088,0.0,0.7237673,0.29850796,0.6479462,0,0.0,0.0,0.0,0.0,0.34028026,0,0,0.0,0.0,0,0,93.0,0.0,455.0,4616.410256410257,3940.0000000000005,4570.256410256411,4488.205128205129,4280.000000000001,4568.717948717949,4499.48717948718,4510.256410256411,4446.153846153847,4767.6923076923085,4468.717948717949,3783.076923076924,4187.6923076923085,4431.794871794872
972.3591,0.005000295,0.7724379,0.30199954,0.6383482,0,0.0,0.0,0.0,0.0,0.28305274,0,0,0.0,0.0,0,0,125.0,0.0,455.0,4617.948717948719,3954.358974358975,4609.2307692307695,4507.179487179488,4283.076923076924,4553.846153846154,4482.051282051282,4520.000000000001,4409.743589743591,4745.641025641026,4502.051282051282,3806.1538461538466,4166.153846153847,4446.666666666667
972.60925,0.005000295,0.7724379,0.30199954,0.6383482,0,0.0,0.0,0.0,0.0,0.9622456,0,0,0.0,0.0,0,0,28.0,0.0,0.0,4618.461538461539,3958.461538461539,4570.769230769231,4540.000000000001,4285.641025641026,4536.923076923077,4424.615384615385,4475.384615384616,4392.820512820514,4736.410256410257,4502.051282051282,3300.0000000000005,4151.282051282052,4514.358974358975
972.89075,0.013549121,0.7352241,0.3051347,0.6297332,0,0.0,0.0,0.0,0.0,0.43152547,0,0,0.0,0.0,0,0,64.0,0.0,514.0,4625.128205128206,3972.820512820513,4506.153846153847,4545.128205128206,4271.794871794872,4522.051282051282,4414.871794871796,4453.333333333334,4371.282051282052,4710.769230769231,4481.025641025642,3727.1794871794878,4134.358974358975,4581.538461538462
973.1097,0.013549121,0.7352241,0.3051347,0.6297332,0,0.0,0.0,0.0,0.0,0.04195074,0,0,0.0,0.0,0,0,92.0,0.0,502.0,4630.256410256411,3993.8461538461543,4510.769230769231,4568.717948717949,4272.820512820514,4534.871794871796,4434.358974358975,4437.435897435898,4368.717948717949,4712.307692307693,4494.871794871796,4146.666666666667,4146.666666666667,4606.153846153847
973.3599,0.0,0.70263875,0.30796364,0.62195957,0,0.0,0.0,0.0,0.0,0.064276874,0,0,0.0,0.0,0,0,124.0,0.0,502.0,4617.435897435898,3986.1538461538466,4471.282051282052,4545.128205128206,4266.153846153847,4544.615384615385,4444.102564102564,4398.974358974359,4365.128205128206,4700.000000000001,4429.743589743591,4383.076923076924,4141.538461538462,4555.8974358974365
973.61017,0.0,0.70263875,0.30796364,0.62195957,0,0.0,0.0,0.0,0.0,0.013105138,0,0,0.0,0.0,0,0,27.0,0.0,0.0,4646.666666666667,3994.8717948717954,4474.871794871796,4539.48717948718,4250.256410256411,4540.512820512821,4443.589743589744,4350.769230769231,4355.384615384616,4687.179487179488,4372.820512820514,4708.717948717949,4144.615384615385,4602.051282051282
973.86035,0.0,0.7067006,0.31050947,0.6149646,0,0.0,0.0,0.0,0.0,0.038879547,0,0,0.0,0.0,0,0,59.0,0.0,0.0,4647.6923076923085,3977.435897435898,4491.282051282052,4520.000000000001,4242.564102564103,4553.846153846154,4475.384615384616,4374.358974358975,4390.769230769231,4717.435897435898,4372.307692307693,4880.000000000001,4189.74358974359,4605.641025641026
974.1106,0.0,0.7067006,0.31050947,0.6149646,0,0.0,0.0,0.0,0.0,0.16542016,0,0,0.0,0.0,0,0,91.0,0.0,505.0,4644.102564102564,3958.9743589743593,4503.589743589744,4487.6923076923085,4235.8974358974365,4554.871794871796,4478.461538461539,4380.000000000001,4393.333333333334,4718.974358974359,4339.48717948718,4884.615384615386,4201.538461538462,4570.769230769231
974.3608,0.0,0.7111265,0.3128005,0.6086705,0,0.0,0.0,0.0,0.0,0.11720288,0,0,0.0,0.0,0,0,123.0,0.0,505.0,4600.512820512821,3934.8717948717954,4504.615384615385,4455.384615384616,4245.128205128206,4560.000000000001,4478.461538461539,4404.102564102564,4398.461538461539,4719.48717948718,4338.461538461539,4806.666666666667,4185.641025641026,4518.461538461539
974.611,0.0,0.7111265,0.3128005,0.6086705,0,0.0,0.0,0.0,0.0,0.251137,0,0,0.0,0.0,0,0,26.0,0.0,0.0,4624.615384615385,3947.1794871794878,4522.051282051282,4461.538461538462,4260.512820512821,4572.820512820514,4493.333333333334,4430.256410256411,4425.128205128206,4751.282051282052,4363.589743589744,4878.461538461539,4221.025641025642,4523.589743589744
974.8612,0.0045290436,0.71567607,0.31486297,0.6030066,0,0.0,0.0,0.0,0.0,0.0,0,0,0.0,0.0,0,0,58.0,0.0,0.0,4627.179487179488,3926.666666666667,4505.641025641026,4445.128205128206,4233.846153846154,4552.307692307693,4461.025641025642,4396.410256410257,4369.743589743591,4700.000000000001,4318.461538461539,4811.282051282052,4184.615384615385,4494.358974358975
974.8612,0.0045290436,0.71567607,0.31486297,0.6030066,0,0.0,0.0,0.0,0.0,0.0,0,0,0.0,0.0,0,0,58.0,0.0,0.0,4627.179487179488,3926.666666666667,4505.641025641026,4445.128205128206,4233.846153846154,4552.307692307693,4461.025641025642,4396.410256410257,4369.743589743591,4700.000000000001,4318.461538461539,4811.282051282052,4184.615384615385,4494.358974358975
975.36163,0.0,0.7124221,0.3167197,0.5979115,0,0.0,0.0,0.0,0.0,0.0,0,0,0.0,0.0,0,0,122.0,0.0,537.0,4630.769230769231,3912.820512820513,4507.179487179488,4428.205128205129,4242.051282051282,4541.538461538462,4461.025641025642,4421.538461538462,4400.000000000001,4732.820512820514,4332.820512820514,4877.948717948719,4195.8974358974365,4615.384615384616
975.6119,0.0,0.7124221,0.3167197,0.5979115,0,0.0,0.0,0.0,0.0,0.15051123,0,0,0.0,0.0,0,0,25.0,0.0,0.0,4631.282051282052,3909.7435897435903,4504.615384615385,4411.282051282052,4228.717948717949,4534.358974358975,4473.846153846154,4420.000000000001,4386.666666666667,4708.205128205129,4312.307692307693,4782.564102564103,4186.666666666667,4558.974358974359
975.86206,0.0,0.6687701,0.32186332,0.59981716,0,0.0,0.0,0.0,0.0,0.1510001,0,0,0.0,0.0,0,0,57.0,0.0,0.0,4641.025641025642,3911.7948717948725,4513.846153846154,4415.8974358974365,4242.051282051282,4544.102564102564,4490.256410256411,4441.025641025642,4388.717948717949,4717.435897435898,4298.974358974359,4686.153846153847,4184.102564102564,4514.358974358975
976.1123,0.0,0.6687701,0.32186332,0.59981716,0,0.0,0.0,0.0,0.0,0.072208785,0,0,0.0,0.0,0,0,89.0,0.0,437.0,4655.384615384616,3924.1025641025644,4537.948717948719,4426.153846153847,4246.153846153847,4551.794871794872,4503.589743589744,4471.282051282052,4430.769230769231,4751.282051282052,4328.717948717949,4688.717948717949,4210.769230769231,4537.435897435898
976.3625,0.01736289,0.6428076,0.3339943,0.60778797,0,0.0,0.0,0.0,0.0,0.0,0,0,0.0,0.0,0,0,121.0,0.0,437.0,4655.8974358974365,3936.410256410257,4522.051282051282,4433.846153846154,4264.615384615385,4552.307692307693,4473.846153846154,4440.000000000001,4425.641025641026,4749.743589743591,4309.743589743591,4605.641025641026,4213.846153846154,4529.2307692307695
976.3625,0.01736289,0.6428076,0.3339943,0.60778797,0,0.0,0.0,0.0,0.0,0.0,0,0,0.0,0.0,0,0,121.0,0.0,437.0,4655.8974358974365,3936.410256410257,4522.051282051282,4433.846153846154,4264.615384615385,4552.307692307693,4473.846153846154,4440.000000000001,4425.641025641026,4749.743589743591,4309.743589743591,4605.641025641026,4213.846153846154,4529.2307692307695
976.8629,0.004942121,0.6242588,0.35638413,0.6149591,0,0.0,0.0,0.0,0.0,0.0,0,0,0.0,0.0,0,0,56.0,0.0,0.0,4664.615384615386,3915.3846153846157,4539.48717948718,4422.564102564103,4244.102564102564,4540.000000000001,4482.564102564103,4485.128205128206,4441.538461538462,4759.48717948718,4342.051282051282,4607.179487179488,4202.051282051282,4494.358974358975
976.8629,0.004942121,0.6242588,0.35638413,0.6149591,0,0.0,0.0,0.0,0.0,0.0,0,0,0.0,0.0,0,0,56.0,0.0,0.0,4664.615384615386,3915.3846153846157,4539.48717948718,4422.564102564103,4244.102564102564,4540.000000000001,4482.564102564103,4485.128205128206,4441.538461538462,4759.48717948718,4342.051282051282,4607.179487179488,4202.051282051282,4494.358974358975
977.36334,0.0,0.60315675,0.3765341,0.6214103,0,0.0,0.0,0.0,0.0,0.07125313,0,0,0.0,0.0,0,0,120.0,0.0,504.0,4691.282051282052,3942.0512820512827,4535.384615384616,4441.538461538462,4249.2307692307695,4531.794871794872,4443.076923076924,4443.589743589744,4428.205128205129,4737.435897435898,4336.410256410257,4458.974358974359,4182.051282051282,4497.435897435898
977.6136,0.0,0.60315675,0.3765341,0.6214103,0,0.0,0.0,0.0,0.0,0.14799374,0,0,0.0,0.0,0,0,23.0,0.0,0.0,4709.2307692307695,3954.358974358975,4535.384615384616,4451.282051282052,4249.74358974359,4537.435897435898,4460.512820512821,4448.717948717949,4447.6923076923085,4766.666666666667,4365.128205128206,4449.743589743591,4217.435897435898,4511.282051282052
977.8638,0.0,0.58555067,0.39240086,0.6272132,0,0.0,0.0,0.0,0.0,0.07697365,0,0,0.0,0.0,0,0,55.0,0.0,0.0,4720.000000000001,3952.307692307693,4541.025641025642,4455.384615384616,4247.6923076923085,4538.461538461539,4473.846153846154,4458.974358974359,4458.461538461539,4768.717948717949,4363.589743589744,4406.153846153847,4214.358974358975,4513.333333333334
977.9889,0.0,0.58555067,0.39240086,0.6272132,0,0.0,0.0,0.0,0.0,0.0,0,0,0.0,0.0,0,0,71.0,0.0,451.0,4753.333333333334,3973.333333333334,4555.384615384616,4476.923076923077,4254.358974358975,4532.820512820514,4462.564102564103,4437.435897435898,4436.923076923077,4752.307692307693,4367.6923076923085,4395.384615384616,4196.410256410257,4526.666666666667
978.3642,0.0,0.5684162,0.40667865,0.6324322,0,0.0,0.0,0.0,0.0,0.07360191,0,0,0.0,0.0,0,0,119.0,0.0,506.0,4735.8974358974365,3971.2820512820517,4546.666666666667,4472.307692307693,4265.128205128206,4544.615384615385,4475.384615384616,4434.871794871796,4443.589743589744,4758.974358974359,4363.076923076924,4350.256410256411,4204.615384615385,4534.358974358975
978.61444,0.0,0.5684162,0.40667865,0.6324322,0,0.0,0.0,0.0,0.0,0.08406565,0,0,0.0,0.0,0,0,22.0,0.0,0.0,4720.000000000001,3959.48717948718,4524.615384615385,4469.2307692307695,4250.769230769231,4537.948717948719,4475.8974358974365,4424.615384615385,4429.2307692307695,4751.794871794872,4340.000000000001,4313.333333333334,4196.410256410257,4495.384615384616
978.8646,0.0,0.5450413,0.41900232,0.6403722,0,0.0,0.0,0.0,0.0,0.082993165,0,0,0.0,0.0,0,0,54.0,0.0,0.0,4727.179487179488,3938.9743589743593,4520.512820512821,4453.333333333334,4262.051282051282,4537.948717948719,4459.48717948718,4410.769230769231,4423.076923076924,4744.102564102564,4341.538461538462,4311.794871794872,4189.74358974359,4507.6923076923085
979.11487,0.0,0.5450413,0.41900232,0.6403722,0,0.0,0.0,0.0,0.0,0.11061281,0,0,0.0,0.0,0,0,86.0,0.0,537.0,4725.641025641026,3926.1538461538466,4520.000000000001,4439.48717948718,4247.179487179487,4525.641025641026,4459.48717948718,4417.435897435898,4421.025641025642,4742.564102564103,4351.794871794872,4311.282051282052,4179.48717948718,4521.025641025642
979.3651,0.0,0.5253717,0.42234358,0.6495058,0,0.0,0.0,0.0,0.0,0.016536763,0,0,0.0,0.0,0,0,118.0,0.0,537.0,4718.974358974359,3899.48717948718,4522.564102564103,4413.846153846154,4249.74358974359,4524.615384615385,4460.512820512821,4413.333333333334,4412.307692307693,4740.512820512821,4344.102564102564,4298.461538461539,4152.307692307693,4506.666666666667
979.6153,0.0,0.5253717,0.42234358,0.6495058,0,0.0,0.0,0.0,0.0,0.018997733,0,0,0.0,0.0,0,0,21.0,0.0,0.0,4716.410256410257,3941.0256410256416,4541.538461538462,4455.8974358974365,4255.384615384616,4537.948717948719,4475.384615384616,4444.615384615385,4422.564102564103,4744.102564102564,4354.358974358975,4306.666666666667,4178.974358974359,4525.128205128206
979.86554,0.0,0.4912335,0.4186,0.6579311,0,0.0,0.0,0.0,0.0,0.119563155,0,0,0.0,0.0,0,0,53.0,0.0,0.0,4730.769230769231,3927.692307692308,4520.512820512821,4443.076923076924,4256.410256410257,4533.846153846154,4460.512820512821,4440.512820512821,4410.769230769231,4734.871794871796,4349.2307692307695,4282.564102564103,4175.8974358974365,4569.2307692307695
980.1157,0.0,0.4912335,0.4186,0.6579311,0,0.0,0.0,0.0,0.0,0.14997853,0,0,0.0,0.0,0,0,85.0,0.0,449.0,4721.538461538462,3928.205128205129,4525.128205128206,4444.102564102564,4260.512820512821,4538.974358974359,4460.000000000001,4402.564102564103,4416.923076923077,4748.717948717949,4365.128205128206,4301.025641025642,4185.128205128206,4586.153846153847
980.36597,0.0,0.44661942,0.4145332,0.66550636,0,0.0,0.0,0.0,0.0,0.33741018,0,0,0.0,0.0,0,0,117.0,0.0,449.0,4709.743589743591,3924.615384615385,4545.128205128206,4443.589743589744,4254.871794871796,4527.6923076923085,4463.589743589744,4442.051282051282,4406.153846153847,4745.641025641026,4399.48717948718,4325.128205128206,4186.153846153847,4520.000000000001
980.61615,0.0,0.44661942,0.4145332,0.66550636,0,0.0,0.0,0.0,0.0,0.44542313,0,0,0.0,0.0,0,0,20.0,0.0,0.0,4697.948717948719,3940.0000000000005,4554.871794871796,4472.307692307693,4277.948717948719,4536.410256410257,4435.8974358974365,4424.615384615385,4383.076923076924,4724.615384615386,4428.205128205129,4328.717948717949,4168.717948717949,4637.435897435898
980.8664,0.0,0.41182563,0.4108709,0.67082673,0,0.0,0.0,0.0,0.0,0.17353188,0,0,0.0,0.0,0,0,52.0,0.0,0.0,4703.589743589744,3989.23076923077,4536.410256410257,4519.48717948718,4292.820512820514,4526.153846153847,4412.307692307693,4394.358974358975,4347.6923076923085,4700.512820512821,4458.461538461539,4309.743589743591,4156.923076923077,4642.051282051282
981.1166,0.0,0.41182563,0.4108709,0.67082673,0,0.0,0.0,0.0,0.0,0.2526785,0,0,0.0,0.0,0,0,84.0,0.0,506.0,4686.666666666667,3968.205128205129,4488.717948717949,4506.153846153847,4279.48717948718,4523.589743589744,4411.282051282052,4388.717948717949,4340.000000000001,4687.6923076923085,4445.641025641026,4272.307692307693,4152.307692307693,4604.615384615385
981.3668,0.03794515,0.38245386,0.40757275,0.6730998,0,0.0,0.0,0.0,0.0,0.33217362,0,0,0.0,0.0,0,0,116.0,0.0,506.0,4725.128205128206,3957.9487179487182,4474.871794871796,4508.205128205129,4295.384615384616,4539.48717948718,4438.974358974359,4401.025641025642,4351.282051282052,4703.076923076924,4443.076923076924,4255.8974358974365,4185.128205128206,4679.48717948718
981.4919,0.03794515,0.38245386,0.40757275,0.6730998,0,0.0,0.0,0.0,0.0,1.0,0,0,0.0,0.0,0,0,3.0,0.0,546.0,4731.794871794872,3924.615384615385,4470.769230769231,4489.2307692307695,4280.000000000001,4537.948717948719,4421.025641025642,4395.8974358974365,4358.461538461539,4703.589743589744,4429.2307692307695,4236.410256410257,4180.000000000001,4727.179487179488
981.86725,0.056003265,0.3559627,0.40460238,0.6646121,0,0.0,0.0,0.0,0.0,0.18981797,0,0,0.0,0.0,0,0,51.0,0.0,0.0,4737.435897435898,3901.538461538462,4477.948717948719,4461.025641025642,4248.205128205129,4536.410256410257,4458.461538461539,4412.820512820514,4373.846153846154,4689.2307692307695,4372.307692307693,4232.820512820514,4186.153846153847,4718.974358974359
982.11743,0.056003265,0.3559627,0.40460238,0.6646121,0,0.0,0.0,0.0,0.0,0.14774506,0,0,0.0,0.0,0,0,83.0,0.0,500.0,4721.538461538462,3913.333333333334,4508.205128205129,4475.384615384616,4249.74358974359,4552.307692307693,4493.846153846154,4460.000000000001,4413.846153846154,4723.589743589744,4373.846153846154,4268.205128205129,4213.846153846154,4681.025641025642
982.3677,0.053089276,0.33458075,0.40192708,0.65697294,0,0.0,0.0,0.0,0.0,1.0,0,0,0.0,0.0,0,0,115.0,0.0,500.0,4699.48717948718,3926.1538461538466,4520.000000000001,4458.461538461539,4253.846153846154,4554.871794871796,4481.025641025642,4428.205128205129,4413.333333333334,4703.076923076924,4323.589743589744,4245.641025641026,4176.410256410257,4568.717948717949
982.3677,0.053089276,0.33458075,0.40192708,0.65697294,0,0.0,0.0,0.0,0.0,1.0,0,0,0.0,0.0,0,0,115.0,0.0,500.0,4699.48717948718,3926.1538461538466,4520.000000000001,4458.461538461539,4253.846153846154,4554.871794871796,4481.025641025642,4428.205128205129,4413.333333333334,4703.076923076924,4323.589743589744,4245.641025641026,4176.410256410257,4568.717948717949
982.8681,0.04890786,0.3196973,0.39522874,0.6500971,0,0.0,0.0,0.0,0.0,0.15675898,0,0,0.0,0.0,0,0,50.0,0.0,0.0,4704.102564102564,3959.48717948718,4554.871794871796,4476.410256410257,4264.615384615385,4583.589743589744,4527.179487179488,4453.846153846154,4442.564102564103,4751.282051282052,4322.051282051282,4282.051282051282,4210.769230769231,4554.358974358975
983.1183,0.04890786,0.3196973,0.39522874,0.6500971,0,0.0,0.0,0.0,0.0,0.18456776,0,0,0.0,0.0,0,0,82.0,0.0,536.0,4695.8974358974365,3940.0000000000005,4555.384615384616,4457.435897435898,4249.74358974359,4569.743589743591,4522.051282051282,4448.717948717949,4435.8974358974365,4749.743589743591,4321.025641025642,4291.794871794872,4205.128205128206,4523.076923076924
983.3685,0.09219047,0.3256747,0.38064855,0.6437564,0,0.0,0.0,0.0,0.0,0.23588882,0,0,0.0,0.0,0,0,114.0,0.0,536.0,4718.974358974359,3911.2820512820517,4564.102564102564,4429.2307692307695,4246.666666666667,4556.410256410257,4491.794871794872,4426.666666666667,4412.307692307693,4728.205128205129,4313.846153846154,4289.2307692307695,4195.8974358974365,4519.48717948718
983.65,0.09219047,0.3256747,0.38064855,0.6437564,0,0.0,0.0,0.0,0.0,0.41754833,0,0,0.0,0.0,0,0,21.0,0.0,0.0,4629.2307692307695,3768.717948717949,4466.153846153847,4272.820512820514,4171.794871794872,4489.743589743591,4416.923076923077,4396.410256410257,4334.358974358975,4662.051282051282,4226.666666666667,4205.641025641026,4135.384615384616,4461.025641025642
983.86896,0.107467644,0.3309604,0.36752528,0.64903104,0,0.0,0.0,0.0,0.0,0.25449678,0,0,0.0,0.0,0,0,49.0,0.0,0.0,4579.48717948718,3749.2307692307695,4489.2307692307695,4294.871794871796,4134.358974358975,4447.179487179487,4398.974358974359,4492.307692307693,4353.333333333334,4786.666666666667,4161.538461538462,4129.2307692307695,4238.974358974359,4694.871794871796
984.11914,0.107467644,0.3309604,0.36752528,0.64903104,0,0.0,0.0,0.0,0.0,0.28202698,0,0,0.0,0.0,0,0,81.0,0.0,453.0,4604.102564102564,3317.9487179487182,4532.307692307693,3860.0000000000005,4212.820512820514,4493.333333333334,4431.794871794872,4505.128205128206,4288.717948717949,4750.256410256411,4100.000000000001,4116.410256410257,4055.8974358974365,4641.025641025642
984.40063,0.14558972,0.33571756,0.3557198,0.6538079,0,0.0,0.0,0.0,0.0,0.0,1,0,0.14298262,0.0,0,0,117.0,0.0,453.0,4637.435897435898,3149.2307692307695,4551.282051282052,3650.7692307692314,4183.076923076924,4492.820512820514,4459.48717948718,4534.871794871796,4351.282051282052,4768.205128205129,4185.641025641026,4206.666666666667,4019.48717948718,4461.025641025642
984.6196,0.14558972,0.33571756,0.3557198,0.6538079,0,0.0,0.0,0.0,0.0,0.0,1,0,0.97841626,0.0,0,0,16.0,0.0,0.0,4654.871794871796,3448.717948717949,4526.666666666667,3942.0512820512827,4102.051282051282,4475.8974358974365,4426.666666666667,4496.923076923077,4351.282051282052,4729.743589743591,4214.871794871796,4298.974358974359,4033.8461538461543,4368.205128205129
984.90106,0.20573106,0.33999896,0.3469497,0.65810704,0,0.0,0.0,0.0,0.0,0.0,1,0,0.29166952,0.0,0,0,52.0,0.0,0.0,4706.666666666667,3920.5128205128212,4605.641025641026,4371.794871794872,4235.384615384616,4592.307692307693,4510.256410256411,4585.128205128206,4468.205128205129,4856.410256410257,4379.48717948718,4413.846153846154,4260.512820512821,4415.384615384616
985.12006,0.20573106,0.33999896,0.3469497,0.65810704,0,0.0,0.0,0.0,0.0,0.18112417,0,0,0.0,0.0,0,0,80.0,0.0,506.0,4680.000000000001,4027.1794871794878,4552.820512820514,4483.076923076924,4215.8974358974365,4553.846153846154,4444.102564102564,4541.025641025642,4452.307692307693,4800.000000000001,4394.871794871796,4378.461538461539,4245.641025641026,4358.974358974359
985.40155,0.2442975,0.34385225,0.3433696,0.6532989,0,0.0,0.0,0.0,0.0,0.0,0,0,0.2334873,0.0,0,0,116.0,0.0,506.0,4682.051282051282,4151.794871794872,4552.820512820514,4615.8974358974365,4242.051282051282,4558.461538461539,4476.923076923077,4538.461538461539,4465.641025641026,4785.128205128206,4430.769230769231,4377.948717948719,4304.102564102564,4440.512820512821
985.6205,0.2442975,0.34385225,0.3433696,0.6532989,0,0.0,0.0,0.0,0.0,0.07736749,0,0,0.0,0.0,0,0,15.0,0.0,511.0,4648.717948717949,4589.743589743591,4505.641025641026,5061.025641025642,4244.615384615385,4528.717948717949,4437.948717948719,4468.717948717949,4427.179487179487,4745.641025641026,4348.717948717949,4316.923076923077,4423.076923076924,4409.743589743591
985.902,0.2330656,0.3473202,0.34236598,0.6431929,0,0.0,0.0,0.038689386,0.0,0.0,0,0,0.0,0.0,0,0,51.0,0.0,0.0,4625.641025641026,4428.717948717949,4496.410256410257,4907.6923076923085,4233.846153846154,4507.6923076923085,4443.076923076924,4380.512820512821,4421.025641025642,4703.589743589744,4274.871794871796,4288.717948717949,4331.282051282052,4420.000000000001
986.1209,0.2330656,0.3473202,0.34236598,0.6431929,0,0.0,0.0,0.0,0.0,0.26420915,0,0,0.0,0.0,0,0,79.0,0.0,511.0,4583.589743589744,4271.282051282052,4425.128205128206,4781.538461538462,4235.384615384616,4473.846153846154,4390.769230769231,4313.846153846154,4348.717948717949,4620.512820512821,4173.846153846154,4203.076923076924,4248.205128205129,4360.000000000001
986.3711,0.35059872,0.35044137,0.34146044,0.63407254,0,0.0,0.0,0.0,0.0,0.09378668,0,0,0.0,0.0,0,0,111.0,0.0,511.0,4576.923076923077,4124.102564102564,4457.948717948719,4457.948717948719,4278.461538461539,4507.179487179488,4445.128205128206,4385.641025641026,4392.820512820514,4679.48717948718,4306.153846153847,4245.641025641026,4281.025641025642,4436.410256410257
986.62134,0.35059872,0.35044137,0.34146044,0.63407254,0,0.0,0.0,0.5401201,0.0,0.0,0,0,0.0,0.0,0,0,14.0,0.0,536.0,4665.128205128206,4092.307692307693,4552.820512820514,4458.461538461539,4521.538461538462,4643.589743589744,4526.153846153847,4403.076923076924,4475.384615384616,4761.538461538462,4400.000000000001,4334.358974358975,4313.333333333334,4585.641025641026
986.90283,0.4336098,0.3532504,0.34064725,0.6258853,0,0.0,0.0,0.45658183,0.0,0.0,0,0,0.0,0.0,0,0,50.0,0.0,0.0,4601.538461538462,3996.9230769230776,4512.820512820514,4423.589743589744,4454.871794871796,4613.333333333334,4474.871794871796,4363.589743589744,4413.846153846154,4692.820512820514,4380.512820512821,4277.948717948719,4214.871794871796,4402.051282051282
987.12177,0.4336098,0.3532504,0.34064725,0.6258853,0,0.0,0.0,0.0,0.0,0.7062307,0,0,0.0,0.0,0,0,78.0,0.0,538.0,4526.153846153847,3918.461538461539,4472.307692307693,4338.461538461539,4375.8974358974365,4568.717948717949,4420.000000000001,4264.102564102564,4296.410256410257,4556.410256410257,4376.923076923077,4222.564102564103,4029.7435897435903,4244.102564102564
987.37195,0.5815254,0.35577855,0.33991355,0.6184982,0,0.0,0.0,0.0,0.0,0.94615966,0,0,0.0,0.0,0,0,110.0,0.0,538.0,4569.2307692307695,3971.2820512820517,4535.384615384616,4414.358974358975,4414.871794871796,4610.256410256411,4431.282051282052,4294.358974358975,4296.410256410257,4600.000000000001,4442.564102564103,4217.435897435898,4045.1282051282055,4213.846153846154
987.6222,0.5815254,0.35577855,0.33991355,0.6184982,0,0.0,0.0,0.0,0.0,0.0,0,0,0.0,0.08983964,0,0,13.0,0.0,451.0,4568.205128205129,3971.2820512820517,4540.512820512821,4442.564102564103,4422.051282051282,4609.743589743591,4415.384615384616,4267.179487179487,4280.000000000001,4604.615384615385,4430.256410256411,4133.846153846154,4033.333333333334,4280.000000000001
987.8724,0.51451766,0.35805386,0.33925328,0.61185104,0,0.0,0.0,0.0,0.0,0.41726068,0,0,0.0,0.0,0,0,45.0,0.0,0.0,4552.820512820514,3957.9487179487182,4476.923076923077,4430.256410256411,4406.666666666667,4570.256410256411,4385.641025641026,4227.179487179487,4284.102564102564,4612.820512820514,4434.358974358975,4087.692307692308,4046.1538461538466,4281.538461538462
988.1226,0.51451766,0.35805386,0.33925328,0.61185104,0,0.0,0.0,0.0,0.0,0.5277484,0,0,0.0,0.0,0,0,77.0,0.0,454.0,4554.871794871796,3946.1538461538466,4412.820512820514,4428.205128205129,4378.974358974359,4556.410256410257,4381.025641025642,4232.820512820514,4282.564102564103,4602.564102564103,4398.974358974359,4026.1538461538466,4076.9230769230776,4334.358974358975
988.3728,0.4984054,0.36010167,0.33865908,0.60586977,0,0.0,0.0,0.0,0.0,1.0,0,0,0.0,0.0,0,0,109.0,0.0,454.0,4534.871794871796,3859.48717948718,4372.307692307693,4333.333333333334,4287.6923076923085,4509.2307692307695,4354.358974358975,4198.974358974359,4276.410256410257,4601.025641025642,4396.410256410257,4010.7692307692314,4095.8974358974365,4424.615384615385
988.62305,0.4984054,0.36010167,0.33865908,0.60586977,0,0.0,0.0,0.0,0.17109478,0.0,0,0,0.0,0.0,0,0,12.0,0.0,503.0,4566.666666666667,3593.333333333334,4364.615384615385,4281.538461538462,4295.384615384616,4542.564102564103,4441.538461538462,4338.461538461539,4350.256410256411,4671.794871794872,4389.743589743591,4075.8974358974365,4176.923076923077,4625.128205128206
988.90454,0.5221162,0.37848443,0.33812568,0.6004998,0,0.07500201,0.0,0.0,0.0,0.0,0,0,0.0,0.0,0,0,48.0,0.0,0.0,4569.743589743591,3861.538461538462,4412.820512820514,4369.743589743591,4244.615384615385,4520.512820512821,4455.384615384616,4325.128205128206,4373.333333333334,4663.076923076924,4332.820512820514,4180.000000000001,4160.512820512821,4544.102564102564
989.1235,0.5221162,0.37848443,0.33812568,0.6004998,0,0.12254466,0.0,0.0,0.0,0.0,0,0,0.0,0.0,0,0,76.0,0.0,501.0,4556.410256410257,3902.564102564103,4419.48717948718,4389.2307692307695,4232.820512820514,4511.794871794872,4421.025641025642,4292.820512820514,4331.282051282052,4657.948717948719,4316.410256410257,4121.538461538462,4201.025641025642,4551.794871794872
989.40497,0.5211521,0.38132238,0.33764598,0.5956698,0,0.013639224,0.0,0.0,0.0,0.0,0,0,0.0,0.0,0,0,112.0,0.0,501.0,4566.153846153847,3928.717948717949,4447.6923076923085,4396.923076923077,4216.410256410257,4508.205128205129,4442.564102564103,4391.794871794872,4371.794871794872,4662.051282051282,4299.48717948718,4188.205128205129,4181.025641025642,4520.512820512821
989.6239,0.5211521,0.38132238,0.33764598,0.5956698,0,0.021473618,0.0,0.0,0.0,0.0,0,0,0.0,0.0,0,0,11.0,0.0,507.0,4553.846153846154,3921.0256410256416,4458.461538461539,4383.076923076924,4218.461538461539,4521.025641025642,4458.974358974359,4352.307692307693,4366.666666666667,4658.974358974359,4262.051282051282,4196.410256410257,4166.666666666667,4504.615384615385
989.87415,0.44169873,0.41321197,0.3372135,0.5913156,0,0.05140623,0.0,0.0,0.0,0.0,0,0,0.0,0.0,0,0,43.0,0.0,0.0,4568.205128205129,3925.6410256410263,4495.384615384616,4390.769230769231,4220.000000000001,4527.6923076923085,4488.717948717949,4428.717948717949,4408.205128205129,4696.410256410257,4269.2307692307695,4243.589743589744,4168.717948717949,4511.282051282052
990.1243,0.44169873,0.41321197,0.3372135,0.5913156,0,0.0,0.0,0.0,0.0,0.0,0,0,0.0,0.029482147,0,0,75.0,0.0,507.0,4566.153846153847,3923.076923076924,4503.589743589744,4375.384615384616,4216.410256410257,4518.461538461539,4451.794871794872,4443.076923076924,4394.871794871796,4707.179487179488,4280.000000000001,4248.717948717949,4183.589743589744,4556.410256410257
990.3746,0.4362693,0.435183,0.33682427,0.58739746,0,0.0,0.0,0.0,0.0,0.13535422,0,0,0.0,0.0,0,0,107.0,0.0,507.0,4572.820512820514,3938.461538461539,4503.076923076924,4395.8974358974365,4224.615384615385,4523.589743589744,4463.076923076924,4393.333333333334,4382.564102564103,4710.256410256411,4297.435897435898,4255.384615384616,4193.333333333334,4567.179487179488
990.62476,0.4362693,0.435183,0.33682427,0.58739746,0,0.0,0.0,0.0,0.0,0.016016282,0,0,0.0,0.0,0,0,10.0,0.0,540.0,4584.102564102564,3929.2307692307695,4504.102564102564,4395.384615384616,4204.102564102564,4508.717948717949,4463.589743589744,4384.615384615385,4390.256410256411,4717.948717948719,4293.333333333334,4267.179487179487,4213.846153846154,4597.948717948719
990.875,0.35507333,0.4446571,0.33647388,0.5838704,0,0.0,0.0,0.0,0.0,0.042063892,0,0,0.0,0.0,0,0,42.0,0.0,0.0,4584.102564102564,3902.0512820512827,4489.2307692307695,4381.538461538462,4215.384615384616,4508.717948717949,4443.076923076924,4374.871794871796,4376.923076923077,4717.435897435898,4279.48717948718,4245.641025641026,4202.051282051282,4570.256410256411
991.1252,0.35507333,0.4446571,0.33647388,0.5838704,0,0.0,0.0,0.0,0.0,0.0,0,0,0.0,0.0,0,0,74.0,0.0,540.0,4568.717948717949,3905.6410256410263,4477.948717948719,4394.358974358975,4204.102564102564,4505.641025641026,4428.205128205129,4374.871794871796,4380.512820512821,4716.923076923077,4238.461538461539,4229.74358974359,4223.076923076924,4557.948717948719
991.3754,0.32603705,0.45152244,0.33615854,0.5806954,0,0.0,0.0,0.0,0.0,0.0,0,0,0.0,0.0,0,0,106.0,0.0,540.0,4572.307692307693,3898.9743589743593,4492.307692307693,4388.717948717949,4196.410256410257,4497.435897435898,4446.666666666667,4403.076923076924,4386.666666666667,4719.48717948718,4251.282051282052,4235.8974358974365,4217.435897435898,4526.153846153847
991.3754,0.32603705,0.45152244,0.33615854,0.5806954,0,0.0,0.0,0.0,0.0,0.0,0,0,0.0,0.0,0,0,106.0,0.0,540.0,4572.307692307693,3898.9743589743593,4492.307692307693,4388.717948717949,4196.410256410257,4497.435897435898,4446.666666666667,4403.076923076924,4386.666666666667,4719.48717948718,4251.282051282052,4235.8974358974365,4217.435897435898,4526.153846153847
991.87585,0.27805108,0.45076248,0.3358749,0.5778373,0,0.0,0.0,0.0,0.0,0.0,0,0,0.0,0.0,0,0,41.0,0.0,0.0,4587.179487179488,3896.410256410257,4488.205128205129,4388.717948717949,4198.974358974359,4503.589743589744,4445.128205128206,4461.025641025642,4411.282051282052,4734.871794871796,4320.512820512821,4234.871794871796,4203.076923076924,4427.179487179487
991.87585,0.27805108,0.45076248,0.3358749,0.5778373,0,0.0,0.0,0.0,0.0,0.0,0,0,0.0,0.0,0,0,41.0,0.0,0.0,4587.179487179488,3896.410256410257,4488.205128205129,4388.717948717949,4198.974358974359,4503.589743589744,4445.128205128206,4461.025641025642,4411.282051282052,4734.871794871796,4320.512820512821,4234.871794871796,4203.076923076924,4427.179487179487
992.3763,0.25737372,0.45469993,0.33841616,0.57365036,0,0.0,0.0,0.0,0.0,0.0,0,0,0.0,0.0,0,0,105.0,0.0,453.0,4583.589743589744,3889.7435897435903,4503.589743589744,4394.358974358975,4199.48717948718,4490.769230769231,4457.435897435898,4458.974358974359,4398.974358974359,4730.769230769231,4354.871794871796,4263.589743589744,4191.794871794872,4418.461538461539
992.3763,0.25737372,0.45469993,0.33841616,0.57365036,0,0.0,0.0,0.0,0.0,0.0,0,0,0.0,0.0,0,0,105.0,0.0,453.0,4583.589743589744,3889.7435897435903,4503.589743589744,4394.358974358975,4199.48717948718,4490.769230769231,4457.435897435898,4458.974358974359,4398.974358974359,4730.769230769231,4354.871794871796,4263.589743589744,4191.794871794872,4418.461538461539
992.8767,0.21088864,0.45257494,0.3454967,0.5576222,0,0.0,0.0,0.0,0.0,0.0,0,0,0.0,0.0,0,0,40.0,0.0,0.0,4607.179487179488,3943.076923076924,4539.48717948718,4457.948717948719,4242.564102564103,4507.6923076923085,4447.6923076923085,4442.051282051282,4384.615384615385,4707.179487179488,4397.948717948719,4306.666666666667,4159.48717948718,4429.2307692307695
992.8767,0.21088864,0.45257494,0.3454967,0.5576222,0,0.0,0.0,0.0,0.0,0.0,0,0,0.0,0.0,0,0,40.0,0.0,0.0,4607.179487179488,3943.076923076924,4539.48717948718,4457.948717948719,4242.564102564103,4507.6923076923085,4447.6923076923085,4442.051282051282,4384.615384615385,4707.179487179488,4397.948717948719,4306.666666666667,4159.48717948718,4429.2307692307695
993.37714,0.15131877,0.4513544,0.35186887,0.5273561,0,0.0,0.0,0.0,0.0,0.0,0,0,0.0,0.0,0,0,104.0,0.0,510.0,4602.564102564103,3927.1794871794878,4540.512820512821,4459.48717948718,4249.74358974359,4518.461538461539,4458.461538461539,4480.512820512821,4386.666666666667,4723.076923076924,4430.256410256411,4328.205128205129,4148.205128205129,4460.000000000001
993.37714,0.15131877,0.4513544,0.35186887,0.5273561,0,0.0,0.0,0.0,0.0,0.0,0,0,0.0,0.0,0,0,104.0,0.0,510.0,4602.564102564103,3927.1794871794878,4540.512820512821,4459.48717948718,4249.74358974359,4518.461538461539,4458.461538461539,4480.512820512821,4386.666666666667,4723.076923076924,4430.256410256411,4328.205128205129,4148.205128205129,4460.000000000001
993.87756,0.14564164,0.44059518,0.35938936,0.49323386,0,0.0,0.0,0.0,0.0,0.066605985,0,0,0.0,0.0,0,0,39.0,0.0,0.0,4620.000000000001,3940.5128205128212,4530.256410256411,4462.051282051282,4227.179487179487,4504.615384615385,4458.974358974359,4416.410256410257,4397.435897435898,4731.282051282052,4429.743589743591,4317.435897435898,4172.307692307693,4520.512820512821
994.12775,0.14564164,0.44059518,0.35938936,0.49323386,0,0.0,0.0,0.0,0.0,0.0,0,0,0.0,0.0,0,0,71.0,0.0,451.0,4619.48717948718,3925.1282051282055,4491.282051282052,4443.076923076924,4217.948717948719,4495.8974358974365,4462.564102564103,4420.512820512821,4396.923076923077,4734.358974358975,4400.000000000001,4277.435897435898,4163.589743589744,4495.8974358974365
994.378,0.1192401,0.42251328,0.36843404,0.46253192,0,0.0,0.0,0.0,0.0,0.0,0,0,0.0,0.0,0,0,103.0,0.0,507.0,4622.051282051282,3942.564102564103,4506.153846153847,4458.461538461539,4244.615384615385,4520.512820512821,4457.948717948719,4455.384615384616,4414.871794871796,4764.102564102564,4425.641025641026,4280.000000000001,4198.974358974359,4534.871794871796
994.378,0.1192401,0.42251328,0.36843404,0.46253192,0,0.0,0.0,0.0,0.0,0.0,0,0,0.0,0.0,0,0,103.0,0.0,507.0,4622.051282051282,3942.564102564103,4506.153846153847,4458.461538461539,4244.615384615385,4520.512820512821,4457.948717948719,4455.384615384616,4414.871794871796,4764.102564102564,4425.641025641026,4280.000000000001,4198.974358974359,4534.871794871796
994.8784,0.11147681,0.4126601,0.38141343,0.4349147,0,0.0,0.0,0.0,0.0,0.0,0,0,0.0,0.0,0,0,38.0,0.0,0.0,4623.589743589744,3926.1538461538466,4504.615384615385,4434.871794871796,4198.974358974359,4506.666666666667,4474.358974358975,4397.435897435898,4404.615384615385,4740.512820512821,4364.102564102564,4246.153846153847,4167.179487179487,4427.179487179487
994.8784,0.11147681,0.4126601,0.38141343,0.4349147,0,0.0,0.0,0.0,0.0,0.0,0,0,0.0,0.0,0,0,38.0,0.0,0.0,4623.589743589744,3926.1538461538466,4504.615384615385,4434.871794871796,4198.974358974359,4506.666666666667,4474.358974358975,4397.435897435898,4404.615384615385,4740.512820512821,4364.102564102564,4246.153846153847,4167.179487179487,4427.179487179487
995.37885,0.10786861,0.4064393,0.3880402,0.41196594,0,0.0,0.0,0.0,0.0,0.0,0,0,0.0,0.0,0,0,102.0,0.0,538.0,4632.820512820514,3944.1025641025644,4521.538461538462,4453.333333333334,4225.128205128206,4535.384615384616,4492.307692307693,4447.179487179487,4381.025641025642,4715.384615384616,4354.871794871796,4253.846153846154,4182.051282051282,4461.538461538462
995.37885,0.10786861,0.4064393,0.3880402,0.41196594,0,0.0,0.0,0.0,0.0,0.0,0,0,0.0,0.0,0,0,102.0,0.0,538.0,4632.820512820514,3944.1025641025644,4521.538461538462,4453.333333333334,4225.128205128206,4535.384615384616,4492.307692307693,4447.179487179487,4381.025641025642,4715.384615384616,4354.871794871796,4253.846153846154,4182.051282051282,4461.538461538462
995.8793,0.11712504,0.40596563,0.38980585,0.3919453,0,0.0,0.0,0.0,0.0,0.0,0,0,0.0,0.0,0,0,37.0,0.0,0.0,4605.128205128206,3881.538461538462,4537.435897435898,4391.282051282052,4248.717948717949,4554.358974358975,4504.615384615385,4447.179487179487,4459.48717948718,4767.6923076923085,4380.000000000001,4294.358974358975,4245.128205128206,4565.641025641026
996.1295,0.11712504,0.40596563,0.38980585,0.3919453,0,0.0,0.0,0.0,0.0,0.04555609,0,0,0.0,0.0,0,0,69.0,0.0,558.0,4611.794871794872,3900.0000000000005,4524.615384615385,4411.282051282052,4256.410256410257,4551.282051282052,4474.871794871796,4460.000000000001,4444.615384615385,4764.615384615386,4365.641025641026,4281.538461538462,4217.435897435898,4554.358974358975
996.3797,0.10234787,0.40757295,0.39118683,0.37460902,0,0.0,0.0,0.0,0.0,0.23359771,0,0,0.0,0.0,0,0,101.0,0.0,453.0,4600.000000000001,3907.692307692308,4554.871794871796,4414.871794871796,4269.2307692307695,4551.282051282052,4476.923076923077,4457.948717948719,4445.128205128206,4767.179487179488,4376.410256410257,4290.769230769231,4214.871794871796,4553.333333333334
996.5048,0.10234787,0.40757295,0.39118683,0.37460902,0,0.0,0.0,0.0,0.0,0.0,0,0,0.0,0.0,0,0,117.0,0.0,453.0,4589.743589743591,3900.0000000000005,4543.589743589744,4407.179487179487,4263.076923076924,4556.410256410257,4491.282051282052,4466.666666666667,4448.205128205129,4767.6923076923085,4369.2307692307695,4283.589743589744,4204.102564102564,4568.205128205129
996.8801,0.07212331,0.40572846,0.3888314,0.3678481,0,0.0,0.0,0.0,0.0,0.0,0,0,0.0,0.0,0,0,36.0,0.0,0.0,4586.153846153847,3942.0512820512827,4547.6923076923085,4446.153846153847,4278.461538461539,4556.410256410257,4477.948717948719,4456.923076923077,4443.589743589744,4765.128205128206,4377.948717948719,4281.538461538462,4226.153846153847,4629.743589743591
996.8801,0.07212331,0.40572846,0.3888314,0.3678481,0,0.0,0.0,0.0,0.0,0.0,0,0,0.0,0.0,0,0,36.0,0.0,0.0,4586.153846153847,3942.0512820512827,4547.6923076923085,4446.153846153847,4278.461538461539,4556.410256410257,4477.948717948719,4456.923076923077,4443.589743589744,4765.128205128206,4377.948717948719,4281.538461538462,4226.153846153847,4629.743589743591
997.38055,0.12993899,0.4004234,0.38671002,0.37183416,0,0.0,0.0,0.0,0.0,0.0,0,0,0.0,0.0,0,0,100.0,0.0,509.0,4605.641025641026,3926.1538461538466,4527.6923076923085,4433.846153846154,4250.256410256411,4535.384615384616,4465.641025641026,4422.564102564103,4410.256410256411,4734.871794871796,4353.333333333334,4263.589743589744,4218.461538461539,4600.512820512821
997.38055,0.12993899,0.4004234,0.38671002,0.37183416,0,0.0,0.0,0.0,0.0,0.0,0,0,0.0,0.0,0,0,100.0,0.0,509.0,4605.641025641026,3926.1538461538466,4527.6923076923085,4433.846153846154,4250.256410256411,4535.384615384616,4465.641025641026,4422.564102564103,4410.256410256411,4734.871794871796,4353.333333333334,4263.589743589744,4218.461538461539,4600.512820512821
997.881,0.14429608,0.39264733,0.3847993,0.37542707,0,0.0,0.0,0.0,0.0,0.0,0,0,0.0,0.0,0,0,35.0,0.0,0.0,4616.923076923077,3907.1794871794878,4507.179487179488,4413.333333333334,4234.358974358975,4523.076923076924,4445.641025641026,4416.410256410257,4414.358974358975,4724.615384615386,4357.948717948719,4236.923076923077,4213.846153846154,4556.410256410257
998.1312,0.14429608,0.39264733,0.3847993,0.37542707,0,0.0,0.0,0.0,0.0,0.10629349,0,0,0.0,0.0,0,0,67.0,0.0,543.0,4607.6923076923085,3891.7948717948725,4489.2307692307695,4403.076923076924,4235.8974358974365,4506.666666666667,4426.666666666667,4447.179487179487,4406.153846153847,4717.435897435898,4351.282051282052,4215.384615384616,4200.512820512821,4492.820512820514
998.3814,0.097175635,0.38346955,0.38521314,0.37866637,0,0.0,0.0,0.0,0.0,0.23006833,0,0,0.0,0.0,0,0,99.0,0.0,507.0,4598.974358974359,3880.512820512821,4521.538461538462,4403.589743589744,4249.2307692307695,4518.974358974359,4439.48717948718,4450.256410256411,4400.000000000001,4717.435897435898,4398.461538461539,4263.589743589744,4182.564102564103,4437.435897435898
998.63165,0.097175635,0.38346955,0.38521314,0.37866637,0,0.0,0.0,0.0,0.0,1.0,0,0,0.0,0.0,0,0,2.0,0.0,261.0,4579.48717948718,3849.2307692307695,4574.358974358975,4397.948717948719,4281.025641025642,4523.076923076924,4443.589743589744,4436.923076923077,4332.307692307693,4680.000000000001,4462.051282051282,4275.8974358974365,4090.7692307692314,4361.025641025642
998.88184,0.13381377,0.38019982,0.39259726,0.38064495,0,0.0,0.0,0.0,0.0,0.0,0,0,0.0,0.0,0,0,34.0,0.0,0.0,4555.384615384616,3816.9230769230776,4573.846153846154,4388.717948717949,4293.333333333334,4497.948717948719,4431.794871794872,4430.256410256411,4257.435897435898,4630.769230769231,4535.8974358974365,4247.179487179487,3987.692307692308,4334.871794871796
998.88184,0.13381377,0.38019982,0.39259726,0.38064495,0,0.0,0.0,0.0,0.0,0.0,0,0,0.0,0.0,0,0,34.0,0.0,0.0,4555.384615384616,3816.9230769230776,4573.846153846154,4388.717948717949,4293.333333333334,4497.948717948719,4431.794871794872,4430.256410256411,4257.435897435898,4630.769230769231,4535.8974358974365,4247.179487179487,3987.692307692308,4334.871794871796
999.38226,0.15117256,0.3748688,0.39924103,0.38243273,0,0.0,0.0,0.0,0.0,0.0,0,0,0.0,0.0,0,0,98.0,0.0,538.0,4513.846153846154,3833.8461538461543,4473.846153846154,4423.589743589744,4286.153846153847,4497.435897435898,4372.307692307693,4383.076923076924,4248.205128205129,4673.846153846154,4609.2307692307695,4134.358974358975,4046.666666666667,4429.2307692307695
999.6325,0.15117256,0.3748688,0.39924103,0.38243273,0,0.0,0.0,0.0,0.0,0.11415058,0,0,0.0,0.0,0,0,1.0,0.0,469.0,4529.743589743591,3900.5128205128212,4480.512820512821,4467.6923076923085,4278.461538461539,4508.205128205129,4399.48717948718,4425.128205128206,4298.974358974359,4712.820512820514,4589.743589743591,4154.871794871796,4107.179487179487,4510.256410256411
999.8827,0.19410712,0.3667282,0.4059841,0.3897041,0,0.0,0.0,0.0,0.0,0.09650201,0,0,0.0,0.0,0,0,33.0,0.0,0.0,4536.410256410257,3924.1025641025644,4460.512820512821,4473.846153846154,4262.564102564103,4523.589743589744,4429.743589743591,4459.48717948718,4331.794871794872,4721.025641025642,4536.410256410257,4169.74358974359,4168.717948717949,4540.512820512821
1000.13293,0.19410712,0.3667282,0.4059841,0.3897041,0,0.0,0.0,0.0,0.0,0.0,0,0,0.0,0.0,0,0,65.0,0.0,469.0,4552.307692307693,3942.564102564103,4457.948717948719,4460.000000000001,4217.948717948719,4507.6923076923085,4441.538461538462,4457.435897435898,4358.461538461539,4718.461538461539,4473.333333333334,4184.615384615385,4215.8974358974365,4552.307692307693
1000.3831,0.19258252,0.38060313,0.41205046,0.39624956,0,0.0,0.0,0.0,0.0,0.0,0,0,0.0,0.0,0,0,97.0,0.0,453.0,4574.871794871796,3956.9230769230776,4445.641025641026,4454.358974358975,4204.102564102564,4507.179487179488,4427.6923076923085,4466.153846153847,4396.410256410257,4713.846153846154,4396.923076923077,4182.051282051282,4243.076923076924,4534.871794871796
1000.63336,0.19258252,0.38060313,0.41205046,0.39624956,0,0.0,0.0,0.0,0.0,0.10296824,0,0,0.0,0.0,0,0,0.0,0.0,514.0,4598.974358974359,3943.076923076924,4476.923076923077,4426.666666666667,4186.666666666667,4507.6923076923085,4461.025641025642,4472.307692307693,4434.358974358975,4731.794871794872,4372.307692307693,4248.717948717949,4290.769230769231,4597.948717948719
1000.8836,0.19933894,0.40381652,0.4136141,0.40821174,0,0.0,0.0,0.0,0.0,0.042946003,0,0,0.0,0.0,0,0,32.0,0.0,0.0,4587.179487179488,3938.9743589743593,4474.871794871796,4411.282051282052,4186.666666666667,4507.179487179488,4461.025641025642,4457.435897435898,4443.589743589744,4716.923076923077,4320.512820512821,4257.435897435898,4286.666666666667,4545.128205128206
1001.1338,0.19933894,0.40381652,0.4136141,0.40821174,0,0.0,0.0,0.0,0.0,0.124371804,0,0,0.0,0.0,0,0,64.0,0.0,514.0,4590.769230769231,3932.820512820513,4488.205128205129,4399.48717948718,4198.461538461539,4517.948717948719,4475.384615384616,4452.307692307693,4474.358974358975,4753.846153846154,4320.000000000001,4296.923076923077,4298.461538461539,4522.564102564103
1001.38403,0.16418311,0.43609467,0.41336524,0.4189753,0,0.0,0.0,0.0,0.0,0.05519917,0,0,0.0,0.0,0,0,96.0,0.0,502.0,4612.820512820514,3946.666666666667,4491.794871794872,4414.871794871796,4214.358974358975,4522.564102564103,4457.435897435898,4401.025641025642,4458.974358974359,4749.743589743591,4294.358974358975,4276.410256410257,4281.025641025642,4476.923076923077
1001.6342,0.16418311,0.43609467,0.41336524,0.4189753,0,0.0,0.0,0.0,0.0,0.1765437,0,0,0.0,0.0,0,0,128.0,0.0,502.0,4615.384615384616,3940.5128205128212,4492.820512820514,4411.794871794872,4231.282051282052,4535.8974358974365,4472.307692307693,4420.512820512821,4461.025641025642,4749.743589743591,4288.717948717949,4269.2307692307695,4265.128205128206,4556.410256410257
1001.88446,0.123825006,0.4523177,0.41193005,0.42866126,0,0.0,0.0,0.0,0.0,0.88003975,0,0,0.0,0.0,0,0,31.0,0.0,0.0,4616.923076923077,3942.564102564103,4492.307692307693,4411.794871794872,4233.846153846154,4537.948717948719,4476.410256410257,4402.051282051282,4463.076923076924,4762.564102564103,4295.8974358974365,4271.282051282052,4266.666666666667,4554.871794871796
1002.13464,0.123825006,0.4523177,0.41193005,0.42866126,0,0.0,0.0,0.0,0.0,0.033757854,0,0,0.0,0.0,0,0,63.0,0.0,0.0,4618.974358974359,3925.1282051282055,4506.666666666667,4406.153846153847,4235.8974358974365,4537.435897435898,4463.076923076924,4428.717948717949,4458.974358974359,4759.48717948718,4298.974358974359,4281.025641025642,4251.282051282052,4552.307692307693
