timestamp,excitement,frustration,meditation,engagementBoredom,blink,clench,laugh,smile,eyebrow,furrowBrow,lookLeft,lookRight,smirkLeft,smirkRight,winkLeft,winkRight,eeg0,eeg1,eeg2,eeg3,eeg4,eeg5,eeg6,eeg7,eeg8,eeg9,eeg10,eeg11,eeg12,eeg13,eeg14,eeg15,eeg16
1700.1095,0.1843132,0.41987774,0.30837932,0.6884527,0,0.0,0.0,0.0,0.0,0.0,0,0,0.0,0.0,0,0,59.0,0.0,0.0,4567.179487179488,3890.2564102564106,4509.2307692307695,4613.333333333334,4335.384615384616,4641.538461538462,4492.307692307693,4398.974358974359,4245.641025641026,4708.717948717949,4393.846153846154,4107.6923076923085,3976.9230769230776,4446.666666666667
1700.4847,0.281216,0.41116792,0.31087875,0.67479336,0,0.0,0.0,0.0,0.0,1.0,0,0,0.0,0.0,0,0,107.0,0.0,506.0,4617.948717948719,3933.8461538461543,4540.000000000001,4605.641025641026,4312.307692307693,4625.128205128206,4507.6923076923085,4443.589743589744,4336.410256410257,4661.025641025642,4413.333333333334,4167.6923076923085,4086.1538461538466,4690.769230769231
1700.4847,0.281216,0.41116792,0.31087875,0.67479336,0,0.0,0.0,0.0,0.0,1.0,0,0,0.0,0.0,0,0,107.0,0.0,506.0,4617.948717948719,3933.8461538461543,4540.000000000001,4605.641025641026,4312.307692307693,4625.128205128206,4507.6923076923085,4443.589743589744,4336.410256410257,4661.025641025642,4413.333333333334,4167.6923076923085,4086.1538461538466,4690.769230769231
1700.9852,0.2480783,0.40849605,0.31312945,0.6625014,0,0.0,0.0,0.0,0.0,0.0,0,0,0.0,0.0,0,0,42.0,0.0,0.0,4624.615384615385,3969.7435897435903,4516.410256410257,4572.307692307693,4239.48717948718,4564.102564102564,4490.769230769231,4457.948717948719,4433.333333333334,4709.743589743591,4415.384615384616,4264.615384615385,4240.000000000001,4780.512820512821
1700.9852,0.2480783,0.40849605,0.31312945,0.6625014,0,0.0,0.0,0.0,0.0,0.0,0,0,0.0,0.0,0,0,42.0,0.0,0.0,4624.615384615385,3969.7435897435903,4516.410256410257,4572.307692307693,4239.48717948718,4564.102564102564,4490.769230769231,4457.948717948719,4433.333333333334,4709.743589743591,4415.384615384616,4264.615384615385,4240.000000000001,4780.512820512821
1701.4857,0.26192516,0.41470104,0.3151554,0.6514416,0,0.0,0.0,0.0,0.0,0.0,0,0,0.0,0.0,0,0,106.0,0.0,537.0,4639.48717948718,3955.3846153846157,4507.179487179488,4475.8974358974365,4214.358974358975,4533.846153846154,4454.871794871796,4423.076923076924,4495.384615384616,4734.871794871796,4364.102564102564,4329.743589743591,4295.384615384616,4741.538461538462
1701.7358,0.26192516,0.41470104,0.3151554,0.6514416,0,0.0,0.0,0.0,0.0,0.7216029,0,0,0.0,0.0,0,0,9.0,0.0,471.0,4644.102564102564,3992.820512820513,4506.666666666667,4492.307692307693,4208.205128205129,4520.512820512821,4428.205128205129,4409.2307692307695,4476.923076923077,4732.307692307693,4362.564102564103,4327.6923076923085,4277.435897435898,4653.846153846154
1701.9861,0.30125692,0.41271797,0.3169782,0.6414922,0,0.0,0.0,0.0,0.0,0.8293694,0,0,0.0,0.0,0,0,41.0,0.0,0.0,4718.461538461539,4054.358974358975,4557.435897435898,4533.333333333334,4203.076923076924,4512.307692307693,4426.666666666667,4385.641025641026,4466.153846153847,4731.282051282052,4371.794871794872,4350.769230769231,4250.256410256411,4663.076923076924
1702.2363,0.30125692,0.41271797,0.3169782,0.6414922,1,0.0,0.0,0.0,0.0,0.5103519,0,0,0.0,0.0,0,0,73.0,0.0,471.0,4672.820512820514,3992.307692307693,4510.769230769231,4488.205128205129,4202.051282051282,4508.717948717949,4429.743589743591,4382.564102564103,4461.025641025642,4711.282051282052,4329.743589743591,4312.820512820514,4218.461538461539,4563.076923076924
1702.4866,0.3309394,0.42582157,0.31861895,0.63595575,0,0.0,0.0,0.0,0.0,0.7821338,0,0,0.0,0.0,0,0,105.0,0.0,463.0,4640.512820512821,3927.692307692308,4488.717948717949,4441.025641025642,4202.564102564103,4509.743589743591,4410.769230769231,4360.000000000001,4430.769230769231,4699.48717948718,4309.2307692307695,4233.333333333334,4198.461538461539,4464.615384615385
1702.6116,0.3309394,0.42582157,0.31861895,0.63595575,0,0.0,0.0,0.0,0.0,1.0,0,0,0.0,0.0,0,0,121.0,0.0,463.0,4638.974358974359,3936.9230769230776,4493.333333333334,4436.410256410257,4199.48717948718,4507.179487179488,4416.923076923077,4355.384615384616,4429.743589743591,4697.435897435898,4295.8974358974365,4237.435897435898,4185.641025641026,4415.384615384616
1702.9869,0.35319713,0.4174583,0.31869945,0.63773483,0,0.0,0.0,0.0,0.0,0.83795846,0,0,0.0,0.0,0,0,40.0,0.0,0.0,4627.179487179488,3945.1282051282055,4491.794871794872,4460.512820512821,4201.025641025642,4506.666666666667,4418.461538461539,4341.538461538462,4418.461538461539,4690.256410256411,4269.2307692307695,4229.74358974359,4179.48717948718,4349.743589743591
1703.2372,0.35319713,0.4174583,0.31869945,0.63773483,0,0.0,0.0,0.0,0.0,0.31974202,0,0,0.0,0.0,0,0,72.0,0.0,467.0,4596.410256410257,3854.358974358975,4479.48717948718,4437.435897435898,4194.871794871796,4507.179487179488,4419.48717948718,4323.076923076924,4415.8974358974365,4692.820512820514,4247.179487179487,4188.205128205129,4153.333333333334,4342.564102564103
1703.4874,0.39590353,0.4065824,0.31908628,0.6524369,0,0.0,0.0,0.0,0.0,0.7841498,0,0,0.0,0.0,0,0,104.0,0.0,514.0,4608.717948717949,3893.333333333334,4529.743589743591,4488.205128205129,4204.615384615385,4549.743589743591,4478.461538461539,4396.923076923077,4465.128205128206,4781.538461538462,4278.461538461539,4280.000000000001,4201.025641025642,4425.128205128206
1703.6438,0.39590353,0.4065824,0.31908628,0.6524369,1,0.0,0.0,0.0,0.0,1.0,0,0,0.0,0.0,0,0,124.0,0.0,514.0,4650.769230769231,3944.1025641025644,4559.48717948718,4522.564102564103,4189.74358974359,4538.461538461539,4478.974358974359,4410.769230769231,4459.48717948718,4695.384615384616,4290.256410256411,4302.564102564103,4214.871794871796,4537.435897435898
1703.9878,0.37747446,0.4593581,0.31543964,0.67407346,0,0.0,0.0,0.0,0.0,0.07541313,0,0,0.0,0.0,0,0,39.0,0.0,0.0,4618.974358974359,3857.435897435898,4572.820512820514,4296.410256410257,4216.923076923077,4540.000000000001,4480.512820512821,4442.051282051282,4454.871794871796,4731.282051282052,4329.2307692307695,4305.128205128206,4313.846153846154,4484.102564102564
1704.238,0.37747446,0.4593581,0.31543964,0.67407346,0,0.0,0.0,0.0,0.0,0.44688147,0,0,0.0,0.0,0,0,71.0,0.0,462.0,4590.769230769231,4050.2564102564106,4530.256410256411,4463.076923076924,4206.666666666667,4524.102564102564,4441.538461538462,4370.769230769231,4395.384615384616,4679.48717948718,4275.8974358974365,4232.820512820514,4253.333333333334,4395.384615384616
1704.4883,0.36628005,0.47613,0.3158343,0.69357365,0,0.0,0.0,0.0,0.0,0.5092577,0,0,0.0,0.0,0,0,103.0,0.0,513.0,4574.871794871796,3939.48717948718,4516.410256410257,4403.076923076924,4234.871794871796,4555.8974358974365,4460.512820512821,4378.974358974359,4424.615384615385,4724.102564102564,4300.512820512821,4263.076923076924,4226.666666666667,4390.256410256411
1704.7384,0.36628005,0.47613,0.3158343,0.69357365,0,0.0,0.0,0.0,0.0,1.0,0,0,0.0,0.0,0,0,6.0,0.0,555.0,4665.128205128206,3973.333333333334,4551.794871794872,4490.256410256411,4266.666666666667,4590.256410256411,4510.769230769231,4416.923076923077,4469.2307692307695,4862.051282051283,4371.282051282052,4340.512820512821,4211.794871794872,4482.051282051282
1704.9886,0.36270076,0.55763894,0.31758675,0.70132023,0,0.0,0.0,0.0,0.0,0.3716956,0,0,0.0,0.0,0,0,38.0,0.0,0.0,4618.461538461539,4022.0512820512827,4553.846153846154,4515.8974358974365,4307.6923076923085,4614.358974358975,4535.384615384616,4432.307692307693,4496.923076923077,4875.384615384616,4382.051282051282,4334.358974358975,4229.74358974359,4441.538461538462
1705.2389,0.36270076,0.55763894,0.31758675,0.70132023,1,0.0,0.0,0.0,0.0,1.0,0,0,0.0,0.0,0,0,70.0,0.0,555.0,4592.820512820514,4075.8974358974365,4556.923076923077,4486.666666666667,4343.076923076924,4643.589743589744,4555.8974358974365,4475.384615384616,4536.923076923077,4888.205128205129,4392.820512820514,4346.666666666667,4263.589743589744,4537.435897435898
1705.4891,0.45928383,0.7108828,0.31916395,0.7015356,0,0.0,0.0,0.0,0.0,0.5367398,0,0,0.0,0.0,0,0,102.0,0.0,537.0,4632.820512820514,4247.6923076923085,4611.282051282052,4647.6923076923085,4394.358974358975,4670.256410256411,4568.717948717949,4483.076923076924,4554.358974358975,4876.410256410257,4413.333333333334,4368.717948717949,4312.307692307693,4673.333333333334
1705.7393,0.45928383,0.7108828,0.31916395,0.7015356,0,0.0,0.0,0.0,0.0,0.8060926,0,0,0.0,0.0,0,0,5.0,0.0,558.0,4647.6923076923085,4167.6923076923085,4603.589743589744,4633.846153846154,4372.820512820514,4652.307692307693,4548.717948717949,4489.743589743591,4527.179487179488,4855.8974358974365,4415.384615384616,4365.641025641026,4267.6923076923085,4723.076923076924
1705.9895,0.5727592,0.9264546,0.32058364,0.6865687,0,0.0,0.0,0.0,0.0,0.88340265,0,0,0.0,0.0,0,0,37.0,0.0,0.0,4635.8974358974365,4129.2307692307695,4598.974358974359,4629.743589743591,4382.051282051282,4667.179487179488,4565.128205128206,4470.256410256411,4448.717948717949,4828.205128205129,4429.2307692307695,4308.205128205129,4201.538461538462,4570.256410256411
1706.2397,0.5727592,0.9264546,0.32058364,0.6865687,0,0.0,0.0,0.0,0.0,0.6803399,0,0,0.0,0.0,0,0,69.0,0.0,557.0,4654.871794871796,4232.307692307693,4631.282051282052,4770.256410256411,4411.794871794872,4678.974358974359,4566.153846153847,4445.128205128206,4331.794871794872,4764.102564102564,4469.743589743591,4292.307692307693,4135.384615384616,4521.538461538462
1706.49,0.54880625,1.0,0.32186157,0.67309654,0,0.0,0.0,0.0,0.0,0.16207902,0,0,0.0,0.0,0,0,101.0,0.0,463.0,4636.923076923077,4183.589743589744,4593.333333333334,4755.8974358974365,4391.282051282052,4676.410256410257,4553.333333333334,4477.435897435898,4340.512820512821,4782.564102564103,4505.641025641026,4247.179487179487,4120.000000000001,4536.410256410257
1706.7402,0.54880625,1.0,0.32186157,0.67309654,0,0.0,0.0,0.0,0.0,0.2587702,0,0,0.0,0.0,0,0,4.0,0.0,560.0,4622.564102564103,4107.179487179487,4559.48717948718,4687.179487179488,4348.717948717949,4646.666666666667,4523.076923076924,4461.025641025642,4323.589743589744,4767.179487179488,4486.666666666667,4216.923076923077,4125.128205128206,4550.769230769231
1706.9904,0.5331737,1.0,0.32301214,0.6609708,0,0.0,0.0,0.0,0.0,0.08426133,0,0,0.0,0.0,0,0,36.0,0.0,0.0,4610.769230769231,4091.7948717948725,4542.051282051282,4641.538461538462,4309.743589743591,4626.153846153847,4507.179487179488,4471.282051282052,4365.641025641026,4767.179487179488,4458.974358974359,4216.923076923077,4154.358974358975,4541.025641025642
1707.2406,0.5331737,1.0,0.32301214,0.6609708,0,0.0,0.0,0.0,0.0,0.20204373,0,0,0.0,0.0,0,0,68.0,0.0,560.0,4561.025641025642,3995.8974358974365,4464.615384615385,4520.000000000001,4207.179487179487,4523.076923076924,4426.153846153847,4398.974358974359,4321.025641025642,4671.282051282052,4325.641025641026,4134.358974358975,4105.128205128206,4459.48717948718
1707.4908,0.58828974,1.0,0.32602957,0.6461907,0,0.0,0.0,0.0,0.0,0.0,0,0,0.0,0.0,0,0,100.0,0.0,511.0,4636.923076923077,4021.538461538462,4494.358974358975,4522.564102564103,4187.6923076923085,4506.666666666667,4410.769230769231,4413.333333333334,4356.410256410257,4681.538461538462,4323.589743589744,4188.205128205129,4156.923076923077,4574.871794871796
1707.7411,0.58828974,1.0,0.32602957,0.6461907,0,0.0,0.0,0.0,0.0,0.30633917,0,0,0.0,0.0,0,0,3.0,0.0,545.0,4575.384615384616,3968.717948717949,4432.307692307693,4411.794871794872,4155.384615384616,4489.743589743591,4412.820512820514,4392.307692307693,4371.282051282052,4662.564102564103,4248.717948717949,4150.256410256411,4167.179487179487,4458.461538461539
1707.9912,0.59423566,1.0,0.3287451,0.6274579,0,0.0,0.0,0.0,0.0,0.23803681,0,0,0.0,0.0,0,0,35.0,0.0,0.0,4580.000000000001,3940.5128205128212,4439.48717948718,4390.256410256411,4153.846153846154,4465.128205128206,4396.923076923077,4347.6923076923085,4354.871794871796,4614.871794871796,4186.153846153847,4148.717948717949,4137.435897435898,4412.307692307693
1708.2415,0.59423566,1.0,0.3287451,0.6274579,1,0.0,0.0,0.0,0.0,1.0,0,0,0.0,0.0,0,0,67.0,0.0,544.0,4573.846153846154,3853.8461538461543,4458.461538461539,4341.025641025642,4154.358974358975,4466.153846153847,4415.8974358974365,4368.205128205129,4394.871794871796,4639.48717948718,4213.333333333334,4216.410256410257,4167.6923076923085,4453.333333333334
1708.4917,0.6388238,0.9629916,0.33118892,0.61059916,0,0.0,0.0,0.0,0.0,0.0,0,0,0.5240291,0.0,0,0,99.0,0.0,505.0,4552.820512820514,3874.8717948717954,4456.410256410257,4353.846153846154,4171.794871794872,4476.410256410257,4411.794871794872,4362.564102564103,4382.564102564103,4639.48717948718,4225.641025641026,4203.076923076924,4144.102564102564,4335.8974358974365
1708.6168,0.6388238,0.9629916,0.33118892,0.61059916,0,0.0,0.0,0.0,0.0,1.0,0,0,0.0,0.0,0,0,115.0,0.0,505.0,4560.000000000001,3893.8461538461543,4461.025641025642,4381.538461538462,4178.974358974359,4487.6923076923085,4414.871794871796,4357.435897435898,4338.974358974359,4615.384615384616,4211.794871794872,4183.076923076924,4082.564102564103,4301.538461538462
1708.9921,0.67178506,0.9347275,0.33400717,0.5954264,0,0.0,0.0,0.0,0.0,0.0,0,0,0.0,0.0,0,0,34.0,0.0,0.0,4590.769230769231,3973.333333333334,4557.948717948719,4491.794871794872,4250.769230769231,4557.435897435898,4474.358974358975,4404.102564102564,4298.974358974359,4648.205128205129,4320.000000000001,4200.512820512821,4023.076923076924,4337.435897435898
1709.211,0.67178506,0.9347275,0.33400717,0.5954264,0,0.0,0.0,0.0,0.0,0.0,0,0,0.0,0.0,0,1,62.0,0.0,0.0,4616.923076923077,3997.9487179487182,4580.512820512821,4524.102564102564,4282.564102564103,4587.6923076923085,4492.820512820514,4445.641025641026,4014.8717948717954,4695.8974358974365,4385.128205128206,4231.794871794872,4079.48717948718,4464.102564102564
1709.4926,0.6875807,0.90443915,0.33455956,0.5839889,0,0.0,0.0,0.0,0.0,0.0,0,0,0.0,0.0,0,1,98.0,0.0,537.0,4574.871794871796,3947.692307692308,4538.461538461539,4471.794871794872,4262.564102564103,4581.538461538462,4476.410256410257,4439.48717948718,4152.820512820514,4705.641025641026,4369.743589743591,4204.102564102564,4094.358974358975,4461.538461538462
1709.555,0.6875807,0.90443915,0.33455956,0.5839889,0,0.0,0.0,0.0,0.0,0.0,0,0,0.0,0.0,0,0,106.0,0.0,537.0,4573.846153846154,3934.8717948717954,4533.846153846154,4460.512820512821,4256.410256410257,4580.512820512821,4472.820512820514,4460.512820512821,4220.512820512821,4715.384615384616,4354.871794871796,4190.256410256411,4094.8717948717954,4447.179487179487
1709.9929,0.6107026,0.89318085,0.33443677,0.5789226,0,0.0,0.0,0.0,0.0,0.0,0,0,0.0,0.0,0,0,18.0,0.0,0.0,4561.538461538462,3940.0000000000005,4508.717948717949,4447.179487179487,4233.846153846154,4561.538461538462,4478.461538461539,4454.358974358975,4349.2307692307695,4732.307692307693,4340.512820512821,4209.2307692307695,4169.2307692307695,4467.6923076923085
1709.9929,0.6107026,0.89318085,0.33443677,0.5789226,0,0.0,0.0,0.0,0.0,0.0,0,0,0.0,0.0,0,0,33.0,0.0,0.0,4566.666666666667,3944.1025641025644,4521.025641025642,4443.589743589744,4233.846153846154,4557.435897435898,4470.769230769231,4444.615384615385,4368.717948717949,4731.282051282052,4341.538461538462,4228.717948717949,4201.025641025642,4473.846153846154
1710.4934,0.5308938,0.87349653,0.33432624,0.576033,0,0.0,0.0,0.0,0.0,0.0,0,0,0.0,0.0,0,0,97.0,0.0,463.0,4546.666666666667,3943.589743589744,4488.717948717949,4410.769230769231,4180.512820512821,4508.205128205129,4441.538461538462,4439.48717948718,4425.128205128206,4694.358974358975,4277.948717948719,4246.153846153847,4239.48717948718,4507.6923076923085
1710.4934,0.5308938,0.87349653,0.33432624,0.576033,0,0.0,0.0,0.0,0.0,0.0,0,0,0.0,0.0,0,0,97.0,0.0,463.0,4546.666666666667,3943.589743589744,4488.717948717949,4410.769230769231,4180.512820512821,4508.205128205129,4441.538461538462,4439.48717948718,4425.128205128206,4694.358974358975,4277.948717948719,4246.153846153847,4239.48717948718,4507.6923076923085
1710.9938,0.53453094,0.8487709,0.33422673,0.5736489,0,0.0,0.0,0.0,0.0,0.0,0,0,0.0,0.0,0,0,23.0,0.0,0.0,4564.102564102564,3931.2820512820517,4476.410256410257,4402.564102564103,4184.102564102564,4505.641025641026,4427.6923076923085,4389.743589743591,4416.410256410257,4675.8974358974365,4234.358974358975,4243.076923076924,4205.128205128206,4474.358974358975
1710.9938,0.53453094,0.8487709,0.33422673,0.5736489,0,0.0,0.0,0.0,0.0,0.0,0,0,0.0,0.0,0,0,32.0,0.0,0.0,4562.564102564103,3928.717948717949,4486.666666666667,4404.615384615385,4186.666666666667,4506.666666666667,4427.6923076923085,4385.128205128206,4419.48717948718,4672.820512820514,4231.282051282052,4245.128205128206,4199.48717948718,4465.641025641026
1711.4943,0.5264993,0.8058684,0.33413723,0.57150304,0,0.0,0.0,0.0,0.0,0.0,0,0,0.0,0.0,0,0,65.0,0.0,467.0,4558.461538461539,3893.8461538461543,4483.589743589744,4373.333333333334,4199.48717948718,4510.256410256411,4429.743589743591,4380.512820512821,4432.307692307693,4678.974358974359,4248.717948717949,4262.051282051282,4211.794871794872,4537.435897435898
1711.7445,0.5264993,0.8058684,0.33413723,0.57150304,0,0.0,0.0,0.0,0.0,0.80502045,0,0,0.0,0.0,0,0,128.0,0.0,511.0,4576.923076923077,3914.358974358975,4491.794871794872,4395.8974358974365,4231.282051282052,4538.974358974359,4442.564102564103,4391.282051282052,4427.179487179487,4680.000000000001,4294.871794871796,4256.410256410257,4158.461538461539,4485.641025641026
1711.9948,0.46011686,0.75639856,0.33405665,0.5695715,0,0.0,0.0,0.0,0.0,0.98381263,0,0,0.0,0.0,0,0,31.0,0.0,0.0,4594.358974358975,3927.1794871794878,4509.743589743591,4407.6923076923085,4213.846153846154,4527.179487179488,4444.102564102564,4377.948717948719,4401.025641025642,4650.256410256411,4275.384615384616,4235.384615384616,4108.717948717949,4420.000000000001
1712.2449,0.46011686,0.75639856,0.33405665,0.5695715,0,0.0,0.0,0.0,0.0,0.0,0,0,0.0,0.0,0,0,63.0,0.0,0.0,4572.820512820514,3912.307692307693,4488.717948717949,4406.666666666667,4234.871794871796,4538.974358974359,4426.666666666667,4349.2307692307695,4387.6923076923085,4656.410256410257,4266.666666666667,4185.128205128206,4093.333333333334,4415.8974358974365
1712.4951,0.4146952,0.71087027,0.33398414,0.5647975,0,0.0,0.0,0.0,0.0,0.0,0,0,0.0,0.0,0,0,95.0,0.0,509.0,4544.615384615385,3841.538461538462,4473.333333333334,4352.820512820514,4228.717948717949,4542.051282051282,4457.948717948719,4393.846153846154,4430.769230769231,4709.743589743591,4309.743589743591,4213.846153846154,4141.025641025642,4457.435897435898
1712.7454,0.4146952,0.71087027,0.33398414,0.5647975,0,0.0,0.0,0.0,0.0,0.34125465,0,0,0.0,0.0,0,0,127.0,0.0,509.0,4546.666666666667,3847.1794871794878,4474.358974358975,4358.461538461539,4232.820512820514,4533.846153846154,4426.153846153847,4352.307692307693,4395.384615384616,4677.435897435898,4294.871794871796,4205.128205128206,4129.2307692307695,4463.589743589744
1712.9956,0.3731009,0.6662539,0.33391884,0.5560016,0,0.0,0.0,0.0,0.0,0.0803981,0,0,0.0,0.0,0,0,30.0,0.0,0.0,4545.641025641026,3867.692307692308,4472.307692307693,4371.794871794872,4220.000000000001,4531.282051282052,4437.948717948719,4359.48717948718,4405.128205128206,4692.820512820514,4294.871794871796,4213.333333333334,4151.282051282052,4476.923076923077
1713.2457,0.3731009,0.6662539,0.33391884,0.5560016,0,0.0,0.0,0.0,0.0,0.0,0,0,0.0,0.0,0,0,62.0,0.0,0.0,4531.794871794872,3880.0000000000005,4472.307692307693,4375.8974358974365,4216.410256410257,4525.641025641026,4444.102564102564,4383.076923076924,4408.717948717949,4691.282051282052,4289.74358974359,4217.948717948719,4158.974358974359,4519.48717948718
1713.496,0.31267536,0.62497354,0.33212772,0.5480852,0,0.0,0.0,0.0,0.0,1.0,0,0,0.0,0.0,0,0,80.0,0.0,511.0,4544.102564102564,3895.3846153846157,4487.6923076923085,4381.025641025642,4203.076923076924,4518.461538461539,4434.358974358975,4383.076923076924,4404.102564102564,4687.179487179488,4283.076923076924,4233.846153846154,4154.358974358975,4569.743589743591
1713.7462,0.31267536,0.62497354,0.33212772,0.5480852,0,0.0,0.0,0.0,0.0,0.7739436,0,0,0.0,0.0,0,0,126.0,0.0,537.0,4542.564102564103,3926.666666666667,4482.564102564103,4412.820512820514,4215.384615384616,4522.051282051282,4418.974358974359,4373.846153846154,4410.769230769231,4701.538461538462,4289.74358974359,4253.333333333334,4182.564102564103,4655.384615384616
1713.9965,0.31940982,0.57482874,0.3259924,0.54096055,0,0.0,0.0,0.0,0.0,0.12382266,0,0,0.0,0.0,0,0,29.0,0.0,0.0,4530.256410256411,3914.8717948717954,4505.641025641026,4415.384615384616,4229.74358974359,4526.153846153847,4407.6923076923085,4372.307692307693,4412.820512820514,4716.410256410257,4306.666666666667,4262.051282051282,4198.461538461539,4621.538461538462
1714.2466,0.31940982,0.57482874,0.3259924,0.54096055,0,0.0,0.0,0.0,0.0,0.877426,0,0,0.0,0.0,0,0,61.0,0.0,0.0,4546.153846153847,3908.717948717949,4506.666666666667,4404.615384615385,4217.435897435898,4525.128205128206,4416.923076923077,4385.641025641026,4440.512820512821,4737.948717948719,4329.743589743591,4289.74358974359,4216.923076923077,4581.025641025642
1714.4968,0.26499188,0.5464244,0.31683913,0.53939575,0,0.0,0.0,0.0,0.0,0.60648984,0,0,0.0,0.0,0,0,93.0,0.0,463.0,4576.410256410257,3910.2564102564106,4514.871794871796,4407.6923076923085,4202.564102564103,4511.282051282052,4419.48717948718,4371.282051282052,4417.435897435898,4717.435897435898,4309.743589743591,4285.128205128206,4191.794871794872,4555.8974358974365
1714.7471,0.26499188,0.5464244,0.31683913,0.53939575,0,0.0,0.0,0.0,0.0,0.19721693,0,0,0.0,0.0,0,0,125.0,0.0,463.0,4556.923076923077,3895.3846153846157,4501.025641025642,4398.974358974359,4213.846153846154,4520.000000000001,4426.666666666667,4374.871794871796,4423.076923076924,4717.435897435898,4310.769230769231,4271.794871794872,4197.435897435898,4524.615384615385
1714.9973,0.20427507,0.5197868,0.30711052,0.5379876,0,0.0,0.0,0.0,0.0,0.0,0,0,0.0,0.0,0,0,28.0,0.0,0.0,4560.512820512821,3882.0512820512827,4510.769230769231,4373.846153846154,4215.8974358974365,4521.538461538462,4440.000000000001,4400.512820512821,4438.974358974359,4738.461538461539,4337.948717948719,4282.564102564103,4217.435897435898,4533.846153846154
1714.9973,0.20427507,0.5197868,0.30711052,0.5379876,0,0.0,0.0,0.0,0.0,0.0,0,0,0.0,0.0,0,0,28.0,0.0,0.0,4560.512820512821,3882.0512820512827,4510.769230769231,4373.846153846154,4215.8974358974365,4521.538461538462,4440.000000000001,4400.512820512821,4438.974358974359,4738.461538461539,4337.948717948719,4282.564102564103,4217.435897435898,4533.846153846154
1715.4977,0.16330594,0.49291432,0.29835525,0.53672045,0,0.0,0.0,0.0,0.0,0.21665777,0,0,0.0,0.0,0,0,40.0,0.0,0.0,4560.000000000001,3878.461538461539,4511.282051282052,4381.025641025642,4217.948717948719,4522.051282051282,4443.076923076924,4412.307692307693,4434.871794871796,4737.948717948719,4342.564102564103,4287.179487179487,4217.435897435898,4525.128205128206
1715.6228,0.16330594,0.49291432,0.29835525,0.53672045,0,0.0,0.0,0.0,0.0,0.0,0,0,0.0,0.0,0,0,108.0,0.0,511.0,4549.2307692307695,3865.1282051282055,4490.769230769231,4330.256410256411,4239.48717948718,4527.179487179488,4431.794871794872,4402.051282051282,4416.923076923077,4717.948717948719,4308.205128205129,4256.923076923077,4184.615384615385,4457.948717948719
1715.6228,0.16330594,0.49291432,0.29835525,0.53672045,0,0.0,0.0,0.0,0.0,0.0,0,0,0.0,0.0,0,0,108.0,0.0,511.0,4549.2307692307695,3865.1282051282055,4490.769230769231,4330.256410256411,4239.48717948718,4527.179487179488,4431.794871794872,4402.051282051282,4416.923076923077,4717.948717948719,4308.205128205129,4256.923076923077,4184.615384615385,4457.948717948719
1716.2483,0.20101486,0.47594047,0.29047614,0.53417057,0,0.0,0.0,0.0,0.0,0.0,0,0,0.37430012,0.0,0,0,59.0,0.0,0.0,4590.769230769231,3879.48717948718,4586.153846153847,4409.743589743591,4308.205128205129,4572.820512820514,4490.769230769231,4463.589743589744,4373.333333333334,4733.846153846154,4442.051282051282,4322.564102564103,4108.205128205129,4488.717948717949
1716.3734,0.20101486,0.47594047,0.29047614,0.53417057,0,0.0,0.0,0.0,0.0,0.0,0,0,0.24932815,0.0,0,0,75.0,0.0,507.0,4592.307692307693,3847.1794871794878,4608.205128205129,4431.794871794872,4333.333333333334,4585.641025641026,4491.282051282052,4481.538461538462,4320.000000000001,4733.846153846154,4508.205128205129,4315.8974358974365,4056.410256410257,4531.794871794872
1716.7488,0.1564156,0.50140256,0.28403527,0.5318759,0,0.0,0.0,0.0,0.0,0.0,0,0,1.0,0.0,0,0,123.0,0.0,507.0,4513.333333333334,3895.8974358974365,4555.384615384616,4601.025641025642,4442.051282051282,4689.2307692307695,4505.641025641026,4574.358974358975,4312.307692307693,4878.974358974359,4705.128205128206,4184.102564102564,4080.0000000000005,4542.051282051282
1716.999,0.27112192,0.5243234,0.27956977,0.529811,0,0.0,0.0,0.0,0.0,0.0,0,0,0.24826978,0.0,0,0,26.0,0.0,0.0,4474.871794871796,3913.8461538461543,4447.6923076923085,4625.641025641026,4402.051282051282,4680.512820512821,4486.666666666667,4580.000000000001,4310.256410256411,4854.358974358975,4645.128205128206,4130.256410256411,4055.3846153846157,4514.871794871796
1717.2493,0.27112192,0.5243234,0.27956977,0.529811,0,0.0,0.0,0.0,0.0,0.0,0,0,1.0,0.0,0,0,58.0,0.0,0.0,4465.128205128206,4002.564102564103,4417.948717948719,4672.820512820514,4324.615384615385,4632.820512820514,4475.384615384616,4584.615384615385,4362.051282051282,4854.358974358975,4627.179487179488,4181.538461538462,4153.846153846154,4570.769230769231
1717.4994,0.27475843,0.54495215,0.27721575,0.52932984,0,0.0,0.0,0.0,0.0,0.0,0,0,0.0,0.0,0,0,78.0,0.0,537.0,4461.538461538462,3988.717948717949,4412.307692307693,4671.794871794872,4278.974358974359,4598.974358974359,4461.538461538462,4587.179487179488,4371.282051282052,4812.820512820514,4553.846153846154,4192.307692307693,4141.025641025642,4567.179487179488
1717.7496,0.27475843,0.54495215,0.27721575,0.52932984,0,0.0,0.0,0.0,0.0,0.111078724,0,0,0.0,0.0,0,0,122.0,0.0,464.0,4488.717948717949,4013.8461538461543,4454.871794871796,4643.589743589744,4218.461538461539,4550.769230769231,4458.974358974359,4524.102564102564,4390.256410256411,4717.948717948719,4395.8974358974365,4240.512820512821,4196.410256410257,4538.974358974359
1717.9999,0.29396996,0.56351805,0.27867806,0.540936,0,0.0,0.0,0.0,0.0,0.0,0,0,0.0,0.64139944,0,0,24.0,0.0,0.0,4492.307692307693,3993.333333333334,4471.282051282052,4618.461538461539,4212.307692307693,4542.051282051282,4473.846153846154,4505.128205128206,4361.025641025642,4691.794871794872,4395.8974358974365,4195.8974358974365,4163.589743589744,4503.076923076924
1718.2501,0.29396996,0.56351805,0.27867806,0.540936,0,0.0,0.0,0.0,0.0,1.0,0,0,0.0,0.0,0,0,57.0,0.0,0.0,4455.384615384616,3955.8974358974365,4429.743589743591,4590.256410256411,4249.74358974359,4577.435897435898,4462.564102564103,4505.128205128206,4376.923076923077,4737.435897435898,4443.076923076924,4164.102564102564,4196.410256410257,4658.461538461539
1718.2501,0.29396996,0.56351805,0.27867806,0.540936,0,0.0,0.0,0.0,0.0,1.0,0,0,0.0,0.0,0,0,57.0,0.0,0.0,4455.384615384616,3955.8974358974365,4429.743589743591,4590.256410256411,4249.74358974359,4577.435897435898,4462.564102564103,4505.128205128206,4376.923076923077,4737.435897435898,4443.076923076924,4164.102564102564,4196.410256410257,4658.461538461539
1718.7505,0.30471748,0.5802273,0.29429257,0.5549264,0,0.0,0.0,0.0,0.0,0.34647188,0,0,0.0,0.0,0,0,109.0,0.0,465.0,4462.564102564103,3911.2820512820517,4422.051282051282,4525.128205128206,4252.307692307693,4573.846153846154,4464.615384615385,4504.615384615385,4421.538461538462,4722.051282051282,4388.205128205129,4204.102564102564,4214.871794871796,4743.076923076924
1718.8756,0.30471748,0.5802273,0.29429257,0.5549264,0,0.0,0.0,0.0,0.0,0.14639342,0,0,0.0,0.0,0,0,8.0,0.0,467.0,4492.820512820514,3905.6410256410263,4468.717948717949,4482.564102564103,4215.8974358974365,4538.461538461539,4456.410256410257,4457.948717948719,4424.615384615385,4681.538461538462,4335.8974358974365,4222.564102564103,4227.179487179487,4736.923076923077
1719.251,0.30651474,0.56610954,0.3193143,0.5719508,0,0.0,0.0,0.0,0.0,0.19867507,0,0,0.0,0.0,0,0,56.0,0.0,0.0,4527.179487179488,3943.076923076924,4493.333333333334,4436.923076923077,4170.256410256411,4521.538461538462,4459.48717948718,4410.256410256411,4439.48717948718,4629.2307692307695,4267.179487179487,4191.794871794872,4277.435897435898,4735.384615384616
1719.376,0.30651474,0.56610954,0.3193143,0.5719508,0,0.0,0.0,0.0,0.0,0.12606412,0,0,0.0,0.0,0,0,72.0,0.0,467.0,4524.102564102564,3957.435897435898,4486.153846153847,4412.307692307693,4153.846153846154,4507.179487179488,4459.48717948718,4422.564102564103,4461.538461538462,4623.076923076924,4232.307692307693,4230.769230769231,4275.8974358974365,4686.666666666667
1719.6262,0.28727263,0.56836647,0.3418341,0.59993255,0,0.0,0.0,0.0,0.0,1.0,0,0,0.0,0.0,0,0,104.0,0.0,510.0,4532.307692307693,3943.076923076924,4521.025641025642,4369.743589743591,4098.974358974359,4460.000000000001,4443.589743589744,4404.102564102564,4457.948717948719,4596.410256410257,4134.358974358975,4275.8974358974365,4292.307692307693,4566.666666666667
1719.6262,0.28727263,0.56836647,0.3418341,0.59993255,0,0.0,0.0,0.0,0.0,1.0,0,0,0.0,0.0,0,0,104.0,0.0,510.0,4532.307692307693,3943.076923076924,4521.025641025642,4369.743589743591,4098.974358974359,4460.000000000001,4443.589743589744,4404.102564102564,4457.948717948719,4596.410256410257,4134.358974358975,4275.8974358974365,4292.307692307693,4566.666666666667
1720.2518,0.40159523,0.53927433,0.36461478,0.6206793,0,0.0,0.0,0.0,0.1739322,0.0,0,0,0.0,0.0,0,0,53.0,0.0,0.0,4515.8974358974365,3883.076923076924,4555.8974358974365,4263.076923076924,4081.538461538462,4429.2307692307695,4427.6923076923085,4336.923076923077,4424.102564102564,4560.000000000001,4062.0512820512827,4448.717948717949,4209.74358974359,4421.538461538462
1720.377,0.40159523,0.53927433,0.36461478,0.6206793,0,0.0,0.0,0.0,0.12577349,0.0,0,0,0.0,0.0,0,0,71.0,0.0,459.0,4516.923076923077,3863.076923076924,4555.8974358974365,4229.2307692307695,4087.1794871794878,4424.615384615385,4424.615384615385,4309.2307692307695,4392.820512820514,4540.512820512821,4059.48717948718,4426.666666666667,4171.282051282052,4381.538461538462
1720.7522,0.39430508,0.51309353,0.39155498,0.6393475,0,0.0,0.0,0.0,0.0,0.0,0,0,0.0,1.0,0,0,111.0,0.0,533.0,4511.282051282052,3860.512820512821,4563.589743589744,4247.179487179487,4120.512820512821,4458.974358974359,4416.410256410257,4320.000000000001,4401.538461538462,4576.923076923077,4109.74358974359,4426.153846153847,4158.974358974359,4335.8974358974365
1720.7522,0.39430508,0.51309353,0.39155498,0.6393475,0,0.0,0.0,0.0,0.0,0.0,0,0,0.0,1.0,0,0,119.0,0.0,511.0,4511.794871794872,3866.1538461538466,4555.384615384616,4265.641025641026,4138.461538461539,4472.820512820514,4421.025641025642,4318.974358974359,4382.051282051282,4572.307692307693,4118.461538461539,4411.794871794872,4140.512820512821,4304.102564102564
1721.0024,0.42747757,0.4895309,0.4113445,0.6614002,0,0.0,0.0,0.0,0.0,0.0,0,0,0.0,1.0,0,0,22.0,0.0,0.0,4501.025641025642,3863.076923076924,4561.538461538462,4295.8974358974365,4174.871794871796,4495.8974358974365,4429.2307692307695,4312.820512820514,4305.641025641026,4526.153846153847,4133.333333333334,4348.205128205129,4051.2820512820517,4246.666666666667
1721.3778,0.42747757,0.4895309,0.4113445,0.6614002,0,0.0,0.0,0.0,0.0,0.0,0,0,0.0,0.5828099,0,0,70.0,0.0,555.0,4511.794871794872,3895.3846153846157,4564.615384615385,4365.641025641026,4208.205128205129,4520.000000000001,4447.6923076923085,4335.8974358974365,4293.846153846154,4564.615384615385,4223.076923076924,4284.615384615385,4028.717948717949,4309.743589743591
1721.7452,0.50680363,0.46832445,0.42663884,0.6752814,0,0.0,0.0,0.0,0.0,0.0,0,0,0.0,0.20265667,0,0,118.0,0.0,540.0,4525.641025641026,3927.1794871794878,4554.871794871796,4428.205128205129,4247.179487179487,4551.794871794872,4458.461538461539,4380.512820512821,4286.666666666667,4575.384615384616,4281.538461538462,3709.7435897435903,4043.589743589744,4333.333333333334
1721.9955,0.5668737,0.4492387,0.43610874,0.6748585,1,0.0,0.0,0.0,0.3813305,0.0,0,0,0.0,0.0,0,0,21.0,0.0,0.0,4550.256410256411,4041.538461538462,4580.512820512821,4535.8974358974365,4250.769230769231,4569.743589743591,4488.717948717949,4436.410256410257,4362.051282051282,4660.000000000001,4355.384615384616,3918.461538461539,4139.48717948718,4502.564102564103
1722.2457,0.5668737,0.4492387,0.43610874,0.6748585,0,0.0,0.0,0.0,0.27838412,0.0,0,0,0.0,0.0,0,0,53.0,0.0,0.0,4551.794871794872,3988.205128205129,4525.641025641026,4507.179487179488,4263.076923076924,4573.333333333334,4477.948717948719,4461.025641025642,4440.512820512821,4720.512820512821,4349.743589743591,4061.538461538462,4184.615384615385,4530.256410256411
1722.4958,0.54634035,0.4303338,0.44461197,0.6630711,0,0.0,0.0,0.0,0.0,0.039666068,0,0,0.0,0.0,0,0,85.0,0.0,461.0,4547.6923076923085,4041.0256410256416,4507.179487179488,4534.358974358975,4261.538461538462,4571.794871794872,4461.538461538462,4429.743589743591,4448.717948717949,4703.076923076924,4311.794871794872,4111.794871794872,4195.8974358974365,4517.435897435898
1722.7461,0.54634035,0.4303338,0.44461197,0.6630711,0,0.0,0.0,0.0,0.0,0.04071857,0,0,0.0,0.0,0,0,117.0,0.0,461.0,4562.051282051282,4034.8717948717954,4521.025641025642,4531.794871794872,4249.2307692307695,4568.717948717949,4471.282051282052,4411.794871794872,4472.307692307693,4730.769230769231,4317.948717948719,4216.923076923077,4233.846153846154,4574.871794871796
1722.9963,0.49768877,0.42412,0.43902314,0.6524647,0,0.0,0.0,0.0,0.0,0.2929676,0,0,0.0,0.0,0,0,20.0,0.0,0.0,4564.102564102564,3973.8461538461543,4527.6923076923085,4474.358974358975,4228.205128205129,4550.256410256411,4457.948717948719,4407.6923076923085,4474.871794871796,4720.000000000001,4279.48717948718,4283.589743589744,4243.076923076924,4568.717948717949
1723.2466,0.49768877,0.42412,0.43902314,0.6524647,0,0.0,0.0,0.0,0.0,0.15282814,0,0,0.0,0.0,0,0,52.0,0.0,0.0,4548.717948717949,3942.0512820512827,4516.923076923077,4437.435897435898,4215.8974358974365,4540.000000000001,4456.410256410257,4427.6923076923085,4474.871794871796,4720.512820512821,4285.641025641026,4322.564102564103,4236.923076923077,4536.410256410257
1723.4967,0.51061094,0.41475278,0.42843613,0.6424231,0,0.0,0.0,0.0,0.0,0.2822994,0,0,0.0,0.0,0,0,84.0,0.0,511.0,4558.974358974359,3927.1794871794878,4509.743589743591,4419.48717948718,4202.051282051282,4524.102564102564,4432.307692307693,4389.743589743591,4443.076923076924,4689.743589743591,4261.538461538462,4318.974358974359,4212.820512820514,4488.205128205129
1723.747,0.51061094,0.41475278,0.42843613,0.6424231,0,0.0,0.0,0.0,0.0,0.4133654,0,0,0.0,0.0,0,0,116.0,0.0,511.0,4559.48717948718,3908.717948717949,4521.538461538462,4397.948717948719,4203.076923076924,4524.102564102564,4443.589743589744,4412.820512820514,4446.153846153847,4707.6923076923085,4275.8974358974365,4346.153846153847,4231.282051282052,4488.205128205129
1723.8721,0.51061094,0.41475278,0.42843613,0.6424231,0,0.0,0.0,0.0,0.0,0.13525634,0,0,0.0,0.0,0,0,3.0,0.0,544.0,4550.256410256411,3898.461538461539,4521.538461538462,4386.666666666667,4216.410256410257,4536.410256410257,4451.794871794872,4422.564102564103,4455.8974358974365,4715.384615384616,4285.641025641026,4364.102564102564,4241.538461538462,4493.846153846154
1724.2474,0.46933436,0.39433658,0.41890317,0.6333826,0,0.0,0.0,0.0,0.0,0.21927845,0,0,0.0,0.0,0,0,51.0,0.0,0.0,4562.051282051282,3863.076923076924,4506.666666666667,4340.000000000001,4204.615384615385,4515.8974358974365,4440.512820512821,4393.846153846154,4431.794871794872,4692.307692307693,4277.948717948719,4346.666666666667,4203.076923076924,4465.641025641026
1724.4977,0.46879724,0.38817748,0.41032067,0.625246,0,0.0,0.0,0.0,0.0,0.0,0,0,0.0,0.0,0,0,82.0,0.0,537.0,4564.615384615385,3813.333333333334,4508.717948717949,4297.948717948719,4214.871794871796,4520.512820512821,4428.205128205129,4373.333333333334,4416.923076923077,4707.179487179488,4309.2307692307695,4357.948717948719,4202.564102564103,4459.48717948718
1724.4977,0.46879724,0.38817748,0.41032067,0.625246,0,0.0,0.0,0.0,0.0,0.0,0,0,0.0,0.0,0,0,83.0,0.0,504.0,4566.153846153847,3813.8461538461543,4511.794871794872,4303.589743589744,4215.384615384616,4521.538461538462,4428.717948717949,4374.358974358975,4408.717948717949,4693.333333333334,4297.435897435898,4350.769230769231,4184.102564102564,4447.179487179487
1724.998,0.42100126,0.37384334,0.4025971,0.61792564,0,0.0,0.0,0.0,0.0,0.0,0,0,0.0,0.0,0,0,99.0,0.0,537.0,4568.717948717949,3808.717948717949,4521.025641025642,4310.769230769231,4223.589743589744,4523.589743589744,4430.769230769231,4366.153846153847,4391.794871794872,4694.871794871796,4311.282051282052,4358.461538461539,4155.8974358974365,4425.641025641026
1724.998,0.42100126,0.37384334,0.4025971,0.61792564,0,0.0,0.0,0.0,0.0,0.0,0,0,0.0,0.0,0,0,18.0,0.0,0.0,4563.589743589744,3818.461538461539,4542.564102564103,4339.48717948718,4235.8974358974365,4534.871794871796,4443.076923076924,4312.307692307693,4230.256410256411,4597.948717948719,4301.025641025642,4276.410256410257,3970.7692307692314,4347.179487179487
1725.4985,0.47423077,0.36701652,0.39564842,0.61133695,0,0.0,0.0,0.0,0.0,0.52421695,0,0,0.0,0.0,0,0,79.0,0.0,508.0,4580.000000000001,3896.9230769230776,4550.769230769231,4407.6923076923085,4234.871794871796,4527.6923076923085,4448.205128205129,4371.282051282052,4266.153846153847,4633.333333333334,4364.615384615385,4216.923076923077,4021.538461538462,4460.000000000001
1725.7487,0.47423077,0.36701652,0.39564842,0.61133695,0,0.0,0.0,0.0,0.0,0.18059787,0,0,0.0,0.0,0,0,114.0,0.0,537.0,4557.435897435898,3893.333333333334,4549.2307692307695,4429.2307692307695,4240.000000000001,4541.025641025642,4460.000000000001,4428.717948717949,4337.948717948719,4705.641025641026,4433.846153846154,4251.282051282052,4089.7435897435903,4501.025641025642
1725.8738,0.47423077,0.36701652,0.39564842,0.61133695,0,0.0,0.0,0.0,0.0,0.0,0,0,0.0,0.0,0,0,1.0,0.0,466.0,4528.205128205129,3862.0512820512827,4527.179487179488,4438.461538461539,4262.564102564103,4553.333333333334,4460.000000000001,4468.717948717949,4345.641025641026,4727.179487179488,4471.794871794872,4246.153846153847,4090.7692307692314,4498.461538461539
1726.2491,0.47226182,0.35830474,0.38988033,0.6073353,0,0.0,0.0,0.0,0.0,0.1473772,0,0,0.0,0.0,0,0,45.0,0.0,0.0,4511.282051282052,3905.1282051282055,4455.8974358974365,4586.666666666667,4357.435897435898,4627.179487179488,4475.8974358974365,4565.128205128206,4393.846153846154,4857.948717948719,4615.8974358974365,4280.000000000001,4167.6923076923085,4589.743589743591
1726.3743,0.47226182,0.35830474,0.38988033,0.6073353,0,0.0,0.0,0.0,0.0,0.1597462,0,0,0.0,0.0,0,0,65.0,0.0,466.0,4509.743589743591,3923.076923076924,4417.435897435898,4629.2307692307695,4361.538461538462,4630.769230769231,4459.48717948718,4592.820512820514,4422.051282051282,4891.794871794872,4647.6923076923085,4270.769230769231,4220.512820512821,4623.076923076924
1726.7495,0.58073616,0.33816683,0.38154268,0.60922796,0,0.0,0.0,0.0,0.0,0.10472057,0,0,0.0,0.0,0,0,113.0,0.0,461.0,4512.307692307693,3942.564102564103,4412.820512820514,4621.025641025642,4309.2307692307695,4613.333333333334,4458.974358974359,4552.820512820514,4439.48717948718,4843.589743589744,4575.384615384616,4246.153846153847,4251.282051282052,4616.410256410257
1726.8746,0.58073616,0.33816683,0.38154268,0.60922796,0,0.0,0.0,0.0,0.0,0.0,0,0,0.0,0.0,0,0,0.0,0.0,513.0,4514.358974358975,3942.0512820512827,4421.025641025642,4604.102564102564,4280.000000000001,4592.307692307693,4445.641025641026,4542.564102564103,4453.333333333334,4831.794871794872,4567.6923076923085,4265.128205128206,4285.641025641026,4645.128205128206
1727.25,0.61126554,0.32472378,0.3745576,0.61093026,0,0.0,0.0,0.0,0.0,0.1533701,0,0,0.0,0.0,0,0,43.0,0.0,0.0,4534.871794871796,3960.5128205128212,4442.051282051282,4530.256410256411,4218.461538461539,4544.615384615385,4427.179487179487,4474.358974358975,4460.512820512821,4766.666666666667,4427.6923076923085,4278.974358974359,4295.384615384616,4640.512820512821
1727.3751,0.61126554,0.32472378,0.3745576,0.61093026,0,0.0,0.0,0.0,0.0,0.12320517,0,0,0.0,0.0,0,0,64.0,0.0,513.0,4562.564102564103,3983.076923076924,4474.871794871796,4531.282051282052,4176.410256410257,4509.743589743591,4405.641025641026,4445.128205128206,4476.923076923077,4739.48717948718,4373.333333333334,4321.538461538462,4313.846153846154,4629.743589743591
1727.7504,0.60324216,0.31448853,0.3682705,0.608186,0,0.0,0.0,0.0,0.0,0.07230255,0,0,0.0,0.0,0,0,112.0,0.0,504.0,4546.153846153847,3971.2820512820517,4476.410256410257,4443.076923076924,4128.205128205129,4473.333333333334,4407.6923076923085,4392.820512820514,4491.282051282052,4702.564102564103,4272.307692307693,4331.282051282052,4312.820512820514,4605.128205128206
1728.0006,0.65039223,0.31462502,0.3584675,0.6092839,0,0.0,0.0,0.0,0.0,0.0,0,0,0.0,0.0,0,0,7.0,0.0,456.0,4560.512820512821,3939.48717948718,4522.051282051282,4383.589743589744,4096.410256410257,4449.743589743591,4414.871794871796,4371.794871794872,4474.871794871796,4681.538461538462,4249.74358974359,4357.948717948719,4306.153846153847,4608.205128205129
1728.0006,0.65039223,0.31462502,0.3584675,0.6092839,0,0.0,0.0,0.0,0.0,0.0,0,0,0.0,0.0,0,0,15.0,0.0,507.0,4556.923076923077,3906.1538461538466,4521.538461538462,4352.820512820514,4082.0512820512827,4445.641025641026,4426.666666666667,4400.512820512821,4509.2307692307695,4706.666666666667,4246.666666666667,4355.384615384616,4301.025641025642,4594.358974358975
1728.0006,0.65039223,0.31462502,0.3584675,0.6092839,0,0.0,0.0,0.0,0.0,0.0,0,0,0.0,0.0,0,0,15.0,0.0,507.0,4556.923076923077,3906.1538461538466,4521.538461538462,4352.820512820514,4082.0512820512827,4445.641025641026,4426.666666666667,4400.512820512821,4509.2307692307695,4706.666666666667,4246.666666666667,4355.384615384616,4301.025641025642,4594.358974358975
1728.6262,0.6198443,0.35509112,0.34848276,0.61187845,0,0.0,0.0,0.0,0.0,0.0,0,0,1.0,0.0,0,0,95.0,0.0,507.0,4509.743589743591,3861.538461538462,4560.000000000001,4315.384615384616,4158.461538461539,4473.846153846154,4422.051282051282,4354.358974358975,4318.461538461539,4607.179487179488,4296.923076923077,4311.794871794872,4075.8974358974365,4397.948717948719
1728.6262,0.6198443,0.35509112,0.34848276,0.61187845,0,0.0,0.0,0.0,0.0,0.0,0,0,1.0,0.0,0,0,95.0,0.0,507.0,4509.743589743591,3861.538461538462,4560.000000000001,4315.384615384616,4158.461538461539,4473.846153846154,4422.051282051282,4354.358974358975,4318.461538461539,4607.179487179488,4296.923076923077,4311.794871794872,4075.8974358974365,4397.948717948719
1729.2517,0.5954146,0.38970545,0.33949628,0.61122125,0,0.0,0.0,0.0,0.0,0.0,0,0,0.0,0.0,0,0,43.0,0.0,0.0,4494.358974358975,3942.564102564103,4507.179487179488,4504.615384615385,4248.717948717949,4556.923076923077,4416.410256410257,4398.461538461539,4271.282051282052,4694.871794871796,4437.435897435898,4153.846153846154,4021.0256410256416,4411.282051282052
1729.2517,0.5954146,0.38970545,0.33949628,0.61122125,0,0.0,0.0,0.0,0.0,0.0,0,0,0.0,0.0,0,0,46.0,0.0,0.0,4510.769230769231,3952.307692307693,4522.051282051282,4520.512820512821,4250.256410256411,4561.025641025642,4427.6923076923085,4412.307692307693,4272.820512820514,4695.8974358974365,4444.102564102564,4151.282051282052,4038.9743589743593,4467.6923076923085
1729.7522,0.5947717,0.438335,0.33013955,0.61062884,0,0.0,0.0,0.0,0.0,0.54434985,0,0,0.0,0.0,0,0,110.0,0.0,537.0,4502.051282051282,3983.589743589744,4494.358974358975,4538.461538461539,4197.948717948719,4522.564102564103,4397.435897435898,4397.435897435898,4308.717948717949,4652.307692307693,4349.2307692307695,4158.974358974359,4112.820512820514,4481.025641025642
1729.8772,0.5947717,0.438335,0.33013955,0.61062884,0,0.0,0.0,0.0,0.0,1.0,0,0,0.0,0.0,0,0,126.0,0.0,537.0,4457.948717948719,3971.7948717948725,4445.128205128206,4506.153846153847,4197.948717948719,4521.025641025642,4389.2307692307695,4394.358974358975,4350.256410256411,4667.6923076923085,4327.179487179487,4169.2307692307695,4163.589743589744,4427.6923076923085
1730.2526,0.5488846,0.49739918,0.32049158,0.61381686,0,0.0,0.0,0.0,0.0,0.24863711,0,0,0.0,0.0,0,0,45.0,0.0,0.0,4472.307692307693,3951.7948717948725,4487.6923076923085,4442.051282051282,4140.512820512821,4472.307692307693,4388.717948717949,4362.564102564103,4414.358974358975,4647.179487179488,4227.179487179487,4252.307692307693,4183.589743589744,4446.153846153847
1730.3777,0.5488846,0.49739918,0.32049158,0.61381686,0,0.0,0.0,0.0,0.0,0.15287082,0,0,0.0,0.0,0,0,61.0,0.0,0.0,4483.589743589744,3948.717948717949,4503.589743589744,4413.333333333334,4131.282051282052,4462.051282051282,4400.512820512821,4360.000000000001,4430.256410256411,4644.615384615385,4204.615384615385,4275.384615384616,4204.102564102564,4465.641025641026
1730.5028,0.49117923,0.5204243,0.31294772,0.6235469,0,0.0,0.0,0.0,0.0,0.0,0,0,0.0,0.0,0,0,77.0,0.0,462.0,4488.717948717949,3938.461538461539,4509.2307692307695,4378.461538461539,4123.076923076924,4456.410256410257,4398.974358974359,4333.846153846154,4422.564102564103,4626.153846153847,4166.666666666667,4291.282051282052,4223.076923076924,4463.076923076924
1731.0032,0.48656708,0.55678934,0.3099972,0.6344916,0,0.0,0.0,0.0,0.0,0.0,0,0,0.85776794,0.0,0,0,5.0,0.0,557.0,4538.461538461539,3920.0000000000005,4552.820512820514,4332.307692307693,4123.076923076924,4440.512820512821,4410.256410256411,4340.000000000001,4455.384615384616,4634.871794871796,4167.179487179487,4378.974358974359,4231.282051282052,4513.846153846154
1731.2534,0.48656708,0.55678934,0.3099972,0.6344916,0,0.0,0.0,0.0,0.0,0.1437694,0,0,0.0,0.0,0,0,44.0,0.0,0.0,4556.923076923077,3929.2307692307695,4555.384615384616,4351.282051282052,4137.948717948719,4446.153846153847,4412.307692307693,4356.410256410257,4450.769230769231,4646.666666666667,4182.564102564103,4402.564102564103,4223.076923076924,4540.512820512821
1731.3785,0.48656708,0.55678934,0.3099972,0.6344916,0,0.0,0.0,0.0,0.0,0.12062813,0,0,0.0,0.0,0,0,60.0,0.0,0.0,4558.461538461539,3928.717948717949,4540.512820512821,4349.2307692307695,4141.025641025642,4450.256410256411,4410.256410256411,4339.48717948718,4448.717948717949,4645.641025641026,4182.051282051282,4387.179487179487,4217.948717948719,4508.717948717949
1731.7539,0.45276016,0.55887705,0.30611455,0.657297,1,0.0,0.0,0.0,0.0,0.72558224,0,0,0.0,0.0,0,0,108.0,0.0,512.0,4589.2307692307695,3898.9743589743593,4566.153846153847,4333.846153846154,4155.384615384616,4455.384615384616,4409.2307692307695,4362.051282051282,4424.615384615385,4635.384615384616,4170.256410256411,4386.153846153847,4168.717948717949,4417.435897435898
1731.9728,0.45276016,0.55887705,0.30611455,0.657297,1,0.0,0.0,0.0,0.0,1.0,0,0,0.0,0.0,0,0,7.0,0.0,459.0,4598.461538461539,3911.2820512820517,4562.564102564103,4341.025641025642,4170.769230769231,4464.102564102564,4412.307692307693,4346.666666666667,4427.6923076923085,4672.307692307693,4235.8974358974365,4389.743589743591,4200.512820512821,4494.358974358975
1732.2543,0.40472755,0.57563907,0.2981341,0.677813,0,0.0,0.0,0.0,0.0,0.6474562,0,0,0.0,0.0,0,1,43.0,0.0,0.0,4593.333333333334,3909.2307692307695,4553.846153846154,4336.923076923077,4169.74358974359,4460.000000000001,4411.282051282052,4350.256410256411,4405.128205128206,4661.538461538462,4246.666666666667,4374.871794871796,4180.512820512821,4476.923076923077
1732.3794,0.40472755,0.57563907,0.2981341,0.677813,0,0.0,0.0,0.0,0.0,1.0,0,0,0.0,0.0,0,1,59.0,0.0,0.0,4580.512820512821,3911.7948717948725,4524.615384615385,4352.307692307693,4172.307692307693,4462.051282051282,4407.179487179487,4314.871794871796,4406.153846153847,4665.641025641026,4232.820512820514,4337.948717948719,4167.179487179487,4402.051282051282
1732.7548,0.34969804,0.6036824,0.29476956,0.69318134,0,0.0,0.0,0.0,0.0,0.29418868,0,0,0.0,0.0,0,0,107.0,0.0,511.0,4578.461538461539,3893.333333333334,4523.589743589744,4351.282051282052,4184.102564102564,4471.282051282052,4412.820512820514,4347.6923076923085,4408.205128205129,4692.307692307693,4245.641025641026,4307.6923076923085,4175.8974358974365,4414.871794871796
1732.8799,0.34969804,0.6036824,0.29476956,0.69318134,0,0.0,0.0,0.0,0.0,0.45061377,0,0,0.0,0.0,0,0,123.0,0.0,511.0,4592.820512820514,3879.48717948718,4523.589743589744,4349.2307692307695,4181.538461538462,4459.48717948718,4398.461538461539,4315.384615384616,4379.48717948718,4660.512820512821,4215.8974358974365,4293.333333333334,4135.384615384616,4404.615384615385
1733.2551,0.31719962,0.62127674,0.29623,0.70700157,0,0.0,0.0,0.0,0.0,0.29675037,0,0,0.0,0.0,0,0,42.0,0.0,0.0,4598.461538461539,3891.7948717948725,4529.2307692307695,4344.615384615385,4201.538461538462,4484.615384615385,4411.794871794872,4331.282051282052,4393.846153846154,4691.794871794872,4275.8974358974365,4343.076923076924,4163.589743589744,4490.769230769231
1733.3802,0.31719962,0.62127674,0.29623,0.70700157,0,0.0,0.0,0.0,0.0,0.17360477,0,0,0.0,0.0,0,0,58.0,0.0,0.0,4593.333333333334,3890.2564102564106,4508.717948717949,4349.743589743591,4207.179487179487,4491.282051282052,4398.974358974359,4322.051282051282,4382.564102564103,4694.358974358975,4280.512820512821,4335.8974358974365,4159.48717948718,4480.000000000001
1733.6305,0.32740372,0.6350611,0.297545,0.70210695,0,0.0,0.0,0.0,0.0,0.0,0,0,0.0,0.0,0,0,90.0,0.0,537.0,4600.512820512821,3913.8461538461543,4506.153846153847,4376.410256410257,4215.8974358974365,4492.820512820514,4401.538461538462,4322.051282051282,4392.820512820514,4700.000000000001,4285.128205128206,4336.410256410257,4152.307692307693,4480.512820512821
1733.6305,0.32740372,0.6350611,0.297545,0.70210695,0,0.0,0.0,0.0,0.0,0.0,0,0,0.0,0.0,0,0,90.0,0.0,537.0,4600.512820512821,3913.8461538461543,4506.153846153847,4376.410256410257,4215.8974358974365,4492.820512820514,4401.538461538462,4322.051282051282,4392.820512820514,4700.000000000001,4285.128205128206,4336.410256410257,4152.307692307693,4480.512820512821
1734.256,0.31224316,0.61400473,0.30594742,0.68309253,0,0.0,0.0,0.0,0.0,1.0,0,0,0.0,0.0,0,0,35.0,0.0,0.0,4636.410256410257,3937.435897435898,4497.948717948719,4404.102564102564,4212.307692307693,4493.333333333334,4409.743589743591,4323.589743589744,4373.333333333334,4686.666666666667,4251.282051282052,4298.461538461539,4135.8974358974365,4397.948717948719
1734.3811,0.31224316,0.61400473,0.30594742,0.68309253,0,0.0,0.0,0.0,0.0,0.4798661,0,0,0.0,0.0,0,0,57.0,0.0,0.0,4643.589743589744,3926.666666666667,4511.282051282052,4411.794871794872,4216.410256410257,4507.179487179488,4431.794871794872,4356.410256410257,4402.051282051282,4719.48717948718,4294.871794871796,4311.794871794872,4171.794871794872,4430.769230769231
1734.7565,0.27094626,0.5899871,0.32140735,0.6574884,0,0.0,0.0,0.0,0.0,0.7211815,0,0,0.0,0.0,0,0,105.0,0.0,462.0,4632.820512820514,3941.538461538462,4507.179487179488,4419.48717948718,4232.307692307693,4523.076923076924,4435.8974358974365,4350.769230769231,4397.435897435898,4711.794871794872,4308.717948717949,4291.282051282052,4168.717948717949,4487.179487179488
1734.8816,0.27094626,0.5899871,0.32140735,0.6574884,0,0.0,0.0,0.0,0.0,0.3719759,0,0,0.0,0.0,0,0,121.0,0.0,462.0,4641.538461538462,3965.6410256410263,4517.948717948719,4429.2307692307695,4231.282051282052,4520.512820512821,4431.794871794872,4360.512820512821,4413.846153846154,4735.8974358974365,4329.743589743591,4299.48717948718,4187.179487179487,4498.974358974359
1735.1317,0.22668527,0.5548053,0.3353215,0.63444793,0,0.0,0.0,0.0,0.0,0.0,0,0,0.0,0.0,0,0,24.0,0.0,0.0,4626.666666666667,3968.205128205129,4508.717948717949,4429.2307692307695,4243.076923076924,4524.102564102564,4421.538461538462,4348.717948717949,4387.179487179487,4712.820512820514,4308.717948717949,4263.076923076924,4151.794871794872,4475.8974358974365
1735.5071,0.20379418,0.5300785,0.34784415,0.6222103,1,0.0,0.0,0.0,0.0,1.0,0,0,0.0,0.0,0,0,68.0,0.0,560.0,4611.282051282052,3941.0256410256416,4491.794871794872,4429.2307692307695,4233.846153846154,4518.974358974359,4424.615384615385,4368.205128205129,4400.512820512821,4735.8974358974365,4293.846153846154,4262.051282051282,4169.2307692307695,4569.2307692307695
1735.7573,0.20379418,0.5300785,0.34784415,0.6222103,0,0.0,0.0,0.0,0.0,0.22199248,0,0,0.0,0.0,0,0,104.0,0.0,512.0,4598.461538461539,3935.3846153846157,4490.769230769231,4431.794871794872,4247.179487179487,4524.615384615385,4445.128205128206,4376.923076923077,4397.435897435898,4720.512820512821,4294.358974358975,4248.717948717949,4169.74358974359,4540.512820512821
1735.8824,0.20379418,0.5300785,0.34784415,0.6222103,0,0.0,0.0,0.0,0.0,0.2639542,0,0,0.0,0.0,0,0,120.0,0.0,512.0,4641.025641025642,3941.538461538462,4521.025641025642,4435.8974358974365,4245.641025641026,4522.051282051282,4457.948717948719,4392.820512820514,4404.615384615385,4730.769230769231,4330.769230769231,4289.2307692307695,4195.384615384616,4625.128205128206
1736.2577,0.22359408,0.5126156,0.35420635,0.6149655,0,0.0,0.0,0.0,0.0,1.0,0,0,0.0,0.0,0,0,39.0,0.0,0.0,4605.128205128206,3934.8717948717954,4474.871794871796,4429.2307692307695,4230.769230769231,4513.846153846154,4445.128205128206,4372.307692307693,4381.025641025642,4699.48717948718,4306.666666666667,4214.871794871796,4147.179487179487,4465.128205128206
1736.2577,0.22359408,0.5126156,0.35420635,0.6149655,0,0.0,0.0,0.0,0.0,1.0,0,0,0.0,0.0,0,0,39.0,0.0,0.0,4605.128205128206,3934.8717948717954,4474.871794871796,4429.2307692307695,4230.769230769231,4513.846153846154,4445.128205128206,4372.307692307693,4381.025641025642,4699.48717948718,4306.666666666667,4214.871794871796,4147.179487179487,4465.128205128206
1736.7582,0.27157745,0.50299454,0.3540059,0.6062275,0,0.0,0.0,0.0,0.0,0.0,0,0,0.0,0.0,0,0,103.0,0.0,509.0,4671.282051282052,3956.410256410257,4506.153846153847,4456.923076923077,4247.6923076923085,4525.641025641026,4459.48717948718,4376.923076923077,4393.846153846154,4716.410256410257,4276.410256410257,4218.974358974359,4167.179487179487,4477.948717948719
1736.7582,0.27157745,0.50299454,0.3540059,0.6062275,0,0.0,0.0,0.0,0.0,0.0,0,0,0.0,0.0,0,0,103.0,0.0,509.0,4671.282051282052,3956.410256410257,4506.153846153847,4456.923076923077,4247.6923076923085,4525.641025641026,4459.48717948718,4376.923076923077,4393.846153846154,4716.410256410257,4276.410256410257,4218.974358974359,4167.179487179487,4477.948717948719
1737.0084,0.24674745,0.5597733,0.3471591,0.6070922,0,0.0,0.0,0.0,0.0,0.0,0,0,0.0,0.0,0,0,6.0,0.0,555.0,4674.358974358975,3956.410256410257,4506.153846153847,4443.076923076924,4254.871794871796,4527.6923076923085,4444.615384615385,4380.000000000001,4397.435897435898,4734.871794871796,4320.512820512821,4216.410256410257,4176.410256410257,4506.666666666667
1737.0084,0.24674745,0.5597733,0.3471591,0.6070922,0,0.0,0.0,0.0,0.0,0.0,0,0,0.0,0.0,0,0,6.0,0.0,555.0,4674.358974358975,3956.410256410257,4506.153846153847,4443.076923076924,4254.871794871796,4527.6923076923085,4444.615384615385,4380.000000000001,4397.435897435898,4734.871794871796,4320.512820512821,4216.410256410257,4176.410256410257,4506.666666666667
1737.5088,0.24337785,0.56235224,0.33934778,0.60786945,0,0.0,0.0,0.0,0.0,0.0,0,0,0.0,0.0,0,0,70.0,0.0,555.0,4711.794871794872,3981.0256410256416,4494.358974358975,4430.769230769231,4247.179487179487,4521.538461538462,4440.000000000001,4341.538461538462,4354.358974358975,4686.666666666667,4282.051282051282,4172.307692307693,4136.410256410257,4431.282051282052
1737.5088,0.24337785,0.56235224,0.33934778,0.60786945,0,0.0,0.0,0.0,0.0,0.0,0,0,0.0,0.0,0,0,70.0,0.0,555.0,4711.794871794872,3981.0256410256416,4494.358974358975,4430.769230769231,4247.179487179487,4521.538461538462,4440.000000000001,4341.538461538462,4354.358974358975,4686.666666666667,4282.051282051282,4172.307692307693,4136.410256410257,4431.282051282052
1738.0093,0.20982336,0.54938954,0.33617765,0.6012292,0,0.0,0.0,0.0,0.0,1.0,0,0,0.0,0.0,0,0,5.0,0.0,557.0,4754.871794871796,3959.48717948718,4490.256410256411,4393.333333333334,4247.179487179487,4523.589743589744,4433.333333333334,4357.948717948719,4370.769230769231,4698.461538461539,4294.358974358975,4181.025641025642,4143.589743589744,4538.461538461539
1738.3845,0.20982336,0.54938954,0.33617765,0.6012292,0,0.0,0.0,0.0,0.0,0.5442349,0,0,0.0,0.0,0,0,53.0,0.0,0.0,4745.128205128206,3973.333333333334,4511.794871794872,4422.051282051282,4245.128205128206,4523.076923076924,4430.256410256411,4361.025641025642,4392.820512820514,4720.000000000001,4341.025641025642,4214.358974358975,4183.076923076924,4555.8974358974365
1738.6348,0.19563429,0.5285483,0.33332452,0.5952525,0,0.0,0.0,0.0,0.0,0.0,0,0,0.0,0.0,0,0,85.0,0.0,462.0,4742.564102564103,3952.820512820513,4504.615384615385,4408.717948717949,4233.846153846154,4518.461538461539,4423.589743589744,4363.589743589744,4383.589743589744,4729.743589743591,4326.153846153847,4180.512820512821,4168.205128205129,4535.384615384616
1738.6348,0.19563429,0.5285483,0.33332452,0.5952525,0,0.0,0.0,0.0,0.0,0.0,0,0,0.0,0.0,0,0,85.0,0.0,462.0,4742.564102564103,3952.820512820513,4504.615384615385,4408.717948717949,4233.846153846154,4518.461538461539,4423.589743589744,4363.589743589744,4383.589743589744,4729.743589743591,4326.153846153847,4180.512820512821,4168.205128205129,4535.384615384616
1739.0101,0.17282748,0.500081,0.3268684,0.5979356,0,0.0,0.0,0.0,0.0,0.0,0,0,0.0,0.0,0,0,4.0,0.0,560.0,4772.820512820514,3943.589743589744,4501.538461538462,4385.641025641026,4232.820512820514,4520.000000000001,4421.025641025642,4361.025641025642,4390.769230769231,4725.641025641026,4316.410256410257,4032.820512820513,4165.128205128206,4530.256410256411
1739.0101,0.17282748,0.500081,0.3268684,0.5979356,0,0.0,0.0,0.0,0.0,0.0,0,0,0.0,0.0,0,0,4.0,0.0,560.0,4772.820512820514,3943.589743589744,4501.538461538462,4385.641025641026,4232.820512820514,4520.000000000001,4421.025641025642,4361.025641025642,4390.769230769231,4725.641025641026,4316.410256410257,4032.820512820513,4165.128205128206,4530.256410256411
1739.5105,0.11168604,0.48446912,0.32105803,0.6000465,0,0.0,0.0,0.0,0.0,0.0,0,0,0.0,0.0,0,0,68.0,0.0,560.0,4733.846153846154,3946.666666666667,4509.743589743591,4396.923076923077,4245.128205128206,4522.564102564103,4431.282051282052,4344.615384615385,4401.538461538462,4731.794871794872,4349.2307692307695,4241.025641025642,4169.74358974359,4507.6923076923085
1739.8859,0.11168604,0.48446912,0.32105803,0.6000465,0,0.0,0.0,0.0,0.0,0.29900038,0,0,0.0,0.0,0,0,116.0,0.0,512.0,4710.256410256411,3940.0000000000005,4521.025641025642,4412.307692307693,4244.615384615385,4523.076923076924,4429.2307692307695,4340.000000000001,4377.435897435898,4716.923076923077,4321.538461538462,4241.025641025642,4151.794871794872,4555.384615384616
1740.2612,0.065025955,0.4610586,0.3197184,0.59321916,0,0.0,0.0,0.0,0.0,0.24414906,0,0,0.0,0.0,0,0,30.0,0.0,0.0,4700.000000000001,3929.7435897435903,4509.743589743591,4409.2307692307695,4249.2307692307695,4536.410256410257,4429.743589743591,4366.153846153847,4379.48717948718,4722.564102564103,4350.256410256411,4217.948717948719,4151.282051282052,4580.000000000001
1740.3862,0.065025955,0.4610586,0.3197184,0.59321916,0,0.0,0.0,0.0,0.0,0.07227785,0,0,0.0,0.0,0,0,51.0,0.0,0.0,4705.128205128206,3942.564102564103,4507.6923076923085,4427.179487179487,4250.769230769231,4524.615384615385,4411.794871794872,4348.205128205129,4358.974358974359,4716.410256410257,4351.794871794872,4216.410256410257,4141.025641025642,4560.000000000001
1740.5114,0.03562207,0.43834412,0.32006404,0.58707416,0,0.0,0.0,0.0,0.0,0.0,0,0,0.0,0.0,0,0,67.0,0.0,544.0,4710.256410256411,3940.0000000000005,4513.333333333334,4428.717948717949,4249.2307692307695,4532.820512820514,4427.6923076923085,4374.871794871796,4393.333333333334,4738.461538461539,4365.641025641026,4240.000000000001,4169.2307692307695,4561.025641025642
1740.8867,0.03562207,0.43834412,0.32006404,0.58707416,0,0.0,0.0,0.0,0.0,1.0,0,0,0.0,0.0,0,0,115.0,0.0,507.0,4731.794871794872,3944.615384615385,4526.153846153847,4457.435897435898,4275.384615384616,4550.256410256411,4449.2307692307695,4367.179487179487,4341.025641025642,4705.128205128206,4340.000000000001,4221.538461538462,4126.666666666667,4411.282051282052
1741.137,0.004110366,0.40913546,0.31950432,0.57748,0,0.0,0.0,0.0,0.0,0.714859,0,0,0.0,0.0,0,0,18.0,0.0,0.0,4733.846153846154,3942.564102564103,4587.179487179488,4492.307692307693,4315.384615384616,4570.256410256411,4456.410256410257,4382.564102564103,4247.179487179487,4667.6923076923085,4396.923076923077,4204.102564102564,4029.23076923077,4357.948717948719
1741.3871,0.004110366,0.40913546,0.31950432,0.57748,0,0.0,0.0,0.0,0.0,0.5622858,0,0,0.0,0.0,0,0,50.0,0.0,0.0,4755.384615384616,3948.205128205129,4591.794871794872,4562.564102564103,4371.282051282052,4610.256410256411,4475.384615384616,4430.769230769231,4225.641025641026,4714.358974358975,4532.820512820514,4143.589743589744,4000.5128205128212,4474.871794871796
1741.5122,0.07237694,0.38118634,0.31900078,0.56884503,0,0.0,0.0,0.0,0.0,0.0,0,0,0.0,0.0,0,0,66.0,0.0,248.0,4746.153846153847,3960.5128205128212,4552.820512820514,4587.179487179488,4374.871794871796,4614.871794871796,4458.974358974359,4469.2307692307695,4249.74358974359,4749.743589743591,4587.6923076923085,4113.333333333334,4034.358974358975,4534.871794871796
1741.8876,0.07237694,0.38118634,0.31900078,0.56884503,0,0.0,0.0,0.0,0.0,0.19436206,0,0,0.0,0.0,0,0,114.0,0.0,537.0,4705.641025641026,3979.48717948718,4444.615384615385,4610.256410256411,4340.512820512821,4615.384615384616,4457.948717948719,4505.128205128206,4295.384615384616,4797.948717948719,4608.717948717949,4097.435897435898,4152.307692307693,4587.6923076923085
1742.1378,0.13121691,0.359305,0.31854784,0.5592101,0,0.0,0.0,0.0,0.0,0.0,0,0,0.0,0.0,0,0,21.0,0.0,0.0,4700.000000000001,3957.9487179487182,4378.974358974359,4565.641025641026,4287.179487179487,4587.6923076923085,4453.333333333334,4518.974358974359,4339.48717948718,4810.769230769231,4585.641025641026,4134.358974358975,4221.025641025642,4663.589743589744
1742.4974,0.11913347,0.336459,0.31797132,0.5416037,0,0.0,0.0,0.0,0.0,0.0,0,0,0.0,0.0,0,0,65.0,0.0,467.0,4687.179487179488,3943.076923076924,4378.461538461539,4475.384615384616,4213.846153846154,4537.948717948719,4433.333333333334,4502.051282051282,4372.307692307693,4756.410256410257,4473.333333333334,4182.051282051282,4263.589743589744,4667.179487179488
1742.4974,0.11913347,0.336459,0.31797132,0.5416037,0,0.0,0.0,0.0,0.0,0.0,0,0,0.0,0.0,0,0,65.0,0.0,467.0,4687.179487179488,3943.076923076924,4378.461538461539,4475.384615384616,4213.846153846154,4537.948717948719,4433.333333333334,4502.051282051282,4372.307692307693,4756.410256410257,4473.333333333334,4182.051282051282,4263.589743589744,4667.179487179488
1742.9979,0.18060152,0.31446236,0.31745023,0.5346918,0,0.0,0.0,0.0,0.0,0.0,0,0,0.0,0.0,0,0,0.0,0.0,515.0,4723.076923076924,3935.3846153846157,4444.615384615385,4360.512820512821,4122.051282051282,4470.256410256411,4426.153846153847,4407.179487179487,4423.589743589744,4708.717948717949,4181.025641025642,4278.461538461539,4292.820512820514,4576.923076923077
1743.2482,0.18060152,0.31446236,0.31745023,0.5346918,0,0.0,0.0,0.0,0.0,0.0,0,0,0.0,0.13501608,0,0,32.0,0.0,0.0,4702.051282051282,3944.615384615385,4477.435897435898,4337.435897435898,4093.8461538461543,4447.179487179487,4420.512820512821,4381.538461538462,4451.794871794872,4699.48717948718,4188.205128205129,4293.333333333334,4300.512820512821,4510.769230769231
1743.4983,0.26155236,0.29049173,0.3169812,0.53322864,0,0.0,0.0,0.0,0.0,0.23205192,0,0,0.0,0.0,0,0,64.0,0.0,515.0,4691.282051282052,3927.692307692308,4503.589743589744,4319.48717948718,4090.7692307692314,4443.076923076924,4426.666666666667,4370.769230769231,4454.871794871796,4677.948717948719,4192.820512820514,4298.974358974359,4279.48717948718,4476.410256410257
1743.7485,0.26155236,0.29049173,0.3169812,0.53322864,0,0.0,0.0,0.0,0.0,0.39101142,0,0,0.0,0.0,0,0,96.0,0.0,511.0,4661.538461538462,3924.1025641025644,4520.512820512821,4324.102564102564,4097.948717948719,4443.076923076924,4427.6923076923085,4360.000000000001,4454.871794871796,4680.512820512821,4216.410256410257,4310.256410256411,4267.6923076923085,4506.153846153847
1743.9988,0.29762307,0.26954284,0.31846008,0.5351321,0,0.0,0.0,0.0,0.0,0.0,0,0,0.0,0.0,0,0,128.0,0.0,511.0,4642.051282051282,3925.1282051282055,4523.076923076924,4332.307692307693,4130.769230769231,4462.051282051282,4425.128205128206,4368.205128205129,4456.923076923077,4682.564102564103,4229.2307692307695,4378.974358974359,4241.025641025642,4629.2307692307695
1744.1239,0.29762307,0.26954284,0.31846008,0.5351321,0,0.0,0.0,0.0,0.0,1.0,0,0,0.0,0.0,0,0,15.0,0.0,505.0,4660.512820512821,3912.307692307693,4532.307692307693,4335.8974358974365,4135.8974358974365,4460.000000000001,4421.538461538462,4369.2307692307695,4447.179487179487,4674.358974358975,4242.051282051282,4367.179487179487,4227.179487179487,4630.256410256411
1744.4991,0.2982036,0.2535815,0.31994975,0.5368452,0,0.0,0.0,0.0,0.0,1.0,0,0,0.0,0.0,0,0,63.0,0.0,0.0,4694.358974358975,3916.9230769230776,4525.128205128206,4334.358974358975,4169.2307692307695,4476.410256410257,4428.205128205129,4368.717948717949,4425.641025641026,4671.794871794872,4262.564102564103,4336.923076923077,4211.282051282052,4555.384615384616
1744.7494,0.2982036,0.2535815,0.31994975,0.5368452,0,0.0,0.0,0.0,0.0,0.56252295,0,0,0.0,0.0,0,0,95.0,0.0,505.0,4725.641025641026,3910.2564102564106,4522.564102564103,4305.128205128206,4168.717948717949,4471.794871794872,4418.461538461539,4373.846153846154,4410.769230769231,4669.743589743591,4251.794871794872,4315.384615384616,4195.384615384616,4568.205128205129
1744.9996,0.2993032,0.2346488,0.32129064,0.53838724,0,0.0,0.0,0.0,0.0,0.0,0,0,0.0,0.0,0,0,127.0,0.0,505.0,4729.2307692307695,3906.1538461538466,4507.6923076923085,4297.435897435898,4166.153846153847,4467.6923076923085,4416.923076923077,4375.384615384616,4404.615384615385,4674.871794871796,4263.589743589744,4293.846153846154,4182.564102564103,4558.461538461539
1744.9996,0.2993032,0.2346488,0.32129064,0.53838724,0,0.0,0.0,0.0,0.0,0.0,0,0,0.0,0.0,0,0,127.0,0.0,505.0,4729.2307692307695,3906.1538461538466,4507.6923076923085,4297.435897435898,4166.153846153847,4467.6923076923085,4416.923076923077,4375.384615384616,4404.615384615385,4674.871794871796,4263.589743589744,4293.846153846154,4182.564102564103,4558.461538461539
1745.5,0.279308,0.22911458,0.32249764,0.5397752,0,0.0,0.0,0.0,0.0,0.0,0,0,0.0,0.0,0,0,62.0,0.0,0.0,4704.615384615386,3926.666666666667,4502.564102564103,4311.794871794872,4169.2307692307695,4470.769230769231,4423.589743589744,4401.538461538462,4396.923076923077,4676.923076923077,4275.8974358974365,4273.333333333334,4166.153846153847,4435.8974358974365
1745.5,0.279308,0.22911458,0.32249764,0.5397752,0,0.0,0.0,0.0,0.0,0.0,0,0,0.0,0.0,0,0,62.0,0.0,0.0,4704.615384615386,3926.666666666667,4502.564102564103,4311.794871794872,4169.2307692307695,4470.769230769231,4423.589743589744,4401.538461538462,4396.923076923077,4676.923076923077,4275.8974358974365,4273.333333333334,4166.153846153847,4435.8974358974365
1746.0005,0.20631315,0.23429963,0.32358366,0.54102415,0,0.0,0.0,0.0,0.0,0.0,0,0,0.0,0.0,0,0,111.0,0.0,505.0,4701.025641025642,3956.9230769230776,4511.794871794872,4344.615384615385,4198.974358974359,4480.000000000001,4426.153846153847,4397.435897435898,4416.923076923077,4722.051282051282,4342.564102564103,4283.076923076924,4183.076923076924,4452.820512820514
1746.0005,0.20631315,0.23429963,0.32358366,0.54102415,0,0.0,0.0,0.0,0.0,0.0,0,0,0.0,0.0,0,0,126.0,0.0,537.0,4692.307692307693,3959.48717948718,4503.589743589744,4360.512820512821,4202.051282051282,4491.282051282052,4431.794871794872,4402.051282051282,4412.307692307693,4720.000000000001,4331.282051282052,4276.410256410257,4175.384615384616,4445.641025641026
1746.5009,0.20823207,0.24540544,0.32456124,0.54042184,0,0.0,0.0,0.0,0.0,0.0,0,0,0.0,0.0,0,0,52.0,0.0,0.0,4688.717948717949,3956.9230769230776,4521.538461538462,4393.846153846154,4232.307692307693,4521.025641025642,4457.948717948719,4298.461538461539,4424.615384615385,4734.871794871796,4363.589743589744,4293.333333333334,4183.589743589744,4478.461538461539
1746.7511,0.20823207,0.24540544,0.32456124,0.54042184,0,0.0,0.0,0.0,0.0,0.008933511,0,0,0.0,0.0,0,0,93.0,0.0,462.0,4681.025641025642,3954.358974358975,4541.538461538462,4424.615384615385,4247.6923076923085,4533.846153846154,4458.461538461539,4311.282051282052,4385.641025641026,4720.512820512821,4377.948717948719,4299.48717948718,4148.205128205129,4420.512820512821
1747.0013,0.19314931,0.24033712,0.3254412,0.5354932,0,0.0,0.0,0.0,0.0,0.28486815,0,0,0.0,0.0,0,0,125.0,0.0,462.0,4662.051282051282,3952.820512820513,4537.435897435898,4457.948717948719,4281.538461538462,4555.8974358974365,4473.333333333334,4326.153846153847,4263.076923076924,4638.461538461539,4353.333333333334,4227.6923076923085,3997.435897435898,4276.410256410257
1747.2516,0.19314931,0.24033712,0.3254412,0.5354932,0,0.0,0.0,0.0,0.0,0.0,0,0,0.0,0.41946787,0,0,28.0,0.0,0.0,4665.641025641026,3975.3846153846157,4538.461538461539,4518.461538461539,4310.769230769231,4570.769230769231,4474.358974358975,4352.307692307693,4201.538461538462,4646.666666666667,4437.948717948719,4135.384615384616,3950.2564102564106,4308.205128205129
1747.5017,0.2844471,0.23540986,0.33086792,0.52374876,0,0.0,0.0,0.0,0.0,0.0,0,0,0.0,0.0,0,0,60.0,0.0,0.0,4678.974358974359,3977.435897435898,4492.820512820514,4554.358974358975,4340.512820512821,4606.153846153847,4478.461538461539,4397.435897435898,4223.589743589744,4696.923076923077,4502.564102564103,4033.333333333334,3970.7692307692314,4346.153846153847
1747.5017,0.2844471,0.23540986,0.33086792,0.52374876,0,0.0,0.0,0.0,0.0,0.0,0,0,0.0,0.0,0,0,60.0,0.0,0.0,4678.974358974359,3977.435897435898,4492.820512820514,4554.358974358975,4340.512820512821,4606.153846153847,4478.461538461539,4397.435897435898,4223.589743589744,4696.923076923077,4502.564102564103,4033.333333333334,3970.7692307692314,4346.153846153847
1748.0022,0.3521273,0.2250267,0.34014878,0.51273125,0,0.0,0.0,0.0,0.0,0.0,0,0,0.0,0.0,0,0,124.0,0.0,511.0,4662.564102564103,3996.410256410257,4396.410256410257,4568.205128205129,4302.051282051282,4584.102564102564,4476.923076923077,4422.051282051282,4291.794871794872,4732.820512820514,4507.6923076923085,4035.3846153846157,4110.769230769231,4564.615384615385
1748.2524,0.3521273,0.2250267,0.34014878,0.51273125,0,0.0,0.0,0.0,0.0,0.28373763,0,0,0.0,0.0,0,0,27.0,0.0,0.0,4648.205128205129,3988.717948717949,4425.641025641026,4540.512820512821,4267.179487179487,4567.179487179488,4492.307692307693,4455.8974358974365,4392.307692307693,4791.282051282052,4496.410256410257,4122.564102564103,4213.846153846154,4604.615384615385
1748.5027,0.3242684,0.21218963,0.3488365,0.5074659,0,0.0,0.0,0.0,0.0,0.1694005,0,0,0.0,0.0,0,0,59.0,0.0,0.0,4636.923076923077,3971.7948717948725,4457.435897435898,4505.128205128206,4248.205128205129,4551.794871794872,4475.8974358974365,4440.512820512821,4425.128205128206,4782.564102564103,4462.564102564103,4198.974358974359,4251.794871794872,4617.435897435898
1748.7528,0.3242684,0.21218963,0.3488365,0.5074659,0,0.0,0.0,0.0,0.0,0.24998729,0,0,0.0,0.0,0,0,91.0,0.0,506.0,4631.282051282052,3973.8461538461543,4485.128205128206,4517.435897435898,4245.641025641026,4557.948717948719,4472.820512820514,4427.6923076923085,4396.923076923077,4752.820512820514,4444.102564102564,4214.358974358975,4218.974358974359,4572.820512820514
1749.003,0.3643847,0.20382895,0.35697728,0.50272804,0,0.0,0.0,0.0,0.0,0.62030375,0,0,0.0,0.0,0,0,123.0,0.0,506.0,4608.717948717949,3954.8717948717954,4469.743589743591,4505.641025641026,4266.666666666667,4571.282051282052,4458.974358974359,4405.641025641026,4360.000000000001,4699.48717948718,4431.794871794872,4171.282051282052,4128.717948717949,4520.000000000001
1749.1282,0.3643847,0.20382895,0.35697728,0.50272804,0,0.0,0.0,0.0,0.0,0.0,0,0,0.0,0.0,0,0,10.0,0.0,537.0,4623.076923076924,3983.589743589744,4478.974358974359,4540.000000000001,4266.666666666667,4570.769230769231,4445.641025641026,4414.871794871796,4365.641025641026,4735.384615384616,4476.923076923077,4173.333333333334,4178.461538461539,4577.948717948719
1749.5035,0.36796775,0.20344953,0.3643036,0.4959846,0,0.0,0.0,0.0,0.0,0.0,0,0,0.0,0.0,0,0,58.0,0.0,0.0,4627.179487179488,3995.8974358974365,4487.179487179488,4545.128205128206,4266.153846153847,4570.256410256411,4403.589743589744,4444.102564102564,4422.051282051282,4781.025641025642,4488.205128205129,4204.615384615385,4279.48717948718,4650.256410256411
1749.5035,0.36796775,0.20344953,0.3643036,0.4959846,0,0.0,0.0,0.0,0.0,0.0,0,0,0.0,0.0,0,0,58.0,0.0,0.0,4627.179487179488,3995.8974358974365,4487.179487179488,4545.128205128206,4266.153846153847,4570.256410256411,4403.589743589744,4444.102564102564,4422.051282051282,4781.025641025642,4488.205128205129,4204.615384615385,4279.48717948718,4650.256410256411
1750.0039,0.33626428,0.2030542,0.37089673,0.48991698,0,0.0,0.0,0.0,0.0,0.0,0,0,0.0,0.0,0,0,122.0,0.0,537.0,4621.025641025642,3954.8717948717954,4489.2307692307695,4444.102564102564,4233.333333333334,4547.179487179488,4445.128205128206,4457.948717948719,4442.051282051282,4760.512820512821,4410.769230769231,4261.538461538462,4292.307692307693,4660.512820512821
1750.0039,0.33626428,0.2030542,0.37089673,0.48991698,0,0.0,0.0,0.0,0.0,0.0,0,0,0.0,0.0,0,0,122.0,0.0,537.0,4621.025641025642,3954.8717948717954,4489.2307692307695,4444.102564102564,4233.333333333334,4547.179487179488,4445.128205128206,4457.948717948719,4442.051282051282,4760.512820512821,4410.769230769231,4261.538461538462,4292.307692307693,4660.512820512821
1750.5044,0.3864625,0.21361354,0.3768299,0.48445767,0,0.0,0.0,0.0,0.0,0.0,0,0,0.0,0.0,0,0,57.0,0.0,0.0,4626.666666666667,3938.9743589743593,4555.8974358974365,4395.8974358974365,4197.948717948719,4523.076923076924,4474.358974358975,4446.666666666667,4504.102564102564,4750.769230769231,4355.8974358974365,4414.871794871796,4300.000000000001,4580.512820512821
1750.7545,0.3864625,0.21361354,0.3768299,0.48445767,0,0.0,0.0,0.0,0.0,1.0,0,0,0.0,0.0,0,0,89.0,0.0,462.0,4610.769230769231,3942.0512820512827,4556.923076923077,4395.384615384616,4214.871794871796,4525.128205128206,4463.589743589744,4392.820512820514,4426.153846153847,4677.435897435898,4292.820512820514,4403.589743589744,4224.615384615385,4481.538461538462
1751.0048,0.3695558,0.21868029,0.3848989,0.48295823,0,0.0,0.0,0.0,0.0,0.24127975,0,0,0.0,0.0,0,0,121.0,0.0,462.0,4629.743589743591,3946.1538461538466,4563.076923076924,4402.051282051282,4220.512820512821,4537.948717948719,4461.538461538462,4442.564102564103,4447.6923076923085,4716.923076923077,4321.025641025642,4413.846153846154,4217.435897435898,4494.358974358975
1751.255,0.3695558,0.21868029,0.3848989,0.48295823,0,0.0,0.0,0.0,0.0,0.22289073,0,0,0.0,0.0,0,0,24.0,0.0,0.0,4620.512820512821,3931.7948717948725,4561.025641025642,4405.641025641026,4231.282051282052,4538.974358974359,4476.410256410257,4431.794871794872,4443.076923076924,4705.128205128206,4322.564102564103,4404.102564102564,4189.74358974359,4569.743589743591
1751.5052,0.30650547,0.223339,0.39216006,0.4850457,0,0.0,0.0,0.0,0.0,0.27052718,0,0,0.0,0.0,0,0,56.0,0.0,0.0,4614.871794871796,3944.1025641025644,4554.871794871796,4417.948717948719,4228.205128205129,4526.153846153847,4474.358974358975,4428.205128205129,4426.666666666667,4692.307692307693,4335.384615384616,4385.641025641026,4195.384615384616,4536.410256410257
1751.7554,0.30650547,0.223339,0.39216006,0.4850457,0,0.0,0.0,0.0,0.0,0.49051186,0,0,0.0,0.0,0,0,88.0,0.0,511.0,4612.307692307693,3929.2307692307695,4538.974358974359,4423.076923076924,4232.820512820514,4535.8974358974365,4474.358974358975,4398.974358974359,4371.794871794872,4660.512820512821,4327.6923076923085,4333.333333333334,4151.282051282052,4466.153846153847
1752.0056,0.30428672,0.23093705,0.39805445,0.47508806,0,0.0,0.0,0.0,0.0,0.0,0,0,0.0,0.0,0,0,120.0,0.0,511.0,4605.641025641026,3939.48717948718,4516.923076923077,4441.538461538462,4243.589743589744,4539.48717948718,4458.461538461539,4375.8974358974365,4333.333333333334,4654.871794871796,4324.615384615385,4241.538461538462,4131.282051282052,4448.205128205129
1752.2559,0.30428672,0.23093705,0.39805445,0.47508806,0,0.0,0.0,0.0,0.0,0.0,0,0,0.0,0.0,0,0,23.0,0.0,0.0,4595.384615384616,3943.076923076924,4471.282051282052,4445.641025641026,4234.871794871796,4536.410256410257,4444.102564102564,4372.307692307693,4344.102564102564,4666.666666666667,4332.307692307693,4187.179487179487,4156.410256410257,4512.820512820514
1752.5061,0.26807266,0.22601852,0.40172186,0.46337923,0,0.0,0.0,0.0,0.0,0.8905027,0,0,0.0,0.0,0,0,55.0,0.0,0.0,4593.846153846154,3945.6410256410263,4485.128205128206,4440.512820512821,4216.923076923077,4525.641025641026,4456.410256410257,4391.282051282052,4380.000000000001,4691.794871794872,4336.410256410257,4221.025641025642,4194.871794871796,4541.025641025642
1752.7562,0.26807266,0.22601852,0.40172186,0.46337923,0,0.0,0.0,0.0,0.0,0.0,0,0,0.0,0.0,0,0,87.0,0.0,504.0,4593.333333333334,3944.615384615385,4497.948717948719,4425.641025641026,4203.589743589744,4510.256410256411,4448.717948717949,4406.153846153847,4400.000000000001,4703.076923076924,4322.564102564103,4248.717948717949,4211.794871794872,4517.948717948719
1753.0065,0.21301991,0.22752917,0.39993143,0.4528453,0,0.0,0.0,0.0,0.0,0.0,0,0,0.0,0.0,0,0,119.0,0.0,504.0,4596.410256410257,3941.538461538462,4471.794871794872,4396.410256410257,4185.641025641026,4491.282051282052,4426.666666666667,4370.256410256411,4393.846153846154,4700.000000000001,4288.205128205129,4240.000000000001,4232.307692307693,4487.6923076923085
1753.0065,0.21301991,0.22752917,0.39993143,0.4528453,0,0.0,0.0,0.0,0.0,0.0,0,0,0.0,0.0,0,0,119.0,0.0,504.0,4596.410256410257,3941.538461538462,4471.794871794872,4396.410256410257,4185.641025641026,4491.282051282052,4426.666666666667,4370.256410256411,4393.846153846154,4700.000000000001,4288.205128205129,4240.000000000001,4232.307692307693,4487.6923076923085
1753.507,0.19082206,0.23409876,0.39692432,0.45387295,0,0.0,0.0,0.0,0.0,0.0,0,0,0.0,0.0,0,0,54.0,0.0,0.0,4658.974358974359,3943.589743589744,4501.025641025642,4356.923076923077,4168.717948717949,4475.384615384616,4427.6923076923085,4406.153846153847,4448.205128205129,4728.205128205129,4294.358974358975,4343.076923076924,4275.384615384616,4551.282051282052
1753.507,0.19082206,0.23409876,0.39692432,0.45387295,0,0.0,0.0,0.0,0.0,0.0,0,0,0.0,0.0,0,0,54.0,0.0,0.0,4658.974358974359,3943.589743589744,4501.025641025642,4356.923076923077,4168.717948717949,4475.384615384616,4427.6923076923085,4406.153846153847,4448.205128205129,4728.205128205129,4294.358974358975,4343.076923076924,4275.384615384616,4551.282051282052
1754.0073,0.13771996,0.24927132,0.39064872,0.4547996,0,0.0,0.0,0.0,0.0,0.0,0,0,0.0,0.0,0,0,118.0,0.0,536.0,4671.794871794872,3947.1794871794878,4503.589743589744,4352.307692307693,4171.794871794872,4472.307692307693,4403.076923076924,4365.641025641026,4441.025641025642,4732.820512820514,4291.282051282052,4269.74358974359,4242.564102564103,4517.948717948719
1754.2576,0.13771996,0.24927132,0.39064872,0.4547996,0,0.0,0.0,0.0,0.0,0.42508796,0,0,0.0,0.0,0,0,21.0,0.0,0.0,4662.564102564103,3927.1794871794878,4512.820512820514,4356.923076923077,4170.256410256411,4474.358974358975,4416.410256410257,4392.307692307693,4453.333333333334,4749.2307692307695,4308.205128205129,4314.871794871796,4247.6923076923085,4492.820512820514
1754.5078,0.09367858,0.2661277,0.38856867,0.45378712,0,0.0,0.0,0.0,0.0,0.5268843,0,0,0.0,0.0,0,0,53.0,0.0,0.0,4645.128205128206,3928.205128205129,4521.538461538462,4366.666666666667,4183.589743589744,4472.307692307693,4412.820512820514,4372.820512820514,4426.153846153847,4716.410256410257,4264.102564102564,4377.948717948719,4212.820512820514,4441.538461538462
1754.758,0.09367858,0.2661277,0.38856867,0.45378712,0,0.0,0.0,0.0,0.0,0.3979894,0,0,0.0,0.0,0,0,85.0,0.0,461.0,4627.179487179488,3911.7948717948725,4506.153846153847,4363.076923076924,4196.410256410257,4492.307692307693,4415.384615384616,4364.102564102564,4411.282051282052,4708.717948717949,4249.2307692307695,4341.025641025642,4185.641025641026,4427.6923076923085
1755.0082,0.0685588,0.2788674,0.38809106,0.46317887,0,0.0,0.0,0.0,0.0,0.0,0,0,0.0,0.0,0,0,117.0,0.0,461.0,4630.769230769231,3909.7435897435903,4514.358974358975,4365.128205128206,4200.000000000001,4489.2307692307695,4413.333333333334,4366.666666666667,4413.333333333334,4713.846153846154,4284.615384615385,4342.564102564103,4183.076923076924,4454.358974358975
1755.0082,0.0685588,0.2788674,0.38809106,0.46317887,0,0.0,0.0,0.0,0.0,0.0,0,0,0.0,0.0,0,0,117.0,0.0,461.0,4630.769230769231,3909.7435897435903,4514.358974358975,4365.128205128206,4200.000000000001,4489.2307692307695,4413.333333333334,4366.666666666667,4413.333333333334,4713.846153846154,4284.615384615385,4342.564102564103,4183.076923076924,4454.358974358975
1755.5087,0.0897161,0.28722072,0.39722165,0.4764874,0,0.0,0.0,0.0,0.0,0.0,0,0,0.0,0.0,0,0,52.0,0.0,0.0,4660.000000000001,3925.1282051282055,4523.076923076924,4405.641025641026,4231.282051282052,4510.256410256411,4432.820512820514,4360.512820512821,4311.794871794872,4636.410256410257,4169.2307692307695,4293.333333333334,4065.6410256410263,4462.564102564103
1755.7589,0.0897161,0.28722072,0.39722165,0.4764874,0,0.0,0.0,0.0,0.0,0.0,0,0,0.0,0.553208,0,0,84.0,0.0,512.0,4660.512820512821,3944.1025641025644,4517.435897435898,4428.717948717949,4247.179487179487,4524.102564102564,4438.974358974359,4353.846153846154,4295.8974358974365,4632.820512820514,4216.410256410257,4271.794871794872,4054.8717948717954,4445.128205128206
1756.009,0.12356283,0.2828646,0.4030777,0.48845428,0,0.0,0.0,0.0,0.0,0.0,0,0,0.0,0.12862763,0,0,116.0,0.0,512.0,4670.769230769231,3952.820512820513,4519.48717948718,4435.384615384616,4246.153846153847,4536.410256410257,4459.48717948718,4372.820512820514,4313.846153846154,4638.974358974359,4243.589743589744,4263.076923076924,4076.9230769230776,4464.615384615385
1756.1342,0.12356283,0.2828646,0.4030777,0.48845428,0,0.0,0.0,0.0,0.0,0.0,0,0,0.0,0.0,0,0,3.0,0.0,544.0,4670.256410256411,3958.461538461539,4522.051282051282,4444.102564102564,4247.179487179487,4538.461538461539,4462.051282051282,4388.205128205129,4341.538461538462,4673.333333333334,4273.333333333334,4268.205128205129,4115.384615384616,4510.256410256411
1756.5095,0.11722581,0.28109756,0.40833583,0.49854127,0,0.0,0.0,0.0,0.0,0.23538838,0,0,0.0,0.0,0,0,51.0,0.0,0.0,4642.564102564103,3929.2307692307695,4517.948717948719,4430.256410256411,4251.794871794872,4535.8974358974365,4446.153846153847,4393.846153846154,4383.589743589744,4711.282051282052,4310.256410256411,4261.538461538462,4184.615384615385,4537.435897435898
1756.7598,0.11722581,0.28109756,0.40833583,0.49854127,0,0.0,0.0,0.0,0.0,0.0,0,0,0.0,0.0,0,0,83.0,0.0,507.0,4622.564102564103,3926.666666666667,4523.076923076924,4425.128205128206,4253.333333333334,4537.435897435898,4451.794871794872,4405.128205128206,4397.948717948719,4734.871794871796,4340.000000000001,4266.153846153847,4218.461538461539,4521.538461538462
1757.0099,0.109173514,0.26959395,0.41306797,0.50392,0,0.0,0.0,0.0,0.0,0.39674604,0,0,0.0,0.0,0,0,115.0,0.0,507.0,4583.076923076924,3907.692307692308,4510.256410256411,4414.358974358975,4254.871794871796,4536.923076923077,4454.871794871796,4403.589743589744,4367.6923076923085,4703.076923076924,4313.333333333334,4239.48717948718,4177.435897435898,4453.333333333334
1757.2601,0.109173514,0.26959395,0.41306797,0.50392,0,0.0,0.0,0.0,0.0,0.17644794,0,0,0.0,0.0,0,0,18.0,0.0,0.0,4573.846153846154,3900.0000000000005,4508.205128205129,4412.307692307693,4266.153846153847,4541.538461538462,4446.153846153847,4396.923076923077,4353.333333333334,4702.564102564103,4314.871794871796,4200.512820512821,4169.2307692307695,4429.743589743591
1757.5104,0.13882643,0.25181895,0.40508157,0.50876135,0,0.0,0.0,0.0,0.0,0.0,0,0,0.0,0.0,0,0,50.0,0.0,0.0,4592.820512820514,3912.820512820513,4520.512820512821,4429.743589743591,4265.641025641026,4540.512820512821,4448.205128205129,4372.820512820514,4337.948717948719,4697.948717948719,4307.6923076923085,4166.666666666667,4158.974358974359,4487.6923076923085
1757.7606,0.13882643,0.25181895,0.40508157,0.50876135,0,0.0,0.0,0.0,0.0,1.0,0,0,0.0,0.0,0,0,82.0,0.0,536.0,4584.615384615385,3909.7435897435903,4490.769230769231,4417.948717948719,4260.000000000001,4526.666666666667,4445.128205128206,4382.051282051282,4364.102564102564,4706.153846153847,4306.153846153847,4141.025641025642,4168.205128205129,4569.743589743591
1758.0107,0.12130924,0.23227139,0.39789042,0.51311904,0,0.0,0.0,0.0,0.0,0.5691367,0,0,0.0,0.0,0,0,114.0,0.0,536.0,4576.923076923077,3912.820512820513,4490.256410256411,4414.358974358975,4261.538461538462,4536.410256410257,4453.333333333334,4400.000000000001,4410.769230769231,4742.564102564103,4345.641025641026,4169.2307692307695,4214.358974358975,4616.923076923077
1758.261,0.12130924,0.23227139,0.39789042,0.51311904,0,0.0,0.0,0.0,0.0,0.0,0,0,0.0,0.0,0,0,17.0,0.0,0.0,4568.205128205129,3910.7692307692314,4492.307692307693,4406.153846153847,4258.461538461539,4537.435897435898,4452.820512820514,4415.8974358974365,4416.923076923077,4767.179487179488,4363.076923076924,4184.615384615385,4246.153846153847,4600.000000000001
1758.5112,0.08803886,0.2153376,0.39141747,0.51704067,0,0.0,0.0,0.0,0.0,0.0,0,0,0.0,0.0,0,0,49.0,0.0,0.0,4562.051282051282,3906.666666666667,4495.384615384616,4392.820512820514,4245.641025641026,4522.564102564103,4455.384615384616,4397.948717948719,4409.743589743591,4750.256410256411,4341.025641025642,4211.794871794872,4230.769230769231,4550.256410256411
1758.5112,0.08803886,0.2153376,0.39141747,0.51704067,0,0.0,0.0,0.0,0.0,0.0,0,0,0.0,0.0,0,0,49.0,0.0,0.0,4562.051282051282,3906.666666666667,4495.384615384616,4392.820512820514,4245.641025641026,4522.564102564103,4455.384615384616,4397.948717948719,4409.743589743591,4750.256410256411,4341.025641025642,4211.794871794872,4230.769230769231,4550.256410256411
1759.0117,0.10179108,0.21402337,0.38559344,0.5205691,0,0.0,0.0,0.0,0.0,0.0,0,0,0.0,0.0,0,0,113.0,0.0,461.0,4562.564102564103,3888.717948717949,4497.948717948719,4351.794871794872,4232.307692307693,4509.743589743591,4458.461538461539,4423.076923076924,4443.589743589744,4764.102564102564,4345.641025641026,4277.435897435898,4230.769230769231,4548.205128205129
1759.0117,0.10179108,0.21402337,0.38559344,0.5205691,0,0.0,0.0,0.0,0.0,0.0,0,0,0.0,0.0,0,0,113.0,0.0,461.0,4562.564102564103,3888.717948717949,4497.948717948719,4351.794871794872,4232.307692307693,4509.743589743591,4458.461538461539,4423.076923076924,4443.589743589744,4764.102564102564,4345.641025641026,4277.435897435898,4230.769230769231,4548.205128205129
1759.5121,0.11371239,0.21238105,0.38250098,0.51358217,0,0.0,0.0,0.0,0.0,0.0,0,0,0.0,0.0,0,0,48.0,0.0,0.0,4565.128205128206,3895.3846153846157,4549.2307692307695,4403.589743589744,4264.615384615385,4534.358974358975,4461.025641025642,4380.512820512821,4262.051282051282,4631.282051282052,4324.615384615385,4264.102564102564,4043.076923076924,4401.025641025642
1759.7623,0.11371239,0.21238105,0.38250098,0.51358217,0,0.0,0.0,0.0,0.0,0.14968538,0,0,0.0,0.0,0,0,80.0,0.0,512.0,4543.589743589744,3894.358974358975,4541.538461538462,4445.128205128206,4284.102564102564,4543.076923076924,4460.000000000001,4400.512820512821,4246.153846153847,4652.307692307693,4383.076923076924,4233.846153846154,4010.2564102564106,4406.666666666667
1760.0126,0.18295762,0.22990143,0.38200045,0.4908721,0,0.0,0.0,0.0,0.0,0.0,0,0,0.0,0.0,0,0,112.0,0.0,512.0,4549.743589743591,3911.2820512820517,4542.051282051282,4475.8974358974365,4280.512820512821,4555.384615384616,4473.333333333334,4445.128205128206,4261.025641025642,4690.769230769231,4415.8974358974365,4191.282051282052,4029.23076923077,4418.974358974359
1760.0126,0.18295762,0.22990143,0.38200045,0.4908721,0,0.0,0.0,0.0,0.0,0.0,0,0,0.0,0.0,0,0,112.0,0.0,512.0,4549.743589743591,3911.2820512820517,4542.051282051282,4475.8974358974365,4280.512820512821,4555.384615384616,4473.333333333334,4445.128205128206,4261.025641025642,4690.769230769231,4415.8974358974365,4191.282051282052,4029.23076923077,4418.974358974359
1760.513,0.19806314,0.24857485,0.3815569,0.4704216,0,0.0,0.0,0.0,0.14189774,0.0,0,0,0.0,0.0,0,0,47.0,0.0,0.0,4573.846153846154,3941.0256410256416,4476.410256410257,4477.435897435898,4235.384615384616,4524.102564102564,4443.076923076924,4433.846153846154,4323.076923076924,4735.8974358974365,4411.282051282052,3937.9487179487182,4165.641025641026,4478.461538461539
1760.6381,0.19806314,0.24857485,0.3815569,0.4704216,0,0.0,0.0,0.0,0.0,0.0,0,0,0.0,0.0,0,0,63.0,0.0,0.0,4562.564102564103,3941.0256410256416,4476.410256410257,4460.000000000001,4225.128205128206,4511.794871794872,4442.051282051282,4432.820512820514,4346.153846153847,4733.846153846154,4399.48717948718,3991.2820512820517,4181.538461538462,4494.358974358975
1761.0134,0.15796833,0.25519913,0.3811501,0.45203656,0,0.0,0.0,0.0,0.0,0.0,0,0,0.0,0.0,0,0,111.0,0.0,509.0,4560.512820512821,3912.820512820513,4457.435897435898,4394.871794871796,4191.794871794872,4489.743589743591,4408.717948717949,4429.2307692307695,4432.820512820514,4762.051282051282,4373.846153846154,4083.589743589744,4244.102564102564,4532.307692307693
1761.0134,0.15796833,0.25519913,0.3811501,0.45203656,0,0.0,0.0,0.0,0.0,0.0,0,0,0.0,0.0,0,0,111.0,0.0,509.0,4560.512820512821,3912.820512820513,4457.435897435898,4394.871794871796,4191.794871794872,4489.743589743591,4408.717948717949,4429.2307692307695,4432.820512820514,4762.051282051282,4373.846153846154,4083.589743589744,4244.102564102564,4532.307692307693
1761.5138,0.14042112,0.26624063,0.37863964,0.44565517,0,0.0,0.0,0.0,0.0,0.0,0,0,0.0,0.0,0,0,46.0,0.0,0.0,4581.538461538462,3893.333333333334,4489.743589743591,4391.282051282052,4211.794871794872,4513.846153846154,4444.102564102564,4402.051282051282,4391.794871794872,4729.743589743591,4394.358974358975,4186.666666666667,4241.538461538462,4642.051282051282
1761.764,0.14042112,0.26624063,0.37863964,0.44565517,0,0.0,0.0,0.0,0.0,0.31223536,0,0,0.0,0.0,0,0,78.0,0.0,536.0,4558.974358974359,3893.333333333334,4498.974358974359,4430.769230769231,4250.256410256411,4541.538461538462,4462.051282051282,4446.666666666667,4390.256410256411,4766.666666666667,4439.48717948718,4141.538461538462,4202.051282051282,4553.846153846154
1762.0143,0.12199374,0.27145594,0.37410188,0.456334,0,0.0,0.0,0.0,0.0,0.3764585,0,0,0.0,0.0,0,0,110.0,0.0,536.0,4606.666666666667,3962.0512820512827,4495.8974358974365,4522.051282051282,4283.076923076924,4568.205128205129,4457.948717948719,4452.307692307693,4358.461538461539,4776.923076923077,4458.461538461539,4070.2564102564106,4167.6923076923085,4538.461538461539
1762.2644,0.12199374,0.27145594,0.37410188,0.456334,0,0.0,0.0,0.0,0.0,0.1647093,0,0,0.0,0.0,0,0,13.0,0.0,461.0,4590.256410256411,3955.3846153846157,4423.589743589744,4538.974358974359,4296.410256410257,4583.076923076924,4452.307692307693,4404.102564102564,4356.410256410257,4784.102564102564,4458.461538461539,4001.0256410256416,4187.179487179487,4508.205128205129
1762.5146,0.07630062,0.28057373,0.3700173,0.46594766,0,0.0,0.0,0.0,0.0,0.15626153,0,0,0.0,0.0,0,0,45.0,0.0,0.0,4607.6923076923085,3960.0000000000005,4431.794871794872,4538.461538461539,4270.769230769231,4567.6923076923085,4434.871794871796,4410.769230769231,4381.538461538462,4788.205128205129,4446.153846153847,4052.307692307693,4230.256410256411,4554.871794871796
1762.6398,0.07630062,0.28057373,0.3700173,0.46594766,0,0.0,0.0,0.0,0.0,0.0,0,0,0.0,0.0,0,0,61.0,0.0,0.0,4599.48717948718,3955.8974358974365,4422.564102564103,4523.076923076924,4262.564102564103,4560.000000000001,4427.179487179487,4432.307692307693,4445.128205128206,4830.769230769231,4462.564102564103,4110.256410256411,4281.025641025642,4576.923076923077
1763.0151,0.06740356,0.2912672,0.36634058,0.47460145,0,0.0,0.0,0.0,0.0,0.0,0,0,0.0,0.0,0,0,109.0,0.0,461.0,4609.2307692307695,3940.5128205128212,4442.051282051282,4473.846153846154,4231.794871794872,4551.794871794872,4428.717948717949,4441.025641025642,4471.794871794872,4805.128205128206,4404.102564102564,4151.794871794872,4312.307692307693,4564.102564102564
1763.2653,0.06740356,0.2912672,0.36634058,0.47460145,0,0.0,0.0,0.0,0.0,0.095441975,0,0,0.0,0.0,0,0,12.0,0.0,511.0,4611.282051282052,3959.48717948718,4473.333333333334,4464.102564102564,4217.948717948719,4537.948717948719,4438.461538461539,4428.717948717949,4494.871794871796,4784.102564102564,4355.384615384616,4156.923076923077,4321.538461538462,4546.153846153847
1763.5155,0.11458182,0.30189836,0.36335072,0.48506686,0,0.0,0.0,0.0,0.0,0.05164069,0,0,0.0,0.0,0,0,44.0,0.0,0.0,4607.6923076923085,3941.538461538462,4504.615384615385,4412.307692307693,4184.615384615385,4520.000000000001,4444.102564102564,4425.641025641026,4523.589743589744,4792.307692307693,4338.461538461539,4265.641025641026,4327.6923076923085,4534.871794871796
1763.6406,0.11458182,0.30189836,0.36335072,0.48506686,0,0.0,0.0,0.0,0.0,0.0,0,0,0.0,0.0,0,0,60.0,0.0,0.0,4609.743589743591,3940.5128205128212,4520.000000000001,4408.717948717949,4185.641025641026,4520.512820512821,4442.051282051282,4394.358974358975,4503.076923076924,4761.538461538462,4297.435897435898,4295.384615384616,4308.205128205129,4521.025641025642
1764.016,0.11011501,0.30552974,0.36573434,0.51462096,0,0.0,0.0,0.0,0.0,0.057597715,0,0,0.0,0.0,0,0,108.0,0.0,512.0,4611.282051282052,3944.1025641025644,4553.333333333334,4415.384615384616,4196.410256410257,4521.025641025642,4441.538461538462,4396.410256410257,4474.871794871796,4731.794871794872,4244.615384615385,4364.102564102564,4263.076923076924,4508.717948717949
1764.2662,0.11011501,0.30552974,0.36573434,0.51462096,0,0.0,0.0,0.0,0.0,0.048467107,0,0,0.0,0.0,0,0,11.0,0.0,506.0,4603.589743589744,3918.461538461539,4544.615384615385,4390.769230769231,4185.128205128206,4507.6923076923085,4459.48717948718,4445.641025641026,4491.794871794872,4736.410256410257,4268.205128205129,4395.384615384616,4266.666666666667,4508.717948717949
1764.5164,0.08633387,0.28474376,0.37360355,0.55102,0,0.0,0.0,0.0,0.0,0.026249725,0,0,0.0,0.0,0,0,43.0,0.0,0.0,4610.769230769231,3909.7435897435903,4552.307692307693,4383.076923076924,4203.076923076924,4522.051282051282,4457.948717948719,4418.461538461539,4471.794871794872,4733.846153846154,4269.2307692307695,4383.589743589744,4248.205128205129,4498.974358974359
1764.7666,0.08633387,0.28474376,0.37360355,0.55102,0,0.0,0.0,0.0,0.0,0.0,0,0,0.0,0.24876483,0,0,75.0,0.0,506.0,4612.820512820514,3910.2564102564106,4541.025641025642,4405.128205128206,4210.769230769231,4521.025641025642,4459.48717948718,4403.076923076924,4456.410256410257,4727.6923076923085,4272.307692307693,4365.128205128206,4235.384615384616,4491.282051282052
1765.0168,0.059447765,0.2681493,0.38068518,0.583779,0,0.0,0.0,0.0,0.0,0.0,0,0,0.0,0.0,0,0,107.0,0.0,506.0,4625.641025641026,3920.0000000000005,4539.48717948718,4403.076923076924,4215.8974358974365,4520.512820512821,4458.461538461539,4372.307692307693,4424.615384615385,4713.846153846154,4252.307692307693,4349.743589743591,4200.512820512821,4505.128205128206
1765.0168,0.059447765,0.2681493,0.38068518,0.583779,0,0.0,0.0,0.0,0.0,0.0,0,0,0.0,0.0,0,0,107.0,0.0,506.0,4625.641025641026,3920.0000000000005,4539.48717948718,4403.076923076924,4215.8974358974365,4520.512820512821,4458.461538461539,4372.307692307693,4424.615384615385,4713.846153846154,4252.307692307693,4349.743589743591,4200.512820512821,4505.128205128206
1765.5172,0.050644916,0.25755996,0.3861052,0.6132602,0,0.0,0.0,0.0,0.0,0.0,0,0,0.0,0.0,0,0,42.0,0.0,0.0,4594.871794871796,3933.8461538461543,4524.615384615385,4381.025641025642,4216.923076923077,4510.769230769231,4430.256410256411,4375.8974358974365,4410.256410256411,4716.410256410257,4282.564102564103,4344.615384615385,4174.358974358975,4524.615384615385
1765.5172,0.050644916,0.25755996,0.3861052,0.6132602,0,0.0,0.0,0.0,0.0,0.0,0,0,0.0,0.0,0,0,42.0,0.0,0.0,4594.871794871796,3933.8461538461543,4524.615384615385,4381.025641025642,4216.923076923077,4510.769230769231,4430.256410256411,4375.8974358974365,4410.256410256411,4716.410256410257,4282.564102564103,4344.615384615385,4174.358974358975,4524.615384615385
1766.0177,0.059568107,0.25164273,0.38736328,0.62793523,0,0.0,0.0,0.0,0.0,0.0,0,0,0.0,0.0,0,0,106.0,0.0,535.0,4564.615384615385,3929.2307692307695,4507.6923076923085,4383.076923076924,4221.025641025642,4506.666666666667,4429.743589743591,4327.6923076923085,4381.538461538462,4687.6923076923085,4248.205128205129,4287.179487179487,4138.974358974359,4477.948717948719
1766.0177,0.059568107,0.25164273,0.38736328,0.62793523,0,0.0,0.0,0.0,0.0,0.0,0,0,0.0,0.0,0,0,106.0,0.0,535.0,4564.615384615385,3929.2307692307695,4507.6923076923085,4383.076923076924,4221.025641025642,4506.666666666667,4429.743589743591,4327.6923076923085,4381.538461538462,4687.6923076923085,4248.205128205129,4287.179487179487,4138.974358974359,4477.948717948719
1766.5181,0.044070862,0.24408947,0.3884947,0.63653076,0,0.0,0.0,0.0,0.0,0.0,0,0,0.0,0.0,0,0,41.0,0.0,0.0,4577.435897435898,3958.9743589743593,4511.282051282052,4417.948717948719,4240.000000000001,4516.410256410257,4413.333333333334,4335.384615384616,4330.769230769231,4654.358974358975,4267.179487179487,4232.307692307693,4061.0256410256416,4465.641025641026
1766.5181,0.044070862,0.24408947,0.3884947,0.63653076,0,0.0,0.0,0.0,0.0,0.0,0,0,0.0,0.0,0,0,41.0,0.0,0.0,4577.435897435898,3958.9743589743593,4511.282051282052,4417.948717948719,4240.000000000001,4516.410256410257,4413.333333333334,4335.384615384616,4330.769230769231,4654.358974358975,4267.179487179487,4232.307692307693,4061.0256410256416,4465.641025641026
1767.0186,0.050839685,0.24544914,0.38571224,0.6442637,0,0.0,0.0,0.0,0.0,0.0,0,0,0.0,0.0,0,0,99.0,0.0,508.0,4584.615384615385,3945.6410256410263,4494.358974358975,4413.846153846154,4236.923076923077,4519.48717948718,4429.2307692307695,4308.205128205129,4278.461538461539,4610.769230769231,4249.2307692307695,4106.153846153847,4005.1282051282055,4545.128205128206
1767.0186,0.050839685,0.24544914,0.38571224,0.6442637,0,0.0,0.0,0.0,0.0,0.0,0,0,0.0,0.0,0,0,105.0,0.0,461.0,4577.948717948719,3940.0000000000005,4490.256410256411,4412.307692307693,4234.871794871796,4519.48717948718,4443.589743589744,4326.666666666667,4294.358974358975,4628.717948717949,4261.538461538462,4104.102564102564,4014.8717948717954,4543.076923076924
1767.5189,0.07063856,0.2620347,0.3832072,0.65121996,0,0.0,0.0,0.0,0.0,0.0,0,0,0.0,0.0,0,0,30.0,0.0,0.0,4579.48717948718,3922.0512820512827,4512.307692307693,4426.666666666667,4244.102564102564,4521.025641025642,4428.717948717949,4341.538461538462,4307.179487179487,4673.846153846154,4348.205128205129,4204.102564102564,4079.48717948718,4569.743589743591
1767.5189,0.07063856,0.2620347,0.3832072,0.65121996,0,0.0,0.0,0.0,0.0,0.0,0,0,0.0,0.0,0,0,40.0,0.0,0.0,4564.102564102564,3911.7948717948725,4502.564102564103,4422.051282051282,4258.974358974359,4538.461538461539,4447.179487179487,4346.666666666667,4274.871794871796,4641.538461538462,4324.102564102564,4214.358974358975,4041.0256410256416,4518.461538461539
1768.0194,0.09624906,0.28683263,0.38390237,0.6560093,0,0.0,0.0,0.0,0.0,0.0,0,0,0.0,0.0,0,0,90.0,0.0,535.0,4553.846153846154,3944.1025641025644,4527.179487179488,4491.794871794872,4302.564102564103,4568.205128205129,4458.974358974359,4347.179487179487,4169.74358974359,4597.435897435898,4380.000000000001,4171.794871794872,4012.307692307693,4459.48717948718
1768.0194,0.09624906,0.28683263,0.38390237,0.6560093,0,0.0,0.0,0.0,0.0,0.0,0,0,0.0,0.0,0,0,104.0,0.0,515.0,4555.8974358974365,3968.205128205129,4493.333333333334,4522.051282051282,4325.128205128206,4581.025641025642,4448.717948717949,4365.128205128206,4183.076923076924,4625.641025641026,4403.076923076924,4151.794871794872,4044.615384615385,4477.435897435898
1768.5198,0.13195115,0.3090863,0.3845272,0.66031647,0,0.0,0.0,0.0,0.0,0.8732482,0,0,0.0,0.0,0,0,38.0,0.0,0.0,4591.794871794872,3940.0000000000005,4475.384615384616,4527.6923076923085,4306.666666666667,4583.076923076924,4473.846153846154,4521.025641025642,4361.538461538462,4812.307692307693,4584.102564102564,4283.076923076924,4308.717948717949,4816.923076923077
1768.77,0.13195115,0.3090863,0.3845272,0.66031647,0,0.0,0.0,0.0,0.0,0.50628346,0,0,0.0,0.0,0,0,71.0,0.0,459.0,4627.6923076923085,3987.1794871794878,4478.974358974359,4554.871794871796,4279.48717948718,4569.743589743591,4460.000000000001,4542.564102564103,4414.358974358975,4821.025641025642,4554.871794871796,4297.435897435898,4334.871794871796,4734.871794871796
1769.0203,0.1821732,0.3291146,0.39788434,0.64942235,0,0.0,0.0,0.0,0.0,0.9171789,0,0,0.0,0.0,0,0,103.0,0.0,506.0,4623.589743589744,3971.2820512820517,4467.179487179487,4522.051282051282,4251.794871794872,4552.820512820514,4432.307692307693,4480.000000000001,4399.48717948718,4776.410256410257,4472.820512820514,4318.974358974359,4309.743589743591,4669.2307692307695
1769.2705,0.1821732,0.3291146,0.39788434,0.64942235,0,0.0,0.0,0.0,0.0,0.08217966,0,0,0.0,0.0,0,0,6.0,0.0,555.0,4583.589743589744,3941.0256410256416,4477.948717948719,4472.307692307693,4219.48717948718,4529.2307692307695,4444.615384615385,4516.410256410257,4493.333333333334,4827.6923076923085,4464.102564102564,4401.025641025642,4371.794871794872,4683.076923076924
1769.5206,0.2391797,0.34714004,0.4099044,0.6276075,0,0.0,0.0,0.0,0.0,0.0,0,0,0.0,0.0,0,0,38.0,0.0,0.0,4531.282051282052,3891.2820512820517,4456.410256410257,4413.333333333334,4203.589743589744,4523.076923076924,4443.076923076924,4473.333333333334,4508.205128205129,4800.000000000001,4381.025641025642,4393.846153846154,4337.948717948719,4541.538461538462
1769.7709,0.2391797,0.34714004,0.4099044,0.6276075,0,0.0,0.0,0.0,0.0,0.88565546,0,0,0.0,0.0,0,0,70.0,0.0,555.0,4544.615384615385,3893.8461538461543,4481.025641025642,4397.948717948719,4182.051282051282,4503.589743589744,4442.564102564103,4444.102564102564,4504.615384615385,4766.153846153847,4309.743589743591,4383.589743589744,4281.538461538462,4428.205128205129
1770.0211,0.30347702,0.36336297,0.42982164,0.6053134,0,0.0,0.0,0.0,0.0,0.83388454,0,0,0.0,0.0,0,0,102.0,0.0,535.0,4554.358974358975,3911.2820512820517,4507.179487179488,4398.461538461539,4186.153846153847,4508.717948717949,4441.025641025642,4417.435897435898,4491.282051282052,4750.256410256411,4290.769230769231,4388.205128205129,4277.435897435898,4388.205128205129
1770.2714,0.30347702,0.36336297,0.42982164,0.6053134,0,0.0,0.0,0.0,0.0,0.08868541,0,0,0.0,0.0,0,0,5.0,0.0,557.0,4558.974358974359,3873.8461538461543,4508.205128205129,4365.641025641026,4170.256410256411,4492.820512820514,4454.871794871796,4412.820512820514,4490.256410256411,4748.717948717949,4300.000000000001,4460.000000000001,4278.974358974359,4411.794871794872
1770.5216,0.2923439,0.34335726,0.44851968,0.58373934,0,0.0,0.0,0.0,0.0,0.0,0,0,0.0,0.0,0,0,37.0,0.0,0.0,4551.282051282052,3881.0256410256416,4524.102564102564,4368.205128205129,4185.641025641026,4507.179487179488,4462.564102564103,4401.538461538462,4490.769230769231,4749.743589743591,4295.384615384616,4433.333333333334,4264.102564102564,4394.871794871796
1770.5216,0.2923439,0.34335726,0.44851968,0.58373934,0,0.0,0.0,0.0,0.0,0.0,0,0,0.0,0.0,0,0,37.0,0.0,0.0,4551.282051282052,3881.0256410256416,4524.102564102564,4368.205128205129,4185.641025641026,4507.179487179488,4462.564102564103,4401.538461538462,4490.769230769231,4749.743589743591,4295.384615384616,4433.333333333334,4264.102564102564,4394.871794871796
1771.022,0.23685274,0.3230711,0.46456924,0.5658324,0,0.0,0.0,0.0,0.0,0.0,0,0,0.0,0.0,0,0,79.0,0.0,507.0,4545.641025641026,3882.564102564103,4522.051282051282,4370.256410256411,4203.589743589744,4510.769230769231,4453.846153846154,4389.2307692307695,4460.512820512821,4736.410256410257,4281.538461538462,4392.307692307693,4232.820512820514,4422.564102564103
1771.022,0.23685274,0.3230711,0.46456924,0.5658324,0,0.0,0.0,0.0,0.0,0.0,0,0,0.0,0.0,0,0,101.0,0.0,460.0,4546.153846153847,3894.8717948717954,4523.076923076924,4373.333333333334,4201.538461538462,4506.666666666667,4457.948717948719,4409.2307692307695,4462.564102564103,4750.256410256411,4298.461538461539,4382.564102564103,4239.48717948718,4459.48717948718
1771.5225,0.20545639,0.3042215,0.46832743,0.5535282,0,0.0,0.0,0.0,0.0,0.7779533,0,0,0.0,0.0,0,0,36.0,0.0,0.0,4543.076923076924,3894.8717948717954,4525.128205128206,4372.820512820514,4221.025641025642,4523.589743589744,4472.307692307693,4440.512820512821,4445.641025641026,4735.384615384616,4306.153846153847,4358.461538461539,4221.538461538462,4569.743589743591
1771.6475,0.20545639,0.3042215,0.46832743,0.5535282,0,0.0,0.0,0.0,0.0,1.0,0,0,0.0,0.0,0,0,52.0,0.0,0.0,4541.025641025642,3895.8974358974365,4508.717948717949,4371.282051282052,4220.512820512821,4525.128205128206,4469.2307692307695,4423.076923076924,4430.256410256411,4727.179487179488,4297.435897435898,4339.48717948718,4220.512820512821,4573.333333333334
1772.0228,0.16243166,0.28641278,0.46151543,0.54972094,0,0.0,0.0,0.0,0.0,0.2908746,0,0,0.0,0.0,0,0,100.0,0.0,510.0,4547.6923076923085,3898.461538461539,4518.974358974359,4382.051282051282,4218.461538461539,4512.307692307693,4458.974358974359,4410.769230769231,4408.205128205129,4705.641025641026,4295.8974358974365,4323.076923076924,4186.666666666667,4555.8974358974365
1772.2731,0.16243166,0.28641278,0.46151543,0.54972094,0,0.0,0.0,0.0,0.0,0.32101488,0,0,0.0,0.0,0,0,3.0,0.0,544.0,4561.025641025642,3908.717948717949,4508.717948717949,4390.769230769231,4219.48717948718,4509.2307692307695,4459.48717948718,4396.410256410257,4404.615384615385,4712.820512820514,4302.051282051282,4311.794871794872,4188.717948717949,4538.461538461539
1772.5233,0.1441894,0.27447447,0.45324832,0.5559513,0,0.0,0.0,0.0,0.0,0.5719053,0,0,0.0,0.0,0,0,35.0,0.0,0.0,4566.153846153847,3913.333333333334,4507.6923076923085,4398.974358974359,4217.948717948719,4507.179487179488,4429.743589743591,4388.205128205129,4380.000000000001,4689.743589743591,4291.282051282052,4275.8974358974365,4166.666666666667,4488.205128205129
1772.7734,0.1441894,0.27447447,0.45324832,0.5559513,0,0.0,0.0,0.0,0.0,0.24626814,0,0,0.0,0.0,0,0,67.0,0.0,544.0,4584.102564102564,3928.205128205129,4510.256410256411,4417.435897435898,4232.820512820514,4520.512820512821,4446.153846153847,4412.820512820514,4398.974358974359,4720.000000000001,4322.564102564103,4285.641025641026,4187.6923076923085,4492.307692307693
1773.0237,0.15212373,0.26964557,0.43751466,0.57029706,0,0.0,0.0,0.0,0.0,0.3320135,0,0,0.0,0.0,0,0,99.0,0.0,507.0,4617.948717948719,3928.717948717949,4523.589743589744,4428.717948717949,4231.794871794872,4518.974358974359,4458.461538461539,4407.6923076923085,4395.8974358974365,4716.923076923077,4327.6923076923085,4284.615384615385,4194.358974358975,4487.179487179488
1773.2739,0.15212373,0.26964557,0.43751466,0.57029706,0,0.0,0.0,0.0,0.0,0.2328848,0,0,0.0,0.0,0,0,2.0,0.0,248.0,4622.564102564103,3924.615384615385,4521.025641025642,4423.076923076924,4234.358974358975,4523.076923076924,4456.923076923077,4415.8974358974365,4395.384615384616,4710.256410256411,4324.102564102564,4268.205128205129,4172.307692307693,4462.564102564103
1773.5242,0.16477054,0.2724755,0.417092,0.5832079,0,0.0,0.0,0.0,0.0,0.0,0,0,0.0,0.0,0,0,34.0,0.0,0.0,4628.205128205129,3925.6410256410263,4506.153846153847,4412.820512820514,4245.641025641026,4524.102564102564,4444.615384615385,4408.717948717949,4397.948717948719,4731.794871794872,4331.794871794872,4262.564102564103,4189.74358974359,4477.948717948719
1773.5242,0.16477054,0.2724755,0.417092,0.5832079,0,0.0,0.0,0.0,0.0,0.0,0,0,0.0,0.0,0,0,34.0,0.0,0.0,4628.205128205129,3925.6410256410263,4506.153846153847,4412.820512820514,4245.641025641026,4524.102564102564,4444.615384615385,4408.717948717949,4397.948717948719,4731.794871794872,4331.794871794872,4262.564102564103,4189.74358974359,4477.948717948719
1774.0245,0.15489183,0.28169185,0.39866674,0.5999381,0,0.0,0.0,0.0,0.0,0.73437166,0,0,0.0,0.0,0,0,63.0,0.0,0.0,4639.48717948718,3923.589743589744,4506.153846153847,4394.871794871796,4245.128205128206,4522.051282051282,4443.589743589744,4411.794871794872,4402.564102564103,4734.358974358975,4336.410256410257,4263.076923076924,4192.307692307693,4472.820512820514
1774.2748,0.15489183,0.28169185,0.39866674,0.5999381,0,0.0,0.0,0.0,0.0,0.9223982,0,0,0.0,0.0,0,0,1.0,0.0,465.0,4697.948717948719,3909.7435897435903,4520.512820512821,4409.743589743591,4246.666666666667,4523.076923076924,4436.923076923077,4407.179487179487,4387.179487179487,4721.538461538462,4349.743589743591,4263.076923076924,4168.717948717949,4441.538461538462
1774.525,0.13738197,0.3068195,0.37553462,0.6129879,0,0.0,0.0,0.0,0.0,0.8304889,0,0,0.0,0.0,0,0,33.0,0.0,0.0,4706.666666666667,3896.410256410257,4511.794871794872,4409.2307692307695,4252.820512820514,4540.000000000001,4458.461538461539,4405.641025641026,4347.179487179487,4674.358974358975,4340.000000000001,4254.871794871796,4099.48717948718,4328.205128205129
1774.7751,0.13738197,0.3068195,0.37553462,0.6129879,0,0.0,0.0,0.0,0.0,0.25588477,0,0,0.0,0.0,0,0,65.0,0.0,465.0,4732.307692307693,3912.307692307693,4530.256410256411,4418.461538461539,4270.256410256411,4553.846153846154,4473.333333333334,4387.179487179487,4310.769230769231,4646.666666666667,4356.410256410257,4243.076923076924,4067.1794871794878,4345.128205128206
1775.0254,0.11253405,0.33260718,0.3528863,0.6247304,0,0.0,0.0,0.0,0.0,0.0,0,0,0.0,0.0,0,0,97.0,0.0,460.0,4760.512820512821,3925.6410256410263,4512.820512820514,4429.743589743591,4286.666666666667,4568.717948717949,4462.051282051282,4366.666666666667,4278.974358974359,4627.6923076923085,4347.6923076923085,4204.102564102564,4021.538461538462,4339.48717948718
1775.0254,0.11253405,0.33260718,0.3528863,0.6247304,0,0.0,0.0,0.0,0.0,0.0,0,0,0.0,0.0,0,0,97.0,0.0,460.0,4760.512820512821,3925.6410256410263,4512.820512820514,4429.743589743591,4286.666666666667,4568.717948717949,4462.051282051282,4366.666666666667,4278.974358974359,4627.6923076923085,4347.6923076923085,4204.102564102564,4021.538461538462,4339.48717948718
1775.5259,0.11692878,0.3568782,0.33118355,0.63416153,0,0.0,0.0,0.0,0.0,0.0,0,0,0.0,0.0,0,0,113.0,0.0,460.0,4769.2307692307695,3924.615384615385,4520.512820512821,4425.128205128206,4270.769230769231,4551.794871794872,4456.923076923077,4341.025641025642,4257.948717948719,4615.384615384616,4348.717948717949,4196.410256410257,4020.0000000000005,4369.2307692307695
1775.7761,0.11692878,0.3568782,0.33118355,0.63416153,0,0.0,0.0,0.0,0.0,0.45474377,0,0,0.0,0.0,0,0,64.0,0.0,514.0,4798.461538461539,3954.8717948717954,4506.153846153847,4457.435897435898,4264.615384615385,4551.794871794872,4449.2307692307695,4345.641025641026,4333.333333333334,4662.051282051282,4314.358974358975,4180.000000000001,4121.025641025642,4420.512820512821
1776.0262,0.10066657,0.39003888,0.3110865,0.6388438,0,0.0,0.0,0.0,0.0,0.26423594,0,0,0.0,0.0,0,0,96.0,0.0,511.0,4762.051282051282,3941.538461538462,4472.307692307693,4426.666666666667,4261.025641025642,4540.512820512821,4425.128205128206,4356.410256410257,4372.307692307693,4704.102564102564,4310.256410256411,4163.589743589744,4171.282051282052,4441.025641025642
1776.2765,0.10066657,0.39003888,0.3110865,0.6388438,0,0.0,0.0,0.0,0.0,0.8914268,0,0,0.0,0.0,0,0,128.0,0.0,511.0,4804.615384615386,3976.410256410257,4543.076923076924,4434.358974358975,4248.205128205129,4529.743589743591,4440.512820512821,4400.512820512821,4434.358974358975,4763.076923076924,4367.179487179487,4291.282051282052,4262.051282051282,4679.48717948718
1776.5267,0.14379255,0.4172633,0.2963729,0.64305544,0,0.0,0.0,0.0,0.0,0.76748574,0,1,0.0,0.0,0,0,29.0,0.0,0.0,4720.000000000001,3786.1538461538466,4489.2307692307695,4311.282051282052,4263.589743589744,4552.307692307693,4461.538461538462,4411.282051282052,4450.256410256411,4770.769230769231,4347.6923076923085,4268.205128205129,4266.666666666667,4610.256410256411
1776.777,0.14379255,0.4172633,0.2963729,0.64305544,0,0.0,0.0,0.0,0.0,0.18308032,0,0,0.0,0.0,0,0,63.0,0.0,0.0,4690.256410256411,3821.0256410256416,4491.794871794872,4343.589743589744,4251.282051282052,4539.48717948718,4441.538461538462,4396.923076923077,4453.846153846154,4768.205128205129,4314.358974358975,4266.153846153847,4261.538461538462,4600.000000000001
1777.0271,0.23698673,0.44053861,0.2850081,0.63989836,0,0.0,0.0,0.0,0.0,0.15628393,0,0,0.0,0.0,0,0,95.0,0.0,508.0,4677.948717948719,3877.435897435898,4499.48717948718,4382.564102564103,4249.74358974359,4536.923076923077,4433.846153846154,4390.256410256411,4460.512820512821,4783.589743589744,4326.153846153847,4248.717948717949,4266.153846153847,4638.461538461539
1777.2773,0.23698673,0.44053861,0.2850081,0.63989836,0,0.0,0.0,0.0,0.0,0.15726765,0,0,0.0,0.0,0,0,127.0,0.0,508.0,4641.025641025642,3877.435897435898,4474.358974358975,4380.512820512821,4245.128205128206,4523.589743589744,4433.846153846154,4380.512820512821,4433.333333333334,4753.333333333334,4312.307692307693,4249.2307692307695,4236.410256410257,4607.179487179488
1777.5276,0.2451578,0.42039678,0.27711383,0.63222367,0,0.0,0.0,0.0,0.0,0.28577292,0,0,0.0,0.0,0,0,28.0,0.0,0.0,4638.974358974359,3896.410256410257,4486.153846153847,4392.820512820514,4242.564102564103,4525.128205128206,4454.358974358975,4398.974358974359,4451.282051282052,4772.820512820514,4328.205128205129,4245.128205128206,4238.461538461539,4584.102564102564
1777.7778,0.2451578,0.42039678,0.27711383,0.63222367,0,0.0,0.0,0.0,0.0,0.3554681,0,0,0.0,0.0,0,0,62.0,0.0,0.0,4640.512820512821,3909.7435897435903,4487.179487179488,4406.666666666667,4255.384615384616,4536.923076923077,4442.564102564103,4391.794871794872,4444.102564102564,4772.820512820514,4343.589743589744,4247.179487179487,4237.435897435898,4555.8974358974365
1777.903,0.2451578,0.42039678,0.27711383,0.63222367,0,0.0,0.0,0.0,0.0,0.4526668,0,0,0.0,0.0,0,0,78.0,0.0,535.0,4642.051282051282,3925.1282051282055,4493.846153846154,4423.076923076924,4263.589743589744,4540.000000000001,4447.6923076923085,4397.948717948719,4429.2307692307695,4763.076923076924,4331.282051282052,4233.333333333334,4234.871794871796,4551.794871794872
1778.2782,0.2254545,0.3869433,0.27687955,0.6242118,0,0.0,0.0,0.0,0.0,0.17328316,0,0,0.0,0.0,0,0,126.0,0.0,535.0,4623.589743589744,3928.205128205129,4490.256410256411,4426.153846153847,4263.589743589744,4553.333333333334,4468.205128205129,4423.589743589744,4450.256410256411,4778.974358974359,4351.282051282052,4247.179487179487,4229.74358974359,4526.666666666667
1778.5284,0.18573005,0.3512083,0.2825338,0.6170007,0,0.0,0.0,0.0,0.0,0.09875746,0,0,0.0,0.0,0,0,23.0,0.0,0.0,4626.153846153847,3935.3846153846157,4505.641025641026,4433.846153846154,4258.461538461539,4540.000000000001,4470.256410256411,4411.282051282052,4431.282051282052,4765.641025641026,4354.871794871796,4249.2307692307695,4233.333333333334,4524.615384615385
1778.7787,0.18573005,0.3512083,0.2825338,0.6170007,0,0.0,0.0,0.0,0.0,0.0,0,0,0.0,0.0,0,0,61.0,0.0,0.0,4610.769230769231,3939.48717948718,4506.153846153847,4442.564102564103,4263.589743589744,4545.641025641026,4455.384615384616,4383.076923076924,4406.666666666667,4756.410256410257,4358.461538461539,4229.74358974359,4199.48717948718,4483.076923076924
1778.7787,0.18573005,0.3512083,0.2825338,0.6170007,0,0.0,0.0,0.0,0.0,0.0,0,0,0.0,0.0,0,0,61.0,0.0,0.0,4610.769230769231,3939.48717948718,4506.153846153847,4442.564102564103,4263.589743589744,4545.641025641026,4455.384615384616,4383.076923076924,4406.666666666667,4756.410256410257,4358.461538461539,4229.74358974359,4199.48717948718,4483.076923076924
1779.0288,0.16641687,0.32046947,0.28762335,0.61051244,0,0.0,0.0,0.0,0.0,0.0,0,0,0.0,0.0,0,0,93.0,0.0,464.0,4607.6923076923085,3945.1282051282055,4494.358974358975,4440.512820512821,4254.358974358975,4539.48717948718,4458.461538461539,4390.256410256411,4401.538461538462,4747.179487179488,4356.410256410257,4230.769230769231,4186.666666666667,4475.8974358974365
1779.0288,0.16641687,0.32046947,0.28762335,0.61051244,0,0.0,0.0,0.0,0.0,0.0,0,0,0.0,0.0,0,0,93.0,0.0,464.0,4607.6923076923085,3945.1282051282055,4494.358974358975,4440.512820512821,4254.358974358975,4539.48717948718,4458.461538461539,4390.256410256411,4401.538461538462,4747.179487179488,4356.410256410257,4230.769230769231,4186.666666666667,4475.8974358974365
1779.5293,0.16051584,0.3008387,0.29220462,0.6046725,0,0.0,0.0,0.0,0.0,0.0,0,0,0.0,0.0,0,0,28.0,0.0,0.0,4593.333333333334,3946.666666666667,4495.8974358974365,4430.769230769231,4264.615384615385,4545.128205128206,4462.564102564103,4390.256410256411,4394.871794871796,4736.410256410257,4345.128205128206,4218.974358974359,4187.6923076923085,4486.153846153847
1779.5293,0.16051584,0.3008387,0.29220462,0.6046725,0,0.0,0.0,0.0,0.0,0.0,0,0,0.0,0.0,0,0,28.0,0.0,0.0,4593.333333333334,3946.666666666667,4495.8974358974365,4430.769230769231,4264.615384615385,4545.128205128206,4462.564102564103,4390.256410256411,4394.871794871796,4736.410256410257,4345.128205128206,4218.974358974359,4187.6923076923085,4486.153846153847
1780.2799,0.12192131,0.28599107,0.2914238,0.5994161,0,0.0,0.0,0.0,0.0,0.28523052,0,0,0.0,0.0,0,0,124.0,0.0,511.0,4591.282051282052,3909.2307692307695,4517.435897435898,4416.410256410257,4264.615384615385,4541.025641025642,4468.717948717949,4403.589743589744,4393.846153846154,4717.948717948719,4330.256410256411,4270.256410256411,4150.769230769231,4482.051282051282
1780.405,0.12192131,0.28599107,0.2914238,0.5994161,0,0.0,0.0,0.0,0.0,0.40727803,0,0,0.0,0.0,0,0,11.0,0.0,506.0,4593.846153846154,3912.820512820513,4518.974358974359,4422.564102564103,4264.615384615385,4551.282051282052,4459.48717948718,4381.538461538462,4340.000000000001,4671.794871794872,4293.846153846154,4217.435897435898,4129.2307692307695,4456.410256410257
1780.7804,0.13645202,0.27438235,0.2841641,0.6000779,0,0.0,0.0,0.0,0.0,0.12174492,0,0,0.0,0.0,0,0,56.0,0.0,0.0,4592.307692307693,3910.2564102564106,4520.000000000001,4416.923076923077,4269.74358974359,4554.358974358975,4460.512820512821,4293.846153846154,4173.333333333334,4544.615384615385,4253.846153846154,4135.384615384616,3962.0512820512827,4372.820512820514
1780.9055,0.13645202,0.27438235,0.2841641,0.6000779,0,0.0,0.0,0.0,0.0,0.11132758,0,0,0.0,0.0,0,0,75.0,0.0,509.0,4611.794871794872,3916.410256410257,4525.128205128206,4429.743589743591,4264.102564102564,4546.666666666667,4460.000000000001,4277.435897435898,4158.461538461539,4528.205128205129,4248.205128205129,4125.128205128206,3927.692307692308,4369.2307692307695
1781.2808,0.1851241,0.2850616,0.27399477,0.6099513,0,0.0,0.0,0.0,0.0,0.0,0,0,0.0,0.38650525,0,0,121.0,0.0,465.0,4654.871794871796,3960.5128205128212,4550.769230769231,4461.025641025642,4265.128205128206,4545.641025641026,4463.589743589744,4311.282051282052,4214.358974358975,4570.769230769231,4280.512820512821,4131.282051282052,4010.7692307692314,4462.564102564103
1781.4059,0.1851241,0.2850616,0.27399477,0.6099513,0,0.0,0.0,0.0,0.0,0.0,0,0,0.0,0.2472949,0,0,10.0,0.0,537.0,4652.307692307693,3954.8717948717954,4548.717948717949,4453.333333333334,4267.179487179487,4553.333333333334,4461.025641025642,4335.8974358974365,4252.820512820514,4605.128205128206,4294.358974358975,4143.076923076924,4042.564102564103,4485.641025641026
1781.7812,0.24607064,0.3167242,0.2648435,0.62278783,0,0.0,0.0,0.0,0.0,0.0,0,0,0.0,0.37717384,0,0,53.0,0.0,0.0,4655.8974358974365,3946.666666666667,4520.000000000001,4448.717948717949,4261.538461538462,4535.384615384616,4436.923076923077,4364.615384615385,4338.461538461539,4677.435897435898,4343.076923076924,4169.2307692307695,4182.051282051282,4567.179487179488
1781.9064,0.24607064,0.3167242,0.2648435,0.62278783,0,0.0,0.0,0.0,0.0,0.0,0,0,0.0,0.54932934,0,0,74.0,0.0,537.0,4663.076923076924,3945.1282051282055,4526.666666666667,4442.564102564103,4247.179487179487,4537.948717948719,4452.307692307693,4374.358974358975,4350.769230769231,4684.615384615386,4337.435897435898,4186.153846153847,4202.564102564103,4572.307692307693
1782.0315,0.23948528,0.3671634,0.25825605,0.63433784,0,0.0,0.0,0.0,0.0,0.0,0,0,0.0,0.0,0,0,90.0,0.0,537.0,4644.615384615385,3930.2564102564106,4524.102564102564,4437.435897435898,4246.666666666667,4535.384615384616,4456.923076923077,4398.974358974359,4382.051282051282,4710.769230769231,4356.923076923077,4197.948717948719,4229.74358974359,4528.717948717949
1782.0315,0.23948528,0.3671634,0.25825605,0.63433784,0,0.0,0.0,0.0,0.0,0.0,0,0,0.0,0.0,0,0,90.0,0.0,537.0,4644.615384615385,3930.2564102564106,4524.102564102564,4437.435897435898,4246.666666666667,4535.384615384616,4456.923076923077,4398.974358974359,4382.051282051282,4710.769230769231,4356.923076923077,4197.948717948719,4229.74358974359,4528.717948717949
1782.5319,0.24928157,0.40798315,0.25232854,0.6451427,0,0.0,0.0,0.0,0.0,0.0,0,0,0.0,0.0,0,0,25.0,0.0,0.0,4628.717948717949,3947.1794871794878,4506.666666666667,4445.128205128206,4249.74358974359,4537.435897435898,4448.717948717949,4435.8974358974365,4475.384615384616,4769.743589743591,4398.974358974359,4240.000000000001,4286.666666666667,4455.384615384616
