timestamp,excitement,frustration,meditation,engagementBoredom,blink,clench,laugh,smile,eyebrow,furrowBrow,lookLeft,lookRight,smirkLeft,smirkRight,winkLeft,winkRight,eeg0,eeg1,eeg2,eeg3,eeg4,eeg5,eeg6,eeg7,eeg8,eeg9,eeg10,eeg11,eeg12,eeg13,eeg14,eeg15,eeg16
1141.004,0.776597,0.59202194,0.35118112,0.61532813,0,0.0,0.0,0.0,0.0,0.0,0,0,0.0,0.0,0,0,21.0,0.0,0.0,4664.102564102564,3955.3846153846157,4460.512820512821,4554.358974358975,4231.282051282052,4523.589743589744,4506.666666666667,4507.179487179488,4420.512820512821,4799.48717948718,4350.769230769231,4321.025641025642,4235.8974358974365,4552.307692307693
1141.5044,0.7274612,0.6019295,0.3510656,0.6272067,0,0.0,0.0,0.0,0.0,0.0,0,0,0.0,0.0,0,0,85.0,0.0,451.0,4661.025641025642,3927.1794871794878,4481.025641025642,4534.358974358975,4250.256410256411,4537.948717948719,4478.974358974359,4473.333333333334,4339.48717948718,4721.538461538462,4326.153846153847,4282.051282051282,4150.256410256411,4607.6923076923085
1141.5044,0.7274612,0.6019295,0.3510656,0.6272067,0,0.0,0.0,0.0,0.0,0.0,0,0,0.0,0.0,0,0,85.0,0.0,451.0,4661.025641025642,3927.1794871794878,4481.025641025642,4534.358974358975,4250.256410256411,4537.948717948719,4478.974358974359,4473.333333333334,4339.48717948718,4721.538461538462,4326.153846153847,4282.051282051282,4150.256410256411,4607.6923076923085
1142.0049,0.66421026,0.5997972,0.34832674,0.62785476,0,0.0,0.0,0.0,0.0,0.0,0,0,0.0,0.0,0,0,20.0,0.0,0.0,4652.307692307693,3910.2564102564106,4427.6923076923085,4474.871794871796,4254.358974358975,4537.948717948719,4449.2307692307695,4425.641025641026,4311.282051282052,4698.461538461539,4312.307692307693,4188.717948717949,4143.589743589744,4556.923076923077
1142.0049,0.66421026,0.5997972,0.34832674,0.62785476,0,0.0,0.0,0.0,0.0,0.0,0,0,0.0,0.0,0,0,20.0,0.0,0.0,4652.307692307693,3910.2564102564106,4427.6923076923085,4474.871794871796,4254.358974358975,4537.948717948719,4449.2307692307695,4425.641025641026,4311.282051282052,4698.461538461539,4312.307692307693,4188.717948717949,4143.589743589744,4556.923076923077
1142.5052,0.56386375,0.5739654,0.34586138,0.6225621,0,0.0,0.0,0.0,0.0,0.0,0,0,0.0,0.0,0,0,84.0,0.0,508.0,4675.384615384616,3923.589743589744,4430.256410256411,4467.179487179487,4254.871794871796,4523.076923076924,4444.615384615385,4396.923076923077,4383.076923076924,4746.666666666667,4310.256410256411,4284.102564102564,4234.871794871796,4629.2307692307695
1142.5052,0.56386375,0.5739654,0.34586138,0.6225621,0,0.0,0.0,0.0,0.0,0.0,0,0,0.0,0.0,0,0,84.0,0.0,508.0,4675.384615384616,3923.589743589744,4430.256410256411,4467.179487179487,4254.871794871796,4523.076923076924,4444.615384615385,4396.923076923077,4383.076923076924,4746.666666666667,4310.256410256411,4284.102564102564,4234.871794871796,4629.2307692307695
1143.0057,0.53018874,0.5412814,0.34364226,0.62443423,0,0.0,0.0,0.0,0.0,0.0,0,0,0.0,0.0,0,0,19.0,0.0,0.0,4682.564102564103,3892.307692307693,4455.8974358974365,4445.128205128206,4246.153846153847,4522.564102564103,4449.2307692307695,4396.410256410257,4459.48717948718,4752.307692307693,4284.102564102564,4317.435897435898,4170.769230769231,4612.820512820514
1143.0057,0.53018874,0.5412814,0.34364226,0.62443423,0,0.0,0.0,0.0,0.0,0.0,0,0,0.0,0.0,0,0,19.0,0.0,0.0,4682.564102564103,3892.307692307693,4455.8974358974365,4445.128205128206,4246.153846153847,4522.564102564103,4449.2307692307695,4396.410256410257,4459.48717948718,4752.307692307693,4284.102564102564,4317.435897435898,4170.769230769231,4612.820512820514
1143.5061,0.49401662,0.52094084,0.3416448,0.6342881,0,0.0,0.0,0.0,0.0,0.0,0,0,0.0,0.0,0,0,83.0,0.0,509.0,4631.282051282052,3865.6410256410263,4473.846153846154,4444.615384615385,4247.179487179487,4507.179487179488,4446.666666666667,4379.48717948718,4353.846153846154,4674.871794871796,4350.256410256411,4246.666666666667,4034.8717948717954,4461.538461538462
1143.5061,0.49401662,0.52094084,0.3416448,0.6342881,0,0.0,0.0,0.0,0.0,0.0,0,0,0.0,0.0,0,0,83.0,0.0,509.0,4631.282051282052,3865.6410256410263,4473.846153846154,4444.615384615385,4247.179487179487,4507.179487179488,4446.666666666667,4379.48717948718,4353.846153846154,4674.871794871796,4350.256410256411,4246.666666666667,4034.8717948717954,4461.538461538462
1144.0066,0.48934382,0.49861097,0.3398469,0.63497996,0,0.0,0.0,0.0,0.0,0.0,0,0,0.0,0.0,0,0,18.0,0.0,0.0,4654.358974358975,3907.692307692308,4428.205128205129,4456.923076923077,4263.589743589744,4505.641025641026,4402.051282051282,4371.794871794872,4337.435897435898,4615.384615384616,4426.153846153847,4077.435897435898,4090.2564102564106,4567.179487179488
1144.3818,0.48934382,0.49861097,0.3398469,0.63497996,0,0.0,0.0,0.0,0.0,0.0021850276,0,0,0.0,0.0,0,0,66.0,0.0,250.0,4697.435897435898,3843.589743589744,4492.820512820514,4353.846153846154,4299.48717948718,4507.6923076923085,4493.846153846154,4268.205128205129,4588.717948717949,4805.641025641026,4563.589743589744,4144.615384615385,4353.846153846154,4690.769230769231
1144.6321,0.47633484,0.47850677,0.33798194,0.6253558,0,0.0,0.0,0.0,0.0,0.204195,0,0,0.0,0.0,0,0,98.0,0.0,534.0,4696.923076923077,3807.1794871794878,4493.333333333334,4276.923076923077,4265.641025641026,4506.666666666667,4474.871794871796,4279.48717948718,4554.358974358975,4773.846153846154,4492.307692307693,4182.051282051282,4349.2307692307695,4748.205128205129
1144.8823,0.47633484,0.47850677,0.33798194,0.6253558,0,0.0,0.0,0.0,0.0,0.47515023,0,0,0.0,0.0,0,0,1.0,0.0,470.0,4682.564102564103,3864.615384615385,4508.717948717949,4327.179487179487,4234.871794871796,4508.717948717949,4511.794871794872,4329.743589743591,4610.256410256411,4829.743589743591,4464.102564102564,4277.435897435898,4386.153846153847,4752.820512820514
1145.1326,0.48121142,0.46041298,0.33614454,0.61824536,0,0.0,0.0,0.0,0.0,0.27122733,0,0,0.0,0.0,0,0,33.0,0.0,0.0,4712.307692307693,3867.1794871794878,4558.461538461539,4332.820512820514,4217.948717948719,4510.256410256411,4526.153846153847,4376.923076923077,4596.923076923077,4810.256410256411,4451.282051282052,4381.025641025642,4418.461538461539,4805.128205128206
1145.4141,0.48121142,0.46041298,0.33614454,0.61824536,0,0.0,0.0,0.0,0.0,0.0,0,0,0.0,0.0,0,0,69.0,0.0,557.0,4671.282051282052,3850.7692307692314,4536.923076923077,4323.076923076924,4236.923076923077,4514.871794871796,4497.948717948719,4528.717948717949,4453.846153846154,4749.2307692307695,4429.743589743591,4402.564102564103,4301.538461538462,4553.846153846154
1145.6329,0.51199245,0.4441286,0.33640924,0.6179801,0,0.0,0.0,0.0,0.0,0.07899939,0,0,0.0,0.0,0,0,97.0,0.0,453.0,4626.153846153847,3846.666666666667,4511.794871794872,4362.564102564103,4263.076923076924,4532.307692307693,4462.564102564103,4672.820512820514,4341.538461538462,4828.205128205129,4477.948717948719,4381.025641025642,4217.435897435898,4556.923076923077
1145.8832,0.51199245,0.4441286,0.33640924,0.6179801,0,0.0,0.0,0.0,0.0,0.10377573,0,0,0.0,0.0,0,0,0.0,0.0,512.0,4623.076923076924,3892.820512820513,4472.307692307693,4442.051282051282,4283.589743589744,4554.871794871796,4440.000000000001,4703.076923076924,4295.8974358974365,4877.948717948719,4492.820512820514,4327.6923076923085,4202.051282051282,4742.051282051282
1146.1334,0.5135869,0.42947263,0.33944508,0.60933083,0,0.0,0.0,0.0,0.0,1.0,0,0,0.0,0.0,0,0,32.0,0.0,0.0,4603.076923076924,3916.410256410257,4522.564102564103,4456.923076923077,4264.102564102564,4569.743589743591,4491.794871794872,4670.769230769231,4388.717948717949,4870.256410256411,4518.974358974359,4301.538461538462,4248.205128205129,4932.820512820514
1146.3837,0.5135869,0.42947263,0.33944508,0.60933083,0,0.0,0.0,0.0,0.0,0.20232904,0,0,0.0,0.0,0,0,64.0,0.0,512.0,4561.025641025642,4037.435897435898,4456.923076923077,4600.512820512821,4237.435897435898,4568.717948717949,4454.871794871796,4601.538461538462,4328.717948717949,4880.512820512821,4467.179487179487,4295.384615384616,4268.205128205129,4780.000000000001
1146.6338,0.48699272,0.41628227,0.34051865,0.599474,1,0.0,0.0,0.0,0.0,0.078595,0,0,0.0,0.0,0,0,96.0,0.0,508.0,4518.461538461539,4017.435897435898,4337.948717948719,4597.948717948719,4160.000000000001,4522.564102564103,4308.205128205129,4358.461538461539,4171.282051282052,4737.435897435898,4260.000000000001,4164.615384615385,4012.307692307693,4613.846153846154
1146.884,0.48699272,0.41628227,0.34051865,0.599474,0,0.0,0.0,0.0,0.0,0.13451566,0,0,0.0,0.0,0,0,128.0,0.0,508.0,4716.923076923077,2885.641025641026,4557.948717948719,4412.307692307693,4371.794871794872,4724.615384615386,4628.717948717949,4492.307692307693,4566.153846153847,5097.435897435898,4484.102564102564,4489.2307692307695,4310.256410256411,5025.128205128206
1147.1343,0.60825855,0.40441096,0.3392435,0.59268373,0,0.0,0.0,0.0,0.0,0.36558235,1,0,0.0,0.0,0,0,31.0,0.0,0.0,4604.615384615385,2835.8974358974365,4303.589743589744,4501.538461538462,4277.948717948719,4511.282051282052,4392.307692307693,4281.025641025642,4424.615384615385,4784.102564102564,4090.2564102564106,4246.666666666667,4112.820512820514,4654.871794871796
1147.3845,0.60825855,0.40441096,0.3392435,0.59268373,0,0.0,0.0,0.0,0.0,0.39067167,1,0,0.0,0.0,0,0,63.0,0.0,0.0,4469.2307692307695,2757.9487179487182,4073.333333333334,4244.102564102564,4225.641025641026,4328.205128205129,4154.871794871796,3996.410256410257,4167.6923076923085,4313.846153846154,3684.1025641025644,3937.9487179487182,3799.48717948718,4435.384615384616
1147.6346,0.7452675,0.39372677,0.3386525,0.5877505,0,0.0,0.0,1.0,0.0,0.0,1,0,0.0,0.0,0,0,95.0,0.0,500.0,4333.846153846154,2702.564102564103,3831.2820512820517,3907.692307692308,4570.256410256411,4235.8974358974365,3935.8974358974365,3702.564102564103,3944.615384615385,4025.6410256410263,3344.615384615385,3685.6410256410263,3511.2820512820517,4051.7948717948725
1147.8849,0.7452675,0.39372677,0.3386525,0.5877505,0,0.0,0.0,0.0,0.0,0.26757318,0,0,0.0,0.0,0,0,127.0,0.0,500.0,4363.589743589744,2965.641025641026,3946.1538461538466,3979.48717948718,4458.461538461539,4262.051282051282,3970.7692307692314,3707.692307692308,3884.1025641025644,3978.461538461539,3422.564102564103,3716.410256410257,3548.717948717949,4078.461538461539
1148.1351,0.86583537,0.384111,0.33812058,0.5841993,0,0.0,0.0,0.0,0.0,0.19331485,0,0,0.0,0.0,0,0,30.0,0.0,0.0,4363.076923076924,3112.820512820513,4003.076923076924,4026.1538461538466,4381.538461538462,4311.794871794872,4013.8461538461543,3792.307692307693,3901.0256410256416,4017.9487179487182,3512.307692307693,3785.1282051282055,3602.0512820512827,4138.461538461539
1148.3854,0.86583537,0.384111,0.33812058,0.5841993,0,0.0,0.0,0.0,0.0,0.37055477,0,0,0.0,0.0,0,0,62.0,0.0,0.0,4375.8974358974365,3223.0769230769233,4092.307692307693,4069.23076923077,4331.282051282052,4356.923076923077,4092.307692307693,3877.435897435898,3960.5128205128212,4121.025641025642,3646.666666666667,3864.1025641025644,3715.3846153846157,4187.6923076923085
1148.6355,0.97193515,0.37545678,0.33764082,0.5809971,0,0.0,0.0,0.0,0.0,0.48538637,0,0,0.0,0.0,0,0,94.0,0.0,534.0,4358.974358974359,3361.0256410256416,4196.410256410257,3990.7692307692314,4297.948717948719,4396.923076923077,4144.102564102564,3956.9230769230776,4008.205128205129,4245.128205128206,3788.717948717949,3987.692307692308,3816.9230769230776,4149.74358974359
1148.7606,0.97193515,0.37545678,0.33764082,0.5809971,0,0.0,0.0,0.0,0.0,1.0,0,0,0.0,0.0,0,0,110.0,0.0,534.0,4428.205128205129,3560.0000000000005,4194.358974358975,4225.641025641026,4262.051282051282,4401.025641025642,4136.410256410257,3910.2564102564106,4054.8717948717954,4291.282051282052,3847.692307692308,3870.7692307692314,3891.2820512820517,3967.1794871794878
1149.0421,1.0,0.367668,0.33720985,0.5781201,0,0.0,0.0,0.0,0.0,1.0,0,0,0.0,0.0,0,0,17.0,0.0,0.0,4364.102564102564,3596.410256410257,4254.358974358975,4165.641025641026,4276.410256410257,4489.743589743591,4208.717948717949,4015.8974358974365,4097.948717948719,4377.948717948719,3943.589743589744,3957.435897435898,3921.538461538462,3830.7692307692314
1149.3862,1.0,0.367668,0.33720985,0.5781201,0,0.0,0.0,0.0,0.0,0.22328582,0,0,0.0,0.0,0,0,61.0,0.0,0.0,4354.871794871796,3603.589743589744,4246.666666666667,4186.153846153847,4261.025641025642,4494.871794871796,4183.589743589744,4108.205128205129,4139.48717948718,4423.076923076924,4031.7948717948725,3916.9230769230776,3945.1282051282055,4054.358974358975
1149.6364,1.0,0.3606581,0.33682114,0.5755259,0,0.0,0.0,0.0,0.0,1.0,0,0,0.0,0.0,0,0,93.0,0.0,451.0,4391.282051282052,3628.717948717949,4293.333333333334,4202.051282051282,4263.589743589744,4524.615384615385,4254.358974358975,4211.282051282052,4177.435897435898,4475.8974358974365,4106.666666666667,3911.7948717948725,3971.2820512820517,4268.205128205129
1149.8866,1.0,0.3606581,0.33682114,0.5755259,0,0.0,0.0,0.0,0.0,0.72257537,0,0,0.0,0.0,0,0,125.0,0.0,451.0,4458.461538461539,3702.564102564103,4371.794871794872,4251.794871794872,4247.6923076923085,4547.179487179488,4342.051282051282,4329.2307692307695,4229.74358974359,4522.564102564103,4190.769230769231,3959.48717948718,4011.7948717948725,4404.615384615385
1150.1368,1.0,0.3543492,0.33647135,0.57319117,0,0.0,0.0,0.0,0.0,0.20731445,0,0,0.0,0.0,0,0,28.0,0.0,0.0,4484.102564102564,3715.8974358974365,4387.179487179487,4278.461538461539,4247.6923076923085,4536.410256410257,4355.8974358974365,4361.025641025642,4237.435897435898,4557.435897435898,4230.769230769231,3980.5128205128212,4050.2564102564106,4400.000000000001
1150.3871,1.0,0.3543492,0.33647135,0.57319117,0,0.0,0.0,0.0,0.0,1.0,0,0,0.0,0.0,0,0,60.0,0.0,0.0,4538.461538461539,3621.538461538462,4441.025641025642,4182.564102564103,4152.820512820514,4475.384615384616,4370.256410256411,4394.871794871796,4247.179487179487,4568.717948717949,4263.076923076924,4086.1538461538466,4072.307692307693,4748.717948717949
1150.5122,0.9989546,0.34867117,0.33615655,0.57109016,0,0.0,0.0,0.0,0.0,1.0,0,0,0.0,0.0,0,0,76.0,0.0,508.0,4552.307692307693,3686.1538461538466,4476.410256410257,4263.589743589744,4065.6410256410263,4464.615384615385,4399.48717948718,4401.025641025642,4253.846153846154,4565.641025641026,4257.435897435898,4095.3846153846157,4078.9743589743593,4748.717948717949
1150.8875,0.9989546,0.34867117,0.33615655,0.57109016,0,0.0,0.0,0.0,0.0,0.048632246,0,0,0.0,0.0,0,1,124.0,0.0,508.0,4644.615384615385,3911.2820512820517,4651.282051282052,4447.179487179487,3822.0512820512827,4524.102564102564,4574.871794871796,4675.384615384616,4442.564102564103,4845.641025641026,4410.256410256411,4264.615384615385,4307.6923076923085,4778.461538461539
1151.1377,1.0,0.34356096,0.33587384,0.5692029,0,0.0,0.0,0.0,0.0,0.23830497,0,0,0.0,0.0,0,0,27.0,0.0,0.0,4665.641025641026,3968.717948717949,4654.871794871796,4432.820512820514,3965.1282051282055,4586.666666666667,4571.282051282052,4584.102564102564,4411.794871794872,4906.666666666667,4232.820512820514,4413.333333333334,4393.846153846154,4725.641025641026
1151.388,1.0,0.34356096,0.33587384,0.5692029,0,0.0,0.0,0.0,0.0,0.031107808,0,0,0.0,0.0,0,1,59.0,0.0,0.0,4621.538461538462,3876.410256410257,4576.410256410257,4305.128205128206,4057.435897435898,4525.128205128206,4495.384615384616,4554.871794871796,4373.846153846154,4860.000000000001,4085.6410256410263,4041.538461538462,4357.948717948719,4684.102564102564
1151.6382,1.0,0.33896178,0.33561957,0.5675053,0,0.0,0.0,0.0,0.0,0.0,0,0,0.0,0.0,0,0,91.0,0.0,505.0,4615.8974358974365,3867.1794871794878,4490.256410256411,4220.000000000001,4271.794871794872,4531.794871794872,4403.076923076924,4365.128205128206,4365.128205128206,4718.974358974359,4029.7435897435903,3980.5128205128212,4216.410256410257,4614.358974358975
1151.6382,1.0,0.33896178,0.33561957,0.5675053,0,0.0,0.0,0.0,0.0,0.0,0,0,0.0,0.0,0,0,91.0,0.0,505.0,4615.8974358974365,3867.1794871794878,4490.256410256411,4220.000000000001,4271.794871794872,4531.794871794872,4403.076923076924,4365.128205128206,4365.128205128206,4718.974358974359,4029.7435897435903,3980.5128205128212,4216.410256410257,4614.358974358975
1152.0447,1.0,0.3348225,0.3353909,0.5659782,0,0.0,0.0,0.0,0.0,0.0,0,0,0.0,0.0,0,0,14.0,0.0,534.0,4598.974358974359,3813.8461538461543,4442.564102564103,4152.820512820514,4328.717948717949,4492.820512820514,4308.205128205129,4312.307692307693,4292.307692307693,4602.564102564103,4095.3846153846157,4034.8717948717954,4074.8717948717954,4582.564102564103
1152.3888,1.0,0.3348225,0.3353909,0.5659782,0,0.0,0.0,0.0,0.0,0.99096763,0,0,0.0,0.0,0,0,58.0,0.0,0.0,4584.615384615385,3790.2564102564106,4423.076923076924,4171.282051282052,4294.358974358975,4470.256410256411,4318.974358974359,4317.435897435898,4277.435897435898,4551.794871794872,4116.410256410257,4088.205128205129,4060.5128205128212,4420.512820512821
1152.639,1.0,0.33109716,0.33518514,0.56460434,0,0.0,0.0,0.0,0.0,1.0,0,0,0.0,0.0,0,0,90.0,0.0,539.0,4572.820512820514,3790.2564102564106,4429.2307692307695,4199.48717948718,4261.538461538462,4462.051282051282,4341.538461538462,4348.205128205129,4307.6923076923085,4561.538461538462,4221.538461538462,4152.820512820514,4101.538461538462,4382.051282051282
1152.639,1.0,0.33109716,0.33518514,0.56460434,0,0.0,0.0,0.0,0.0,1.0,0,0,0.0,0.0,0,0,90.0,0.0,539.0,4572.820512820514,3790.2564102564106,4429.2307692307695,4199.48717948718,4261.538461538462,4462.051282051282,4341.538461538462,4348.205128205129,4307.6923076923085,4561.538461538462,4221.538461538462,4152.820512820514,4101.538461538462,4382.051282051282
1153.1394,0.9430009,0.32774433,0.33499956,0.56336546,0,0.0,0.0,0.0,0.0,0.0,0,0,0.9996393,0.0,0,0,25.0,0.0,0.0,4614.871794871796,3948.205128205129,4506.153846153847,4400.000000000001,4249.2307692307695,4494.358974358975,4458.461538461539,4471.282051282052,4409.743589743591,4695.384615384616,4357.435897435898,4265.128205128206,4174.358974358975,4382.564102564103
1153.2645,0.9430009,0.32774433,0.33499956,0.56336546,0,0.0,0.0,0.0,0.0,0.0,0,0,1.0,0.0,0,0,41.0,0.0,0.0,4601.538461538462,3968.717948717949,4489.2307692307695,4411.282051282052,4223.589743589744,4487.6923076923085,4444.615384615385,4469.743589743591,4406.666666666667,4694.358974358975,4365.128205128206,4267.179487179487,4171.282051282052,4341.025641025642
1153.6399,0.9221002,0.33898297,0.3348325,0.56225026,0,0.0,0.0,0.0,0.0,0.4340195,0,0,0.0,0.0,0,0,89.0,0.0,454.0,4616.923076923077,4080.5128205128212,4494.871794871796,4471.282051282052,4200.512820512821,4476.410256410257,4458.974358974359,4473.846153846154,4414.358974358975,4746.153846153847,4366.666666666667,4296.923076923077,4198.974358974359,4481.025641025642
1153.765,0.9221002,0.33898297,0.3348325,0.56225026,0,0.0,0.0,0.0,0.0,1.0,0,0,0.0,0.0,0,0,105.0,0.0,454.0,4633.846153846154,4093.333333333334,4511.282051282052,4481.538461538462,4213.846153846154,4489.743589743591,4474.358974358975,4474.358974358975,4427.179487179487,4754.871794871796,4378.461538461539,4313.333333333334,4205.641025641026,4553.333333333334
1154.1403,0.94778275,0.34902993,0.33468208,0.5612464,0,0.0,0.0,0.0,0.0,0.20325708,0,0,0.0,0.0,0,0,24.0,0.0,0.0,4663.076923076924,3970.2564102564106,4538.974358974359,4424.102564102564,4208.205128205129,4500.000000000001,4505.128205128206,4498.461538461539,4437.948717948719,4774.358974358975,4413.846153846154,4329.2307692307695,4202.051282051282,4589.2307692307695
1154.3905,0.94778275,0.34902993,0.33468208,0.5612464,0,0.0,0.0,0.0,0.0,0.46120992,0,0,0.0,0.0,0,0,56.0,0.0,0.0,4674.871794871796,4066.1538461538466,4572.307692307693,4525.128205128206,4166.666666666667,4504.102564102564,4528.205128205129,4530.256410256411,4464.102564102564,4782.564102564103,4444.615384615385,4353.846153846154,4204.102564102564,4615.8974358974365
1154.6407,0.8583529,0.35807222,0.33454674,0.56034297,0,0.0,0.0,0.0,0.0,0.2153556,0,0,0.0,0.0,0,0,88.0,0.0,508.0,4660.512820512821,4127.179487179487,4554.358974358975,4554.871794871796,4173.846153846154,4509.2307692307695,4524.615384615385,4505.641025641026,4463.589743589744,4796.923076923077,4451.282051282052,4350.256410256411,4221.025641025642,4646.666666666667
1154.8909,0.8583529,0.35807222,0.33454674,0.56034297,0,0.0,0.0,0.0,0.0,0.15755394,0,0,0.0,0.0,0,0,120.0,0.0,508.0,4670.256410256411,4084.1025641025644,4569.2307692307695,4543.076923076924,4192.820512820514,4524.102564102564,4539.48717948718,4521.025641025642,4456.923076923077,4780.512820512821,4427.179487179487,4348.205128205129,4203.589743589744,4633.846153846154
1155.1411,0.8346878,0.36621025,0.33442497,0.55953014,0,0.0,0.0,0.0,0.0,0.18969715,0,0,0.0,0.0,0,0,23.0,0.0,0.0,4697.435897435898,4006.666666666667,4583.589743589744,4658.974358974359,4176.410256410257,4513.846153846154,4538.974358974359,4541.538461538462,4458.974358974359,4776.923076923077,4437.435897435898,4365.128205128206,4194.358974358975,4645.641025641026
1155.3289,0.8346878,0.36621025,0.33442497,0.55953014,0,0.0,0.0,0.0,0.0,1.0,0,1,0.0,0.0,0,0,47.0,0.0,0.0,4702.051282051282,3941.538461538462,4570.256410256411,4698.974358974359,4202.051282051282,4546.153846153847,4610.256410256411,4598.461538461539,4537.435897435898,4829.743589743591,4520.512820512821,4470.769230769231,4322.051282051282,4809.743589743591
1155.6416,0.89458454,0.37353447,0.33431536,0.56619334,0,0.0,0.0,0.0,0.0,0.4687108,0,1,0.0,0.0,0,0,87.0,0.0,502.0,4703.076923076924,3786.666666666667,4490.256410256411,4650.769230769231,4284.615384615385,4536.923076923077,4583.589743589744,4537.948717948719,4481.025641025642,4938.461538461539,4455.384615384616,4445.128205128206,4245.641025641026,4695.8974358974365
1155.8918,0.89458454,0.37353447,0.33431536,0.56619334,0,0.0,0.0,0.0,0.0,0.21217854,0,0,0.0,0.0,0,0,119.0,0.0,502.0,4735.384615384616,3907.692307692308,4492.307692307693,4754.358974358975,4309.743589743591,4565.128205128206,4594.871794871796,4555.384615384616,4475.384615384616,4960.000000000001,4451.282051282052,4671.794871794872,4232.307692307693,4673.846153846154
1156.142,0.9187559,0.3801263,0.33421704,0.5721949,0,0.0,0.0,0.0,0.0,0.14909332,0,0,0.0,0.0,0,0,22.0,0.0,0.0,4795.8974358974365,3925.6410256410263,4541.025641025642,4766.666666666667,4286.153846153847,4571.794871794872,4610.769230769231,4509.743589743591,4506.666666666667,5007.179487179488,4438.974358974359,4693.333333333334,4195.384615384616,4778.974358974359
1156.3922,0.9187559,0.3801263,0.33421704,0.5721949,0,0.0,0.0,0.0,0.0,0.45336077,0,0,0.0,0.0,0,0,54.0,0.0,0.0,4553.846153846154,3519.48717948718,4136.410256410257,4476.410256410257,3892.820512820513,4192.307692307693,4170.769230769231,4052.820512820513,4083.589743589744,4455.8974358974365,3944.615384615385,4207.6923076923085,3766.666666666667,4309.2307692307695
1156.6425,1.0,0.38605893,0.33412868,0.5775962,0,0.0,0.0,0.0,0.0,0.56879026,0,0,0.0,0.0,0,0,86.0,0.0,538.0,4508.205128205129,3480.0000000000005,4158.974358974359,4428.205128205129,3963.589743589744,4233.333333333334,4152.820512820514,4073.8461538461543,4140.512820512821,4510.256410256411,3989.7435897435903,4064.615384615385,3850.2564102564106,4384.102564102564
1156.8927,1.0,0.38605893,0.33412868,0.5775962,0,0.0,0.0,0.0,0.0,0.089879856,0,0,0.0,0.0,0,1,118.0,0.0,538.0,4525.641025641026,3645.1282051282055,4215.8974358974365,4476.410256410257,4047.692307692308,4304.102564102564,4220.000000000001,4200.000000000001,4186.666666666667,4504.102564102564,4069.23076923077,4155.8974358974365,3991.7948717948725,4383.589743589744
1157.1428,1.0,0.3913983,0.33404914,0.5824574,0,0.0,0.0,0.0,0.0,0.74709094,0,0,0.0,0.0,0,0,21.0,0.0,0.0,4439.48717948718,3650.2564102564106,4128.205128205129,4409.2307692307695,4476.923076923077,4374.358974358975,4116.923076923077,4049.7435897435903,4117.948717948719,4350.256410256411,4025.1282051282055,3985.1282051282055,3942.564102564103,4068.717948717949
1157.268,1.0,0.3913983,0.33404914,0.5824574,0,0.0,0.0,1.0,0.0,0.0,0,0,0.0,0.0,0,0,37.0,0.0,0.0,4443.589743589744,3681.0256410256416,4155.384615384616,4411.794871794872,4444.102564102564,4403.589743589744,4156.923076923077,4070.2564102564106,4121.025641025642,4357.435897435898,4049.23076923077,4007.692307692308,3945.1282051282055,4066.666666666667
1157.5494,1.0,0.39620373,0.33397755,0.5794356,0,0.0,0.0,0.0,0.0,0.0,0,0,0.0,0.0,0,0,73.0,0.0,476.0,4476.923076923077,3774.8717948717954,4265.128205128206,4419.48717948718,4354.871794871796,4450.256410256411,4265.128205128206,4201.538461538462,4211.282051282052,4493.846153846154,4169.2307692307695,4122.564102564103,4030.7692307692314,4155.384615384616
1157.5494,1.0,0.39620373,0.33397755,0.5794356,0,0.0,0.0,0.0,0.0,0.0,0,0,0.0,0.0,0,0,73.0,0.0,476.0,4476.923076923077,3774.8717948717954,4265.128205128206,4419.48717948718,4354.871794871796,4450.256410256411,4265.128205128206,4201.538461538462,4211.282051282052,4493.846153846154,4169.2307692307695,4122.564102564103,4030.7692307692314,4155.384615384616
1158.0186,1.0,0.4005286,0.333913,0.57671076,0,0.0,0.0,0.0,0.0,0.0,0,0,0.0,0.0,0,0,4.0,0.0,561.0,4530.256410256411,3846.1538461538466,4372.820512820514,4502.564102564103,4246.153846153847,4452.307692307693,4368.205128205129,4397.948717948719,4303.076923076924,4625.641025641026,4301.538461538462,4242.051282051282,4136.410256410257,4277.948717948719
1158.0186,1.0,0.4005286,0.333913,0.57671076,0,0.0,0.0,0.0,0.0,0.0,0,0,0.0,0.0,0,0,4.0,0.0,561.0,4530.256410256411,3846.1538461538466,4372.820512820514,4502.564102564103,4246.153846153847,4452.307692307693,4368.205128205129,4397.948717948719,4303.076923076924,4625.641025641026,4301.538461538462,4242.051282051282,4136.410256410257,4277.948717948719
1158.6442,1.0,0.40442103,0.33385488,0.5742579,0,0.0,0.0,0.0,0.0,0.062404066,0,0,0.0,0.0,0,1,84.0,0.0,502.0,4849.2307692307695,4393.333333333334,4809.2307692307695,4961.538461538462,4267.6923076923085,4704.615384615386,4722.051282051282,4902.564102564103,4623.589743589744,5086.153846153847,4737.435897435898,4567.6923076923085,4629.743589743591,4581.538461538462
1158.8944,1.0,0.40442103,0.33385488,0.5742579,0,0.0,0.0,0.0,0.0,0.0,1,0,1.0,0.0,0,0,116.0,0.0,502.0,4896.410256410257,4523.076923076924,4962.564102564103,5090.256410256411,4183.076923076924,4780.000000000001,4883.076923076924,4965.128205128206,4814.871794871796,5260.000000000001,4896.410256410257,4727.179487179488,4761.538461538462,4842.051282051283
1159.0508,1.0,0.40792418,0.33380267,0.5720541,0,0.0,0.0,0.0,0.0,0.0,0,0,1.0,0.0,0,0,7.0,0.0,435.0,4910.769230769231,4813.333333333334,5079.487179487181,5380.512820512821,4034.358974358975,4798.974358974359,4982.564102564103,4996.410256410257,4883.589743589744,5360.000000000001,4901.025641025642,4823.076923076924,4761.025641025642,4830.256410256411
1159.0508,1.0,0.40792418,0.33380267,0.5720541,0,0.0,0.0,0.0,0.0,0.0,0,0,1.0,0.0,0,0,7.0,0.0,435.0,4910.769230769231,4813.333333333334,5079.487179487181,5380.512820512821,4034.358974358975,4798.974358974359,4982.564102564103,4996.410256410257,4883.589743589744,5360.000000000001,4901.025641025642,4823.076923076924,4761.025641025642,4830.256410256411
1159.5511,1.0,0.41107702,0.3337557,0.57007116,0,0.0,0.0,0.0,0.0,0.0,0,0,1.0,0.0,0,0,71.0,0.0,449.0,4566.666666666667,3736.410256410257,4335.8974358974365,4293.846153846154,4422.564102564103,4421.538461538462,4274.358974358975,4211.282051282052,4151.794871794872,4469.2307692307695,4022.564102564103,4056.410256410257,3992.820512820513,4361.538461538462
1159.8953,1.0,0.41107702,0.3337557,0.57007116,0,0.0,0.0,0.0,0.0,0.87331,0,0,0.0,0.0,0,0,115.0,0.0,503.0,4635.8974358974365,3797.9487179487182,4414.871794871796,4334.871794871796,4416.410256410257,4471.794871794872,4341.538461538462,4269.2307692307695,4203.589743589744,4577.435897435898,4176.410256410257,4143.589743589744,4101.025641025642,4544.102564102564
1160.1454,1.0,0.4139146,0.33371335,0.56828415,0,0.0,0.0,0.0,0.0,1.0,0,0,0.0,0.0,0,0,18.0,0.0,0.0,4590.256410256411,3778.9743589743593,4395.384615384616,4292.307692307693,4377.435897435898,4475.384615384616,4350.256410256411,4309.743589743591,4280.512820512821,4597.948717948719,4184.615384615385,4151.282051282052,4091.2820512820517,4623.076923076924
1160.3956,1.0,0.4139146,0.33371335,0.56828415,0,0.0,0.0,0.0,0.0,0.5275289,0,0,0.0,0.0,0,0,50.0,0.0,0.0,4567.6923076923085,3749.7435897435903,4359.48717948718,4250.769230769231,4317.948717948719,4490.256410256411,4340.512820512821,4310.769230769231,4312.820512820514,4572.307692307693,4213.846153846154,4113.846153846154,4108.717948717949,4627.6923076923085
1160.6459,0.94320554,0.41646838,0.33367527,0.56667596,0,0.0,0.0,0.0,0.0,0.0,0,0,0.0,0.0,0,0,82.0,0.0,535.0,4592.307692307693,3768.717948717949,4402.051282051282,4281.025641025642,4314.871794871796,4490.769230769231,4366.666666666667,4289.2307692307695,4322.051282051282,4586.153846153847,4230.256410256411,4129.74358974359,4181.025641025642,4556.923076923077
1160.8961,0.94320554,0.41646838,0.33367527,0.56667596,0,0.0,0.0,0.0,0.0,1.0,0,0,0.0,0.0,0,0,114.0,0.0,535.0,4586.666666666667,3785.6410256410263,4417.948717948719,4310.769230769231,4313.333333333334,4507.179487179488,4393.333333333334,4280.512820512821,4342.564102564103,4638.461538461539,4256.923076923077,4145.128205128206,4193.333333333334,4483.076923076924
1161.1464,0.8232256,0.4187668,0.33364096,0.5652283,0,0.0,0.0,0.0,0.0,0.26168668,0,0,0.0,0.0,0,0,17.0,0.0,0.0,4617.948717948719,3849.7435897435903,4500.000000000001,4350.256410256411,4387.179487179487,4598.974358974359,4476.923076923077,4337.948717948719,4426.153846153847,4733.846153846154,4337.948717948719,4233.846153846154,4265.641025641026,4511.282051282052
1161.3965,0.8232256,0.4187668,0.33364096,0.5652283,0,0.0,0.0,0.0,0.0,0.0,0,0,0.0,0.0,0,1,49.0,0.0,0.0,4611.282051282052,3866.666666666667,4492.307692307693,4444.102564102564,4408.717948717949,4614.871794871796,4474.358974358975,4324.102564102564,4444.615384615385,4731.282051282052,4355.384615384616,4220.000000000001,4278.461538461539,4507.6923076923085
1161.5529,0.83475834,0.42083538,0.3336101,0.5639255,0,0.0,0.0,0.0,0.0,0.0,0,0,0.0,0.0,0,0,69.0,0.0,555.0,4647.6923076923085,3927.1794871794878,4544.102564102564,4330.769230769231,4552.820512820514,4695.384615384616,4491.282051282052,4294.871794871796,4474.871794871796,4780.512820512821,4394.871794871796,4249.2307692307695,4309.743589743591,4512.820512820514
1161.5529,0.83475834,0.42083538,0.3336101,0.5639255,0,0.0,0.0,0.0,0.0,0.0,0,0,0.0,0.0,0,0,69.0,0.0,555.0,4647.6923076923085,3927.1794871794878,4544.102564102564,4330.769230769231,4552.820512820514,4695.384615384616,4491.282051282052,4294.871794871796,4474.871794871796,4780.512820512821,4394.871794871796,4249.2307692307695,4309.743589743591,4512.820512820514
1162.0221,0.82201403,0.4226971,0.3335823,0.5627533,0,0.0,0.0,0.0,0.0,0.0,0,0,0.0,0.0,0,0,0.0,0.0,513.0,4712.307692307693,3906.1538461538466,4571.794871794872,4393.846153846154,4366.666666666667,4628.717948717949,4502.051282051282,4430.256410256411,4395.384615384616,4712.820512820514,4408.205128205129,4295.8974358974365,4225.128205128206,4550.256410256411
1162.0221,0.82201403,0.4226971,0.3335823,0.5627533,0,0.0,0.0,0.0,0.0,0.0,0,0,0.0,0.0,0,0,0.0,0.0,513.0,4712.307692307693,3906.1538461538466,4571.794871794872,4393.846153846154,4366.666666666667,4628.717948717949,4502.051282051282,4430.256410256411,4395.384615384616,4712.820512820514,4408.205128205129,4295.8974358974365,4225.128205128206,4550.256410256411
1162.6476,0.9144244,0.42437267,0.3375895,0.5616982,0,0.0,0.0,0.0,0.0,0.0,0,0,0.0,0.0,0,0,80.0,0.0,499.0,4659.48717948718,3913.8461538461543,4544.102564102564,4495.384615384616,3990.7692307692314,4447.6923076923085,4482.051282051282,4569.2307692307695,4471.282051282052,4831.282051282052,4527.6923076923085,4231.282051282052,4222.564102564103,4608.205128205129
1162.7727,0.9144244,0.42437267,0.3375895,0.5616982,0,0.0,0.0,0.0,0.0,1.0,0,0,0.0,0.0,0,0,96.0,0.0,499.0,4682.564102564103,3940.5128205128212,4562.564102564103,4503.076923076924,4012.820512820513,4458.974358974359,4495.384615384616,4536.923076923077,4460.512820512821,4837.948717948719,4509.2307692307695,4233.333333333334,4182.564102564103,4640.000000000001
1163.1481,1.0,0.42588067,0.34119788,0.5607513,0,0.0,0.0,0.0,0.0,0.05332965,0,0,0.0,0.0,0,0,15.0,0.0,503.0,4710.256410256411,3926.1538461538466,4557.948717948719,4555.384615384616,4074.358974358975,4464.102564102564,4514.358974358975,4525.128205128206,4477.435897435898,4833.846153846154,4475.384615384616,4251.282051282052,4209.2307692307695,4658.974358974359
1163.3982,1.0,0.42588067,0.34119788,0.5607513,0,0.0,0.0,0.0,0.0,0.056926947,0,0,0.0,0.0,0,0,47.0,0.0,0.0,4682.564102564103,3988.205128205129,4536.410256410257,4589.2307692307695,4153.333333333334,4475.384615384616,4434.871794871796,4509.743589743591,4494.358974358975,4815.384615384616,4477.435897435898,4293.333333333334,4281.538461538462,4718.461538461539
1163.6484,0.8481745,0.42723784,0.34444275,0.5598985,0,0.0,0.0,0.0,0.0,0.060643252,0,0,0.0,0.0,0,0,79.0,0.0,503.0,4670.769230769231,3947.1794871794878,4517.435897435898,4535.384615384616,4188.717948717949,4506.666666666667,4473.846153846154,4505.128205128206,4501.538461538462,4811.794871794872,4455.384615384616,4291.794871794872,4277.948717948719,4735.8974358974365
1163.8987,0.8481745,0.42723784,0.34444275,0.5598985,0,0.0,0.0,0.0,0.0,0.074139185,0,0,0.0,0.0,0,0,111.0,0.0,503.0,4669.743589743591,3957.435897435898,4524.102564102564,4524.102564102564,4201.025641025642,4502.564102564103,4475.384615384616,4505.128205128206,4497.948717948719,4814.871794871796,4444.102564102564,4310.256410256411,4209.2307692307695,4727.179487179488
1164.0238,0.7762641,0.42845932,0.34736314,0.55913097,0,0.0,0.0,0.0,0.0,0.0,0,0,0.0,0.0,0,0,127.0,0.0,503.0,4662.051282051282,3958.9743589743593,4521.025641025642,4525.128205128206,4217.435897435898,4507.6923076923085,4478.974358974359,4499.48717948718,4506.153846153847,4819.48717948718,4445.128205128206,4318.461538461539,4200.512820512821,4704.102564102564
1164.0238,0.7762641,0.42845932,0.34736314,0.55913097,0,0.0,0.0,0.0,0.0,0.0,0,0,0.0,0.0,0,0,127.0,0.0,503.0,4662.051282051282,3958.9743589743593,4521.025641025642,4525.128205128206,4217.435897435898,4507.6923076923085,4478.974358974359,4499.48717948718,4506.153846153847,4819.48717948718,4445.128205128206,4318.461538461539,4200.512820512821,4704.102564102564
1164.6493,0.7317674,0.42955866,0.3459568,0.55844,0,0.0,0.0,0.0,0.0,0.18755178,0,0,0.0,0.0,0,0,78.0,0.0,533.0,4682.051282051282,4029.7435897435903,4550.769230769231,4555.384615384616,4234.871794871796,4542.051282051282,4518.974358974359,4525.641025641026,4472.820512820514,4777.948717948719,4390.769230769231,4314.871794871796,4199.48717948718,4734.871794871796
1164.8995,0.7317674,0.42955866,0.3459568,0.55844,0,0.0,0.0,0.0,0.0,0.16801202,0,0,0.0,0.0,0,0,110.0,0.0,533.0,4654.871794871796,3938.461538461539,4520.512820512821,4493.846153846154,4274.358974358975,4522.564102564103,4489.743589743591,4486.153846153847,4457.948717948719,4756.923076923077,4374.358974358975,4295.384615384616,4202.051282051282,4714.358974358975
1165.1498,0.66478646,0.4709881,0.34469077,0.55781806,0,0.0,0.0,0.0,0.0,0.25863373,0,0,0.0,0.0,0,0,13.0,0.0,451.0,4645.641025641026,3907.1794871794878,4515.384615384616,4463.589743589744,4276.410256410257,4537.948717948719,4491.282051282052,4477.435897435898,4458.461538461539,4767.6923076923085,4381.538461538462,4297.435897435898,4245.641025641026,4719.48717948718
1165.3999,0.66478646,0.4709881,0.34469077,0.55781806,0,0.0,0.0,0.0,0.0,0.4889017,0,0,0.0,0.0,0,0,45.0,0.0,0.0,4639.48717948718,3896.410256410257,4523.076923076924,4444.615384615385,4261.538461538462,4520.512820512821,4489.2307692307695,4491.794871794872,4465.128205128206,4778.974358974359,4403.589743589744,4361.538461538462,4268.717948717949,4783.076923076924
1165.6501,0.60344654,0.4988941,0.3435511,0.5572585,0,0.0,0.0,0.0,0.0,0.0,0,0,0.0,0.0,0,0,77.0,0.0,451.0,4645.128205128206,3891.7948717948725,4522.051282051282,4443.589743589744,4250.256410256411,4525.128205128206,4477.435897435898,4479.48717948718,4466.153846153847,4787.179487179488,4414.871794871796,4365.128205128206,4276.410256410257,4820.000000000001
1165.6501,0.60344654,0.4988941,0.3435511,0.5572585,0,0.0,0.0,0.0,0.0,0.0,0,0,0.0,0.0,0,0,77.0,0.0,451.0,4645.128205128206,3891.7948717948725,4522.051282051282,4443.589743589744,4250.256410256411,4525.128205128206,4477.435897435898,4479.48717948718,4466.153846153847,4787.179487179488,4414.871794871796,4365.128205128206,4276.410256410257,4820.000000000001
1166.0255,0.57050145,0.51681787,0.3485605,0.5578953,0,0.0,0.0,0.0,0.0,0.0,0,0,0.0,0.0,0,0,125.0,0.0,451.0,4649.2307692307695,3893.333333333334,4523.589743589744,4442.051282051282,4249.74358974359,4533.846153846154,4488.717948717949,4476.410256410257,4456.410256410257,4786.153846153847,4414.358974358975,4351.282051282052,4263.589743589744,4814.871794871796
1166.0255,0.57050145,0.51681787,0.3485605,0.5578953,0,0.0,0.0,0.0,0.0,0.0,0,0,0.0,0.0,0,0,125.0,0.0,451.0,4649.2307692307695,3893.333333333334,4523.589743589744,4442.051282051282,4249.74358974359,4533.846153846154,4488.717948717949,4476.410256410257,4456.410256410257,4786.153846153847,4414.358974358975,4351.282051282052,4263.589743589744,4814.871794871796
1166.651,0.49977908,0.4933067,0.35768712,0.5658442,0,0.0,0.0,0.0,0.0,1.0,0,0,0.0,0.0,0,0,76.0,0.0,505.0,4654.358974358975,3896.410256410257,4526.666666666667,4457.948717948719,4258.974358974359,4540.512820512821,4490.769230769231,4466.153846153847,4444.102564102564,4782.051282051282,4396.410256410257,4326.666666666667,4245.641025641026,4699.48717948718
1166.651,0.49977908,0.4933067,0.35768712,0.5658442,0,0.0,0.0,0.0,0.0,1.0,0,0,0.0,0.0,0,0,76.0,0.0,505.0,4654.358974358975,3896.410256410257,4526.666666666667,4457.948717948719,4258.974358974359,4540.512820512821,4490.769230769231,4466.153846153847,4444.102564102564,4782.051282051282,4396.410256410257,4326.666666666667,4245.641025641026,4699.48717948718
1167.1515,0.45655954,0.4623182,0.36590043,0.58070314,0,0.0,0.0,0.0,0.0,0.74719524,0,0,0.0,0.0,0,0,11.0,0.0,502.0,4659.48717948718,3914.358974358975,4537.435897435898,4458.974358974359,4262.564102564103,4544.615384615385,4492.307692307693,4457.435897435898,4440.000000000001,4783.076923076924,4381.538461538462,4318.974358974359,4233.846153846154,4632.307692307693
1167.4017,0.45655954,0.4623182,0.36590043,0.58070314,0,0.0,0.0,0.0,0.0,0.34642553,0,0,0.0,0.0,0,0,43.0,0.0,0.0,4660.000000000001,3895.3846153846157,4511.282051282052,4441.538461538462,4251.794871794872,4539.48717948718,4476.923076923077,4450.256410256411,4433.846153846154,4779.48717948718,4369.743589743591,4313.333333333334,4228.717948717949,4630.769230769231
1167.5267,0.46840423,0.43434453,0.37329152,0.59803575,0,0.0,0.0,0.0,0.0,0.0,0,0,0.0,0.0,0,0,59.0,0.0,0.0,4654.358974358975,3893.8461538461543,4538.974358974359,4442.564102564103,4258.974358974359,4538.461538461539,4477.948717948719,4468.717948717949,4458.461538461539,4807.6923076923085,4411.794871794872,4354.358974358975,4269.2307692307695,4670.256410256411
1167.5267,0.46840423,0.43434453,0.37329152,0.59803575,0,0.0,0.0,0.0,0.0,0.0,0,0,0.0,0.0,0,0,59.0,0.0,0.0,4654.358974358975,3893.8461538461543,4538.974358974359,4442.564102564103,4258.974358974359,4538.461538461539,4477.948717948719,4468.717948717949,4458.461538461539,4807.6923076923085,4411.794871794872,4354.358974358975,4269.2307692307695,4670.256410256411
1168.0272,0.43687057,0.4105928,0.36961755,0.61363256,0,0.0,0.0,0.0,0.0,0.0,0,0,0.0,0.0,0,0,123.0,0.0,502.0,4649.2307692307695,3909.7435897435903,4523.589743589744,4440.000000000001,4247.6923076923085,4534.871794871796,4473.333333333334,4465.641025641026,4442.051282051282,4797.948717948719,4382.051282051282,4343.589743589744,4236.410256410257,4626.153846153847
1168.4026,0.43687057,0.4105928,0.36961755,0.61363256,0,0.0,0.0,0.0,0.0,1.0,0,0,0.0,0.0,0,0,42.0,0.0,0.0,4676.923076923077,3910.2564102564106,4533.846153846154,4440.512820512821,4250.769230769231,4545.641025641026,4490.769230769231,4498.461538461539,4461.538461538462,4811.282051282052,4408.205128205129,4333.333333333334,4239.48717948718,4676.923076923077
1168.6527,0.4615897,0.40484038,0.36013344,0.6296711,0,0.0,0.0,0.0,0.0,0.56054294,0,0,0.0,0.0,0,0,74.0,0.0,533.0,4643.076923076924,3888.205128205129,4502.051282051282,4423.076923076924,4248.717948717949,4553.333333333334,4474.358974358975,4467.179487179487,4441.538461538462,4786.666666666667,4373.333333333334,4298.461538461539,4215.8974358974365,4615.384615384616
1168.903,0.4615897,0.40484038,0.36013344,0.6296711,0,0.0,0.0,0.0,0.0,0.4603007,0,0,0.0,0.0,0,0,106.0,0.0,533.0,4670.769230769231,3922.0512820512827,4523.076923076924,4446.666666666667,4264.102564102564,4558.974358974359,4492.820512820514,4483.589743589744,4462.051282051282,4815.384615384616,4405.641025641026,4308.717948717949,4233.846153846154,4588.717948717949
1169.1532,0.41582063,0.40406024,0.3500919,0.6441002,0,0.0,0.0,0.0,0.0,0.3998028,0,0,0.0,0.0,0,0,9.0,0.0,471.0,4663.589743589744,3911.7948717948725,4525.128205128206,4432.820512820514,4261.025641025642,4556.410256410257,4490.256410256411,4447.179487179487,4450.769230769231,4802.564102564103,4399.48717948718,4309.2307692307695,4244.102564102564,4554.358974358975
1169.4034,0.41582063,0.40406024,0.3500919,0.6441002,0,0.0,0.0,0.0,0.0,0.43793693,0,0,0.0,0.0,0,0,41.0,0.0,0.0,4646.666666666667,3893.333333333334,4520.000000000001,4409.743589743591,4262.564102564103,4556.923076923077,4488.717948717949,4457.948717948719,4455.8974358974365,4797.435897435898,4388.205128205129,4298.461538461539,4216.410256410257,4520.512820512821
1169.5286,0.42814714,0.4026234,0.33911216,0.6610041,0,0.0,0.0,0.0,0.0,0.0,0,0,0.0,0.0,0,0,57.0,0.0,0.0,4631.794871794872,3887.692307692308,4508.205128205129,4398.974358974359,4264.615384615385,4557.948717948719,4478.461538461539,4443.589743589744,4438.461538461539,4779.48717948718,4370.256410256411,4284.615384615385,4207.179487179487,4503.076923076924
1169.5286,0.42814714,0.4026234,0.33911216,0.6610041,0,0.0,0.0,0.0,0.0,0.0,0,0,0.0,0.0,0,0,57.0,0.0,0.0,4631.794871794872,3887.692307692308,4508.205128205129,4398.974358974359,4264.615384615385,4557.948717948719,4478.461538461539,4443.589743589744,4438.461538461539,4779.48717948718,4370.256410256411,4284.615384615385,4207.179487179487,4503.076923076924
1170.0289,0.4157436,0.39614576,0.33045775,0.6757199,0,0.0,0.0,0.0,0.0,0.0,0,0,0.0,0.0,0,0,121.0,0.0,451.0,4630.769230769231,3892.820512820513,4523.076923076924,4398.461538461539,4260.512820512821,4556.410256410257,4492.307692307693,4447.179487179487,4443.076923076924,4796.923076923077,4390.256410256411,4315.384615384616,4218.974358974359,4509.743589743591
1170.0289,0.4157436,0.39614576,0.33045775,0.6757199,0,0.0,0.0,0.0,0.0,0.0,0,0,0.0,0.0,0,0,121.0,0.0,451.0,4630.769230769231,3892.820512820513,4523.076923076924,4398.461538461539,4260.512820512821,4556.410256410257,4492.307692307693,4447.179487179487,4443.076923076924,4796.923076923077,4390.256410256411,4315.384615384616,4218.974358974359,4509.743589743591
1170.5294,0.40962344,0.37724558,0.32266885,0.684689,0,0.0,0.0,0.0,0.0,0.0,0,0,0.0,0.0,0,0,56.0,0.0,0.0,4632.820512820514,3907.1794871794878,4525.641025641026,4406.153846153847,4264.102564102564,4555.8974358974365,4488.717948717949,4427.6923076923085,4428.717948717949,4783.589743589744,4396.923076923077,4324.102564102564,4228.205128205129,4494.358974358975
1170.5294,0.40962344,0.37724558,0.32266885,0.684689,0,0.0,0.0,0.0,0.0,0.0,0,0,0.0,0.0,0,0,56.0,0.0,0.0,4632.820512820514,3907.1794871794878,4525.641025641026,4406.153846153847,4264.102564102564,4555.8974358974365,4488.717948717949,4427.6923076923085,4428.717948717949,4783.589743589744,4396.923076923077,4324.102564102564,4228.205128205129,4494.358974358975
1171.0298,0.4128134,0.35779843,0.3153061,0.6858236,0,0.0,0.0,0.0,0.0,0.0,0,0,0.0,0.0,0,0,120.0,0.0,506.0,4631.794871794872,3896.9230769230776,4521.025641025642,4406.153846153847,4250.769230769231,4539.48717948718,4472.307692307693,4388.717948717949,4420.000000000001,4762.051282051282,4366.153846153847,4295.384615384616,4200.000000000001,4463.589743589744
1171.0298,0.4128134,0.35779843,0.3153061,0.6858236,0,0.0,0.0,0.0,0.0,0.0,0,0,0.0,0.0,0,0,120.0,0.0,506.0,4631.794871794872,3896.9230769230776,4521.025641025642,4406.153846153847,4250.769230769231,4539.48717948718,4472.307692307693,4388.717948717949,4420.000000000001,4762.051282051282,4366.153846153847,4295.384615384616,4200.000000000001,4463.589743589744
1171.5303,0.43739554,0.3512317,0.3059219,0.67969406,0,0.0,0.0,0.0,0.0,0.0,0,0,0.0,0.0,0,0,55.0,0.0,0.0,4598.974358974359,3893.8461538461543,4489.743589743591,4400.512820512821,4249.74358974359,4540.000000000001,4476.410256410257,4403.076923076924,4426.666666666667,4767.179487179488,4362.564102564103,4291.282051282052,4200.512820512821,4467.179487179487
1171.5303,0.43739554,0.3512317,0.3059219,0.67969406,0,0.0,0.0,0.0,0.0,0.0,0,0,0.0,0.0,0,0,55.0,0.0,0.0,4598.974358974359,3893.8461538461543,4489.743589743591,4400.512820512821,4249.74358974359,4540.000000000001,4476.410256410257,4403.076923076924,4426.666666666667,4767.179487179488,4362.564102564103,4291.282051282052,4200.512820512821,4467.179487179487
1172.1558,0.46140632,0.35077322,0.29747683,0.67351705,0,0.0,0.0,0.0,0.0,0.20819761,0,0,0.0,0.0,0,0,6.0,0.0,551.0,4616.410256410257,3924.615384615385,4508.205128205129,4428.205128205129,4246.666666666667,4539.48717948718,4478.461538461539,4428.717948717949,4427.6923076923085,4776.923076923077,4357.435897435898,4295.384615384616,4196.923076923077,4488.205128205129
1172.406,0.46140632,0.35077322,0.29747683,0.67351705,0,0.0,0.0,0.0,0.0,0.58355963,0,0,0.0,0.0,0,0,38.0,0.0,0.0,4616.410256410257,3941.538461538462,4507.6923076923085,4442.051282051282,4254.871794871796,4537.435897435898,4476.410256410257,4422.051282051282,4408.717948717949,4747.6923076923085,4338.461538461539,4289.74358974359,4156.410256410257,4445.641025641026
1172.6562,0.43780792,0.34961358,0.2895254,0.6648158,0,0.0,0.0,0.0,0.0,0.7006743,0,0,0.0,0.0,0,0,70.0,0.0,551.0,4631.794871794872,3990.7692307692314,4505.641025641026,4487.179487179488,4254.358974358975,4537.948717948719,4457.435897435898,4393.846153846154,4379.48717948718,4709.2307692307695,4302.051282051282,4246.153846153847,4110.256410256411,4393.846153846154
1172.9064,0.43780792,0.34961358,0.2895254,0.6648158,0,0.0,0.0,0.0,0.0,1.0,0,0,0.0,0.0,0,0,102.0,0.0,533.0,4650.256410256411,3943.589743589744,4561.025641025642,4455.384615384616,4258.974358974359,4547.6923076923085,4492.820512820514,4461.025641025642,4430.256410256411,4770.769230769231,4414.871794871796,4371.794871794872,4212.820512820514,4653.333333333334
1173.0315,0.45370907,0.3466255,0.28222403,0.6569845,0,0.0,0.0,0.0,0.0,1.0,0,0,0.0,0.0,0,0,118.0,0.0,533.0,4612.307692307693,3912.307692307693,4550.256410256411,4429.743589743591,4266.666666666667,4555.8974358974365,4494.871794871796,4463.589743589744,4431.282051282052,4788.205128205129,4442.051282051282,4369.743589743591,4232.307692307693,4614.358974358975
1173.4069,0.45370907,0.3466255,0.28222403,0.6569845,0,0.0,0.0,0.0,0.0,0.78481346,0,0,0.0,0.0,0,0,37.0,0.0,0.0,4614.358974358975,3927.1794871794878,4526.153846153847,4443.076923076924,4277.435897435898,4556.410256410257,4486.153846153847,4442.564102564103,4394.871794871796,4750.256410256411,4395.384615384616,4314.358974358975,4169.74358974359,4513.846153846154
1173.6571,0.4041183,0.3438055,0.27580047,0.6505952,0,0.0,0.0,0.0,0.0,0.17027621,0,0,0.0,0.0,0,0,69.0,0.0,556.0,4615.384615384616,3939.48717948718,4524.102564102564,4445.128205128206,4266.153846153847,4554.358974358975,4477.948717948719,4425.128205128206,4372.820512820514,4715.384615384616,4366.666666666667,4294.358974358975,4150.256410256411,4494.871794871796
1173.9072,0.4041183,0.3438055,0.27580047,0.6505952,0,0.0,0.0,0.0,0.0,0.27287486,0,0,0.0,0.0,0,0,101.0,0.0,451.0,4627.6923076923085,3946.1538461538466,4529.2307692307695,4456.923076923077,4267.6923076923085,4553.333333333334,4479.48717948718,4432.820512820514,4413.846153846154,4763.589743589744,4396.923076923077,4311.794871794872,4200.512820512821,4493.333333333334
1174.1575,0.3281878,0.35621744,0.2705862,0.64739454,0,0.0,0.0,0.0,0.0,0.0,0,0,0.0,0.0,0,0,4.0,0.0,558.0,4603.589743589744,3906.666666666667,4518.974358974359,4412.307692307693,4264.102564102564,4553.846153846154,4477.948717948719,4440.000000000001,4418.974358974359,4764.102564102564,4394.871794871796,4309.743589743591,4210.256410256411,4495.8974358974365
1174.1575,0.3281878,0.35621744,0.2705862,0.64739454,0,0.0,0.0,0.0,0.0,0.0,0,0,0.0,0.0,0,0,4.0,0.0,558.0,4603.589743589744,3906.666666666667,4518.974358974359,4412.307692307693,4264.102564102564,4553.846153846154,4477.948717948719,4440.000000000001,4418.974358974359,4764.102564102564,4394.871794871796,4309.743589743591,4210.256410256411,4495.8974358974365
1174.5328,0.25702068,0.36684963,0.26907673,0.6445122,0,0.0,0.0,0.0,0.0,0.0,0,0,0.0,0.0,0,0,52.0,0.0,0.0,4599.48717948718,3888.717948717949,4496.410256410257,4398.461538461539,4263.076923076924,4551.794871794872,4474.871794871796,4441.025641025642,4461.025641025642,4778.461538461539,4395.8974358974365,4297.435897435898,4231.794871794872,4491.282051282052
1174.5328,0.25702068,0.36684963,0.26907673,0.6445122,0,0.0,0.0,0.0,0.0,0.0,0,0,0.0,0.0,0,0,52.0,0.0,0.0,4599.48717948718,3888.717948717949,4496.410256410257,4398.461538461539,4263.076923076924,4551.794871794872,4474.871794871796,4441.025641025642,4461.025641025642,4778.461538461539,4395.8974358974365,4297.435897435898,4231.794871794872,4491.282051282052
1175.0332,0.24369147,0.37732273,0.26987168,0.6419163,0,0.0,0.0,0.0,0.0,0.0,0,0,0.0,0.0,0,0,116.0,0.0,507.0,4601.538461538462,3898.461538461539,4510.769230769231,4408.717948717949,4265.641025641026,4552.307692307693,4486.666666666667,4463.076923076924,4494.358974358975,4797.435897435898,4400.000000000001,4325.128205128206,4232.820512820514,4506.153846153847
1175.0332,0.24369147,0.37732273,0.26987168,0.6419163,0,0.0,0.0,0.0,0.0,0.0,0,0,0.0,0.0,0,0,116.0,0.0,507.0,4601.538461538462,3898.461538461539,4510.769230769231,4408.717948717949,4265.641025641026,4552.307692307693,4486.666666666667,4463.076923076924,4494.358974358975,4797.435897435898,4400.000000000001,4325.128205128206,4232.820512820514,4506.153846153847
1175.5337,0.21199766,0.39109567,0.27193415,0.6394217,0,0.0,0.0,0.0,0.0,0.0,0,0,0.0,0.0,0,0,51.0,0.0,0.0,4627.6923076923085,3930.2564102564106,4526.666666666667,4442.051282051282,4268.205128205129,4551.794871794872,4475.8974358974365,4449.743589743591,4439.48717948718,4749.743589743591,4391.282051282052,4293.333333333334,4177.435897435898,4425.128205128206
1175.5337,0.21199766,0.39109567,0.27193415,0.6394217,0,0.0,0.0,0.0,0.0,0.0,0,0,0.0,0.0,0,0,51.0,0.0,0.0,4627.6923076923085,3930.2564102564106,4526.666666666667,4442.051282051282,4268.205128205129,4551.794871794872,4475.8974358974365,4449.743589743591,4439.48717948718,4749.743589743591,4391.282051282052,4293.333333333334,4177.435897435898,4425.128205128206
1176.034,0.19011356,0.39243647,0.27495602,0.6234604,0,0.0,0.0,0.0,0.0,0.0,0,0,0.0,0.0,0,0,115.0,0.0,505.0,4621.025641025642,3956.9230769230776,4503.589743589744,4461.025641025642,4268.205128205129,4541.025641025642,4460.000000000001,4402.051282051282,4343.076923076924,4682.051282051282,4348.205128205129,4247.179487179487,4090.7692307692314,4425.641025641026
1176.034,0.19011356,0.39243647,0.27495602,0.6234604,0,0.0,0.0,0.0,0.0,0.0,0,0,0.0,0.0,0,0,115.0,0.0,505.0,4621.025641025642,3956.9230769230776,4503.589743589744,4461.025641025642,4268.205128205129,4541.025641025642,4460.000000000001,4402.051282051282,4343.076923076924,4682.051282051282,4348.205128205129,4247.179487179487,4090.7692307692314,4425.641025641026
1176.6597,0.1956562,0.4108554,0.2796141,0.6010672,0,0.0,0.0,0.0,0.0,1.0,0,0,0.0,0.0,0,0,66.0,0.0,242.0,4733.333333333334,3865.1282051282055,4533.846153846154,4389.743589743591,4265.128205128206,4541.025641025642,4476.923076923077,4444.102564102564,4400.000000000001,4736.410256410257,4386.153846153847,4366.666666666667,4170.769230769231,4580.512820512821
1176.6597,0.1956562,0.4108554,0.2796141,0.6010672,0,0.0,0.0,0.0,0.0,1.0,0,0,0.0,0.0,0,0,66.0,0.0,242.0,4733.333333333334,3865.1282051282055,4533.846153846154,4389.743589743591,4265.128205128206,4541.025641025642,4476.923076923077,4444.102564102564,4400.000000000001,4736.410256410257,4386.153846153847,4366.666666666667,4170.769230769231,4580.512820512821
1177.0349,0.1475348,0.47251892,0.29080763,0.5762471,0,0.0,0.0,0.0,0.0,1.0,0,0,0.0,0.0,0,0,114.0,0.0,533.0,4665.128205128206,3886.666666666667,4508.717948717949,4394.358974358975,4265.128205128206,4549.2307692307695,4477.435897435898,4445.128205128206,4425.641025641026,4765.641025641026,4395.384615384616,4340.000000000001,4200.512820512821,4491.282051282052
1177.0349,0.1475348,0.47251892,0.29080763,0.5762471,0,0.0,0.0,0.0,0.0,1.0,0,0,0.0,0.0,0,0,114.0,0.0,533.0,4665.128205128206,3886.666666666667,4508.717948717949,4394.358974358975,4265.128205128206,4549.2307692307695,4477.435897435898,4445.128205128206,4425.641025641026,4765.641025641026,4395.384615384616,4340.000000000001,4200.512820512821,4491.282051282052
1177.6605,0.10262456,0.5194067,0.30323872,0.5520909,0,0.0,0.0,0.0,0.0,0.6199617,0,0,0.0,0.0,0,0,65.0,0.0,467.0,4656.410256410257,3933.8461538461543,4494.358974358975,4430.769230769231,4251.794871794872,4538.461538461539,4460.512820512821,4428.717948717949,4430.256410256411,4767.179487179488,4365.641025641026,4295.384615384616,4234.871794871796,4407.6923076923085
1177.7856,0.10262456,0.5194067,0.30323872,0.5520909,0,0.0,0.0,0.0,0.0,0.0,0,0,0.0,0.0,0,0,81.0,0.0,451.0,4666.666666666667,3940.5128205128212,4496.923076923077,4443.076923076924,4254.358974358975,4540.512820512821,4453.333333333334,4409.743589743591,4426.666666666667,4763.589743589744,4349.2307692307695,4282.051282051282,4216.923076923077,4398.974358974359
1178.0358,0.08915753,0.55022955,0.31442735,0.53429693,0,0.0,0.0,0.0,0.0,0.0,0,0,0.0,0.0,0,0,113.0,0.0,451.0,4673.333333333334,3934.8717948717954,4486.153846153847,4434.358974358975,4247.6923076923085,4535.384615384616,4442.051282051282,4412.820512820514,4407.179487179487,4745.641025641026,4333.846153846154,4260.512820512821,4200.512820512821,4352.307692307693
1178.0358,0.08915753,0.55022955,0.31442735,0.53429693,0,0.0,0.0,0.0,0.0,0.0,0,0,0.0,0.0,0,0,113.0,0.0,451.0,4673.333333333334,3934.8717948717954,4486.153846153847,4434.358974358975,4247.6923076923085,4535.384615384616,4442.051282051282,4412.820512820514,4407.179487179487,4745.641025641026,4333.846153846154,4260.512820512821,4200.512820512821,4352.307692307693
1178.5363,0.058072537,0.55122817,0.32449752,0.51900494,0,0.0,0.0,0.0,0.0,0.0,0,0,0.0,0.0,0,0,48.0,0.0,0.0,4657.948717948719,3941.538461538462,4493.846153846154,4438.974358974359,4246.153846153847,4523.076923076924,4457.948717948719,4416.410256410257,4407.179487179487,4738.461538461539,4327.6923076923085,4248.717948717949,4188.205128205129,4305.641025641026
1178.5363,0.058072537,0.55122817,0.32449752,0.51900494,0,0.0,0.0,0.0,0.0,0.0,0,0,0.0,0.0,0,0,48.0,0.0,0.0,4657.948717948719,3941.538461538462,4493.846153846154,4438.974358974359,4246.153846153847,4523.076923076924,4457.948717948719,4416.410256410257,4407.179487179487,4738.461538461539,4327.6923076923085,4248.717948717949,4188.205128205129,4305.641025641026
1179.1617,0.0752182,0.5272763,0.32830465,0.5115188,0,0.0,0.0,0.0,0.0,1.0,0,0,0.0,0.0,0,0,128.0,0.0,507.0,4630.769230769231,3913.333333333334,4505.128205128206,4415.384615384616,4246.153846153847,4524.615384615385,4461.025641025642,4435.8974358974365,4430.256410256411,4764.615384615386,4379.48717948718,4285.128205128206,4231.794871794872,4430.256410256411
1179.412,0.0752182,0.5272763,0.32830465,0.5115188,0,0.0,0.0,0.0,0.0,0.1697461,0,0,0.0,0.0,0,0,31.0,0.0,0.0,4638.461538461539,3928.205128205129,4522.564102564103,4433.846153846154,4247.179487179487,4523.076923076924,4475.384615384616,4431.282051282052,4423.589743589744,4751.794871794872,4354.871794871796,4288.205128205129,4201.538461538462,4443.076923076924
1179.5371,0.002908841,0.5077921,0.3317312,0.5067285,0,0.0,0.0,0.0,0.0,0.0,0,0,0.0,0.0,0,0,47.0,0.0,0.0,4633.333333333334,3926.666666666667,4523.076923076924,4433.333333333334,4249.2307692307695,4540.000000000001,4477.948717948719,4437.948717948719,4428.717948717949,4761.538461538462,4357.948717948719,4295.384615384616,4196.923076923077,4473.846153846154
1179.5371,0.002908841,0.5077921,0.3317312,0.5067285,0,0.0,0.0,0.0,0.0,0.0,0,0,0.0,0.0,0,0,47.0,0.0,0.0,4633.333333333334,3926.666666666667,4523.076923076924,4433.333333333334,4249.2307692307695,4540.000000000001,4477.948717948719,4437.948717948719,4428.717948717949,4761.538461538462,4357.948717948719,4295.384615384616,4196.923076923077,4473.846153846154
1180.1626,0.0,0.48089892,0.33149853,0.51044893,0,0.0,0.0,0.0,0.0,0.32304212,0,0,0.0,0.0,0,0,127.0,0.0,508.0,4649.743589743591,3958.461538461539,4524.102564102564,4461.025641025642,4265.128205128206,4550.769230769231,4491.282051282052,4430.256410256411,4431.282051282052,4763.589743589744,4352.820512820514,4281.538461538462,4201.538461538462,4400.000000000001
1180.4128,0.0,0.48089892,0.33149853,0.51044893,0,0.0,0.0,0.0,0.0,0.0,0,0,0.0,0.0,0,0,30.0,0.0,0.0,4644.615384615385,3950.2564102564106,4506.666666666667,4458.461538461539,4264.102564102564,4550.769230769231,4477.435897435898,4425.641025641026,4426.153846153847,4749.2307692307695,4346.666666666667,4261.025641025642,4184.102564102564,4418.974358974359
1180.538,0.0,0.45493257,0.32930914,0.51500803,0,0.0,0.0,0.0,0.0,0.0,0,0,0.0,0.0,0,0,46.0,0.0,0.0,4652.307692307693,3944.615384615385,4505.641025641026,4460.000000000001,4264.102564102564,4544.102564102564,4460.512820512821,4403.589743589744,4405.641025641026,4744.615384615386,4349.743589743591,4264.102564102564,4174.358974358975,4419.48717948718
1180.538,0.0,0.45493257,0.32930914,0.51500803,0,0.0,0.0,0.0,0.0,0.0,0,0,0.0,0.0,0,0,46.0,0.0,0.0,4652.307692307693,3944.615384615385,4505.641025641026,4460.000000000001,4264.102564102564,4544.102564102564,4460.512820512821,4403.589743589744,4405.641025641026,4744.615384615386,4349.743589743591,4264.102564102564,4174.358974358975,4419.48717948718
1181.0385,0.0,0.435998,0.3293193,0.5191119,0,0.0,0.0,0.0,0.0,0.0,0,0,0.0,0.0,0,0,110.0,0.0,533.0,4663.076923076924,3959.48717948718,4526.666666666667,4471.794871794872,4262.564102564103,4543.076923076924,4474.358974358975,4431.794871794872,4417.948717948719,4765.128205128206,4371.794871794872,4298.974358974359,4195.8974358974365,4494.871794871796
1181.0385,0.0,0.435998,0.3293193,0.5191119,0,0.0,0.0,0.0,0.0,0.0,0,0,0.0,0.0,0,0,110.0,0.0,533.0,4663.076923076924,3959.48717948718,4526.666666666667,4471.794871794872,4262.564102564103,4543.076923076924,4474.358974358975,4431.794871794872,4417.948717948719,4765.128205128206,4371.794871794872,4298.974358974359,4195.8974358974365,4494.871794871796
1181.5388,0.0,0.41490856,0.32976547,0.51837623,0,0.0,0.0,0.0,0.0,0.0,0,0,0.0,0.0,0,0,45.0,0.0,0.0,4651.282051282052,3944.1025641025644,4509.2307692307695,4461.538461538462,4265.128205128206,4549.2307692307695,4465.128205128206,4427.6923076923085,4426.153846153847,4767.179487179488,4377.435897435898,4285.641025641026,4200.000000000001,4588.205128205129
1181.5388,0.0,0.41490856,0.32976547,0.51837623,0,0.0,0.0,0.0,0.0,0.0,0,0,0.0,0.0,0,0,45.0,0.0,0.0,4651.282051282052,3944.1025641025644,4509.2307692307695,4461.538461538462,4265.128205128206,4549.2307692307695,4465.128205128206,4427.6923076923085,4426.153846153847,4767.179487179488,4377.435897435898,4285.641025641026,4200.000000000001,4588.205128205129
1182.0393,0.009023204,0.40952578,0.33028233,0.5120583,0,0.0,0.0,0.0,0.0,0.0,0,0,0.0,0.0,0,0,109.0,0.0,451.0,4658.974358974359,3924.615384615385,4542.051282051282,4443.076923076924,4275.384615384616,4554.358974358975,4489.743589743591,4442.564102564103,4439.48717948718,4782.051282051282,4394.358974358975,4307.6923076923085,4212.820512820514,4529.2307692307695
1182.0393,0.009023204,0.40952578,0.33028233,0.5120583,0,0.0,0.0,0.0,0.0,0.0,0,0,0.0,0.0,0,0,109.0,0.0,451.0,4658.974358974359,3924.615384615385,4542.051282051282,4443.076923076924,4275.384615384616,4554.358974358975,4489.743589743591,4442.564102564103,4439.48717948718,4782.051282051282,4394.358974358975,4307.6923076923085,4212.820512820514,4529.2307692307695
1182.5397,0.019857313,0.40068755,0.33074754,0.5063734,0,0.0,0.0,0.0,0.0,1.0,0,0,0.0,0.0,0,0,44.0,0.0,0.0,4620.512820512821,4007.1794871794878,4540.000000000001,4523.076923076924,4278.461538461539,4560.512820512821,4483.589743589744,4411.794871794872,4411.794871794872,4749.2307692307695,4376.923076923077,4307.179487179487,4181.538461538462,4300.000000000001
1182.5397,0.019857313,0.40068755,0.33074754,0.5063734,0,0.0,0.0,0.0,0.0,1.0,0,0,0.0,0.0,0,0,44.0,0.0,0.0,4620.512820512821,4007.1794871794878,4540.000000000001,4523.076923076924,4278.461538461539,4560.512820512821,4483.589743589744,4411.794871794872,4411.794871794872,4749.2307692307695,4376.923076923077,4307.179487179487,4181.538461538462,4300.000000000001
1183.0714,0.120429836,0.56491804,0.33150738,0.501247,0,0.0,0.0,0.0,0.0,1.0,0,0,0.0,0.0,0,0,112.0,0.0,508.0,4874.358974358975,3927.692307692308,4524.615384615385,4461.025641025642,4263.076923076924,4564.102564102564,4484.102564102564,4337.435897435898,4381.538461538462,4723.589743589744,4267.6923076923085,4350.256410256411,4111.282051282052,4151.282051282052
1183.0714,0.120429836,0.56491804,0.33150738,0.501247,0,0.0,0.0,0.0,0.0,1.0,0,0,0.0,0.0,0,0,112.0,0.0,508.0,4874.358974358975,3927.692307692308,4524.615384615385,4461.025641025642,4263.076923076924,4564.102564102564,4484.102564102564,4337.435897435898,4381.538461538462,4723.589743589744,4267.6923076923085,4350.256410256411,4111.282051282052,4151.282051282052
1183.6656,0.12680437,0.7122494,0.33219123,0.4966332,0,0.0,0.0,0.0,0.0,0.742822,0,0,0.0,0.0,0,0,59.0,0.0,0.0,4861.025641025642,3970.2564102564106,4525.641025641026,4491.282051282052,4261.025641025642,4557.435897435898,4491.282051282052,4444.102564102564,4445.128205128206,4771.282051282052,4322.051282051282,4139.48717948718,4220.000000000001,4529.2307692307695
1183.9159,0.12680437,0.7122494,0.33219123,0.4966332,0,0.0,0.0,0.0,0.0,0.8458661,0,0,0.0,0.0,0,0,91.0,0.0,514.0,4816.410256410257,3958.9743589743593,4524.615384615385,4483.076923076924,4256.410256410257,4551.282051282052,4474.871794871796,4417.948717948719,4426.666666666667,4754.358974358975,4308.205128205129,4184.102564102564,4216.410256410257,4539.48717948718
1184.1661,0.12448696,0.8443309,0.33230567,0.4967104,0,0.0,0.0,0.0,0.0,0.92505217,0,0,0.0,0.0,0,0,123.0,0.0,514.0,4769.2307692307695,3984.615384615385,4519.48717948718,4505.128205128206,4262.051282051282,4553.333333333334,4475.384615384616,4443.589743589744,4444.615384615385,4776.923076923077,4345.641025641026,4252.307692307693,4270.769230769231,4563.076923076924
1184.2911,0.12448696,0.8443309,0.33230567,0.4967104,0,0.0,0.0,0.0,0.0,1.0,0,0,0.0,0.0,0,0,10.0,0.0,533.0,4741.538461538462,3996.410256410257,4518.974358974359,4509.2307692307695,4268.717948717949,4554.871794871796,4480.000000000001,4447.179487179487,4449.743589743591,4778.974358974359,4353.846153846154,4272.307692307693,4287.6923076923085,4558.461538461539
1184.6665,0.12879914,0.9570747,0.33240873,0.5022755,0,0.0,0.0,0.0,0.0,0.20062481,0,0,0.0,0.0,0,0,58.0,0.0,0.0,4754.358974358975,3962.0512820512827,4518.974358974359,4458.974358974359,4280.512820512821,4571.282051282052,4505.128205128206,4477.948717948719,4474.871794871796,4783.589743589744,4381.538461538462,4321.538461538462,4273.333333333334,4525.641025641026
1184.9167,0.12879914,0.9570747,0.33240873,0.5022755,0,0.0,0.0,0.0,0.0,0.30931914,0,0,0.0,0.0,0,0,90.0,0.0,533.0,4707.179487179488,3957.435897435898,4482.564102564103,4407.6923076923085,4290.256410256411,4556.923076923077,4464.615384615385,4432.820512820514,4443.589743589744,4755.384615384616,4360.512820512821,4312.307692307693,4267.179487179487,4510.769230769231
1185.167,0.16753453,0.90386313,0.33250147,0.5072849,0,0.0,0.0,0.0,0.0,0.765661,0,0,0.0,0.0,0,0,122.0,0.0,533.0,4621.538461538462,3963.589743589744,4463.076923076924,4297.435897435898,4291.282051282052,4566.666666666667,4458.974358974359,4426.153846153847,4412.307692307693,4720.512820512821,4347.6923076923085,4309.743589743591,4249.2307692307695,4489.2307692307695
1185.4171,0.16753453,0.90386313,0.33250147,0.5072849,0,0.0,0.0,0.0,0.0,0.6110175,0,0,0.0,0.0,0,0,25.0,0.0,0.0,4568.205128205129,3944.1025641025644,4477.948717948719,4311.794871794872,4278.974358974359,4567.179487179488,4467.6923076923085,4442.564102564103,4371.794871794872,4744.102564102564,4362.051282051282,4297.948717948719,4246.153846153847,4505.641025641026
1185.5422,0.120843776,0.8262992,0.33258495,0.5117951,0,0.0,0.0,0.0,0.0,0.0,0,0,0.0,0.0,0,0,41.0,0.0,0.0,4522.564102564103,3929.7435897435903,4474.358974358975,4325.128205128206,4261.538461538462,4556.410256410257,4468.717948717949,4444.102564102564,4350.769230769231,4716.923076923077,4386.666666666667,4297.948717948719,4220.000000000001,4466.153846153847
1185.5422,0.120843776,0.8262992,0.33258495,0.5117951,0,0.0,0.0,0.0,0.0,0.0,0,0,0.0,0.0,0,0,41.0,0.0,0.0,4522.564102564103,3929.7435897435903,4474.358974358975,4325.128205128206,4261.538461538462,4556.410256410257,4468.717948717949,4444.102564102564,4350.769230769231,4716.923076923077,4386.666666666667,4297.948717948719,4220.000000000001,4466.153846153847
1186.0427,0.09575585,0.76137644,0.3326601,0.51585495,0,0.0,0.0,0.0,0.0,0.0,0,0,0.0,0.0,0,0,105.0,0.0,455.0,4522.564102564103,3952.307692307693,4494.358974358975,4385.128205128206,4264.102564102564,4542.564102564103,4456.923076923077,4439.48717948718,4382.051282051282,4720.512820512821,4400.512820512821,4273.333333333334,4235.384615384616,4521.538461538462
1186.0427,0.09575585,0.76137644,0.3326601,0.51585495,0,0.0,0.0,0.0,0.0,0.0,0,0,0.0,0.0,0,0,105.0,0.0,455.0,4522.564102564103,3952.307692307693,4494.358974358975,4385.128205128206,4264.102564102564,4542.564102564103,4456.923076923077,4439.48717948718,4382.051282051282,4720.512820512821,4400.512820512821,4273.333333333334,4235.384615384616,4521.538461538462
1186.5431,0.101268195,0.7515784,0.3342736,0.5316209,0,0.0,0.0,0.0,0.0,0.0,0,0,0.0,0.0,0,0,40.0,0.0,0.0,4586.666666666667,3975.3846153846157,4536.923076923077,4445.128205128206,4262.051282051282,4537.435897435898,4474.871794871796,4454.871794871796,4405.128205128206,4732.307692307693,4409.2307692307695,4411.282051282052,4226.153846153847,4493.333333333334
1186.5431,0.101268195,0.7515784,0.3342736,0.5316209,0,0.0,0.0,0.0,0.0,0.0,0,0,0.0,0.0,0,0,40.0,0.0,0.0,4586.666666666667,3975.3846153846157,4536.923076923077,4445.128205128206,4262.051282051282,4537.435897435898,4474.871794871796,4454.871794871796,4405.128205128206,4732.307692307693,4409.2307692307695,4411.282051282052,4226.153846153847,4493.333333333334
1187.1687,0.04187077,0.76261705,0.33838782,0.5591365,0,0.0,0.0,0.0,0.0,0.50651866,0,0,0.0,0.0,0,0,120.0,0.0,509.0,4592.307692307693,3996.9230769230776,4553.846153846154,4476.923076923077,4284.102564102564,4556.410256410257,4492.820512820514,4460.512820512821,4413.333333333334,4751.282051282052,4440.512820512821,4412.307692307693,4197.948717948719,4340.000000000001
1187.4188,0.04187077,0.76261705,0.33838782,0.5591365,0,0.0,0.0,0.0,0.0,0.0,0,0,0.0,0.0,0,0,23.0,0.0,0.0,4556.410256410257,3976.410256410257,4538.461538461539,4473.846153846154,4295.8974358974365,4544.615384615385,4473.846153846154,4402.564102564103,4311.282051282052,4671.794871794872,4415.8974358974365,4353.333333333334,4058.461538461539,4238.974358974359
1187.6691,0.10390335,0.7875822,0.34465086,0.5839001,0,0.0,0.0,0.0,0.0,0.19328456,0,0,0.0,0.0,0,0,55.0,0.0,0.0,4557.435897435898,3988.205128205129,4556.410256410257,4490.769230769231,4295.8974358974365,4520.512820512821,4454.358974358975,4369.743589743591,4247.6923076923085,4625.641025641026,4440.000000000001,4301.538461538462,4008.205128205129,4324.102564102564
1187.9193,0.10390335,0.7875822,0.34465086,0.5839001,0,0.0,0.0,0.0,0.0,1.0,0,0,0.0,0.0,0,0,87.0,0.0,510.0,4536.410256410257,3943.589743589744,4525.128205128206,4463.076923076924,4292.820512820514,4508.205128205129,4443.076923076924,4354.358974358975,4201.538461538462,4588.205128205129,4430.256410256411,4242.051282051282,3976.410256410257,4368.717948717949
1188.1696,0.19774611,0.79152644,0.35028738,0.6061854,0,0.0,0.0,0.0,0.0,0.16189422,0,0,0.0,0.0,0,0,119.0,0.0,510.0,4553.846153846154,3928.205128205129,4503.076923076924,4458.461538461539,4275.8974358974365,4502.564102564103,4424.102564102564,4378.974358974359,4235.384615384616,4616.410256410257,4447.6923076923085,4184.615384615385,4050.2564102564106,4396.410256410257
1188.4198,0.19774611,0.79152644,0.35028738,0.6061854,0,0.0,0.0,0.0,0.0,0.0,0,0,0.0,0.0,0,0,16.0,0.0,0.0,4563.076923076924,3932.820512820513,4495.8974358974365,4485.641025641026,4275.8974358974365,4508.717948717949,4413.846153846154,4401.538461538462,4278.974358974359,4647.179487179488,4454.358974358975,4193.333333333334,4111.794871794872,4435.8974358974365
1188.5448,0.17463641,0.7712074,0.35279822,0.6241595,0,0.0,0.0,0.0,0.0,0.0,0,0,0.0,0.0,0,0,38.0,0.0,0.0,4540.512820512821,3915.3846153846157,4478.974358974359,4489.743589743591,4249.2307692307695,4496.410256410257,4410.769230769231,4398.461538461539,4308.205128205129,4662.564102564103,4443.589743589744,4158.974358974359,4153.846153846154,4440.512820512821
1188.5448,0.17463641,0.7712074,0.35279822,0.6241595,0,0.0,0.0,0.0,0.0,0.0,0,0,0.0,0.0,0,0,38.0,0.0,0.0,4540.512820512821,3915.3846153846157,4478.974358974359,4489.743589743591,4249.2307692307695,4496.410256410257,4410.769230769231,4398.461538461539,4308.205128205129,4662.564102564103,4443.589743589744,4158.974358974359,4153.846153846154,4440.512820512821
1189.0453,0.22240658,0.7375324,0.35255453,0.6318953,0,0.0,0.0,0.0,0.0,1.0,0,0,0.0,0.0,0,0,102.0,0.0,533.0,4561.538461538462,3975.3846153846157,4512.307692307693,4524.615384615385,4236.410256410257,4509.2307692307695,4449.2307692307695,4443.589743589744,4422.051282051282,4741.025641025642,4430.256410256411,4271.282051282052,4275.8974358974365,4604.102564102564
1189.1704,0.22240658,0.7375324,0.35255453,0.6318953,0,0.0,0.0,0.0,0.0,0.0,0,0,0.0,0.0,0,0,118.0,0.0,533.0,4566.153846153847,3974.8717948717954,4505.128205128206,4520.512820512821,4244.102564102564,4519.48717948718,4444.102564102564,4443.076923076924,4426.666666666667,4734.871794871796,4407.179487179487,4260.512820512821,4269.2307692307695,4586.666666666667
1189.5457,0.2635278,0.72156364,0.34927908,0.63534534,0,0.0,0.0,0.0,0.0,0.0,0,0,0.0,0.0,0,0,37.0,0.0,0.0,4572.307692307693,3958.9743589743593,4505.641025641026,4488.205128205129,4247.6923076923085,4536.923076923077,4473.846153846154,4467.6923076923085,4488.717948717949,4781.025641025642,4389.2307692307695,4298.461538461539,4306.153846153847,4546.153846153847
1189.5457,0.2635278,0.72156364,0.34927908,0.63534534,0,0.0,0.0,0.0,0.0,0.0,0,0,0.0,0.0,0,0,37.0,0.0,0.0,4572.307692307693,3958.9743589743593,4505.641025641026,4488.205128205129,4247.6923076923085,4536.923076923077,4473.846153846154,4467.6923076923085,4488.717948717949,4781.025641025642,4389.2307692307695,4298.461538461539,4306.153846153847,4546.153846153847
1190.0461,0.26760358,0.7072502,0.34633085,0.63844734,0,0.0,0.0,0.0,0.0,0.0,0,0,0.0,0.0,0,0,101.0,0.0,455.0,4568.717948717949,3926.1538461538466,4495.8974358974365,4443.076923076924,4235.8974358974365,4536.410256410257,4472.307692307693,4475.8974358974365,4491.282051282052,4788.717948717949,4364.102564102564,4311.794871794872,4279.48717948718,4573.846153846154
1190.0461,0.26760358,0.7072502,0.34633085,0.63844734,0,0.0,0.0,0.0,0.0,0.0,0,0,0.0,0.0,0,0,101.0,0.0,455.0,4568.717948717949,3926.1538461538466,4495.8974358974365,4443.076923076924,4235.8974358974365,4536.410256410257,4472.307692307693,4475.8974358974365,4491.282051282052,4788.717948717949,4364.102564102564,4311.794871794872,4279.48717948718,4573.846153846154
1190.5465,0.24636185,0.6894317,0.3436771,0.6412361,0,0.0,0.0,0.0,0.0,0.0,0,0,0.0,0.0,0,0,36.0,0.0,0.0,4569.743589743591,3896.410256410257,4494.358974358975,4424.102564102564,4242.564102564103,4532.820512820514,4472.307692307693,4462.564102564103,4476.923076923077,4809.743589743591,4387.6923076923085,4311.794871794872,4292.820512820514,4506.153846153847
1190.5465,0.24636185,0.6894317,0.3436771,0.6412361,0,0.0,0.0,0.0,0.0,0.0,0,0,0.0,0.0,0,0,36.0,0.0,0.0,4569.743589743591,3896.410256410257,4494.358974358975,4424.102564102564,4242.564102564103,4532.820512820514,4472.307692307693,4462.564102564103,4476.923076923077,4809.743589743591,4387.6923076923085,4311.794871794872,4292.820512820514,4506.153846153847
1191.047,0.29394987,0.66296774,0.3428766,0.6460352,0,0.0,0.0,0.0,0.0,0.0,0,0,0.0,0.0,0,0,100.0,0.0,509.0,4557.948717948719,3864.1025641025644,4481.025641025642,4389.2307692307695,4235.384615384616,4523.589743589744,4457.948717948719,4462.051282051282,4475.384615384616,4803.076923076924,4386.666666666667,4292.820512820514,4249.2307692307695,4508.717948717949
1191.047,0.29394987,0.66296774,0.3428766,0.6460352,0,0.0,0.0,0.0,0.0,0.0,0,0,0.0,0.0,0,0,100.0,0.0,509.0,4557.948717948719,3864.1025641025644,4481.025641025642,4389.2307692307695,4235.384615384616,4523.589743589744,4457.948717948719,4462.051282051282,4475.384615384616,4803.076923076924,4386.666666666667,4292.820512820514,4249.2307692307695,4508.717948717949
1191.5475,0.23285341,0.6250522,0.34215593,0.6548534,0,0.0,0.0,0.0,0.0,0.0,0,0,0.0,0.0,0,0,35.0,0.0,0.0,4582.051282051282,3930.7692307692314,4505.128205128206,4446.666666666667,4247.179487179487,4527.179487179488,4460.512820512821,4446.153846153847,4446.153846153847,4768.205128205129,4356.410256410257,4281.025641025642,4189.2307692307695,4507.6923076923085
1191.5475,0.23285341,0.6250522,0.34215593,0.6548534,0,0.0,0.0,0.0,0.0,0.0,0,0,0.0,0.0,0,0,35.0,0.0,0.0,4582.051282051282,3930.7692307692314,4505.128205128206,4446.666666666667,4247.179487179487,4527.179487179488,4460.512820512821,4446.153846153847,4446.153846153847,4768.205128205129,4356.410256410257,4281.025641025642,4189.2307692307695,4507.6923076923085
1192.0479,0.19362766,0.5989766,0.34466466,0.6628111,0,0.0,0.0,0.0,0.0,0.0,0,0,0.0,0.0,0,0,99.0,0.0,510.0,4584.102564102564,3928.205128205129,4510.256410256411,4454.871794871796,4267.179487179487,4540.512820512821,4461.538461538462,4443.589743589744,4429.743589743591,4768.205128205129,4361.538461538462,4278.461538461539,4200.000000000001,4474.358974358975
1192.0479,0.19362766,0.5989766,0.34466466,0.6628111,0,0.0,0.0,0.0,0.0,0.0,0,0,0.0,0.0,0,0,99.0,0.0,510.0,4584.102564102564,3928.205128205129,4510.256410256411,4454.871794871796,4267.179487179487,4540.512820512821,4461.538461538462,4443.589743589744,4429.743589743591,4768.205128205129,4361.538461538462,4278.461538461539,4200.000000000001,4474.358974358975
1192.5483,0.1513509,0.58040446,0.3507205,0.6699663,0,0.0,0.0,0.0,0.0,0.0,0,0,0.0,0.0,0,0,34.0,0.0,0.0,4591.282051282052,3907.1794871794878,4502.051282051282,4428.205128205129,4245.128205128206,4524.615384615385,4443.076923076924,4430.769230769231,4415.384615384616,4754.358974358975,4364.615384615385,4265.641025641026,4200.000000000001,4442.564102564103
1192.5483,0.1513509,0.58040446,0.3507205,0.6699663,0,0.0,0.0,0.0,0.0,0.0,0,0,0.0,0.0,0,0,34.0,0.0,0.0,4591.282051282052,3907.1794871794878,4502.051282051282,4428.205128205129,4245.128205128206,4524.615384615385,4443.076923076924,4430.769230769231,4415.384615384616,4754.358974358975,4364.615384615385,4265.641025641026,4200.000000000001,4442.564102564103
1193.0487,0.11487276,0.57733905,0.3570137,0.67255044,0,0.0,0.0,0.0,0.0,0.0,0,0,0.0,0.0,0,0,98.0,0.0,533.0,4606.153846153847,3911.7948717948725,4487.179487179488,4421.025641025642,4237.948717948719,4525.128205128206,4446.666666666667,4432.820512820514,4421.025641025642,4752.820512820514,4366.153846153847,4255.384615384616,4196.923076923077,4443.589743589744
1193.0487,0.11487276,0.57733905,0.3570137,0.67255044,0,0.0,0.0,0.0,0.0,0.0,0,0,0.0,0.0,0,0,98.0,0.0,533.0,4606.153846153847,3911.7948717948725,4487.179487179488,4421.025641025642,4237.948717948719,4525.128205128206,4446.666666666667,4432.820512820514,4421.025641025642,4752.820512820514,4366.153846153847,4255.384615384616,4196.923076923077,4443.589743589744
1193.5492,0.08141018,0.5722161,0.36101303,0.66370994,0,0.0,0.0,0.0,0.0,0.0,0,0,0.0,0.0,0,0,33.0,0.0,0.0,4606.153846153847,3941.0256410256416,4504.102564102564,4438.461538461539,4262.564102564103,4540.000000000001,4470.769230769231,4442.564102564103,4413.333333333334,4748.717948717949,4383.589743589744,4325.128205128206,4170.769230769231,4424.615384615385
1193.5492,0.08141018,0.5722161,0.36101303,0.66370994,0,0.0,0.0,0.0,0.0,0.0,0,0,0.0,0.0,0,0,33.0,0.0,0.0,4606.153846153847,3941.0256410256416,4504.102564102564,4438.461538461539,4262.564102564103,4540.000000000001,4470.769230769231,4442.564102564103,4413.333333333334,4748.717948717949,4383.589743589744,4325.128205128206,4170.769230769231,4424.615384615385
1194.0496,0.06734959,0.5531294,0.36260626,0.6444696,0,0.0,0.0,0.0,0.0,0.0,0,0,0.0,0.0,0,0,97.0,0.0,455.0,4585.128205128206,3950.7692307692314,4555.384615384616,4446.666666666667,4281.538461538462,4538.974358974359,4473.846153846154,4443.589743589744,4327.179487179487,4681.538461538462,4429.2307692307695,4341.538461538462,4028.717948717949,4446.153846153847
1194.0496,0.06734959,0.5531294,0.36260626,0.6444696,0,0.0,0.0,0.0,0.0,0.0,0,0,0.0,0.0,0,0,97.0,0.0,455.0,4585.128205128206,3950.7692307692314,4555.384615384616,4446.666666666667,4281.538461538462,4538.974358974359,4473.846153846154,4443.589743589744,4327.179487179487,4681.538461538462,4429.2307692307695,4341.538461538462,4028.717948717949,4446.153846153847
1194.55,0.09676852,0.5374655,0.36604545,0.6263631,0,0.0,0.0,0.0,0.0,0.0,0,0,0.0,0.0,0,0,32.0,0.0,0.0,4606.666666666667,3983.076923076924,4508.717948717949,4474.358974358975,4280.512820512821,4520.512820512821,4425.641025641026,4402.051282051282,4301.025641025642,4671.794871794872,4449.2307692307695,4266.666666666667,4038.461538461539,4580.512820512821
1194.6752,0.09676852,0.5374655,0.36604545,0.6263631,0,0.0,0.0,0.0,0.0,1.0,0,0,0.0,0.0,0,0,48.0,0.0,0.0,4615.8974358974365,4003.589743589744,4514.358974358975,4506.153846153847,4294.358974358975,4526.153846153847,4423.589743589744,4395.384615384616,4309.743589743591,4677.435897435898,4462.051282051282,4264.615384615385,4089.7435897435903,4696.923076923077
1195.0504,0.15994982,0.5340273,0.37008452,0.6099406,0,0.0,0.0,0.0,0.0,0.6714609,0,0,0.0,0.0,0,0,96.0,0.0,509.0,4620.000000000001,3977.9487179487182,4476.923076923077,4490.769230769231,4243.589743589744,4504.102564102564,4426.153846153847,4405.641025641026,4366.153846153847,4703.589743589744,4427.179487179487,4245.641025641026,4152.820512820514,4631.794871794872
1195.3007,0.15994982,0.5340273,0.37008452,0.6099406,0,0.0,0.0,0.0,0.0,0.72698814,0,0,0.0,0.0,0,0,128.0,0.0,509.0,4637.948717948719,3992.307692307693,4508.717948717949,4492.820512820514,4232.307692307693,4508.717948717949,4456.410256410257,4408.205128205129,4388.717948717949,4732.307692307693,4413.333333333334,4265.128205128206,4213.333333333334,4600.512820512821
1195.5509,0.12133572,0.5236428,0.3737188,0.5958602,0,0.0,0.0,0.0,0.0,0.24969248,0,0,0.0,0.0,0,0,31.0,0.0,0.0,4640.512820512821,3998.9743589743593,4505.641025641026,4505.641025641026,4232.307692307693,4524.615384615385,4473.333333333334,4416.923076923077,4410.256410256411,4742.564102564103,4396.410256410257,4278.461538461539,4247.6923076923085,4587.6923076923085
1195.801,0.12133572,0.5236428,0.3737188,0.5958602,0,0.0,0.0,0.0,0.0,0.5598185,0,0,0.0,0.0,0,0,63.0,0.0,0.0,4636.410256410257,4006.666666666667,4519.48717948718,4509.2307692307695,4229.2307692307695,4536.410256410257,4490.256410256411,4422.051282051282,4430.256410256411,4751.282051282052,4375.384615384616,4280.512820512821,4249.2307692307695,4514.358974358975
1196.3015,0.1648404,0.5094277,0.37727654,0.5831876,0,0.0,0.0,0.0,0.0,0.48131597,0,0,0.0,0.0,0,0,127.0,0.0,505.0,4609.743589743591,3971.7948717948725,4505.128205128206,4473.846153846154,4235.384615384616,4540.000000000001,4460.512820512821,4411.794871794872,4425.641025641026,4735.8974358974365,4338.974358974359,4266.153846153847,4215.8974358974365,4427.179487179487
1196.3015,0.1648404,0.5094277,0.37727654,0.5831876,0,0.0,0.0,0.0,0.0,0.48131597,0,0,0.0,0.0,0,0,127.0,0.0,505.0,4609.743589743591,3971.7948717948725,4505.128205128206,4473.846153846154,4235.384615384616,4540.000000000001,4460.512820512821,4411.794871794872,4425.641025641026,4735.8974358974365,4338.974358974359,4266.153846153847,4215.8974358974365,4427.179487179487
1196.5518,0.20287849,0.5011726,0.38047743,0.57833356,0,0.0,0.0,0.0,0.0,0.0,0,0,0.0,0.0,0,0,30.0,0.0,0.0,4620.000000000001,3958.461538461539,4491.282051282052,4472.820512820514,4233.846153846154,4531.282051282052,4462.051282051282,4444.102564102564,4446.153846153847,4771.282051282052,4366.666666666667,4258.461538461539,4225.128205128206,4443.076923076924
1196.5518,0.20287849,0.5011726,0.38047743,0.57833356,0,0.0,0.0,0.0,0.0,0.0,0,0,0.0,0.0,0,0,30.0,0.0,0.0,4620.000000000001,3958.461538461539,4491.282051282052,4472.820512820514,4233.846153846154,4531.282051282052,4462.051282051282,4444.102564102564,4446.153846153847,4771.282051282052,4366.666666666667,4258.461538461539,4225.128205128206,4443.076923076924
1197.0521,0.17880934,0.47609663,0.38335705,0.5868182,0,0.0,0.0,0.0,0.0,1.0,0,0,0.0,0.0,0,0,94.0,0.0,533.0,4616.923076923077,3923.589743589744,4456.410256410257,4440.000000000001,4231.282051282052,4520.512820512821,4443.589743589744,4413.846153846154,4427.6923076923085,4763.076923076924,4365.641025641026,4195.384615384616,4211.282051282052,4572.820512820514
1197.0521,0.17880934,0.47609663,0.38335705,0.5868182,0,0.0,0.0,0.0,0.0,1.0,0,0,0.0,0.0,0,0,94.0,0.0,533.0,4616.923076923077,3923.589743589744,4456.410256410257,4440.000000000001,4231.282051282052,4520.512820512821,4443.589743589744,4413.846153846154,4427.6923076923085,4763.076923076924,4365.641025641026,4195.384615384616,4211.282051282052,4572.820512820514
1197.5526,0.18468592,0.44671437,0.38505387,0.601327,0,0.0,0.0,0.0,0.0,0.25720054,0,0,0.0,0.0,0,0,29.0,0.0,0.0,4606.153846153847,3896.410256410257,4475.384615384616,4426.153846153847,4236.923076923077,4523.589743589744,4448.717948717949,4390.769230769231,4421.025641025642,4749.743589743591,4360.000000000001,4200.000000000001,4208.717948717949,4618.974358974359
1197.8029,0.18468592,0.44671437,0.38505387,0.601327,0,0.0,0.0,0.0,0.0,0.0,0,0,0.0,0.0,0,0,61.0,0.0,0.0,4604.615384615385,3881.538461538462,4502.564102564103,4407.179487179487,4251.794871794872,4536.923076923077,4459.48717948718,4413.333333333334,4431.282051282052,4762.051282051282,4373.846153846154,4234.871794871796,4203.076923076924,4556.923076923077
1198.053,0.14531253,0.42491943,0.3845163,0.6143825,0,0.0,0.0,0.0,0.0,0.0,0,0,0.0,0.0,0,0,93.0,0.0,455.0,4600.000000000001,3843.589743589744,4501.538461538462,4366.666666666667,4260.512820512821,4538.461538461539,4456.410256410257,4412.820512820514,4376.923076923077,4708.717948717949,4358.974358974359,4218.461538461539,4110.256410256411,4455.384615384616
1198.2407,0.14531253,0.42491943,0.3845163,0.6143825,0,0.0,0.0,0.0,0.0,0.0,0,0,0.0,0.0,1,0,117.0,0.0,455.0,4654.871794871796,3896.410256410257,4596.923076923077,4486.153846153847,4196.410256410257,4491.794871794872,4461.538461538462,4460.512820512821,4325.128205128206,4741.025641025642,4395.8974358974365,4285.128205128206,4041.0256410256416,4556.410256410257
1198.5535,0.14560291,0.4424374,0.37797394,0.6261291,0,0.0,0.0,0.0,0.0,0.0,0,0,0.0,0.0,0,0,28.0,0.0,0.0,4624.615384615385,3911.7948717948725,4524.615384615385,4576.410256410257,4056.410256410257,4473.846153846154,4442.564102564103,4458.974358974359,4220.000000000001,4691.794871794872,4415.384615384616,4154.358974358975,3968.717948717949,4497.948717948719
1198.8975,0.14560291,0.4424374,0.37797394,0.6261291,1,0.0,0.0,0.0,0.0,0.0,0,0,1.0,0.0,0,0,72.0,0.0,457.0,4648.205128205129,3972.820512820513,4556.923076923077,4652.820512820514,4032.307692307693,4552.820512820514,4538.461538461539,4378.461538461539,4281.538461538462,4791.282051282052,4525.641025641026,4207.179487179487,4064.1025641025644,4662.564102564103
1199.0538,0.20470476,0.4581907,0.37166312,0.6357168,0,0.0,0.0,0.0,0.0,0.0,0,0,0.2075656,0.0,0,0,92.0,0.0,509.0,4616.923076923077,3975.8974358974365,4518.974358974359,4653.333333333334,4028.717948717949,4572.820512820514,4567.179487179488,4333.846153846154,4326.666666666667,4910.769230769231,4529.2307692307695,4210.769230769231,4110.256410256411,4618.974358974359
1199.3041,0.20470476,0.4581907,0.37166312,0.6357168,0,0.0,0.0,0.0,0.04175125,0.0,0,0,0.0,0.0,0,1,124.0,0.0,509.0,4601.025641025642,3964.1025641025644,4509.743589743591,4617.435897435898,4076.410256410257,4562.564102564103,4530.769230769231,4348.205128205129,4364.102564102564,4902.051282051283,4441.538461538462,4190.256410256411,4101.538461538462,4698.461538461539
1199.6482,0.20593603,0.47236866,0.36598253,0.64500856,0,0.0,0.0,0.0,0.0024431997,0.0,0,0,0.0,0.0,0,0,39.0,0.0,0.0,4614.358974358975,3972.820512820513,4494.358974358975,4646.666666666667,4137.948717948719,4556.410256410257,4467.6923076923085,3983.076923076924,4570.256410256411,4880.000000000001,4402.564102564103,4260.000000000001,4282.564102564103,4833.846153846154
1199.6794,0.20593603,0.47236866,0.36598253,0.64500856,0,0.0,0.0,0.0,0.0,0.0,0,0,0.0,0.0,0,0,43.0,0.0,0.0,4613.846153846154,3942.564102564103,4491.794871794872,4618.974358974359,4138.974358974359,4552.820512820514,4460.512820512821,3989.23076923077,4558.974358974359,4857.435897435898,4358.974358974359,4255.8974358974365,4275.8974358974365,4842.564102564103
1200.086,0.21377486,0.48512885,0.35946783,0.6462881,0,0.02064374,0.0,0.0,0.0,0.0,0,0,0.0,0.0,0,0,95.0,0.0,493.0,4639.48717948718,3881.0256410256416,4490.256410256411,4494.871794871796,4165.641025641026,4519.48717948718,4412.307692307693,4155.8974358974365,4646.666666666667,4814.358974358975,4342.051282051282,4374.358974358975,4316.923076923077,4858.974358974359
1200.3049,0.21377486,0.48512885,0.35946783,0.6462881,0,0.012520019,0.0,0.0,0.0,0.0,0,0,0.0,0.0,0,0,123.0,0.0,493.0,4640.000000000001,3854.8717948717954,4475.384615384616,4447.179487179487,4185.128205128206,4534.871794871796,4429.2307692307695,4198.461538461539,4627.6923076923085,4815.384615384616,4336.410256410257,4397.435897435898,4341.025641025642,4782.051282051282
1200.5552,0.21269739,0.496613,0.3568489,0.64167917,0,0.0,0.0,0.0,0.01373643,0.0,0,0,0.0,0.0,0,0,26.0,0.0,0.0,4665.641025641026,3926.1538461538466,4507.179487179488,4443.076923076924,4171.282051282052,4495.384615384616,4420.000000000001,4469.2307692307695,4528.717948717949,4813.333333333334,4355.384615384616,4443.076923076924,4349.2307692307695,4778.974358974359
1200.8054,0.21269739,0.496613,0.3568489,0.64167917,0,0.0,0.0,0.0,0.0,0.0,0,0,0.0,0.0,0,0,58.0,0.0,0.0,4685.641025641026,3940.5128205128212,4506.153846153847,4444.102564102564,4177.435897435898,4479.48717948718,4383.076923076924,4690.256410256411,4429.743589743591,4796.410256410257,4307.179487179487,4002.564102564103,4287.6923076923085,4756.410256410257
1201.0869,0.23036815,0.5069487,0.35449678,0.6347825,0,0.0,0.0,0.0,0.0030697335,0.0,0,0,0.0,0.0,0,0,94.0,0.0,538.0,4684.615384615386,3941.0256410256416,4511.282051282052,4473.333333333334,4216.923076923077,4506.153846153847,4412.820512820514,4673.846153846154,4387.179487179487,4800.512820512821,4281.538461538462,4024.1025641025644,4284.102564102564,4763.076923076924
1201.1807,0.23036815,0.5069487,0.35449678,0.6347825,0,0.0,0.0,0.0,0.0,0.0,0,0,0.0,0.0,0,0,106.0,0.0,538.0,4681.025641025642,3940.0000000000005,4506.153846153847,4468.205128205129,4218.461538461539,4518.461538461539,4415.384615384616,4662.051282051282,4371.282051282052,4777.948717948719,4250.256410256411,4053.333333333334,4247.6923076923085,4743.589743589744
1201.5873,0.24191162,0.5162509,0.35238045,0.6265281,0,0.0,0.0,0.0,0.0,1.0,0,0,0.0,0.0,0,0,29.0,0.0,0.0,4686.153846153847,3928.205128205129,4538.461538461539,4444.102564102564,4225.128205128206,4524.102564102564,4456.923076923077,4591.282051282052,4373.333333333334,4778.974358974359,4271.282051282052,4200.000000000001,4248.717948717949,4523.076923076924
1201.8063,0.24191162,0.5162509,0.35238045,0.6265281,0,0.0,0.0,0.0,0.0,0.02718536,0,0,0.0,0.0,0,0,57.0,0.0,0.0,4683.589743589744,3927.692307692308,4538.974358974359,4453.333333333334,4231.794871794872,4535.384615384616,4464.615384615385,4586.666666666667,4383.589743589744,4781.538461538462,4286.153846153847,4252.307692307693,4234.871794871796,4563.589743589744
1202.0565,0.2459057,0.5094419,0.35047174,0.6190832,0,0.0,0.0,0.0,0.0,0.023905855,0,0,0.0,0.0,0,0,89.0,0.0,458.0,4687.6923076923085,3928.717948717949,4542.564102564103,4461.538461538462,4234.871794871796,4536.923076923077,4476.410256410257,4541.025641025642,4375.8974358974365,4766.666666666667,4285.641025641026,4252.820512820514,4200.000000000001,4542.051282051282
1202.3066,0.2459057,0.5094419,0.35047174,0.6190832,0,0.0,0.0,0.0,0.0,0.04966997,0,0,0.0,0.0,0,0,121.0,0.0,458.0,4664.615384615386,3907.1794871794878,4522.051282051282,4442.564102564103,4235.384615384616,4537.435897435898,4456.923076923077,4504.102564102564,4348.205128205129,4725.128205128206,4293.333333333334,4238.461538461539,4142.564102564103,4496.410256410257
1202.5569,0.28658262,0.5098075,0.3487535,0.6123822,0,0.0,0.0,0.0,0.0,0.27497584,0,0,0.0,0.0,0,0,24.0,0.0,0.0,4692.307692307693,3925.1282051282055,4525.641025641026,4458.461538461539,4234.871794871796,4543.076923076924,4472.820512820514,4481.538461538462,4298.461538461539,4701.025641025642,4299.48717948718,4148.717948717949,4109.74358974359,4440.512820512821
1202.8071,0.28658262,0.5098075,0.3487535,0.6123822,0,0.0,0.0,0.0,0.0,0.08882393,0,0,0.0,0.0,0,0,56.0,0.0,0.0,4682.051282051282,3927.1794871794878,4538.974358974359,4469.743589743591,4265.641025641026,4549.2307692307695,4472.307692307693,4429.743589743591,4244.102564102564,4622.564102564103,4301.025641025642,4186.666666666667,4072.307692307693,4443.589743589744
1203.0574,0.30719608,0.48956975,0.34720677,0.6063506,0,0.0,0.0,0.0,0.04031459,0.0,0,0,0.0,0.0,0,0,88.0,0.0,513.0,4688.717948717949,3876.9230769230776,4539.48717948718,4444.615384615385,4309.2307692307695,4576.410256410257,4507.6923076923085,4446.153846153847,4285.128205128206,4650.256410256411,4342.564102564103,4198.974358974359,4117.948717948719,4448.717948717949
1203.3075,0.30719608,0.48956975,0.34720677,0.6063506,0,0.0,0.0,0.0,0.084484465,0.0,0,0,0.0,0.0,0,0,120.0,0.0,513.0,4736.923076923077,3894.8717948717954,4539.48717948718,4458.461538461539,4295.384615384616,4566.666666666667,4492.307692307693,4419.48717948718,4290.256410256411,4651.282051282052,4363.076923076924,4203.589743589744,4109.2307692307695,4423.076923076924
1203.5577,0.34707695,0.4848747,0.34581476,0.6009215,0,0.0,0.0,0.0,0.17047945,0.0,0,0,0.0,0.0,0,0,23.0,0.0,0.0,4785.641025641026,3896.410256410257,4543.589743589744,4461.538461538462,4283.076923076924,4557.948717948719,4509.2307692307695,4459.48717948718,4340.512820512821,4681.025641025642,4384.615384615385,4242.051282051282,4170.769230769231,4480.000000000001
1203.6829,0.34707695,0.4848747,0.34581476,0.6009215,0,0.0,0.0,0.0,0.0,0.0,0,0,0.0,0.0,0,0,39.0,0.0,0.0,4795.384615384616,3894.358974358975,4544.615384615385,4460.000000000001,4264.615384615385,4543.589743589744,4505.641025641026,4476.410256410257,4377.435897435898,4717.435897435898,4396.410256410257,4271.794871794872,4204.102564102564,4522.564102564103
1204.0582,0.30362928,0.51409954,0.34456244,0.59603465,0,0.0,0.0,0.0,0.0,0.0,0,0,0.0,0.0,0,0,87.0,0.0,510.0,4713.333333333334,3866.1538461538466,4506.153846153847,4430.769230769231,4265.128205128206,4552.820512820514,4476.410256410257,4465.128205128206,4412.307692307693,4748.205128205129,4373.846153846154,4243.589743589744,4211.282051282052,4490.256410256411
1204.0582,0.30362928,0.51409954,0.34456244,0.59603465,0,0.0,0.0,0.0,0.0,0.0,0,0,0.0,0.0,0,0,87.0,0.0,510.0,4713.333333333334,3866.1538461538466,4506.153846153847,4430.769230769231,4265.128205128206,4552.820512820514,4476.410256410257,4465.128205128206,4412.307692307693,4748.205128205129,4373.846153846154,4243.589743589744,4211.282051282052,4490.256410256411
1204.5586,0.24651171,0.5089788,0.3434351,0.59163713,0,0.0,0.0,0.0,0.0,0.0,0,0,0.0,0.0,0,0,22.0,0.0,0.0,4684.615384615386,3876.9230769230776,4505.128205128206,4440.000000000001,4249.2307692307695,4536.923076923077,4473.846153846154,4490.769230769231,4460.000000000001,4766.666666666667,4395.8974358974365,4246.666666666667,4164.615384615385,4564.615384615385
1204.8088,0.24651171,0.5089788,0.3434351,0.59163713,0,0.0,0.0,0.0,0.0,0.28631878,0,0,0.0,0.0,0,0,54.0,0.0,0.0,4681.538461538462,3897.435897435898,4506.666666666667,4435.8974358974365,4249.2307692307695,4535.8974358974365,4475.384615384616,4476.410256410257,4458.461538461539,4776.923076923077,4394.358974358975,4259.48717948718,4188.205128205129,4537.948717948719
1205.0591,0.17598264,0.49866265,0.34645832,0.58768123,0,0.0,0.0,0.0,0.0,0.30203003,0,0,0.0,0.0,0,0,86.0,0.0,532.0,4667.6923076923085,3881.538461538462,4493.333333333334,4421.538461538462,4250.769230769231,4537.435897435898,4471.794871794872,4474.358974358975,4476.410256410257,4782.051282051282,4390.256410256411,4262.564102564103,4199.48717948718,4505.641025641026
1205.3092,0.17598264,0.49866265,0.34645832,0.58768123,0,0.0,0.0,0.0,0.0,0.28406072,0,0,0.0,0.0,0,0,118.0,0.0,532.0,4662.051282051282,3894.8717948717954,4498.461538461539,4430.256410256411,4249.74358974359,4540.000000000001,4477.948717948719,4462.564102564103,4458.974358974359,4780.000000000001,4392.307692307693,4265.128205128206,4214.358974358975,4514.871794871796
1205.5594,0.17626715,0.47129765,0.3520372,0.5933973,0,0.0,0.0,0.0,0.0,0.0,0,0,0.0,0.0,0,0,21.0,0.0,0.0,4670.769230769231,3910.7692307692314,4507.6923076923085,4443.589743589744,4273.333333333334,4554.871794871796,4490.769230769231,4463.076923076924,4472.307692307693,4786.153846153847,4381.025641025642,4266.666666666667,4197.435897435898,4504.615384615385
1205.5594,0.17626715,0.47129765,0.3520372,0.5933973,0,0.0,0.0,0.0,0.0,0.0,0,0,0.0,0.0,0,0,21.0,0.0,0.0,4670.769230769231,3910.7692307692314,4507.6923076923085,4443.589743589744,4273.333333333334,4554.871794871796,4490.769230769231,4463.076923076924,4472.307692307693,4786.153846153847,4381.025641025642,4266.666666666667,4197.435897435898,4504.615384615385
1206.0599,0.13699938,0.43935215,0.35705775,0.61033976,0,0.0,0.0,0.0,0.0,0.0,0,0,0.0,0.0,0,0,85.0,0.0,458.0,4670.256410256411,3902.0512820512827,4504.102564102564,4448.205128205129,4254.358974358975,4538.974358974359,4473.333333333334,4463.076923076924,4476.410256410257,4800.512820512821,4392.820512820514,4268.717948717949,4194.358974358975,4580.512820512821
1206.31,0.13699938,0.43935215,0.35705775,0.61033976,0,0.0,0.0,0.0,0.0,0.0,0,0,0.0,0.0,0,0,117.0,0.0,458.0,4651.794871794872,3893.8461538461543,4477.948717948719,4438.974358974359,4250.769230769231,4524.102564102564,4454.871794871796,4443.589743589744,4436.923076923077,4764.615384615386,4359.48717948718,4246.666666666667,4168.717948717949,4525.128205128206
1206.5603,0.12696034,0.41161194,0.35655132,0.62558436,0,0.0,0.0,0.0,0.0,0.0,0,0,0.0,0.0,0,0,20.0,0.0,0.0,4646.153846153847,3909.2307692307695,4489.2307692307695,4443.076923076924,4248.717948717949,4522.564102564103,4456.923076923077,4444.615384615385,4428.205128205129,4764.615384615386,4368.205128205129,4252.307692307693,4180.000000000001,4520.512820512821
1206.5603,0.12696034,0.41161194,0.35655132,0.62558436,0,0.0,0.0,0.0,0.0,0.0,0,0,0.0,0.0,0,0,20.0,0.0,0.0,4646.153846153847,3909.2307692307695,4489.2307692307695,4443.076923076924,4248.717948717949,4522.564102564103,4456.923076923077,4444.615384615385,4428.205128205129,4764.615384615386,4368.205128205129,4252.307692307693,4180.000000000001,4520.512820512821
1207.0608,0.112254,0.38774785,0.34780547,0.6392997,0,0.0,0.0,0.0,0.0,0.0,0,0,0.0,0.0,0,0,84.0,0.0,515.0,4663.076923076924,3926.1538461538466,4490.769230769231,4451.282051282052,4249.74358974359,4528.205128205129,4461.025641025642,4447.6923076923085,4434.358974358975,4768.717948717949,4376.923076923077,4281.025641025642,4183.589743589744,4573.846153846154
1207.311,0.112254,0.38774785,0.34780547,0.6392997,0,0.0,0.0,0.0,0.0,0.58622646,0,0,0.0,0.0,0,0,116.0,0.0,515.0,4661.025641025642,3926.666666666667,4489.743589743591,4455.384615384616,4248.717948717949,4529.2307692307695,4460.000000000001,4449.2307692307695,4427.6923076923085,4767.6923076923085,4385.128205128206,4308.717948717949,4191.794871794872,4601.538461538462
1207.5612,0.093637526,0.36656314,0.3352126,0.6482355,0,0.0,0.0,0.0,0.0,0.49125502,0,0,0.0,0.0,0,0,19.0,0.0,0.0,4631.794871794872,3909.2307692307695,4494.358974358975,4446.153846153847,4246.153846153847,4520.512820512821,4446.666666666667,4442.564102564103,4418.974358974359,4763.589743589744,4392.820512820514,4413.333333333334,4186.666666666667,4551.282051282052
1207.6863,0.093637526,0.36656314,0.3352126,0.6482355,0,0.0,0.0,0.0,0.0,0.0,0,0,0.0,0.0,0,0,35.0,0.0,0.0,4621.025641025642,3910.7692307692314,4493.846153846154,4448.205128205129,4248.205128205129,4523.589743589744,4458.461538461539,4463.076923076924,4423.589743589744,4771.282051282052,4412.820512820514,4411.794871794872,4185.128205128206,4522.051282051282
1208.0616,0.04974562,0.34126538,0.3235478,0.65627223,0,0.0,0.0,0.0,0.0,0.0,0,0,0.0,0.0,0,0,83.0,0.0,509.0,4598.461538461539,3910.7692307692314,4542.564102564103,4474.358974358975,4278.461538461539,4524.615384615385,4461.025641025642,4447.179487179487,4311.282051282052,4696.410256410257,4441.538461538462,4381.025641025642,4059.48717948718,4555.384615384616
1208.3119,0.04974562,0.34126538,0.3235478,0.65627223,0,0.0,0.0,0.0,0.0,0.20304488,0,0,0.0,0.0,0,0,115.0,0.0,509.0,4583.589743589744,3944.1025641025644,4555.384615384616,4521.538461538462,4302.051282051282,4523.589743589744,4426.666666666667,4403.076923076924,4247.6923076923085,4658.461538461539,4488.205128205129,4339.48717948718,4016.410256410257,4555.8974358974365
1208.562,0.07483942,0.3123923,0.31304973,0.65905964,0,0.0,0.0,0.0,0.0,0.0,0,0,0.0,0.0,0,0,18.0,0.0,0.0,4633.333333333334,3990.7692307692314,4553.846153846154,4557.435897435898,4309.2307692307695,4524.615384615385,4426.153846153847,4395.8974358974365,4267.179487179487,4678.974358974359,4521.025641025642,4280.000000000001,4029.23076923077,4522.564102564103
1208.8123,0.07483942,0.3123923,0.31304973,0.65905964,0,0.0,0.0,0.0,0.0,0.24713585,0,0,0.0,0.0,0,0,50.0,0.0,0.0,4630.769230769231,3974.358974358975,4482.051282051282,4551.794871794872,4296.923076923077,4522.564102564103,4393.333333333334,4381.538461538462,4288.205128205129,4688.205128205129,4521.025641025642,4152.307692307693,4071.7948717948725,4571.282051282052
1209.0625,0.05582728,0.30131158,0.3038773,0.6561623,0,0.0,0.0,0.0,0.0,0.0,0,0,0.0,0.0,0,0,82.0,0.0,532.0,4605.641025641026,3970.7692307692314,4454.358974358975,4523.589743589744,4282.564102564103,4524.615384615385,4413.846153846154,4405.641025641026,4337.435897435898,4737.948717948719,4527.6923076923085,4169.2307692307695,4143.076923076924,4644.102564102564
1209.3127,0.05582728,0.30131158,0.3038773,0.6561623,0,0.0,0.0,0.0,0.0,0.3492835,0,0,0.0,0.0,0,0,114.0,0.0,532.0,4615.384615384616,3931.2820512820517,4426.666666666667,4475.8974358974365,4250.769230769231,4522.564102564103,4416.410256410257,4384.615384615385,4366.153846153847,4730.256410256411,4470.256410256411,4183.076923076924,4163.076923076924,4621.025641025642
1209.5629,0.014711507,0.31022748,0.29692122,0.6526512,0,0.0,0.0,0.0,0.0,0.17319822,0,0,0.0,0.0,0,0,17.0,0.0,0.0,4616.923076923077,3930.7692307692314,4447.179487179487,4461.538461538462,4213.846153846154,4505.128205128206,4429.743589743591,4398.974358974359,4399.48717948718,4746.666666666667,4438.974358974359,4222.051282051282,4216.410256410257,4589.743589743591
1209.8131,0.014711507,0.31022748,0.29692122,0.6526512,0,0.0,0.0,0.0,0.0,0.24367951,0,0,0.0,0.0,0,0,49.0,0.0,0.0,4642.051282051282,3943.076923076924,4463.076923076924,4461.538461538462,4198.974358974359,4507.6923076923085,4455.384615384616,4408.717948717949,4441.025641025642,4754.871794871796,4398.974358974359,4256.923076923077,4246.153846153847,4584.615384615385
1210.0634,0.039490268,0.33550903,0.29303798,0.64739215,0,0.0,0.0,0.0,0.0,0.07118785,0,0,0.0,0.0,0,0,81.0,0.0,458.0,4638.974358974359,3942.564102564103,4474.871794871796,4444.615384615385,4199.48717948718,4509.743589743591,4474.358974358975,4424.615384615385,4458.974358974359,4758.974358974359,4357.435897435898,4275.384615384616,4257.435897435898,4554.358974358975
1210.1885,0.039490268,0.33550903,0.29303798,0.64739215,0,0.0,0.0,0.0,0.0,0.0,0,0,0.0,0.0,0,0,97.0,0.0,458.0,4636.923076923077,3946.1538461538466,4490.256410256411,4443.076923076924,4204.615384615385,4522.051282051282,4491.794871794872,4440.000000000001,4474.358974358975,4764.615384615386,4353.333333333334,4285.641025641026,4262.051282051282,4508.717948717949
1210.5637,0.03911618,0.35433656,0.28954405,0.649532,0,0.0,0.0,0.0,0.0,0.0,0,0,0.0,0.0,0,0,16.0,0.0,0.0,4646.666666666667,3942.564102564103,4497.435897435898,4436.410256410257,4212.307692307693,4521.025641025642,4460.000000000001,4473.846153846154,4442.051282051282,4742.051282051282,4310.769230769231,4268.717948717949,4230.769230769231,4523.589743589744
1210.5637,0.03911618,0.35433656,0.28954405,0.649532,0,0.0,0.0,0.0,0.0,0.0,0,0,0.0,0.0,0,0,16.0,0.0,0.0,4646.666666666667,3942.564102564103,4497.435897435898,4436.410256410257,4212.307692307693,4521.025641025642,4460.000000000001,4473.846153846154,4442.051282051282,4742.051282051282,4310.769230769231,4268.717948717949,4230.769230769231,4523.589743589744
1211.0642,0.056550432,0.35216305,0.2864006,0.6511421,0,0.0,0.0,0.0,0.0,0.0,0,0,0.0,0.0,0,0,80.0,0.0,511.0,4661.025641025642,3942.0512820512827,4489.2307692307695,4441.025641025642,4229.74358974359,4537.948717948719,4476.923076923077,4463.589743589744,4427.6923076923085,4718.461538461539,4301.025641025642,4258.461538461539,4203.589743589744,4555.8974358974365
1211.0642,0.056550432,0.35216305,0.2864006,0.6511421,0,0.0,0.0,0.0,0.0,0.0,0,0,0.0,0.0,0,0,80.0,0.0,511.0,4661.025641025642,3942.0512820512827,4489.2307692307695,4441.025641025642,4229.74358974359,4537.948717948719,4476.923076923077,4463.589743589744,4427.6923076923085,4718.461538461539,4301.025641025642,4258.461538461539,4203.589743589744,4555.8974358974365
1211.5646,0.069965765,0.34201822,0.28342238,0.6460247,0,0.0,0.0,0.0,0.0,0.0,0,0,0.0,0.0,0,0,15.0,0.0,509.0,4646.666666666667,3834.358974358975,4492.820512820514,4405.641025641026,4234.358974358975,4525.128205128206,4462.051282051282,4439.48717948718,4405.641025641026,4709.743589743591,4293.333333333334,4248.717948717949,4182.564102564103,4455.384615384616
1211.6897,0.069965765,0.34201822,0.28342238,0.6460247,0,0.0,0.0,0.0,0.0,1.0,0,0,0.0,0.0,0,0,31.0,0.0,0.0,4637.948717948719,3816.410256410257,4473.333333333334,4395.8974358974365,4232.820512820514,4524.615384615385,4461.025641025642,4444.615384615385,4412.307692307693,4713.846153846154,4295.8974358974365,4238.974358974359,4175.8974358974365,4406.153846153847
1212.0651,0.08361821,0.32698148,0.2802355,0.64712584,0,0.0,0.0,0.0,0.0,0.40516716,0,0,0.0,0.0,0,0,79.0,0.0,509.0,4622.564102564103,3814.358974358975,4487.179487179488,4389.2307692307695,4230.256410256411,4510.256410256411,4471.282051282052,4458.974358974359,4410.769230769231,4718.461538461539,4311.282051282052,4256.410256410257,4169.2307692307695,4371.794871794872
1212.3153,0.08361821,0.32698148,0.2802355,0.64712584,0,0.0,0.0,0.0,0.0,0.136062,0,0,0.0,0.0,0,0,111.0,0.0,509.0,4599.48717948718,3818.9743589743593,4477.435897435898,4387.6923076923085,4233.333333333334,4507.6923076923085,4444.102564102564,4434.358974358975,4393.333333333334,4716.410256410257,4316.923076923077,4247.179487179487,4164.615384615385,4386.153846153847
1212.5656,0.05514252,0.3084398,0.27656892,0.64766216,0,0.0,0.0,0.0,0.0,0.0,0,0,0.0,0.0,0,0,14.0,0.0,532.0,4604.615384615385,3825.6410256410263,4491.794871794872,4395.384615384616,4236.923076923077,4507.179487179488,4441.025641025642,4410.769230769231,4362.564102564103,4701.538461538462,4336.410256410257,4254.358974358975,4136.923076923077,4328.205128205129
1212.8157,0.05514252,0.3084398,0.27656892,0.64766216,0,0.0,0.0,0.0,0.0,1.0,0,0,0.0,0.0,0,0,46.0,0.0,0.0,4590.769230769231,3843.589743589744,4522.051282051282,4412.820512820514,4260.512820512821,4511.282051282052,4463.076923076924,4410.256410256411,4314.358974358975,4659.48717948718,4340.512820512821,4266.666666666667,4036.410256410257,4248.205128205129
1213.0659,0.06371634,0.2863567,0.2732704,0.6500434,0,0.0,0.0,0.0,0.0,0.118928134,0,0,0.0,0.0,0,0,78.0,0.0,532.0,4591.282051282052,3864.1025641025644,4554.871794871796,4444.102564102564,4294.358974358975,4537.435897435898,4462.051282051282,4380.512820512821,4283.076923076924,4643.589743589744,4384.615384615385,4249.74358974359,3991.2820512820517,4289.2307692307695
1213.3162,0.06371634,0.2863567,0.2732704,0.6500434,0,0.0,0.0,0.0,0.0,0.13797888,0,0,0.0,0.0,0,0,110.0,0.0,532.0,4598.461538461539,3867.1794871794878,4555.384615384616,4446.153846153847,4296.923076923077,4537.435897435898,4458.974358974359,4373.333333333334,4261.538461538462,4645.128205128206,4427.179487179487,4264.615384615385,4026.666666666667,4350.256410256411
1213.5664,0.1429425,0.27159813,0.27070498,0.65050125,0,0.0,0.0,0.0,0.0,0.0,0,0,0.0,0.0,0,0,13.0,0.0,458.0,4600.512820512821,3912.820512820513,4565.641025641026,4474.871794871796,4311.794871794872,4554.358974358975,4475.8974358974365,4375.384615384616,4304.615384615385,4696.923076923077,4445.641025641026,4264.102564102564,4089.23076923077,4396.410256410257
1213.5664,0.1429425,0.27159813,0.27070498,0.65050125,0,0.0,0.0,0.0,0.0,0.0,0,0,0.0,0.0,0,0,13.0,0.0,458.0,4600.512820512821,3912.820512820513,4565.641025641026,4474.871794871796,4311.794871794872,4554.358974358975,4475.8974358974365,4375.384615384616,4304.615384615385,4696.923076923077,4445.641025641026,4264.102564102564,4089.23076923077,4396.410256410257
1214.0668,0.1526079,0.28254655,0.26919788,0.64986515,0,0.0,0.0,0.0,0.0,0.0,0,0,0.0,0.0,0,0,77.0,0.0,458.0,4647.179487179488,3927.1794871794878,4529.2307692307695,4486.153846153847,4278.461538461539,4538.974358974359,4464.615384615385,4408.717948717949,4387.6923076923085,4732.307692307693,4423.076923076924,4262.051282051282,4184.102564102564,4458.974358974359
1214.0668,0.1526079,0.28254655,0.26919788,0.64986515,0,0.0,0.0,0.0,0.0,0.0,0,0,0.0,0.0,0,0,77.0,0.0,458.0,4647.179487179488,3927.1794871794878,4529.2307692307695,4486.153846153847,4278.461538461539,4538.974358974359,4464.615384615385,4408.717948717949,4387.6923076923085,4732.307692307693,4423.076923076924,4262.051282051282,4184.102564102564,4458.974358974359
1214.5673,0.14769775,0.31073463,0.26909035,0.6492901,0,0.0,0.0,0.0,0.0,0.0,0,0,0.0,0.0,0,0,12.0,0.0,511.0,4664.615384615386,3932.820512820513,4490.769230769231,4520.000000000001,4248.205128205129,4535.384615384616,4480.512820512821,4431.282051282052,4444.615384615385,4769.2307692307695,4397.435897435898,4264.102564102564,4262.564102564103,4460.000000000001
1214.5673,0.14769775,0.31073463,0.26909035,0.6492901,0,0.0,0.0,0.0,0.0,0.0,0,0,0.0,0.0,0,0,12.0,0.0,511.0,4664.615384615386,3932.820512820513,4490.769230769231,4520.000000000001,4248.205128205129,4535.384615384616,4480.512820512821,4431.282051282052,4444.615384615385,4769.2307692307695,4397.435897435898,4264.102564102564,4262.564102564103,4460.000000000001
1215.0676,0.16693734,0.335279,0.27420378,0.64703244,0,0.0,0.0,0.0,0.0,0.0,0,0,0.0,0.0,0,0,76.0,0.0,511.0,4702.051282051282,3913.333333333334,4487.6923076923085,4487.6923076923085,4235.384615384616,4534.871794871796,4479.48717948718,4428.717948717949,4447.6923076923085,4762.564102564103,4364.615384615385,4252.307692307693,4245.641025641026,4460.512820512821
1215.0676,0.16693734,0.335279,0.27420378,0.64703244,0,0.0,0.0,0.0,0.0,0.0,0,0,0.0,0.0,0,0,76.0,0.0,511.0,4702.051282051282,3913.333333333334,4487.6923076923085,4487.6923076923085,4235.384615384616,4534.871794871796,4479.48717948718,4428.717948717949,4447.6923076923085,4762.564102564103,4364.615384615385,4252.307692307693,4245.641025641026,4460.512820512821
1215.5681,0.18336786,0.3556707,0.27880716,0.63638556,0,0.0,0.0,0.0,0.0,0.0,0,0,0.0,0.0,0,0,11.0,0.0,510.0,4693.846153846154,3910.7692307692314,4507.6923076923085,4487.6923076923085,4246.666666666667,4534.358974358975,4474.871794871796,4431.282051282052,4442.564102564103,4773.333333333334,4367.179487179487,4267.179487179487,4248.205128205129,4446.153846153847
1215.9121,0.18336786,0.3556707,0.27880716,0.63638556,1,0.0,0.0,0.0,0.0,0.0,0,0,0.0,0.0,0,0,55.0,0.0,0.0,4655.8974358974365,3929.2307692307695,4488.717948717949,4489.2307692307695,4247.179487179487,4529.743589743591,4477.435897435898,4443.076923076924,4442.051282051282,4764.615384615386,4359.48717948718,4261.025641025642,4216.923076923077,4603.076923076924
1216.0685,0.15037583,0.35827467,0.28295135,0.6136853,0,0.0,0.0,0.0,0.0,1.0,0,0,0.0,0.0,0,0,75.0,0.0,510.0,4654.358974358975,3927.1794871794878,4494.871794871796,4486.666666666667,4247.6923076923085,4532.820512820514,4469.2307692307695,4426.153846153847,4421.538461538462,4752.307692307693,4367.179487179487,4266.153846153847,4212.307692307693,4588.717948717949
1216.3187,0.15037583,0.35827467,0.28295135,0.6136853,0,0.0,0.0,0.0,0.0,0.0,0,0,0.0,0.0,0,0,107.0,0.0,510.0,4637.435897435898,3927.1794871794878,4489.2307692307695,4489.2307692307695,4247.179487179487,4532.820512820514,4473.846153846154,4441.025641025642,4427.6923076923085,4747.6923076923085,4370.256410256411,4257.435897435898,4184.102564102564,4534.358974358975
1216.569,0.13068649,0.3539347,0.28893012,0.58584857,0,0.0,0.0,0.0,0.0,0.8479676,0,0,0.0,0.0,0,0,10.0,0.0,532.0,4651.282051282052,3963.589743589744,4512.820512820514,4510.769230769231,4267.179487179487,4556.923076923077,4495.8974358974365,4443.589743589744,4411.282051282052,4736.923076923077,4376.923076923077,4253.333333333334,4173.846153846154,4514.871794871796
1216.8191,0.13068649,0.3539347,0.28893012,0.58584857,0,0.0,0.0,0.0,0.0,0.20039245,0,0,0.0,0.0,0,0,42.0,0.0,0.0,4647.179487179488,3950.7692307692314,4511.282051282052,4491.794871794872,4263.076923076924,4554.358974358975,4480.000000000001,4442.051282051282,4409.2307692307695,4738.974358974359,4393.846153846154,4267.179487179487,4191.794871794872,4540.512820512821
1217.0693,0.14187196,0.3304105,0.29431197,0.5592904,0,0.0,0.0,0.0,0.0,0.0,0,0,0.0,0.0,0,0,74.0,0.0,532.0,4635.8974358974365,3925.6410256410263,4502.564102564103,4460.000000000001,4244.102564102564,4535.384615384616,4470.256410256411,4426.153846153847,4392.820512820514,4712.820512820514,4364.615384615385,4252.307692307693,4167.179487179487,4506.666666666667
1217.0693,0.14187196,0.3304105,0.29431197,0.5592904,0,0.0,0.0,0.0,0.0,0.0,0,0,0.0,0.0,0,0,74.0,0.0,532.0,4635.8974358974365,3925.6410256410263,4502.564102564103,4460.000000000001,4244.102564102564,4535.384615384616,4470.256410256411,4426.153846153847,4392.820512820514,4712.820512820514,4364.615384615385,4252.307692307693,4167.179487179487,4506.666666666667
1217.5698,0.06854065,0.30539483,0.29915646,0.535388,0,0.0,0.0,0.0,0.0,0.0,0,0,0.0,0.0,0,0,9.0,0.0,471.0,4646.666666666667,3898.461538461539,4492.307692307693,4440.512820512821,4249.2307692307695,4535.8974358974365,4461.025641025642,4428.717948717949,4433.333333333334,4723.589743589744,4369.743589743591,4242.051282051282,4182.564102564103,4602.564102564103
1217.5698,0.06854065,0.30539483,0.29915646,0.535388,0,0.0,0.0,0.0,0.0,0.0,0,0,0.0,0.0,0,0,9.0,0.0,471.0,4646.666666666667,3898.461538461539,4492.307692307693,4440.512820512821,4249.2307692307695,4535.8974358974365,4461.025641025642,4428.717948717949,4433.333333333334,4723.589743589744,4369.743589743591,4242.051282051282,4182.564102564103,4602.564102564103
1218.0702,0.05527502,0.28198195,0.30161577,0.5153822,0,0.0,0.0,0.0,0.0,0.0,0,0,0.0,0.0,0,0,73.0,0.0,471.0,4646.666666666667,3869.7435897435903,4492.820512820514,4412.307692307693,4232.820512820514,4520.000000000001,4458.461538461539,4436.410256410257,4452.307692307693,4729.2307692307695,4358.974358974359,4253.846153846154,4202.051282051282,4588.205128205129
1218.0702,0.05527502,0.28198195,0.30161577,0.5153822,0,0.0,0.0,0.0,0.0,0.0,0,0,0.0,0.0,0,0,73.0,0.0,471.0,4646.666666666667,3869.7435897435903,4492.820512820514,4412.307692307693,4232.820512820514,4520.000000000001,4458.461538461539,4436.410256410257,4452.307692307693,4729.2307692307695,4358.974358974359,4253.846153846154,4202.051282051282,4588.205128205129
1218.5707,0.05287211,0.27791253,0.30409613,0.5020494,0,0.0,0.0,0.0,0.0,0.8228741,0,0,0.0,0.0,0,0,8.0,0.0,460.0,4660.512820512821,3863.076923076924,4489.743589743591,4405.641025641026,4236.923076923077,4529.743589743591,4476.410256410257,4444.615384615385,4442.564102564103,4724.615384615386,4309.2307692307695,4262.564102564103,4182.564102564103,4422.564102564103
1218.8209,0.05287211,0.27791253,0.30409613,0.5020494,0,0.0,0.0,0.0,0.0,0.5012751,0,0,0.0,0.0,0,0,40.0,0.0,0.0,4647.6923076923085,3861.538461538462,4508.205128205129,4405.641025641026,4234.871794871796,4536.923076923077,4491.794871794872,4458.974358974359,4437.435897435898,4729.2307692307695,4331.282051282052,4281.538461538462,4186.666666666667,4412.307692307693
1219.071,0.037703954,0.25708425,0.3063291,0.49994898,0,0.0,0.0,0.0,0.0,0.0,0,0,0.0,0.0,0,0,72.0,0.0,460.0,4620.512820512821,3876.410256410257,4505.128205128206,4424.615384615385,4247.179487179487,4538.461538461539,4477.435897435898,4460.512820512821,4442.051282051282,4749.2307692307695,4354.871794871796,4280.512820512821,4203.076923076924,4397.948717948719
1219.071,0.037703954,0.25708425,0.3063291,0.49994898,0,0.0,0.0,0.0,0.0,0.0,0,0,0.0,0.0,0,0,72.0,0.0,460.0,4620.512820512821,3876.410256410257,4505.128205128206,4424.615384615385,4247.179487179487,4538.461538461539,4477.435897435898,4460.512820512821,4442.051282051282,4749.2307692307695,4354.871794871796,4280.512820512821,4203.076923076924,4397.948717948719
1219.5715,0.0092462255,0.24821384,0.30744967,0.50224453,0,0.0,0.0,0.0,0.0,0.0,0,0,0.0,0.0,0,0,7.0,0.0,450.0,4598.974358974359,3874.8717948717954,4502.564102564103,4413.333333333334,4245.641025641026,4523.589743589744,4466.666666666667,4430.769230769231,4417.948717948719,4738.974358974359,4353.846153846154,4264.615384615385,4188.717948717949,4401.025641025642
1219.5715,0.0092462255,0.24821384,0.30744967,0.50224453,0,0.0,0.0,0.0,0.0,0.0,0,0,0.0,0.0,0,0,7.0,0.0,450.0,4598.974358974359,3874.8717948717954,4502.564102564103,4413.333333333334,4245.641025641026,4523.589743589744,4466.666666666667,4430.769230769231,4417.948717948719,4738.974358974359,4353.846153846154,4264.615384615385,4188.717948717949,4401.025641025642
1220.0719,0.0,0.23916374,0.30618256,0.50739276,0,0.0,0.0,0.0,0.0,0.0,0,0,0.0,0.0,0,0,71.0,0.0,450.0,4593.333333333334,3883.076923076924,4480.512820512821,4418.461538461539,4247.6923076923085,4524.615384615385,4460.000000000001,4421.025641025642,4409.2307692307695,4736.410256410257,4351.282051282052,4253.333333333334,4184.615384615385,4406.153846153847
1220.0719,0.0,0.23916374,0.30618256,0.50739276,0,0.0,0.0,0.0,0.0,0.0,0,0,0.0,0.0,0,0,71.0,0.0,450.0,4593.333333333334,3883.076923076924,4480.512820512821,4418.461538461539,4247.6923076923085,4524.615384615385,4460.000000000001,4421.025641025642,4409.2307692307695,4736.410256410257,4351.282051282052,4253.333333333334,4184.615384615385,4406.153846153847
1220.5724,0.0,0.23939209,0.30245906,0.5137643,0,0.0,0.0,0.0,0.0,0.0,0,0,0.0,0.0,0,0,6.0,0.0,553.0,4593.846153846154,3867.1794871794878,4490.769230769231,4393.333333333334,4225.128205128206,4508.205128205129,4461.538461538462,4474.358974358975,4487.6923076923085,4749.743589743591,4357.948717948719,4252.820512820514,4195.384615384616,4453.846153846154
1220.5724,0.0,0.23939209,0.30245906,0.5137643,0,0.0,0.0,0.0,0.0,0.0,0,0,0.0,0.0,0,0,6.0,0.0,553.0,4593.846153846154,3867.1794871794878,4490.769230769231,4393.333333333334,4225.128205128206,4508.205128205129,4461.538461538462,4474.358974358975,4487.6923076923085,4749.743589743591,4357.948717948719,4252.820512820514,4195.384615384616,4453.846153846154
1221.0728,0.0,0.25274885,0.29910865,0.52157044,0,0.0,0.0,0.0,0.0,0.0,0,0,0.0,0.0,0,0,70.0,0.0,553.0,4617.435897435898,3914.358974358975,4495.8974358974365,4429.2307692307695,4251.282051282052,4542.564102564103,4457.948717948719,4458.974358974359,4483.589743589744,4797.435897435898,4367.6923076923085,4249.2307692307695,4172.307692307693,4458.461538461539
1221.323,0.0,0.25274885,0.29910865,0.52157044,0,0.0,0.0,0.0,0.0,0.08599256,0,0,0.0,0.0,0,0,102.0,0.0,535.0,4634.358974358975,3913.8461538461543,4521.538461538462,4443.589743589744,4249.74358974359,4553.846153846154,4476.923076923077,4435.8974358974365,4374.871794871796,4701.538461538462,4352.820512820514,4245.128205128206,4075.3846153846157,4403.076923076924
1221.5732,0.0,0.27862722,0.29609412,0.52859634,0,0.0,0.0,0.0,0.0,0.078308016,0,0,0.0,0.0,0,0,5.0,0.0,556.0,4625.641025641026,3894.8717948717954,4520.000000000001,4427.179487179487,4276.410256410257,4554.871794871796,4457.435897435898,4371.282051282052,4294.871794871796,4648.717948717949,4354.358974358975,4195.384615384616,4033.8461538461543,4386.153846153847
1221.8235,0.0,0.27862722,0.29609412,0.52859634,0,0.0,0.0,0.0,0.0,0.5823735,0,0,0.0,0.0,0,0,37.0,0.0,0.0,4616.923076923077,3910.2564102564106,4540.000000000001,4457.948717948719,4289.2307692307695,4554.358974358975,4454.871794871796,4362.051282051282,4243.589743589744,4623.589743589744,4386.666666666667,4172.820512820514,4012.820512820513,4400.000000000001
1222.0736,0.029094744,0.301085,0.29582432,0.5328481,0,0.0,0.0,0.0,0.0,0.16871649,0,0,0.0,0.0,0,0,69.0,0.0,556.0,4623.076923076924,3923.076923076924,4506.153846153847,4462.564102564103,4294.871794871796,4538.461538461539,4443.589743589744,4324.615384615385,4249.2307692307695,4645.128205128206,4401.025641025642,4096.923076923077,4097.435897435898,4432.820512820514
1222.3239,0.029094744,0.301085,0.29582432,0.5328481,0,0.0,0.0,0.0,0.0,0.13494651,0,0,0.0,0.0,0,0,101.0,0.0,459.0,4660.512820512821,3927.1794871794878,4481.538461538462,4451.794871794872,4330.769230769231,4522.051282051282,4395.8974358974365,4258.461538461539,4269.2307692307695,4610.256410256411,4330.256410256411,4056.9230769230776,4082.564102564103,4459.48717948718
1222.5741,0.12734477,0.32120666,0.29765484,0.5377458,0,0.0,0.0,0.0,0.0,0.1548835,0,0,0.0,0.0,0,0,4.0,0.0,559.0,4504.102564102564,3770.7692307692314,4267.6923076923085,4245.641025641026,4427.6923076923085,4457.948717948719,4218.461538461539,4074.358974358975,4133.333333333334,4458.461538461539,4146.153846153847,3886.666666666667,3941.0256410256416,4185.641025641026
1222.8243,0.12734477,0.32120666,0.29765484,0.5377458,0,0.0,0.0,0.0,0.0,0.5773764,0,0,0.0,0.0,0,0,36.0,0.0,0.0,4509.2307692307695,3798.9743589743593,4304.615384615385,4265.128205128206,4472.307692307693,4503.589743589744,4310.256410256411,4194.358974358975,4247.6923076923085,4525.128205128206,4203.589743589744,3990.7692307692314,4027.692307692308,4320.512820512821
1223.1371,0.32206336,0.33931613,0.3019506,0.5428205,0,0.0,0.0,0.0,0.0,0.53840274,0,0,0.0,0.0,0,0,76.0,0.0,514.0,4531.794871794872,3798.9743589743593,4310.256410256411,4271.794871794872,4520.000000000001,4491.282051282052,4305.128205128206,4233.333333333334,4324.102564102564,4539.48717948718,4197.435897435898,4246.153846153847,4108.717948717949,4399.48717948718
1223.3247,0.32206336,0.33931613,0.3019506,0.5428205,0,0.0,0.0,0.0,0.0,0.65149647,0,0,0.0,0.0,0,0,100.0,0.0,514.0,4557.435897435898,3830.2564102564106,4363.589743589744,4309.743589743591,4452.820512820514,4493.846153846154,4347.6923076923085,4280.000000000001,4393.846153846154,4599.48717948718,4246.666666666667,4277.948717948719,4168.205128205129,4524.615384615385
1223.6062,0.4191598,0.35561466,0.30667245,0.5469449,0,0.0,0.0,0.0,0.0,0.5368758,0,0,0.0,0.0,0,0,7.0,0.0,455.0,4539.48717948718,3860.0000000000005,4397.435897435898,4310.769230769231,4402.051282051282,4508.717948717949,4383.076923076924,4303.589743589744,4390.256410256411,4644.615384615385,4255.8974358974365,4280.000000000001,4212.820512820514,4498.974358974359
1223.8252,0.4191598,0.35561466,0.30667245,0.5469449,0,0.0,0.0,0.0,0.0,0.052465685,0,0,0.0,0.0,0,0,35.0,0.0,0.0,4540.512820512821,3863.589743589744,4409.743589743591,4312.307692307693,4351.282051282052,4508.205128205129,4401.025641025642,4313.333333333334,4392.820512820514,4647.6923076923085,4251.794871794872,4263.076923076924,4208.205128205129,4473.846153846154
1224.0754,0.39575785,0.37028334,0.31092727,0.5474752,0,0.0,0.0,0.0,0.0,0.0,0,0,0.0,1.0,0,0,67.0,0.0,545.0,4534.871794871796,3861.0256410256416,4433.846153846154,4308.717948717949,4318.461538461539,4511.282051282052,4418.461538461539,4350.256410256411,4411.794871794872,4679.48717948718,4296.410256410257,4300.000000000001,4207.6923076923085,4512.820512820514
