timestamp,excitement,frustration,meditation,engagementBoredom,blink,clench,laugh,smile,eyebrow,furrowBrow,lookLeft,lookRight,smirkLeft,smirkRight,winkLeft,winkRight,eeg0,eeg1,eeg2,eeg3,eeg4,eeg5,eeg6,eeg7,eeg8,eeg9,eeg10,eeg11,eeg12,eeg13,eeg14,eeg15,eeg16
481.78903,0.31986424,0.5999517,0.39919314,0.7873481,0,0.0,0.0,0.0,0.0,0.570497,0,0,0.0,0.0,0,0,83.0,0.0,498.0,4648.205128205129,3958.461538461539,4555.8974358974365,4458.974358974359,4220.512820512821,4580.512820512821,4525.641025641026,4511.282051282052,4460.512820512821,4827.6923076923085,4282.564102564103,4336.410256410257,4248.717948717949,4897.435897435898
482.03925,0.37828487,0.5912564,0.40424618,0.7959885,0,0.0,0.0,0.0,0.0,1.0,0,0,0.0,0.0,0,0,115.0,0.0,498.0,4666.153846153847,3970.2564102564106,4583.589743589744,4471.282051282052,4224.102564102564,4571.794871794872,4520.512820512821,4524.615384615385,4474.871794871796,4831.282051282052,4314.358974358975,4356.923076923077,4252.820512820514,4766.666666666667
482.03925,0.37828487,0.5912564,0.40424618,0.7959885,0,0.0,0.0,0.0,0.0,1.0,0,0,0.0,0.0,0,0,115.0,0.0,498.0,4666.153846153847,3970.2564102564106,4583.589743589744,4471.282051282052,4224.102564102564,4571.794871794872,4520.512820512821,4524.615384615385,4474.871794871796,4831.282051282052,4314.358974358975,4356.923076923077,4252.820512820514,4766.666666666667
482.41458,0.39778486,0.5720193,0.40596136,0.8120403,0,0.0,0.0,0.0,0.0,1.0,0,0,0.0,0.0,0,0,34.0,0.0,0.0,4653.846153846154,3925.6410256410263,4561.025641025642,4440.512820512821,4232.307692307693,4560.512820512821,4507.179487179488,4508.205128205129,4461.025641025642,4808.717948717949,4309.743589743591,4337.948717948719,4213.333333333334,4614.358974358975
482.7899,0.39778486,0.5720193,0.40596136,0.8120403,0,0.0,0.0,0.0,0.0,0.3130943,0,0,0.0,0.0,0,0,82.0,0.0,537.0,4652.820512820514,3926.666666666667,4551.794871794872,4435.8974358974365,4229.2307692307695,4540.512820512821,4492.820512820514,4490.769230769231,4431.794871794872,4769.743589743591,4290.256410256411,4308.205128205129,4184.615384615385,4562.564102564103
483.0401,0.39560792,0.54627395,0.39904743,0.83215296,0,0.0,0.0,0.0,0.0,0.3744979,0,0,0.0,0.0,0,0,114.0,0.0,537.0,4638.461538461539,3927.692307692308,4538.461538461539,4433.846153846154,4241.538461538462,4538.974358974359,4476.410256410257,4494.358974358975,4442.051282051282,4793.333333333334,4309.743589743591,4307.179487179487,4203.076923076924,4535.384615384616
483.29034,0.39560792,0.54627395,0.39904743,0.83215296,0,0.0,0.0,0.0,0.0,0.36080635,0,0,0.0,0.0,0,0,17.0,0.0,0.0,4633.846153846154,3920.5128205128212,4531.794871794872,4430.256410256411,4245.128205128206,4526.153846153847,4462.564102564103,4478.461538461539,4448.717948717949,4800.000000000001,4335.384615384616,4310.256410256411,4209.2307692307695,4507.179487179488
483.41544,0.33774185,0.5172306,0.38926452,0.8546048,0,0.0,0.0,0.0,0.0,0.0,0,0,0.0,0.0,0,0,33.0,0.0,0.0,4645.641025641026,3924.1025641025644,4540.000000000001,4440.512820512821,4242.051282051282,4523.589743589744,4462.051282051282,4473.333333333334,4442.564102564103,4787.6923076923085,4322.564102564103,4310.256410256411,4196.923076923077,4490.769230769231
483.41544,0.33774185,0.5172306,0.38926452,0.8546048,0,0.0,0.0,0.0,0.0,0.0,0,0,0.0,0.0,0,0,33.0,0.0,0.0,4645.641025641026,3924.1025641025644,4540.000000000001,4440.512820512821,4242.051282051282,4523.589743589744,4462.051282051282,4473.333333333334,4442.564102564103,4787.6923076923085,4322.564102564103,4310.256410256411,4196.923076923077,4490.769230769231
483.91586,0.27700603,0.49972805,0.3794683,0.8791851,0,0.0,0.0,0.0,0.0,0.0,0,0,0.0,0.0,0,0,97.0,0.0,434.0,4678.461538461539,3941.538461538462,4540.000000000001,4446.666666666667,4246.666666666667,4522.564102564103,4472.820512820514,4470.769230769231,4444.615384615385,4778.974358974359,4346.153846153847,4312.307692307693,4202.564102564103,4477.435897435898
483.91586,0.27700603,0.49972805,0.3794683,0.8791851,0,0.0,0.0,0.0,0.0,0.0,0,0,0.0,0.0,0,0,97.0,0.0,434.0,4678.461538461539,3941.538461538462,4540.000000000001,4446.666666666667,4246.666666666667,4522.564102564103,4472.820512820514,4470.769230769231,4444.615384615385,4778.974358974359,4346.153846153847,4312.307692307693,4202.564102564103,4477.435897435898
484.4163,0.25750014,0.49159867,0.36998853,0.9010515,0,0.0,0.0,0.0,0.0,0.0,0,0,0.0,0.0,0,0,32.0,0.0,0.0,4650.256410256411,3926.1538461538466,4522.564102564103,4428.205128205129,4250.769230769231,4524.615384615385,4463.589743589744,4456.923076923077,4445.128205128206,4773.333333333334,4345.641025641026,4289.2307692307695,4186.153846153847,4506.153846153847
484.79163,0.25750014,0.49159867,0.36998853,0.9010515,0,0.0,0.0,0.0,0.0,0.060268354,0,0,0.0,0.0,0,0,80.0,0.0,497.0,4642.564102564103,3922.0512820512827,4538.974358974359,4429.2307692307695,4251.794871794872,4518.974358974359,4431.282051282052,4461.025641025642,4444.102564102564,4773.333333333334,4355.8974358974365,4297.435897435898,4192.307692307693,4524.615384615385
485.04184,0.20728387,0.49528447,0.3621163,0.92046034,0,0.0,0.0,0.0,0.0,0.0971235,0,0,0.0,0.0,0,0,112.0,0.0,497.0,4601.538461538462,3892.307692307693,4505.128205128206,4404.102564102564,4260.000000000001,4494.358974358975,4403.589743589744,4414.358974358975,4419.48717948718,4735.384615384616,4345.641025641026,4273.333333333334,4145.641025641026,4434.358974358975
485.29205,0.20728387,0.49528447,0.3621163,0.92046034,0,0.0,0.0,0.0,0.0,0.36792356,0,0,0.0,0.0,0,0,15.0,0.0,509.0,4544.615384615385,3833.333333333334,4521.538461538462,4361.025641025642,4266.153846153847,4437.435897435898,4374.358974358975,4363.589743589744,4344.102564102564,4673.333333333334,4460.512820512821,4320.512820512821,4103.076923076924,4366.666666666667
485.41714,0.28400227,0.49871334,0.35602054,0.93764615,0,0.0,0.0,0.0,0.0,0.0,0,0,0.0,0.0,0,0,31.0,0.0,0.0,4508.717948717949,3784.1025641025644,4537.948717948719,4335.384615384616,4281.025641025642,4407.6923076923085,4371.282051282052,4342.051282051282,4306.666666666667,4630.769230769231,4552.820512820514,4331.282051282052,4090.7692307692314,4380.000000000001
485.7612,0.28400227,0.49871334,0.35602054,0.93764615,1,0.0,0.0,0.0,0.0,0.0,0,0,0.0,0.0,0,0,75.0,0.0,509.0,4491.794871794872,3758.9743589743593,4413.333333333334,4334.871794871796,4296.923076923077,4383.076923076924,4322.051282051282,4171.282051282052,4205.128205128206,4546.153846153847,4629.2307692307695,4188.205128205129,4008.717948717949,4375.8974358974365
486.0427,0.3749783,0.50180113,0.35255104,0.93760115,0,0.0,0.0,0.0,0.0,0.23286463,0,0,0.0,0.0,0,0,111.0,0.0,509.0,4520.000000000001,3780.0000000000005,4351.282051282052,4355.8974358974365,4269.74358974359,4408.205128205129,4261.538461538462,4152.307692307693,4232.820512820514,4601.025641025642,4644.615384615385,4152.307692307693,4075.8974358974365,4567.6923076923085
486.2929,0.3749783,0.50180113,0.35255104,0.93760115,1,0.0,0.0,0.0,0.0,0.58104414,0,0,0.0,0.0,0,0,14.0,0.0,537.0,4476.923076923077,3791.7948717948725,4296.410256410257,4351.282051282052,4258.974358974359,4458.461538461539,4310.769230769231,4166.666666666667,4263.076923076924,4630.256410256411,4535.8974358974365,4103.076923076924,4074.8717948717954,4461.025641025642
486.54312,0.48681495,0.50458014,0.35436755,0.9142963,0,0.0,0.0,0.0,0.0,0.07477249,0,0,0.0,0.0,0,0,46.0,0.0,0.0,4478.974358974359,3815.3846153846157,4306.153846153847,4361.025641025642,4234.871794871796,4492.307692307693,4376.410256410257,4190.769230769231,4357.948717948719,4684.615384615386,4464.102564102564,4125.128205128206,4110.769230769231,4481.025641025642
486.66824,0.48681495,0.50458014,0.35436755,0.9142963,0,0.0,0.0,0.0,0.0,0.0,0,0,0.0,0.0,0,0,62.0,0.0,0.0,4480.000000000001,3833.333333333334,4346.153846153847,4367.179487179487,4233.846153846154,4513.846153846154,4405.641025641026,3865.1282051282055,4454.871794871796,4671.794871794872,4414.358974358975,4139.48717948718,4112.820512820514,4475.8974358974365
487.04355,0.49435773,0.5070813,0.35601327,0.88349676,0,0.0,0.0,0.0,0.0,0.014390935,0,0,0.0,0.0,0,0,110.0,0.0,537.0,4515.8974358974365,3894.358974358975,4414.358974358975,4383.076923076924,4219.48717948718,4554.871794871796,4477.435897435898,3992.820512820513,4505.128205128206,4702.051282051282,4309.743589743591,4201.538461538462,4157.948717948719,4487.6923076923085
487.29376,0.49435773,0.5070813,0.35601327,0.88349676,0,0.0,0.0,0.0,0.0,0.008089453,0,0,0.0,0.0,0,0,13.0,0.0,434.0,4535.8974358974365,3941.538461538462,4479.48717948718,4410.256410256411,4215.8974358974365,4568.717948717949,4520.512820512821,4120.512820512821,4507.179487179488,4702.564102564103,4230.769230769231,4235.384615384616,4175.8974358974365,4467.6923076923085
487.54398,0.49936208,0.50933224,0.35748163,0.8523388,0,0.0,0.0,0.0,0.0,0.01632697,0,0,0.0,0.0,0,0,45.0,0.0,0.0,4579.48717948718,3951.2820512820517,4552.307692307693,4412.307692307693,4212.307692307693,4584.615384615385,4540.000000000001,4206.666666666667,4522.564102564103,4738.461538461539,4181.538461538462,4265.641025641026,4200.512820512821,4449.743589743591
487.7942,0.49936208,0.50933224,0.35748163,0.8523388,0,0.0,0.0,0.0,0.0,0.074987195,0,0,0.0,0.0,0,0,77.0,0.0,434.0,4602.051282051282,3945.1282051282055,4554.871794871796,4403.076923076924,4215.384615384616,4571.794871794872,4524.102564102564,4250.256410256411,4507.179487179488,4764.102564102564,4156.923076923077,4275.8974358974365,4209.2307692307695,4476.410256410257
488.0444,0.40908346,0.51135814,0.35795686,0.8218556,0,0.0,0.0,0.0,0.0,0.067063525,0,0,0.0,0.0,0,0,109.0,0.0,434.0,4624.102564102564,3931.2820512820517,4582.051282051282,4397.435897435898,4217.948717948719,4569.743589743591,4528.205128205129,4307.179487179487,4489.2307692307695,4755.8974358974365,4149.2307692307695,4295.8974358974365,4200.000000000001,4502.051282051282
488.29462,0.40908346,0.51135814,0.35795686,0.8218556,0,0.0,0.0,0.0,0.0,0.03245472,0,0,0.0,0.0,0,0,12.0,0.0,495.0,4634.871794871796,3942.564102564103,4569.743589743591,4412.820512820514,4231.282051282052,4553.333333333334,4509.2307692307695,4332.820512820514,4464.615384615385,4683.076923076924,4121.538461538462,4271.282051282052,4143.076923076924,4473.846153846154
488.54483,0.34114513,0.5262844,0.3554815,0.7945302,0,0.0,0.0,0.0,0.0,0.8339022,0,0,0.0,0.0,0,0,44.0,0.0,0.0,4615.8974358974365,3942.564102564103,4576.923076923077,4405.128205128206,4235.8974358974365,4554.871794871796,4509.743589743591,4357.948717948719,4469.2307692307695,4721.025641025642,4161.538461538462,4278.974358974359,4166.666666666667,4615.8974358974365
488.79507,0.34114513,0.5262844,0.3554815,0.7945302,0,0.0,0.0,0.0,0.0,0.6849763,0,0,0.0,0.0,0,0,76.0,0.0,499.0,4601.538461538462,3925.1282051282055,4568.717948717949,4390.256410256411,4243.589743589744,4540.000000000001,4492.820512820514,4355.8974358974365,4450.769230769231,4722.564102564103,4173.333333333334,4281.025641025642,4140.512820512821,4583.589743589744
489.0453,0.27227572,0.5369519,0.35325256,0.76999825,0,0.0,0.0,0.0,0.0,0.022799725,0,0,0.0,0.0,0,0,108.0,0.0,499.0,4620.512820512821,3928.717948717949,4565.641025641026,4384.615384615385,4251.794871794872,4518.461538461539,4480.000000000001,4401.025641025642,4427.179487179487,4729.2307692307695,4200.000000000001,4284.615384615385,4156.923076923077,4570.256410256411
489.2955,0.27227572,0.5369519,0.35325256,0.76999825,0,0.0,0.0,0.0,0.0,0.516675,0,0,0.0,0.0,0,1,11.0,0.0,509.0,4644.615384615385,3926.1538461538466,4584.102564102564,4381.538461538462,4249.2307692307695,4524.615384615385,4491.282051282052,4409.743589743591,4424.615384615385,4762.564102564103,4232.307692307693,4307.179487179487,4184.102564102564,4596.923076923077
489.54572,0.21700643,0.56255484,0.35124293,0.74796194,0,0.0,0.0,0.0,0.0,0.45973006,0,0,0.0,0.0,0,1,43.0,0.0,0.0,4614.358974358975,3911.7948717948725,4554.358974358975,4382.051282051282,4247.6923076923085,4513.333333333334,4463.589743589744,4424.615384615385,4413.333333333334,4762.051282051282,4232.820512820514,4291.282051282052,4164.102564102564,4567.179487179488
489.79593,0.21700643,0.56255484,0.35124293,0.74796194,0,0.0,0.0,0.0,0.0,0.14080526,0,0,0.0,0.0,0,0,75.0,0.0,509.0,4611.282051282052,3910.2564102564106,4537.948717948719,4382.051282051282,4245.641025641026,4523.076923076924,4475.384615384616,4458.974358974359,4428.205128205129,4768.205128205129,4247.6923076923085,4280.512820512821,4164.615384615385,4506.153846153847
490.04614,0.21303855,0.56032246,0.34943333,0.7462857,0,0.0,0.0,0.0,0.0,0.22287914,0,0,0.0,0.0,0,0,107.0,0.0,509.0,4638.461538461539,3935.8974358974365,4555.8974358974365,4420.512820512821,4248.205128205129,4526.666666666667,4491.794871794872,4459.48717948718,4427.6923076923085,4787.179487179488,4268.717948717949,4299.48717948718,4185.641025641026,4541.025641025642
490.29636,0.21303855,0.56032246,0.34943333,0.7462857,0,0.0,0.0,0.0,0.0,0.3450525,0,0,0.0,0.0,0,0,10.0,0.0,536.0,4633.333333333334,3942.564102564103,4541.025641025642,4429.743589743591,4252.820512820514,4521.538461538462,4486.153846153847,4458.461538461539,4428.205128205129,4795.8974358974365,4281.025641025642,4296.410256410257,4177.948717948719,4489.2307692307695
490.54657,0.16836676,0.557574,0.3477186,0.77741766,0,0.0,0.0,0.0,0.0,0.21343748,0,0,0.0,0.0,0,0,42.0,0.0,0.0,4630.256410256411,3908.205128205129,4549.743589743591,4412.820512820514,4247.179487179487,4510.769230769231,4474.358974358975,4447.179487179487,4428.205128205129,4752.820512820514,4328.717948717949,4321.538461538462,4168.717948717949,4568.205128205129
490.79678,0.16836676,0.557574,0.3477186,0.77741766,0,0.0,0.0,0.0,0.0,0.33121035,0,0,0.0,0.0,0,0,74.0,0.0,536.0,4592.820512820514,3894.8717948717954,4550.769230769231,4412.820512820514,4249.2307692307695,4491.794871794872,4461.025641025642,4453.333333333334,4384.615384615385,4694.358974358975,4360.512820512821,4327.179487179487,4128.717948717949,4538.974358974359
491.047,0.12005933,0.55442774,0.34409773,0.81700057,0,0.0,0.0,0.0,0.0,0.57236457,0,0,0.0,0.0,0,0,106.0,0.0,536.0,4567.6923076923085,3907.1794871794878,4553.846153846154,4416.410256410257,4262.564102564103,4475.8974358974365,4458.461538461539,4459.48717948718,4371.282051282052,4709.743589743591,4442.564102564103,4338.974358974359,4156.410256410257,4570.256410256411
491.2972,0.12005933,0.55442774,0.34409773,0.81700057,0,0.0,0.0,0.0,0.0,0.22070971,0,0,0.0,0.0,0,0,9.0,0.0,473.0,4562.051282051282,3896.9230769230776,4524.102564102564,4415.384615384616,4262.051282051282,4472.307692307693,4442.051282051282,4438.974358974359,4350.769230769231,4682.564102564103,4476.923076923077,4342.564102564103,4167.6923076923085,4596.923076923077
491.54742,0.06554271,0.52797604,0.33839273,0.85238457,0,0.0,0.0,0.0,0.0,0.34173673,0,0,0.0,0.0,0,0,41.0,0.0,0.0,4589.2307692307695,3942.0512820512827,4529.2307692307695,4446.153846153847,4260.000000000001,4482.564102564103,4446.666666666667,4413.333333333334,4323.589743589744,4673.333333333334,4475.8974358974365,4341.538461538462,4186.153846153847,4642.051282051282
491.79764,0.06554271,0.52797604,0.33839273,0.85238457,0,0.0,0.0,0.0,0.0,0.144143,0,0,0.0,0.0,0,0,73.0,0.0,473.0,4649.743589743591,3987.692307692308,4567.6923076923085,4489.743589743591,4265.641025641026,4511.794871794872,4476.923076923077,4417.435897435898,4348.205128205129,4691.794871794872,4441.025641025642,4334.871794871796,4175.8974358974365,4629.743589743591
492.04785,0.08484599,0.54909676,0.33267772,0.8839484,0,0.0,0.0,0.0,0.0,0.7480535,0,0,0.0,0.0,0,0,105.0,0.0,434.0,4652.820512820514,4003.589743589744,4554.871794871796,4496.923076923077,4277.948717948719,4551.282051282052,4503.589743589744,4426.666666666667,4380.000000000001,4711.282051282052,4405.641025641026,4320.000000000001,4201.538461538462,4550.256410256411
492.29807,0.08484599,0.54909676,0.33267772,0.8839484,0,0.0,0.0,0.0,0.0,0.31902683,0,0,0.0,0.0,0,0,8.0,0.0,444.0,4694.358974358975,4006.1538461538466,4555.384615384616,4502.051282051282,4269.2307692307695,4553.333333333334,4500.512820512821,4398.461538461539,4408.717948717949,4746.666666666667,4386.666666666667,4313.333333333334,4234.358974358975,4581.538461538462
492.54828,0.054972064,0.5708266,0.327989,0.9069774,0,0.0,0.0,0.0,0.0,0.23332383,0,0,0.0,0.0,0,0,40.0,0.0,0.0,4710.256410256411,3986.666666666667,4536.923076923077,4474.358974358975,4262.564102564103,4565.128205128206,4507.179487179488,4392.307692307693,4434.871794871796,4782.051282051282,4352.307692307693,4295.8974358974365,4237.435897435898,4554.358974358975
492.7985,0.054972064,0.5708266,0.327989,0.9069774,0,0.0,0.0,0.0,0.0,0.16992362,0,0,0.0,0.0,0,0,72.0,0.0,444.0,4714.871794871796,3979.48717948718,4536.923076923077,4471.794871794872,4258.974358974359,4576.923076923077,4524.615384615385,4429.743589743591,4459.48717948718,4813.846153846154,4326.153846153847,4291.794871794872,4233.333333333334,4588.717948717949
493.0487,0.025068838,0.600431,0.32576394,0.9274155,0,0.0,0.0,0.0,0.0,0.39271265,0,0,0.0,0.0,0,0,104.0,0.0,496.0,4716.410256410257,3957.9487179487182,4524.615384615385,4449.743589743591,4266.153846153847,4573.333333333334,4509.2307692307695,4436.410256410257,4465.128205128206,4810.256410256411,4315.384615384616,4276.410256410257,4213.846153846154,4567.179487179488
493.29892,0.025068838,0.600431,0.32576394,0.9274155,0,0.0,0.0,0.0,0.0,0.23661064,0,0,0.0,0.0,0,0,7.0,0.0,445.0,4723.589743589744,3958.9743589743593,4537.435897435898,4444.615384615385,4265.641025641026,4570.769230769231,4508.205128205129,4446.153846153847,4461.025641025642,4782.051282051282,4300.000000000001,4279.48717948718,4199.48717948718,4592.307692307693
493.54913,0.05713615,0.63401705,0.32191995,0.9446244,0,0.0,0.0,0.0,0.0,1.0,0,0,0.0,0.0,0,0,39.0,0.0,0.0,4776.923076923077,3964.1025641025644,4570.256410256411,4457.435897435898,4260.512820512821,4555.8974358974365,4503.076923076924,4429.743589743591,4418.461538461539,4733.333333333334,4319.48717948718,4314.358974358975,4177.435897435898,4628.717948717949
493.79935,0.05713615,0.63401705,0.32191995,0.9446244,0,0.0,0.0,0.0,0.0,0.72786665,0,0,0.0,0.0,0,0,71.0,0.0,445.0,4807.179487179488,4023.076923076924,4596.410256410257,4514.871794871796,4250.256410256411,4540.512820512821,4489.2307692307695,4430.769230769231,4398.461538461539,4706.153846153847,4327.6923076923085,4317.948717948719,4155.8974358974365,4574.358974358975
494.0496,0.06075964,0.64317465,0.31754842,0.9527574,0,0.0,0.0,0.0,0.0,0.3082569,0,0,0.0,0.0,0,0,103.0,0.0,507.0,4789.743589743591,3997.435897435898,4595.384615384616,4493.846153846154,4263.589743589744,4570.769230769231,4502.564102564103,4461.538461538462,4427.179487179487,4713.846153846154,4358.461538461539,4322.051282051282,4174.871794871796,4606.153846153847
494.2998,0.06075964,0.64317465,0.31754842,0.9527574,0,0.0,0.0,0.0,0.0,0.16787894,0,0,0.0,0.0,0,0,6.0,0.0,555.0,4782.051282051282,3978.461538461539,4572.307692307693,4491.282051282052,4270.256410256411,4555.8974358974365,4506.666666666667,4445.128205128206,4396.410256410257,4707.6923076923085,4345.128205128206,4308.205128205129,4165.128205128206,4541.538461538462
494.55002,0.063622825,0.6500093,0.31352338,0.9435396,0,0.0,0.0,0.0,0.0,0.4540158,0,0,0.0,0.0,0,0,38.0,0.0,0.0,4764.102564102564,3979.48717948718,4562.051282051282,4490.769230769231,4265.641025641026,4552.307692307693,4478.461538461539,4438.461538461539,4423.076923076924,4753.846153846154,4394.871794871796,4322.051282051282,4218.461538461539,4531.282051282052
494.80023,0.063622825,0.6500093,0.31352338,0.9435396,0,0.0,0.0,0.0,0.0,0.1433212,0,0,0.0,0.0,0,0,70.0,0.0,555.0,4734.871794871796,3961.0256410256416,4540.512820512821,4472.307692307693,4264.102564102564,4555.8974358974365,4490.256410256411,4472.307692307693,4458.461538461539,4785.641025641026,4388.205128205129,4303.589743589744,4215.384615384616,4491.794871794872
495.05045,0.030247062,0.6524317,0.3142584,0.9218339,0,0.0,0.0,0.0,0.0,0.0,0,0,0.0,0.0,0,0,102.0,0.0,536.0,4743.589743589744,3955.3846153846157,4537.435897435898,4463.076923076924,4253.333333333334,4559.48717948718,4491.794871794872,4415.384615384616,4392.820512820514,4740.000000000001,4343.589743589744,4281.025641025642,4174.871794871796,4443.589743589744
495.05045,0.030247062,0.6524317,0.3142584,0.9218339,0,0.0,0.0,0.0,0.0,0.0,0,0,0.0,0.0,0,0,102.0,0.0,536.0,4743.589743589744,3955.3846153846157,4537.435897435898,4463.076923076924,4253.333333333334,4559.48717948718,4491.794871794872,4415.384615384616,4392.820512820514,4740.000000000001,4343.589743589744,4281.025641025642,4174.871794871796,4443.589743589744
495.42575,0.05731722,0.66204965,0.31569704,0.8853737,0,0.0,0.0,0.0,0.0,0.0,0,0,0.0,0.0,0,0,21.0,0.0,0.0,4731.282051282052,3957.435897435898,4536.410256410257,4469.2307692307695,4262.051282051282,4543.076923076924,4491.794871794872,4449.2307692307695,4455.384615384616,4800.000000000001,4371.794871794872,4297.435897435898,4225.641025641026,4494.871794871796
495.42575,0.05731722,0.66204965,0.31569704,0.8853737,0,0.0,0.0,0.0,0.0,0.0,0,0,0.0,0.0,0,0,21.0,0.0,0.0,4731.282051282052,3957.435897435898,4536.410256410257,4469.2307692307695,4262.051282051282,4543.076923076924,4491.794871794872,4449.2307692307695,4455.384615384616,4800.000000000001,4371.794871794872,4297.435897435898,4225.641025641026,4494.871794871796
495.92618,0.052064717,0.65258753,0.32447484,0.8409428,0,0.0,0.0,0.0,0.0,0.0,0,0,0.0,0.0,0,0,85.0,0.0,434.0,4652.820512820514,3896.9230769230776,4460.512820512821,4413.846153846154,4277.948717948719,4552.820512820514,4473.846153846154,4443.589743589744,4443.589743589744,4794.358974358975,4340.000000000001,4233.333333333334,4208.205128205129,4423.589743589744
495.92618,0.052064717,0.65258753,0.32447484,0.8409428,0,0.0,0.0,0.0,0.0,0.0,0,0,0.0,0.0,0,0,85.0,0.0,434.0,4652.820512820514,3896.9230769230776,4460.512820512821,4413.846153846154,4277.948717948719,4552.820512820514,4473.846153846154,4443.589743589744,4443.589743589744,4794.358974358975,4340.000000000001,4233.333333333334,4208.205128205129,4423.589743589744
496.55173,0.021602312,0.6367915,0.35191813,0.7942252,0,0.0,0.0,0.0,0.0,0.3887304,0,0,0.0,0.0,0,0,36.0,0.0,0.0,4669.743589743591,3933.333333333334,4494.871794871796,4442.564102564103,4262.051282051282,4537.948717948719,4474.358974358975,4449.2307692307695,4444.615384615385,4783.589743589744,4346.153846153847,4260.512820512821,4213.846153846154,4500.512820512821
496.80194,0.021602312,0.6367915,0.35191813,0.7942252,0,0.0,0.0,0.0,0.0,0.073229216,0,0,0.0,0.0,0,0,68.0,0.0,562.0,4661.025641025642,3927.692307692308,4489.743589743591,4432.307692307693,4263.076923076924,4542.051282051282,4476.410256410257,4445.128205128206,4430.256410256411,4754.358974358975,4334.358974358975,4257.435897435898,4186.153846153847,4469.743589743591
497.05215,0.0,0.60645473,0.38997072,0.7422056,0,0.0,0.0,0.0,0.0,0.38011336,0,0,0.0,0.0,0,0,100.0,0.0,496.0,4673.333333333334,3956.410256410257,4522.564102564103,4454.871794871796,4254.358974358975,4551.282051282052,4489.743589743591,4460.512820512821,4444.615384615385,4767.179487179488,4352.820512820514,4276.923076923077,4185.128205128206,4447.179487179487
497.30237,0.0,0.60645473,0.38997072,0.7422056,0,0.0,0.0,0.0,0.0,0.0,0,0,0.0,0.0,0,0,3.0,0.0,544.0,4676.410256410257,3957.9487179487182,4519.48717948718,4461.538461538462,4274.358974358975,4556.923076923077,4476.410256410257,4455.8974358974365,4429.743589743591,4774.358974358975,4363.589743589744,4272.307692307693,4197.948717948719,4463.076923076924
497.4275,0.0,0.5687584,0.42421198,0.6954678,0,0.0,0.0,0.0,0.0,0.0,0,0,0.0,0.0,0,0,19.0,0.0,0.0,4683.076923076924,3967.1794871794878,4525.128205128206,4474.358974358975,4267.179487179487,4556.923076923077,4473.333333333334,4461.025641025642,4442.564102564103,4788.717948717949,4388.717948717949,4294.871794871796,4211.282051282052,4530.256410256411
497.8028,0.0,0.5687584,0.42421198,0.6954678,0,0.0,0.0,0.0,0.0,0.27823454,0,0,0.0,0.0,0,0,67.0,0.0,544.0,4660.512820512821,3952.307692307693,4505.641025641026,4461.538461538462,4262.564102564103,4543.589743589744,4460.512820512821,4436.410256410257,4424.615384615385,4761.025641025642,4358.461538461539,4263.076923076924,4196.923076923077,4524.615384615385
497.92792,0.0,0.53783274,0.4550181,0.66602343,0,0.0,0.0,0.0,0.0,0.0,0,0,0.0,0.0,0,0,83.0,0.0,507.0,4655.384615384616,3943.589743589744,4503.589743589744,4459.48717948718,4250.256410256411,4552.820512820514,4473.333333333334,4443.076923076924,4451.282051282052,4798.974358974359,4382.051282051282,4280.000000000001,4218.974358974359,4530.256410256411
497.92792,0.0,0.53783274,0.4550181,0.66602343,0,0.0,0.0,0.0,0.0,0.0,0,0,0.0,0.0,0,0,83.0,0.0,507.0,4655.384615384616,3943.589743589744,4503.589743589744,4459.48717948718,4250.256410256411,4552.820512820514,4473.333333333334,4443.076923076924,4451.282051282052,4798.974358974359,4382.051282051282,4280.000000000001,4218.974358974359,4530.256410256411
498.42834,0.0,0.5122516,0.46669912,0.6625415,0,0.0,0.0,0.0,0.0,0.0,0,0,0.0,0.0,0,0,18.0,0.0,0.0,4658.461538461539,3921.0256410256416,4511.282051282052,4445.641025641026,4247.6923076923085,4548.205128205129,4487.6923076923085,4437.948717948719,4542.564102564103,4797.948717948719,4367.179487179487,4278.974358974359,4222.564102564103,4535.384615384616
498.42834,0.0,0.5122516,0.46669912,0.6625415,0,0.0,0.0,0.0,0.0,0.0,0,0,0.0,0.0,0,0,18.0,0.0,0.0,4658.461538461539,3921.0256410256416,4511.282051282052,4445.641025641026,4247.6923076923085,4548.205128205129,4487.6923076923085,4437.948717948719,4542.564102564103,4797.948717948719,4367.179487179487,4278.974358974359,4222.564102564103,4535.384615384616
498.92877,0.0,0.4915079,0.4536265,0.6759973,0,0.0,0.0,0.0,0.0,0.0,0,0,0.0,0.0,0,0,82.0,0.0,536.0,4655.8974358974365,3923.076923076924,4505.128205128206,4442.564102564103,4252.307692307693,4540.512820512821,4456.923076923077,4441.025641025642,4506.153846153847,4793.846153846154,4368.205128205129,4279.48717948718,4197.435897435898,4507.179487179488
498.92877,0.0,0.4915079,0.4536265,0.6759973,0,0.0,0.0,0.0,0.0,0.0,0,0,0.0,0.0,0,0,82.0,0.0,536.0,4655.8974358974365,3923.076923076924,4505.128205128206,4442.564102564103,4252.307692307693,4540.512820512821,4456.923076923077,4441.025641025642,4506.153846153847,4793.846153846154,4368.205128205129,4279.48717948718,4197.435897435898,4507.179487179488
499.4292,0.0,0.4687742,0.43853417,0.69196033,0,0.0,0.0,0.0,0.0,0.0,0,0,0.0,0.0,0,0,17.0,0.0,0.0,4650.769230769231,3900.0000000000005,4502.051282051282,4426.153846153847,4258.974358974359,4538.974358974359,4476.410256410257,4445.641025641026,4476.410256410257,4772.307692307693,4362.051282051282,4267.6923076923085,4191.282051282052,4503.076923076924
499.4292,0.0,0.4687742,0.43853417,0.69196033,0,0.0,0.0,0.0,0.0,0.0,0,0,0.0,0.0,0,0,17.0,0.0,0.0,4650.769230769231,3900.0000000000005,4502.051282051282,4426.153846153847,4258.974358974359,4538.974358974359,4476.410256410257,4445.641025641026,4476.410256410257,4772.307692307693,4362.051282051282,4267.6923076923085,4191.282051282052,4503.076923076924
499.92963,0.0,0.4552183,0.42318293,0.713719,0,0.0,0.0,0.0,0.0,0.0,0,0,0.0,0.0,0,0,81.0,0.0,435.0,4644.615384615385,3925.1282051282055,4507.6923076923085,4447.6923076923085,4264.102564102564,4536.923076923077,4461.538461538462,4443.076923076924,4474.358974358975,4782.564102564103,4397.948717948719,4291.794871794872,4225.128205128206,4571.282051282052
499.92963,0.0,0.4552183,0.42318293,0.713719,0,0.0,0.0,0.0,0.0,0.0,0,0,0.0,0.0,0,0,81.0,0.0,435.0,4644.615384615385,3925.1282051282055,4507.6923076923085,4447.6923076923085,4264.102564102564,4536.923076923077,4461.538461538462,4443.076923076924,4474.358974358975,4782.564102564103,4397.948717948719,4291.794871794872,4225.128205128206,4571.282051282052
500.43005,0.013318996,0.44003525,0.40802523,0.74446684,0,0.0,0.0,0.0,0.0,0.0,0,0,0.0,0.0,0,0,16.0,0.0,0.0,4655.8974358974365,3939.48717948718,4532.820512820514,4460.000000000001,4261.025641025642,4540.000000000001,4478.461538461539,4475.384615384616,4443.589743589744,4758.974358974359,4404.615384615385,4296.923076923077,4214.358974358975,4618.461538461539
500.43005,0.013318996,0.44003525,0.40802523,0.74446684,0,0.0,0.0,0.0,0.0,0.0,0,0,0.0,0.0,0,0,16.0,0.0,0.0,4655.8974358974365,3939.48717948718,4532.820512820514,4460.000000000001,4261.025641025642,4540.000000000001,4478.461538461539,4475.384615384616,4443.589743589744,4758.974358974359,4404.615384615385,4296.923076923077,4214.358974358975,4618.461538461539
500.93048,0.021898158,0.42738014,0.39566478,0.7687048,0,0.0,0.0,0.0,0.0,0.0,0,0,0.0,0.0,0,0,80.0,0.0,496.0,4635.384615384616,3911.2820512820517,4517.435897435898,4433.846153846154,4254.358974358975,4528.205128205129,4473.846153846154,4477.435897435898,4432.820512820514,4760.000000000001,4403.589743589744,4302.564102564103,4213.846153846154,4585.641025641026
501.30582,0.021898158,0.42738014,0.39566478,0.7687048,0,0.0,0.0,0.0,0.0,0.20837371,0,0,0.0,0.0,0,0,128.0,0.0,496.0,4658.974358974359,3919.48717948718,4521.025641025642,4434.358974358975,4246.666666666667,4523.076923076924,4474.358974358975,4464.615384615385,4433.333333333334,4768.717948717949,4406.666666666667,4303.589743589744,4220.512820512821,4571.794871794872
501.55603,0.0,0.42065915,0.3845378,0.791938,0,0.0,0.0,0.0,0.0,0.5292783,0,0,0.0,0.0,0,0,31.0,0.0,0.0,4698.461538461539,3969.7435897435903,4524.615384615385,4475.384615384616,4250.769230769231,4524.615384615385,4453.333333333334,4416.923076923077,4396.410256410257,4731.282051282052,4352.307692307693,4271.794871794872,4152.820512820514,4484.615384615385
501.80624,0.0,0.42065915,0.3845378,0.791938,0,0.0,0.0,0.0,0.0,0.2118027,0,0,0.0,0.0,0,0,63.0,0.0,0.0,4703.076923076924,3958.9743589743593,4530.769230769231,4464.102564102564,4251.794871794872,4527.179487179488,4448.717948717949,4401.538461538462,4398.461538461539,4748.205128205129,4348.205128205129,4263.076923076924,4154.871794871796,4525.641025641026
502.05646,0.0,0.42946616,0.3775644,0.81659853,0,0.0,0.0,0.0,0.0,0.7913938,0,0,0.0,0.0,0,0,95.0,0.0,507.0,4677.948717948719,3938.9743589743593,4522.051282051282,4445.641025641026,4247.179487179487,4522.564102564103,4458.461538461539,4411.282051282052,4419.48717948718,4764.102564102564,4364.102564102564,4281.538461538462,4181.025641025642,4556.410256410257
502.30667,0.0,0.42946616,0.3775644,0.81659853,0,0.0,0.0,0.0,0.0,0.44150254,0,0,0.0,0.0,0,0,127.0,0.0,507.0,4670.769230769231,3925.6410256410263,4504.102564102564,4440.000000000001,4249.2307692307695,4524.615384615385,4441.538461538462,4396.410256410257,4400.000000000001,4749.743589743591,4355.384615384616,4267.6923076923085,4177.435897435898,4535.8974358974365
502.5569,0.01062851,0.43095648,0.37416142,0.84195703,0,0.0,0.0,0.0,0.0,0.099472895,0,0,0.0,0.0,0,0,30.0,0.0,0.0,4677.948717948719,3924.615384615385,4502.564102564103,4429.743589743591,4250.256410256411,4523.589743589744,4440.512820512821,4409.2307692307695,4409.2307692307695,4748.205128205129,4354.358974358975,4269.74358974359,4178.461538461539,4523.589743589744
502.8071,0.01062851,0.43095648,0.37416142,0.84195703,0,0.0,0.0,0.0,0.0,0.12532233,0,0,0.0,0.0,0,0,62.0,0.0,0.0,4668.205128205129,3900.5128205128212,4494.358974358975,4410.769230769231,4247.179487179487,4527.179487179488,4443.589743589744,4420.512820512821,4407.6923076923085,4750.256410256411,4357.435897435898,4263.076923076924,4158.461538461539,4522.051282051282
503.0573,0.0,0.4358617,0.3710967,0.86126655,0,0.0,0.0,0.0,0.0,0.21753973,0,0,0.0,0.0,0,0,94.0,0.0,536.0,4661.538461538462,3893.8461538461543,4513.333333333334,4408.205128205129,4247.179487179487,4540.000000000001,4472.820512820514,4445.641025641026,4429.743589743591,4784.102564102564,4403.076923076924,4303.589743589744,4210.256410256411,4571.794871794872
503.30753,0.0,0.4358617,0.3710967,0.86126655,0,0.0,0.0,0.0,0.0,0.1219842,0,0,0.0,0.0,0,0,126.0,0.0,536.0,4663.076923076924,3894.8717948717954,4505.128205128206,4412.307692307693,4246.666666666667,4536.923076923077,4448.205128205129,4430.256410256411,4440.512820512821,4795.8974358974365,4413.846153846154,4293.333333333334,4209.74358974359,4581.025641025642
503.55774,0.0,0.43234012,0.36833662,0.8746056,0,0.0,0.0,0.0,0.0,0.40856838,0,0,0.0,0.0,0,0,29.0,0.0,0.0,4687.6923076923085,3909.7435897435903,4506.666666666667,4415.384615384616,4238.974358974359,4522.564102564103,4444.102564102564,4404.102564102564,4411.794871794872,4760.000000000001,4364.615384615385,4267.6923076923085,4152.307692307693,4492.307692307693
503.80795,0.0,0.43234012,0.36833662,0.8746056,0,0.0,0.0,0.0,0.0,0.7377129,0,0,0.0,0.0,0,0,61.0,0.0,0.0,4698.461538461539,3924.1025641025644,4522.051282051282,4437.948717948719,4247.6923076923085,4538.461538461539,4469.2307692307695,4429.2307692307695,4421.025641025642,4770.256410256411,4397.435897435898,4278.461538461539,4177.948717948719,4488.205128205129
504.05817,0.0,0.43110737,0.36737457,0.87743866,0,0.0,0.0,0.0,0.0,0.1161511,0,0,0.0,0.0,0,0,93.0,0.0,435.0,4646.153846153847,3888.205128205129,4473.333333333334,4397.948717948719,4246.666666666667,4537.435897435898,4446.153846153847,4430.769230769231,4415.384615384616,4766.153846153847,4338.974358974359,4247.6923076923085,4156.923076923077,4455.384615384616
504.1833,0.0,0.43110737,0.36737457,0.87743866,0,0.0,0.0,0.0,0.0,0.0,0,0,0.0,0.0,0,0,109.0,0.0,435.0,4634.358974358975,3888.717948717949,4472.307692307693,4407.6923076923085,4245.128205128206,4526.666666666667,4444.102564102564,4414.871794871796,4408.205128205129,4767.179487179488,4353.333333333334,4247.6923076923085,4172.307692307693,4451.282051282052
504.5586,0.011415134,0.43543395,0.366507,0.8592431,0,0.0,0.0,0.0,0.0,0.9606466,0,0,0.0,0.0,0,0,28.0,0.0,0.0,4621.538461538462,3933.8461538461543,4454.871794871796,4445.641025641026,4248.205128205129,4525.641025641026,4439.48717948718,4413.846153846154,4387.179487179487,4741.025641025642,4336.410256410257,4230.769230769231,4143.589743589744,4396.923076923077
504.8088,0.011415134,0.43543395,0.366507,0.8592431,0,0.0,0.0,0.0,0.0,0.42568773,0,0,0.0,0.0,0,0,60.0,0.0,0.0,4619.48717948718,3945.6410256410263,4475.384615384616,4458.974358974359,4246.666666666667,4538.974358974359,4458.974358974359,4443.589743589744,4421.025641025642,4745.128205128206,4338.974358974359,4246.153846153847,4151.794871794872,4425.641025641026
505.05905,0.052631695,0.4269016,0.36621797,0.8309887,0,0.0,0.0,0.0,0.0,0.35102707,0,0,0.0,0.0,0,0,92.0,0.0,496.0,4604.102564102564,3942.564102564103,4490.769230769231,4457.435897435898,4246.666666666667,4535.8974358974365,4454.358974358975,4447.6923076923085,4424.615384615385,4733.846153846154,4348.205128205129,4250.256410256411,4152.820512820514,4452.307692307693
505.30927,0.052631695,0.4269016,0.36621797,0.8309887,0,0.0,0.0,0.0,0.0,1.0,0,0,0.0,0.0,0,0,124.0,0.0,496.0,4603.076923076924,3917.9487179487182,4494.358974358975,4442.564102564103,4247.179487179487,4541.025641025642,4474.871794871796,4460.512820512821,4447.179487179487,4763.589743589744,4379.48717948718,4277.948717948719,4203.076923076924,4568.717948717949
505.43436,0.03607432,0.4081887,0.3666426,0.8027633,0,0.0,0.0,0.0,0.0,1.0,0,0,0.0,0.0,0,0,11.0,0.0,507.0,4607.179487179488,3909.7435897435903,4504.615384615385,4428.205128205129,4231.794871794872,4533.846153846154,4471.282051282052,4443.589743589744,4427.6923076923085,4741.538461538462,4364.102564102564,4278.974358974359,4181.538461538462,4552.307692307693
505.8097,0.03607432,0.4081887,0.3666426,0.8027633,0,0.0,0.0,0.0,0.0,0.4048121,0,0,0.0,0.0,0,0,59.0,0.0,0.0,4589.2307692307695,3908.717948717949,4508.717948717949,4428.717948717949,4240.000000000001,4537.948717948719,4472.820512820514,4443.076923076924,4423.589743589744,4762.051282051282,4370.769230769231,4278.461538461539,4200.000000000001,4535.384615384616
505.93478,0.022213731,0.38554785,0.36702305,0.7752111,0,0.0,0.0,0.0,0.0,0.0,0,0,0.0,0.0,0,0,75.0,0.0,507.0,4585.641025641026,3906.666666666667,4490.769230769231,4428.205128205129,4242.564102564103,4523.076923076924,4451.282051282052,4425.128205128206,4420.512820512821,4751.282051282052,4355.384615384616,4264.102564102564,4181.025641025642,4520.512820512821
506.24756,0.022213731,0.38554785,0.36702305,0.7752111,1,0.0,0.0,0.0,0.0,1.0,0,0,0.0,0.0,0,0,115.0,0.0,507.0,4662.051282051282,3929.7435897435903,4562.564102564103,4444.615384615385,4225.128205128206,4536.923076923077,4477.435897435898,4446.666666666667,4446.666666666667,4785.128205128206,4397.948717948719,4340.000000000001,4214.358974358975,4720.512820512821
506.56033,0.03644659,0.38766912,0.36736375,0.751322,0,0.0,0.0,0.0,0.0,0.62364435,0,0,0.0,0.0,0,0,26.0,0.0,0.0,4618.461538461539,3912.307692307693,4535.384615384616,4429.2307692307695,4233.846153846154,4537.435897435898,4491.282051282052,4448.205128205129,4443.076923076924,4793.333333333334,4372.307692307693,4298.461538461539,4183.589743589744,4584.615384615385
506.81055,0.03644659,0.38766912,0.36736375,0.751322,0,0.0,0.0,0.0,0.0,0.7090457,0,0,0.0,0.0,0,0,58.0,0.0,0.0,4597.435897435898,3893.333333333334,4532.307692307693,4414.358974358975,4246.666666666667,4535.8974358974365,4476.410256410257,4441.025641025642,4429.743589743591,4765.641025641026,4346.666666666667,4272.307692307693,4169.2307692307695,4517.948717948719
507.06076,0.03372846,0.3948452,0.36396915,0.7340914,0,0.0,0.0,0.0,0.0,0.7459208,0,0,0.0,0.0,0,0,90.0,0.0,537.0,4588.205128205129,3895.8974358974365,4501.538461538462,4418.974358974359,4246.666666666667,4523.589743589744,4458.974358974359,4428.205128205129,4426.666666666667,4764.615384615386,4364.615384615385,4265.641025641026,4170.256410256411,4473.333333333334
507.31097,0.03372846,0.3948452,0.36396915,0.7340914,0,0.0,0.0,0.0,0.0,0.39421135,0,0,0.0,0.0,0,0,122.0,0.0,537.0,4585.641025641026,3903.076923076924,4525.641025641026,4416.410256410257,4253.846153846154,4520.000000000001,4459.48717948718,4430.256410256411,4393.846153846154,4733.846153846154,4392.307692307693,4281.538461538462,4144.102564102564,4454.871794871796
507.5612,0.0,0.40722224,0.35971165,0.74074167,0,0.0,0.0,0.0,0.0,0.11008194,0,0,0.0,0.0,0,0,25.0,0.0,0.0,4579.48717948718,3909.2307692307695,4557.948717948719,4426.666666666667,4264.102564102564,4508.717948717949,4464.102564102564,4474.871794871796,4382.051282051282,4720.512820512821,4451.282051282052,4303.589743589744,4146.666666666667,4455.384615384616
507.8114,0.0,0.40722224,0.35971165,0.74074167,0,0.0,0.0,0.0,0.0,0.0,0,0,0.0,0.0,0,0,57.0,0.0,0.0,4567.6923076923085,3896.410256410257,4551.282051282052,4426.153846153847,4266.666666666667,4479.48717948718,4426.666666666667,4428.205128205129,4337.948717948719,4677.948717948719,4443.076923076924,4279.48717948718,4105.128205128206,4457.435897435898
508.0616,0.0,0.41273305,0.35373932,0.77007395,0,0.0,0.0,0.0,0.0,0.20342872,0,0,0.0,0.0,0,0,89.0,0.0,435.0,4588.205128205129,3927.1794871794878,4571.282051282052,4454.358974358975,4277.948717948719,4493.333333333334,4443.589743589744,4415.8974358974365,4338.974358974359,4687.6923076923085,4473.333333333334,4293.846153846154,4142.564102564103,4541.025641025642
508.31183,0.0,0.41273305,0.35373932,0.77007395,0,0.0,0.0,0.0,0.0,0.44895586,0,0,0.0,0.0,0,0,121.0,0.0,435.0,4667.6923076923085,3962.0512820512827,4620.512820512821,4490.256410256411,4261.538461538462,4493.333333333334,4446.666666666667,4400.512820512821,4336.923076923077,4684.102564102564,4493.846153846154,4339.48717948718,4181.025641025642,4708.717948717949
508.56204,0.024998058,0.42510745,0.34789148,0.7963514,0,0.0,0.0,0.0,0.0,0.5526119,0,0,0.0,0.0,0,0,24.0,0.0,0.0,4701.025641025642,3972.307692307693,4632.820512820514,4491.794871794872,4255.384615384616,4504.102564102564,4468.717948717949,4403.589743589744,4372.820512820514,4710.769230769231,4478.974358974359,4340.512820512821,4193.846153846154,4742.051282051282
508.81226,0.024998058,0.42510745,0.34789148,0.7963514,0,0.0,0.0,0.0,0.0,0.16836874,0,0,0.0,0.0,0,0,56.0,0.0,0.0,4708.717948717949,3975.3846153846157,4619.48717948718,4493.846153846154,4249.2307692307695,4502.051282051282,4443.589743589744,4380.000000000001,4349.2307692307695,4701.538461538462,4463.589743589744,4322.051282051282,4187.6923076923085,4681.538461538462
509.06247,0.06119245,0.4511884,0.3428102,0.8198611,0,0.0,0.0,0.0,0.0,0.29838416,0,0,0.0,0.0,0,0,88.0,0.0,497.0,4688.205128205129,3958.461538461539,4616.410256410257,4473.846153846154,4249.74358974359,4498.974358974359,4453.333333333334,4372.820512820514,4337.435897435898,4683.589743589744,4461.025641025642,4281.538461538462,4138.974358974359,4679.48717948718
509.31268,0.06119245,0.4511884,0.3428102,0.8198611,0,0.0,0.0,0.0,0.0,1.0,0,0,0.0,0.0,0,0,120.0,0.0,497.0,4719.48717948718,3975.8974358974365,4603.589743589744,4488.717948717949,4251.282051282052,4473.333333333334,4428.717948717949,4371.794871794872,4324.102564102564,4663.076923076924,4445.641025641026,4227.6923076923085,4137.948717948719,4785.128205128206
509.5629,0.095063955,0.47112346,0.3395979,0.830999,0,0.0,0.0,0.0,0.0,0.37598255,0,0,0.0,0.0,0,0,23.0,0.0,0.0,4723.589743589744,3952.820512820513,4569.743589743591,4471.794871794872,4263.076923076924,4487.6923076923085,4403.076923076924,4353.333333333334,4330.769230769231,4688.205128205129,4443.589743589744,4216.410256410257,4173.333333333334,4796.923076923077
509.8131,0.095063955,0.47112346,0.3395979,0.830999,0,0.0,0.0,0.0,0.0,0.5324506,0,0,0.0,0.0,0,0,55.0,0.0,0.0,4716.410256410257,3945.6410256410263,4552.307692307693,4461.538461538462,4261.025641025642,4509.2307692307695,4432.307692307693,4323.076923076924,4322.051282051282,4671.282051282052,4413.846153846154,4210.256410256411,4163.076923076924,4661.538461538462
510.06332,0.033345006,0.49982765,0.33866736,0.82950336,0,0.0,0.0,0.0,0.0,0.36785546,0,0,0.0,0.0,0,0,87.0,0.0,504.0,4711.794871794872,3956.9230769230776,4524.102564102564,4464.615384615385,4250.256410256411,4537.435897435898,4443.589743589744,4309.2307692307695,4348.205128205129,4688.205128205129,4402.051282051282,4217.948717948719,4187.6923076923085,4654.871794871796
510.31357,0.033345006,0.49982765,0.33866736,0.82950336,0,0.0,0.0,0.0,0.0,0.0677698,0,0,0.0,0.0,0,0,119.0,0.0,504.0,4717.948717948719,3962.564102564103,4523.589743589744,4475.8974358974365,4247.179487179487,4544.615384615385,4456.410256410257,4361.025641025642,4390.769230769231,4727.6923076923085,4394.871794871796,4231.282051282052,4223.076923076924,4647.179487179488
510.43866,0.01343369,0.5106321,0.3428351,0.80787647,0,0.0,0.0,0.0,0.0,0.0,0,0,0.0,0.0,0,0,6.0,0.0,555.0,4711.794871794872,3941.538461538462,4496.410256410257,4446.153846153847,4246.153846153847,4550.769230769231,4434.871794871796,4354.871794871796,4389.743589743591,4714.871794871796,4348.717948717949,4214.871794871796,4216.923076923077,4620.000000000001
510.43866,0.01343369,0.5106321,0.3428351,0.80787647,0,0.0,0.0,0.0,0.0,0.0,0,0,0.0,0.0,0,0,6.0,0.0,555.0,4711.794871794872,3941.538461538462,4496.410256410257,4446.153846153847,4246.153846153847,4550.769230769231,4434.871794871796,4354.871794871796,4389.743589743591,4714.871794871796,4348.717948717949,4214.871794871796,4216.923076923077,4620.000000000001
510.9391,0.0,0.5235584,0.35812938,0.7664964,0,0.0,0.0,0.0,0.0,0.0,0,0,0.0,0.0,0,0,70.0,0.0,555.0,4685.641025641026,3944.1025641025644,4473.846153846154,4444.102564102564,4247.179487179487,4555.8974358974365,4460.512820512821,4367.179487179487,4424.615384615385,4732.820512820514,4296.410256410257,4228.717948717949,4213.333333333334,4577.948717948719
510.9391,0.0,0.5235584,0.35812938,0.7664964,0,0.0,0.0,0.0,0.0,0.0,0,0,0.0,0.0,0,0,70.0,0.0,555.0,4685.641025641026,3944.1025641025644,4473.846153846154,4444.102564102564,4247.179487179487,4555.8974358974365,4460.512820512821,4367.179487179487,4424.615384615385,4732.820512820514,4296.410256410257,4228.717948717949,4213.333333333334,4577.948717948719
511.4395,0.009043262,0.5549957,0.3851364,0.72118163,0,0.0,0.0,0.0,0.0,0.0,0,0,0.0,0.0,0,0,5.0,0.0,560.0,4714.871794871796,3910.2564102564106,4473.333333333334,4410.769230769231,4232.307692307693,4569.2307692307695,4490.769230769231,4376.410256410257,4410.769230769231,4735.384615384616,4313.333333333334,4246.153846153847,4209.2307692307695,4551.282051282052
511.4395,0.009043262,0.5549957,0.3851364,0.72118163,0,0.0,0.0,0.0,0.0,0.0,0,0,0.0,0.0,0,0,5.0,0.0,560.0,4714.871794871796,3910.2564102564106,4473.333333333334,4410.769230769231,4232.307692307693,4569.2307692307695,4490.769230769231,4376.410256410257,4410.769230769231,4735.384615384616,4313.333333333334,4246.153846153847,4209.2307692307695,4551.282051282052
511.93994,0.0,0.581647,0.42014775,0.66583204,0,0.0,0.0,0.0,0.0,0.0,0,0,0.0,0.0,0,0,69.0,0.0,560.0,4704.615384615386,3899.48717948718,4477.435897435898,4401.025641025642,4219.48717948718,4557.435897435898,4505.641025641026,4390.256410256411,4393.333333333334,4710.769230769231,4313.333333333334,4239.48717948718,4173.333333333334,4530.256410256411
511.93994,0.0,0.581647,0.42014775,0.66583204,0,0.0,0.0,0.0,0.0,0.0,0,0,0.0,0.0,0,0,69.0,0.0,560.0,4704.615384615386,3899.48717948718,4477.435897435898,4401.025641025642,4219.48717948718,4557.435897435898,4505.641025641026,4390.256410256411,4393.333333333334,4710.769230769231,4313.333333333334,4239.48717948718,4173.333333333334,4530.256410256411
512.44037,0.0,0.60600096,0.45505935,0.5998657,0,0.0,0.0,0.0,0.0,0.0,0,0,0.0,0.0,0,0,4.0,0.0,562.0,4689.2307692307695,3910.7692307692314,4488.717948717949,4413.333333333334,4232.307692307693,4549.743589743591,4502.051282051282,4430.256410256411,4423.589743589744,4732.307692307693,4342.051282051282,4249.74358974359,4197.948717948719,4534.358974358975
512.44037,0.0,0.60600096,0.45505935,0.5998657,0,0.0,0.0,0.0,0.0,0.0,0,0,0.0,0.0,0,0,4.0,0.0,562.0,4689.2307692307695,3910.7692307692314,4488.717948717949,4413.333333333334,4232.307692307693,4549.743589743591,4502.051282051282,4430.256410256411,4423.589743589744,4732.307692307693,4342.051282051282,4249.74358974359,4197.948717948719,4534.358974358975
512.9408,0.018710664,0.6264383,0.4882003,0.5404981,0,0.0,0.0,0.0,0.0,0.0,0,0,0.0,0.0,0,0,68.0,0.0,562.0,4693.333333333334,3900.0000000000005,4504.102564102564,4411.794871794872,4231.794871794872,4529.743589743591,4487.179487179488,4430.769230769231,4417.435897435898,4749.2307692307695,4356.410256410257,4267.6923076923085,4214.358974358975,4597.435897435898
512.9408,0.018710664,0.6264383,0.4882003,0.5404981,0,0.0,0.0,0.0,0.0,0.0,0,0,0.0,0.0,0,0,68.0,0.0,562.0,4693.333333333334,3900.0000000000005,4504.102564102564,4411.794871794872,4231.794871794872,4529.743589743591,4487.179487179488,4430.769230769231,4417.435897435898,4749.2307692307695,4356.410256410257,4267.6923076923085,4214.358974358975,4597.435897435898
513.4412,0.046860754,0.63964725,0.52191794,0.48707256,0,0.0,0.0,0.0,0.0,0.0,0,0,0.0,0.0,0,0,3.0,0.0,544.0,4650.256410256411,3860.0000000000005,4490.769230769231,4375.384615384616,4225.641025641026,4508.205128205129,4467.179487179487,4417.435897435898,4407.6923076923085,4727.179487179488,4378.461538461539,4275.384615384616,4155.8974358974365,4508.717948717949
513.4412,0.046860754,0.63964725,0.52191794,0.48707256,0,0.0,0.0,0.0,0.0,0.0,0,0,0.0,0.0,0,0,3.0,0.0,544.0,4650.256410256411,3860.0000000000005,4490.769230769231,4375.384615384616,4225.641025641026,4508.205128205129,4467.179487179487,4417.435897435898,4407.6923076923085,4727.179487179488,4378.461538461539,4275.384615384616,4155.8974358974365,4508.717948717949
513.94165,0.012310152,0.65735894,0.5558506,0.43512404,0,0.0,0.0,0.0,0.0,0.0,0,0,0.0,0.0,0,0,67.0,0.0,544.0,4632.307692307693,3852.820512820513,4537.435897435898,4372.307692307693,4244.615384615385,4476.410256410257,4474.358974358975,4393.846153846154,4331.282051282052,4653.846153846154,4437.948717948719,4325.128205128206,4105.641025641026,4432.307692307693
513.94165,0.012310152,0.65735894,0.5558506,0.43512404,0,0.0,0.0,0.0,0.0,0.0,0,0,0.0,0.0,0,0,67.0,0.0,544.0,4632.307692307693,3852.820512820513,4537.435897435898,4372.307692307693,4244.615384615385,4476.410256410257,4474.358974358975,4393.846153846154,4331.282051282052,4653.846153846154,4437.948717948719,4325.128205128206,4105.641025641026,4432.307692307693
514.4421,0.05643627,0.66223586,0.58755803,0.38659194,0,0.0,0.0,0.0,0.0,0.0,0,0,0.0,0.0,0,0,2.0,0.0,249.0,4617.435897435898,3879.48717948718,4500.000000000001,4406.153846153847,4251.794871794872,4491.282051282052,4454.871794871796,4400.000000000001,4356.923076923077,4687.6923076923085,4458.974358974359,4304.615384615385,4151.794871794872,4486.666666666667
514.4421,0.05643627,0.66223586,0.58755803,0.38659194,0,0.0,0.0,0.0,0.0,0.0,0,0,0.0,0.0,0,0,2.0,0.0,249.0,4617.435897435898,3879.48717948718,4500.000000000001,4406.153846153847,4251.794871794872,4491.282051282052,4454.871794871796,4400.000000000001,4356.923076923077,4687.6923076923085,4458.974358974359,4304.615384615385,4151.794871794872,4486.666666666667
514.9425,0.07795787,0.6808614,0.61974394,0.34084645,0,0.0,0.0,0.0,0.0,0.0,0,0,0.0,0.0,0,0,66.0,0.0,249.0,4631.282051282052,3920.5128205128212,4473.846153846154,4430.256410256411,4246.153846153847,4507.6923076923085,4444.102564102564,4405.641025641026,4377.948717948719,4713.846153846154,4414.358974358975,4263.076923076924,4198.974358974359,4568.717948717949
514.9425,0.07795787,0.6808614,0.61974394,0.34084645,0,0.0,0.0,0.0,0.0,0.0,0,0,0.0,0.0,0,0,66.0,0.0,249.0,4631.282051282052,3920.5128205128212,4473.846153846154,4430.256410256411,4246.153846153847,4507.6923076923085,4444.102564102564,4405.641025641026,4377.948717948719,4713.846153846154,4414.358974358975,4263.076923076924,4198.974358974359,4568.717948717949
515.44293,0.036199767,0.7151849,0.65593493,0.3093799,0,0.0,0.0,0.0,0.0,0.0,0,0,0.0,0.0,0,0,1.0,0.0,471.0,4655.384615384616,3936.9230769230776,4483.589743589744,4448.717948717949,4250.769230769231,4534.871794871796,4461.025641025642,4417.435897435898,4384.102564102564,4710.256410256411,4323.589743589744,4214.358974358975,4165.641025641026,4558.461538461539
515.44293,0.036199767,0.7151849,0.65593493,0.3093799,0,0.0,0.0,0.0,0.0,0.0,0,0,0.0,0.0,0,0,1.0,0.0,471.0,4655.384615384616,3936.9230769230776,4483.589743589744,4448.717948717949,4250.769230769231,4534.871794871796,4461.025641025642,4417.435897435898,4384.102564102564,4710.256410256411,4323.589743589744,4214.358974358975,4165.641025641026,4558.461538461539
515.9434,0.049212534,0.74484015,0.6666667,0.28121907,0,0.0,0.0,0.0,0.0,0.0,0,0,0.0,0.0,0,0,65.0,0.0,471.0,4650.256410256411,3898.461538461539,4544.615384615385,4416.923076923077,4249.2307692307695,4520.512820512821,4473.846153846154,4415.8974358974365,4371.794871794872,4697.948717948719,4375.8974358974365,4235.8974358974365,4141.538461538462,4461.025641025642
515.9434,0.049212534,0.74484015,0.6666667,0.28121907,0,0.0,0.0,0.0,0.0,0.0,0,0,0.0,0.0,0,0,65.0,0.0,471.0,4650.256410256411,3898.461538461539,4544.615384615385,4416.923076923077,4249.2307692307695,4520.512820512821,4473.846153846154,4415.8974358974365,4371.794871794872,4697.948717948719,4375.8974358974365,4235.8974358974365,4141.538461538462,4461.025641025642
516.44385,0.07401329,0.78236866,0.6666667,0.25267297,0,0.0,0.0,0.0,0.0,0.0,0,0,0.0,0.0,0,0,0.0,0.0,514.0,4617.948717948719,3873.333333333334,4535.384615384616,4392.820512820514,4248.717948717949,4491.794871794872,4468.205128205129,4385.641025641026,4353.333333333334,4652.307692307693,4391.794871794872,4198.461538461539,4102.564102564103,4415.384615384616
516.44385,0.07401329,0.78236866,0.6666667,0.25267297,0,0.0,0.0,0.0,0.0,0.0,0,0,0.0,0.0,0,0,0.0,0.0,514.0,4617.948717948719,3873.333333333334,4535.384615384616,4392.820512820514,4248.717948717949,4491.794871794872,4468.205128205129,4385.641025641026,4353.333333333334,4652.307692307693,4391.794871794872,4198.461538461539,4102.564102564103,4415.384615384616
516.9443,0.08576056,0.8582484,0.6666667,0.22641101,0,0.0,0.0,0.0,0.0,0.0,0,0,0.0,0.0,0,0,64.0,0.0,514.0,4624.102564102564,3895.3846153846157,4518.461538461539,4405.641025641026,4263.589743589744,4534.871794871796,4493.333333333334,4401.538461538462,4371.794871794872,4693.333333333334,4393.333333333334,4208.205128205129,4149.74358974359,4424.102564102564
516.9443,0.08576056,0.8582484,0.6666667,0.22641101,0,0.0,0.0,0.0,0.0,0.0,0,0,0.0,0.0,0,0,64.0,0.0,514.0,4624.102564102564,3895.3846153846157,4518.461538461539,4405.641025641026,4263.589743589744,4534.871794871796,4493.333333333334,4401.538461538462,4371.794871794872,4693.333333333334,4393.333333333334,4208.205128205129,4149.74358974359,4424.102564102564
517.4447,0.09251749,0.88543487,0.6666667,0.20302878,0,0.0,0.0,0.0,0.0,0.0,0,0,0.0,0.0,0,0,128.0,0.0,496.0,4640.000000000001,3925.1282051282055,4494.358974358975,4426.153846153847,4274.358974358975,4556.410256410257,4471.282051282052,4403.076923076924,4416.410256410257,4765.641025641026,4372.820512820514,4212.307692307693,4226.153846153847,4515.8974358974365
517.4447,0.09251749,0.88543487,0.6666667,0.20302878,0,0.0,0.0,0.0,0.0,0.0,0,0,0.0,0.0,0,0,128.0,0.0,496.0,4640.000000000001,3925.1282051282055,4494.358974358975,4426.153846153847,4274.358974358975,4556.410256410257,4471.282051282052,4403.076923076924,4416.410256410257,4765.641025641026,4372.820512820514,4212.307692307693,4226.153846153847,4515.8974358974365
517.9451,0.08751476,0.970154,0.6666667,0.18225534,0,0.0,0.0,0.0,0.0,0.0,0,0,0.0,0.0,0,0,63.0,0.0,0.0,4657.435897435898,3916.9230769230776,4472.820512820514,4418.461538461539,4247.6923076923085,4554.358974358975,4470.256410256411,4394.871794871796,4398.974358974359,4762.051282051282,4321.538461538462,4229.74358974359,4225.641025641026,4640.512820512821
517.9451,0.08751476,0.970154,0.6666667,0.18225534,0,0.0,0.0,0.0,0.0,0.0,0,0,0.0,0.0,0,0,63.0,0.0,0.0,4657.435897435898,3916.9230769230776,4472.820512820514,4418.461538461539,4247.6923076923085,4554.358974358975,4470.256410256411,4394.871794871796,4398.974358974359,4762.051282051282,4321.538461538462,4229.74358974359,4225.641025641026,4640.512820512821
518.44556,0.048554398,1.0,0.6666667,0.1589449,0,0.0,0.0,0.0,0.0,0.0,0,0,0.0,0.0,0,0,127.0,0.0,507.0,4680.512820512821,3917.435897435898,4472.820512820514,4412.820512820514,4231.282051282052,4569.743589743591,4479.48717948718,4460.000000000001,4462.564102564103,4814.871794871796,4315.8974358974365,4248.717948717949,4247.6923076923085,4598.461538461539
518.44556,0.048554398,1.0,0.6666667,0.1589449,0,0.0,0.0,0.0,0.0,0.0,0,0,0.0,0.0,0,0,127.0,0.0,507.0,4680.512820512821,3917.435897435898,4472.820512820514,4412.820512820514,4231.282051282052,4569.743589743591,4479.48717948718,4460.000000000001,4462.564102564103,4814.871794871796,4315.8974358974365,4248.717948717949,4247.6923076923085,4598.461538461539
518.946,0.103773504,1.0,0.6666667,0.12559527,0,0.0,0.0,0.0,0.0,0.0,0,0,0.0,0.0,0,0,62.0,0.0,0.0,4685.641025641026,3911.7948717948725,4497.948717948719,4410.256410256411,4212.820512820514,4538.974358974359,4475.384615384616,4447.6923076923085,4461.025641025642,4797.948717948719,4334.871794871796,4280.000000000001,4233.846153846154,4571.794871794872
518.946,0.103773504,1.0,0.6666667,0.12559527,0,0.0,0.0,0.0,0.0,0.0,0,0,0.0,0.0,0,0,62.0,0.0,0.0,4685.641025641026,3911.7948717948725,4497.948717948719,4410.256410256411,4212.820512820514,4538.974358974359,4475.384615384616,4447.6923076923085,4461.025641025642,4797.948717948719,4334.871794871796,4280.000000000001,4233.846153846154,4571.794871794872
519.4464,0.086506456,1.0,0.6666667,0.08125685,0,0.0,0.0,0.0,0.0,0.0,0,0,0.0,0.0,0,0,126.0,0.0,537.0,4664.615384615386,3892.820512820513,4482.051282051282,4398.461538461539,4221.538461538462,4522.564102564103,4433.333333333334,4444.615384615385,4442.564102564103,4778.461538461539,4340.512820512821,4280.000000000001,4211.794871794872,4552.820512820514
519.4464,0.086506456,1.0,0.6666667,0.08125685,0,0.0,0.0,0.0,0.0,0.0,0,0,0.0,0.0,0,0,126.0,0.0,537.0,4664.615384615386,3892.820512820513,4482.051282051282,4398.461538461539,4221.538461538462,4522.564102564103,4433.333333333334,4444.615384615385,4442.564102564103,4778.461538461539,4340.512820512821,4280.000000000001,4211.794871794872,4552.820512820514
519.94684,0.03273113,1.0,0.6666667,0.04219411,0,0.0,0.0,0.0,0.0,0.0,0,0,0.0,0.0,0,0,61.0,0.0,0.0,4649.743589743591,3926.1538461538466,4503.589743589744,4429.2307692307695,4234.871794871796,4508.717948717949,4455.8974358974365,4427.6923076923085,4396.410256410257,4719.48717948718,4332.820512820514,4252.307692307693,4136.410256410257,4427.6923076923085
519.94684,0.03273113,1.0,0.6666667,0.04219411,0,0.0,0.0,0.0,0.0,0.0,0,0,0.0,0.0,0,0,61.0,0.0,0.0,4649.743589743591,3926.1538461538466,4503.589743589744,4429.2307692307695,4234.871794871796,4508.717948717949,4455.8974358974365,4427.6923076923085,4396.410256410257,4719.48717948718,4332.820512820514,4252.307692307693,4136.410256410257,4427.6923076923085
520.44727,0.04844612,1.0,0.6666667,0.0038426882,0,0.0,0.0,0.0,0.0,0.0,0,0,0.0,0.0,0,0,125.0,0.0,435.0,4612.307692307693,3891.2820512820517,4458.974358974359,4401.025641025642,4233.333333333334,4505.128205128206,4443.589743589744,4380.512820512821,4337.948717948719,4677.435897435898,4358.461538461539,4226.666666666667,4143.589743589744,4430.769230769231
520.69745,0.04844612,1.0,0.6666667,0.0038426882,0,0.0,0.0,0.0,0.0,0.39338413,0,0,0.0,0.0,0,0,28.0,0.0,0.0,4636.923076923077,3942.564102564103,4504.102564102564,4443.076923076924,4244.615384615385,4509.2307692307695,4452.307692307693,4397.948717948719,4372.307692307693,4740.000000000001,4426.153846153847,4290.769230769231,4209.74358974359,4540.000000000001
520.9477,0.06503172,0.9977751,0.6666667,0.0,0,0.0,0.0,0.0,0.0,0.070514664,0,0,0.0,0.0,0,0,60.0,0.0,0.0,4667.6923076923085,3953.8461538461543,4496.410256410257,4458.461538461539,4245.128205128206,4508.205128205129,4427.179487179487,4393.333333333334,4363.076923076924,4719.48717948718,4389.743589743591,4264.615384615385,4181.025641025642,4520.000000000001
521.19794,0.06503172,0.9977751,0.6666667,0.0,0,0.0,0.0,0.0,0.0,0.35348138,0,0,0.0,0.0,0,0,92.0,0.0,499.0,4678.461538461539,3979.48717948718,4474.871794871796,4483.076923076924,4242.564102564103,4512.307692307693,4427.6923076923085,4362.051282051282,4329.2307692307695,4677.435897435898,4311.794871794872,4198.974358974359,4101.538461538462,4377.948717948719
521.4481,0.079516776,0.9762282,0.6666667,0.0,0,0.0,0.0,0.0,0.0,0.25547686,0,0,0.0,0.0,0,0,124.0,0.0,499.0,4686.666666666667,3978.9743589743593,4502.564102564103,4480.000000000001,4249.2307692307695,4532.307692307693,4463.076923076924,4384.615384615385,4351.282051282052,4710.769230769231,4346.153846153847,4227.179487179487,4164.615384615385,4453.333333333334
521.69836,0.079516776,0.9762282,0.6666667,0.0,0,0.0,0.0,0.0,0.0,0.072996125,0,0,0.0,0.0,0,0,27.0,0.0,0.0,4669.743589743591,3944.1025641025644,4505.641025641026,4458.974358974359,4246.153846153847,4512.307692307693,4404.102564102564,4324.615384615385,4347.6923076923085,4719.48717948718,4333.333333333334,4225.128205128206,4164.615384615385,4415.384615384616
521.94855,0.06467983,0.9601015,0.6666667,0.0,0,0.0,0.0,0.0,0.0,0.0,0,0,0.0,0.0,0,0,59.0,0.0,0.0,4648.205128205129,3908.717948717949,4503.589743589744,4425.641025641026,4258.974358974359,4521.538461538462,4437.435897435898,4397.435897435898,4389.743589743591,4738.461538461539,4374.871794871796,4243.589743589744,4169.74358974359,4390.256410256411
521.94855,0.06467983,0.9601015,0.6666667,0.0,0,0.0,0.0,0.0,0.0,0.0,0,0,0.0,0.0,0,0,59.0,0.0,0.0,4648.205128205129,3908.717948717949,4503.589743589744,4425.641025641026,4258.974358974359,4521.538461538462,4437.435897435898,4397.435897435898,4389.743589743591,4738.461538461539,4374.871794871796,4243.589743589744,4169.74358974359,4390.256410256411
522.449,0.013261911,0.96941453,0.6666667,0.0,0,0.0,0.0,0.0,0.0,0.0,0,0,0.0,0.0,0,0,123.0,0.0,512.0,4631.282051282052,3890.7692307692314,4568.717948717949,4410.769230769231,4277.948717948719,4519.48717948718,4455.8974358974365,4382.051282051282,4373.846153846154,4715.8974358974365,4482.051282051282,4324.102564102564,4184.102564102564,4488.205128205129
522.6992,0.013261911,0.96941453,0.6666667,0.0,0,0.0,0.0,0.0,0.0,0.124598555,0,0,0.0,0.0,0,0,26.0,0.0,0.0,4638.461538461539,3896.9230769230776,4563.589743589744,4414.871794871796,4280.512820512821,4523.589743589744,4455.384615384616,4369.2307692307695,4380.000000000001,4704.102564102564,4480.000000000001,4321.025641025642,4179.48717948718,4520.512820512821
522.9494,4.822629E-4,0.9897312,0.6666667,0.0,0,0.0,0.0,0.0,0.0,0.0,0,0,0.0,0.0,0,0,58.0,0.0,0.0,4640.512820512821,3897.435897435898,4546.153846153847,4415.384615384616,4278.974358974359,4525.641025641026,4456.923076923077,4375.384615384616,4402.564102564103,4744.102564102564,4446.153846153847,4307.179487179487,4213.333333333334,4490.769230769231
522.9494,4.822629E-4,0.9897312,0.6666667,0.0,0,0.0,0.0,0.0,0.0,0.0,0,0,0.0,0.0,0,0,58.0,0.0,0.0,4640.512820512821,3897.435897435898,4546.153846153847,4415.384615384616,4278.974358974359,4525.641025641026,4456.923076923077,4375.384615384616,4402.564102564103,4744.102564102564,4446.153846153847,4307.179487179487,4213.333333333334,4490.769230769231
523.4498,0.011071219,0.98652995,0.6666667,0.0,0,0.0,0.0,0.0,0.0,0.0,0,0,0.0,0.0,0,0,122.0,0.0,537.0,4654.358974358975,3912.820512820513,4509.743589743591,4430.769230769231,4251.282051282052,4522.051282051282,4443.076923076924,4388.205128205129,4430.769230769231,4783.076923076924,4414.358974358975,4283.589743589744,4228.717948717949,4589.2307692307695
523.4498,0.011071219,0.98652995,0.6666667,0.0,0,0.0,0.0,0.0,0.0,0.0,0,0,0.0,0.0,0,0,122.0,0.0,537.0,4654.358974358975,3912.820512820513,4509.743589743591,4430.769230769231,4251.282051282052,4522.051282051282,4443.076923076924,4388.205128205129,4430.769230769231,4783.076923076924,4414.358974358975,4283.589743589744,4228.717948717949,4589.2307692307695
523.95026,0.0350541,0.97721267,0.6666667,0.0,0,0.0,0.0,0.0,0.0,0.0,0,0,0.0,0.0,0,0,57.0,0.0,0.0,4657.435897435898,3898.461538461539,4494.871794871796,4414.871794871796,4248.717948717949,4554.871794871796,4473.846153846154,4410.769230769231,4405.128205128206,4777.435897435898,4344.615384615385,4261.538461538462,4229.2307692307695,4645.641025641026
523.95026,0.0350541,0.97721267,0.6666667,0.0,0,0.0,0.0,0.0,0.0,0.0,0,0,0.0,0.0,0,0,57.0,0.0,0.0,4657.435897435898,3898.461538461539,4494.871794871796,4414.871794871796,4248.717948717949,4554.871794871796,4473.846153846154,4410.769230769231,4405.128205128206,4777.435897435898,4344.615384615385,4261.538461538462,4229.2307692307695,4645.641025641026
524.482,0.06770441,0.9859546,0.6666667,0.0,0,0.0,0.0,0.0,0.0,0.0,0,0,0.0,0.0,0,0,125.0,0.0,436.0,4677.435897435898,3910.7692307692314,4489.2307692307695,4415.384615384616,4249.74358974359,4532.820512820514,4439.48717948718,4406.666666666667,4477.948717948719,4795.384615384616,4338.461538461539,4255.384615384616,4216.923076923077,4584.615384615385
524.7009,0.06770441,0.9859546,0.6666667,0.0,0,0.0,0.0,0.0,0.0,0.0,0,0,0.0,0.0,0,0,24.0,0.0,0.0,4660.512820512821,3882.0512820512827,4478.974358974359,4396.410256410257,4232.820512820514,4538.974358974359,4462.564102564103,4428.205128205129,4504.615384615385,4751.794871794872,4294.871794871796,4220.512820512821,4181.538461538462,4533.333333333334
524.9824,0.03052385,0.98987925,0.6666667,0.0,0,0.0,0.0,0.0,0.0,0.0,0,0,0.0,0.0,0,0,60.0,0.0,0.0,4673.846153846154,3912.820512820513,4507.179487179488,4413.333333333334,4243.076923076924,4532.307692307693,4458.974358974359,4490.769230769231,4561.538461538462,4820.000000000001,4383.589743589744,4278.461538461539,4237.948717948719,4550.256410256411
524.9824,0.03052385,0.98987925,0.6666667,0.0,0,0.0,0.0,0.0,0.0,0.0,0,0,0.0,0.0,0,0,60.0,0.0,0.0,4673.846153846154,3912.820512820513,4507.179487179488,4413.333333333334,4243.076923076924,4532.307692307693,4458.974358974359,4490.769230769231,4561.538461538462,4820.000000000001,4383.589743589744,4278.461538461539,4237.948717948719,4550.256410256411
525.48285,0.001078838,0.9867824,0.6666667,0.0,0,0.0,0.0,0.0,0.0,0.0,0,0,0.0,0.0,0,0,124.0,0.0,499.0,4671.282051282052,3932.307692307693,4512.307692307693,4432.820512820514,4247.6923076923085,4520.000000000001,4325.128205128206,4427.179487179487,4490.256410256411,4764.615384615386,4357.948717948719,4271.282051282052,4202.564102564103,4558.974358974359
525.48285,0.001078838,0.9867824,0.6666667,0.0,0,0.0,0.0,0.0,0.0,0.0,0,0,0.0,0.0,0,0,124.0,0.0,499.0,4671.282051282052,3932.307692307693,4512.307692307693,4432.820512820514,4247.6923076923085,4520.000000000001,4325.128205128206,4427.179487179487,4490.256410256411,4764.615384615386,4357.948717948719,4271.282051282052,4202.564102564103,4558.974358974359
525.95197,0.0,1.0,0.6666667,0.0,0,0.0,0.0,0.0,0.0,0.0,0,0,0.0,0.0,0,0,55.0,0.0,0.0,4666.153846153847,3927.692307692308,4493.846153846154,4430.256410256411,4235.8974358974365,4522.051282051282,4366.666666666667,4428.717948717949,4492.820512820514,4776.410256410257,4350.256410256411,4260.000000000001,4201.025641025642,4510.256410256411
525.95197,0.0,1.0,0.6666667,0.0,0,0.0,0.0,0.0,0.0,0.0,0,0,0.0,0.0,0,0,55.0,0.0,0.0,4666.153846153847,3927.692307692308,4493.846153846154,4430.256410256411,4235.8974358974365,4522.051282051282,4366.666666666667,4428.717948717949,4492.820512820514,4776.410256410257,4350.256410256411,4260.000000000001,4201.025641025642,4510.256410256411
526.4524,0.0,1.0,0.6666667,0.042279523,0,0.0,0.0,0.0,0.0,0.0,0,0,0.0,0.0,0,0,119.0,0.0,510.0,4643.076923076924,3907.1794871794878,4479.48717948718,4414.871794871796,4234.871794871796,4524.102564102564,4395.8974358974365,4392.307692307693,4436.410256410257,4731.282051282052,4291.282051282052,4223.589743589744,4162.051282051282,4567.179487179488
526.4524,0.0,1.0,0.6666667,0.042279523,0,0.0,0.0,0.0,0.0,0.0,0,0,0.0,0.0,0,0,119.0,0.0,510.0,4643.076923076924,3907.1794871794878,4479.48717948718,4414.871794871796,4234.871794871796,4524.102564102564,4395.8974358974365,4392.307692307693,4436.410256410257,4731.282051282052,4291.282051282052,4223.589743589744,4162.051282051282,4567.179487179488
526.9529,0.01359462,1.0,0.6666667,0.095165804,0,0.0,0.0,0.0,0.0,0.0,0,0,0.0,0.0,0,0,54.0,0.0,0.0,4618.461538461539,3866.1538461538466,4453.333333333334,4378.461538461539,4230.769230769231,4539.48717948718,4459.48717948718,4395.8974358974365,4437.435897435898,4732.307692307693,4303.076923076924,4222.564102564103,4165.128205128206,4690.769230769231
527.20306,0.01359462,1.0,0.6666667,0.095165804,0,0.0,0.0,0.0,0.0,0.38222188,0,0,0.0,0.0,0,1,86.0,0.0,537.0,4660.000000000001,3878.9743589743593,4490.256410256411,4390.769230769231,4230.256410256411,4534.358974358975,4455.384615384616,4410.256410256411,4447.179487179487,4750.769230769231,4337.948717948719,4261.538461538462,4202.051282051282,4752.820512820514
527.4533,0.041468672,1.0,0.6666667,0.1423007,0,0.0,0.0,0.0,0.0,0.09799885,0,0,0.0,0.0,0,0,118.0,0.0,537.0,4648.205128205129,3863.589743589744,4471.282051282052,4380.000000000001,4232.307692307693,4554.358974358975,4477.948717948719,4457.948717948719,4474.871794871796,4766.666666666667,4329.743589743591,4234.358974358975,4192.307692307693,4670.769230769231
527.7035,0.041468672,1.0,0.6666667,0.1423007,0,0.0,0.0,0.0,0.0,0.0,0,0,0.0,0.0,0,0,21.0,0.0,0.0,4633.846153846154,3866.1538461538466,4483.076923076924,4384.102564102564,4235.8974358974365,4523.589743589744,4438.461538461539,4411.282051282052,4440.512820512821,4754.871794871796,4342.564102564103,4251.282051282052,4183.076923076924,4610.256410256411
527.95374,0.0,1.0,0.6666667,0.18436824,0,0.0,0.0,0.0,0.0,0.0,0,0,0.0,0.0,0,0,53.0,0.0,0.0,4613.333333333334,3856.410256410257,4462.564102564103,4363.589743589744,4242.564102564103,4550.256410256411,4475.8974358974365,4462.564102564103,4480.000000000001,4780.512820512821,4331.282051282052,4228.717948717949,4184.102564102564,4500.000000000001
527.95374,0.0,1.0,0.6666667,0.18436824,0,0.0,0.0,0.0,0.0,0.0,0,0,0.0,0.0,0,0,53.0,0.0,0.0,4613.333333333334,3856.410256410257,4462.564102564103,4363.589743589744,4242.564102564103,4550.256410256411,4475.8974358974365,4462.564102564103,4480.000000000001,4780.512820512821,4331.282051282052,4228.717948717949,4184.102564102564,4500.000000000001
528.45416,0.0,1.0,0.6666667,0.18955581,0,0.0,0.0,0.0,0.0,0.0,0,0,0.0,0.0,0,0,117.0,0.0,436.0,4628.717948717949,3895.3846153846157,4510.769230769231,4404.102564102564,4245.641025641026,4536.410256410257,4470.256410256411,4424.102564102564,4460.512820512821,4765.128205128206,4340.512820512821,4259.48717948718,4179.48717948718,4483.589743589744
528.45416,0.0,1.0,0.6666667,0.18955581,0,0.0,0.0,0.0,0.0,0.0,0,0,0.0,0.0,0,0,117.0,0.0,436.0,4628.717948717949,3895.3846153846157,4510.769230769231,4404.102564102564,4245.641025641026,4536.410256410257,4470.256410256411,4424.102564102564,4460.512820512821,4765.128205128206,4340.512820512821,4259.48717948718,4179.48717948718,4483.589743589744
528.9546,0.0062587657,1.0,0.6666667,0.1613025,0,0.0,0.0,0.0,0.0,0.0,0,0,0.0,0.0,0,0,52.0,0.0,0.0,4646.153846153847,3915.8974358974365,4534.358974358975,4409.2307692307695,4245.641025641026,4518.974358974359,4456.410256410257,4409.743589743591,4424.102564102564,4747.179487179488,4387.6923076923085,4264.615384615385,4166.153846153847,4495.8974358974365
528.9546,0.0062587657,1.0,0.6666667,0.1613025,0,0.0,0.0,0.0,0.0,0.0,0,0,0.0,0.0,0,0,52.0,0.0,0.0,4646.153846153847,3915.8974358974365,4534.358974358975,4409.2307692307695,4245.641025641026,4518.974358974359,4456.410256410257,4409.743589743591,4424.102564102564,4747.179487179488,4387.6923076923085,4264.615384615385,4166.153846153847,4495.8974358974365
529.455,0.014168089,1.0,0.6666667,0.13626751,0,0.0,0.0,0.0,0.0,0.0,0,0,0.0,0.0,0,0,116.0,0.0,499.0,4662.564102564103,3941.0256410256416,4541.025641025642,4440.000000000001,4250.256410256411,4522.564102564103,4461.538461538462,4416.923076923077,4408.717948717949,4718.974358974359,4366.666666666667,4253.333333333334,4141.538461538462,4476.923076923077
529.455,0.014168089,1.0,0.6666667,0.13626751,0,0.0,0.0,0.0,0.0,0.0,0,0,0.0,0.0,0,0,116.0,0.0,499.0,4662.564102564103,3941.0256410256416,4541.025641025642,4440.000000000001,4250.256410256411,4522.564102564103,4461.538461538462,4416.923076923077,4408.717948717949,4718.974358974359,4366.666666666667,4253.333333333334,4141.538461538462,4476.923076923077
529.95544,0.0,1.0,0.6666667,0.1141495,0,0.0,0.0,0.0,0.0,0.0,0,0,0.0,0.0,0,0,51.0,0.0,0.0,4661.025641025642,3937.9487179487182,4522.051282051282,4440.512820512821,4245.128205128206,4524.615384615385,4475.384615384616,4413.846153846154,4413.846153846154,4724.615384615386,4363.589743589744,4245.641025641026,4161.538461538462,4538.461538461539
529.95544,0.0,1.0,0.6666667,0.1141495,0,0.0,0.0,0.0,0.0,0.0,0,0,0.0,0.0,0,0,51.0,0.0,0.0,4661.025641025642,3937.9487179487182,4522.051282051282,4440.512820512821,4245.128205128206,4524.615384615385,4475.384615384616,4413.846153846154,4413.846153846154,4724.615384615386,4363.589743589744,4245.641025641026,4161.538461538462,4538.461538461539
530.4559,0.0,1.0,0.6666667,0.09467107,0,0.0,0.0,0.0,0.0,0.0,0,0,0.0,0.0,0,0,115.0,0.0,508.0,4660.000000000001,3902.564102564103,4520.512820512821,4410.769230769231,4250.769230769231,4526.666666666667,4466.666666666667,4433.846153846154,4425.641025641026,4750.769230769231,4384.102564102564,4267.6923076923085,4188.205128205129,4553.846153846154
530.4559,0.0,1.0,0.6666667,0.09467107,0,0.0,0.0,0.0,0.0,0.0,0,0,0.0,0.0,0,0,115.0,0.0,508.0,4660.000000000001,3902.564102564103,4520.512820512821,4410.769230769231,4250.769230769231,4526.666666666667,4466.666666666667,4433.846153846154,4425.641025641026,4750.769230769231,4384.102564102564,4267.6923076923085,4188.205128205129,4553.846153846154
530.9563,0.0,1.0,0.6666667,0.080502436,0,0.0,0.0,0.0,0.0,0.0,0,0,0.0,0.0,0,0,50.0,0.0,0.0,4615.8974358974365,3846.666666666667,4551.282051282052,4383.076923076924,4263.589743589744,4503.076923076924,4480.512820512821,4437.435897435898,4381.025641025642,4670.256410256411,4466.153846153847,4297.948717948719,4163.589743589744,4513.333333333334
530.9563,0.0,1.0,0.6666667,0.080502436,0,0.0,0.0,0.0,0.0,0.0,0,0,0.0,0.0,0,0,50.0,0.0,0.0,4615.8974358974365,3846.666666666667,4551.282051282052,4383.076923076924,4263.589743589744,4503.076923076924,4480.512820512821,4437.435897435898,4381.025641025642,4670.256410256411,4466.153846153847,4297.948717948719,4163.589743589744,4513.333333333334
531.4567,0.0,1.0,0.6666667,0.076205865,0,0.0,0.0,0.0,0.0,0.0,0,0,0.0,0.0,0,0,114.0,0.0,537.0,4611.282051282052,3898.461538461539,4540.000000000001,4430.256410256411,4279.48717948718,4504.102564102564,4438.974358974359,4407.6923076923085,4377.435897435898,4687.6923076923085,4527.6923076923085,4346.153846153847,4221.538461538462,4588.205128205129
531.4567,0.0,1.0,0.6666667,0.076205865,0,0.0,0.0,0.0,0.0,0.0,0,0,0.0,0.0,0,0,114.0,0.0,537.0,4611.282051282052,3898.461538461539,4540.000000000001,4430.256410256411,4279.48717948718,4504.102564102564,4438.974358974359,4407.6923076923085,4377.435897435898,4687.6923076923085,4527.6923076923085,4346.153846153847,4221.538461538462,4588.205128205129
531.95715,0.0,1.0,0.6666667,0.07931258,0,0.0,0.0,0.0,0.0,0.0,0,0,0.0,0.0,0,0,49.0,0.0,0.0,4615.8974358974365,3913.333333333334,4525.128205128206,4431.794871794872,4264.615384615385,4522.051282051282,4456.410256410257,4342.051282051282,4354.358974358975,4684.102564102564,4448.717948717949,4315.8974358974365,4221.538461538462,4592.307692307693
531.95715,0.0,1.0,0.6666667,0.07931258,0,0.0,0.0,0.0,0.0,0.0,0,0,0.0,0.0,0,0,49.0,0.0,0.0,4615.8974358974365,3913.333333333334,4525.128205128206,4431.794871794872,4264.615384615385,4522.051282051282,4456.410256410257,4342.051282051282,4354.358974358975,4684.102564102564,4448.717948717949,4315.8974358974365,4221.538461538462,4592.307692307693
532.4576,0.0,1.0,0.6666667,0.08456163,0,0.0,0.0,0.0,0.0,0.0,0,0,0.0,0.0,0,0,113.0,0.0,436.0,4647.6923076923085,3911.7948717948725,4511.794871794872,4418.974358974359,4250.256410256411,4528.205128205129,4456.410256410257,4336.410256410257,4374.871794871796,4688.205128205129,4374.871794871796,4262.564102564103,4158.974358974359,4554.871794871796
532.4576,0.0,1.0,0.6666667,0.08456163,0,0.0,0.0,0.0,0.0,0.0,0,0,0.0,0.0,0,0,113.0,0.0,436.0,4647.6923076923085,3911.7948717948725,4511.794871794872,4418.974358974359,4250.256410256411,4528.205128205129,4456.410256410257,4336.410256410257,4374.871794871796,4688.205128205129,4374.871794871796,4262.564102564103,4158.974358974359,4554.871794871796
532.958,0.0,1.0,0.6666667,0.08941023,0,0.0,0.0,0.0,0.0,0.0,0,0,0.0,0.0,0,0,48.0,0.0,0.0,4645.128205128206,3907.1794871794878,4501.025641025642,4407.6923076923085,4249.2307692307695,4540.000000000001,4464.102564102564,4309.2307692307695,4353.846153846154,4672.820512820514,4342.564102564103,4211.794871794872,4110.769230769231,4336.923076923077
532.958,0.0,1.0,0.6666667,0.08941023,0,0.0,0.0,0.0,0.0,0.0,0,0,0.0,0.0,0,0,48.0,0.0,0.0,4645.128205128206,3907.1794871794878,4501.025641025642,4407.6923076923085,4249.2307692307695,4540.000000000001,4464.102564102564,4309.2307692307695,4353.846153846154,4672.820512820514,4342.564102564103,4211.794871794872,4110.769230769231,4336.923076923077
533.45844,0.06505255,1.0,0.6666667,0.093899176,0,0.0,0.0,0.0,0.0,0.0,0,0,0.0,0.0,0,0,112.0,0.0,496.0,4650.256410256411,3910.2564102564106,4502.051282051282,4407.6923076923085,4249.2307692307695,4556.410256410257,4476.923076923077,4393.333333333334,4438.974358974359,4741.025641025642,4358.461538461539,4209.74358974359,4163.076923076924,4410.769230769231
533.45844,0.06505255,1.0,0.6666667,0.093899176,0,0.0,0.0,0.0,0.0,0.0,0,0,0.0,0.0,0,0,112.0,0.0,496.0,4650.256410256411,3910.2564102564106,4502.051282051282,4407.6923076923085,4249.2307692307695,4556.410256410257,4476.923076923077,4393.333333333334,4438.974358974359,4741.025641025642,4358.461538461539,4209.74358974359,4163.076923076924,4410.769230769231
533.95886,0.051521204,1.0,0.6666667,0.09625494,0,0.0,0.0,0.0,0.0,0.0,0,0,0.0,0.0,0,0,47.0,0.0,0.0,4668.205128205129,3906.666666666667,4507.179487179488,4398.461538461539,4248.205128205129,4526.153846153847,4444.615384615385,4380.000000000001,4400.512820512821,4731.282051282052,4325.128205128206,4203.589743589744,4176.923076923077,4565.641025641026
534.2091,0.051521204,1.0,0.6666667,0.09625494,0,0.0,0.0,0.0,0.0,0.07075304,0,0,0.0,0.0,0,0,79.0,0.0,509.0,4654.358974358975,3880.0000000000005,4475.384615384616,4373.846153846154,4224.615384615385,4535.8974358974365,4478.974358974359,4412.307692307693,4424.615384615385,4727.6923076923085,4300.000000000001,4183.076923076924,4164.102564102564,4522.051282051282
534.4593,0.022560418,1.0,0.6666667,0.09564748,0,0.0,0.0,0.0,0.0,0.0,0,0,0.0,0.0,0,0,111.0,0.0,509.0,4662.564102564103,3892.307692307693,4487.179487179488,4389.743589743591,4217.948717948719,4508.205128205129,4454.871794871796,4374.358974358975,4369.2307692307695,4691.794871794872,4303.589743589744,4199.48717948718,4169.74358974359,4533.846153846154
534.4593,0.022560418,1.0,0.6666667,0.09564748,0,0.0,0.0,0.0,0.0,0.0,0,0,0.0,0.0,0,0,111.0,0.0,509.0,4662.564102564103,3892.307692307693,4487.179487179488,4389.743589743591,4217.948717948719,4508.205128205129,4454.871794871796,4374.358974358975,4369.2307692307695,4691.794871794872,4303.589743589744,4199.48717948718,4169.74358974359,4533.846153846154
534.9597,0.02435401,1.0,0.6666667,0.08577117,0,0.0,0.0,0.0,0.0,0.0,0,0,0.0,0.0,0,0,46.0,0.0,0.0,4610.769230769231,3848.205128205129,4525.641025641026,4368.717948717949,4262.564102564103,4436.923076923077,4410.769230769231,4364.615384615385,4347.179487179487,4697.435897435898,4470.256410256411,4252.820512820514,4142.051282051282,4507.179487179488
534.9597,0.02435401,1.0,0.6666667,0.08577117,0,0.0,0.0,0.0,0.0,0.0,0,0,0.0,0.0,0,0,46.0,0.0,0.0,4610.769230769231,3848.205128205129,4525.641025641026,4368.717948717949,4262.564102564103,4436.923076923077,4410.769230769231,4364.615384615385,4347.179487179487,4697.435897435898,4470.256410256411,4252.820512820514,4142.051282051282,4507.179487179488
535.46014,0.1243119,1.0,0.6666667,0.07343224,0,0.0,0.0,0.0,0.0,0.0,0,0,0.0,0.0,0,0,110.0,0.0,537.0,4527.179487179488,3790.2564102564106,4385.641025641026,4341.538461538462,4263.589743589744,4387.179487179487,4341.025641025642,4263.076923076924,4255.384615384616,4648.205128205129,4600.512820512821,4185.128205128206,4095.8974358974365,4357.948717948719
535.6791,0.1243119,1.0,0.6666667,0.07343224,0,0.0,0.0,0.0,0.0,0.0,0,0,0.0,0.0,0,1,9.0,0.0,473.0,4514.871794871796,3817.9487179487182,4350.256410256411,4362.564102564103,4260.512820512821,4415.384615384616,4325.128205128206,4232.820512820514,4242.051282051282,4655.8974358974365,4600.000000000001,4120.000000000001,4107.179487179487,4456.410256410257
536.02313,0.19591077,1.0,0.6666667,0.06270644,0,0.0,0.0,0.0,0.0,0.46947977,0,0,0.0,0.0,0,0,53.0,0.0,0.0,4521.538461538462,3843.589743589744,4361.025641025642,4370.256410256411,4233.333333333334,4486.153846153847,4413.846153846154,4312.820512820514,4311.282051282052,4695.8974358974365,4544.102564102564,4083.589743589744,4157.435897435898,4544.615384615385
536.2108,0.19591077,1.0,0.6666667,0.06270644,0,0.0,0.0,0.0,0.0,0.0,0,0,0.0,0.0,0,0,77.0,0.0,436.0,4542.564102564103,3862.0512820512827,4400.512820512821,4382.051282051282,4234.871794871796,4525.128205128206,4450.769230769231,4352.307692307693,4342.564102564103,4745.641025641026,4518.461538461539,4105.641025641026,4216.923076923077,4586.666666666667
536.461,0.22794415,1.0,0.6666667,0.055487826,0,0.0,0.0,0.0,0.0,0.0,0,0,0.0,0.0,0,0,109.0,0.0,436.0,4585.128205128206,3904.1025641025644,4441.538461538462,4410.769230769231,4233.333333333334,4557.435897435898,4479.48717948718,4432.820512820514,4404.102564102564,4765.641025641026,4468.205128205129,4118.974358974359,4250.256410256411,4584.615384615385
536.461,0.22794415,1.0,0.6666667,0.055487826,0,0.0,0.0,0.0,0.0,0.0,0,0,0.0,0.0,0,0,109.0,0.0,436.0,4585.128205128206,3904.1025641025644,4441.538461538462,4410.769230769231,4233.333333333334,4557.435897435898,4479.48717948718,4432.820512820514,4404.102564102564,4765.641025641026,4468.205128205129,4118.974358974359,4250.256410256411,4584.615384615385
536.9614,0.19098596,1.0,0.6666667,0.047469486,0,0.0,0.0,0.0,0.0,0.0,0,0,0.0,0.0,0,0,44.0,0.0,0.0,4617.435897435898,3891.7948717948725,4510.769230769231,4395.8974358974365,4218.461538461539,4571.282051282052,4533.333333333334,4474.358974358975,4446.666666666667,4760.512820512821,4370.769230769231,4217.435897435898,4232.307692307693,4569.2307692307695
536.9614,0.19098596,1.0,0.6666667,0.047469486,0,0.0,0.0,0.0,0.0,0.0,0,0,0.0,0.0,0,0,44.0,0.0,0.0,4617.435897435898,3891.7948717948725,4510.769230769231,4395.8974358974365,4218.461538461539,4571.282051282052,4533.333333333334,4474.358974358975,4446.666666666667,4760.512820512821,4370.769230769231,4217.435897435898,4232.307692307693,4569.2307692307695
537.4619,0.234796,1.0,0.6666667,0.041585527,0,0.0,0.0,0.0,0.0,0.0,0,0,0.0,0.0,0,0,108.0,0.0,495.0,4538.461538461539,3747.692307692308,4428.205128205129,4288.205128205129,4248.717948717949,4480.000000000001,4426.666666666667,4352.307692307693,4298.974358974359,4640.000000000001,4510.256410256411,4168.717948717949,4065.6410256410263,4255.384615384616
537.4619,0.234796,1.0,0.6666667,0.041585527,0,0.0,0.0,0.0,0.0,0.0,0,0,0.0,0.0,0,0,108.0,0.0,495.0,4538.461538461539,3747.692307692308,4428.205128205129,4288.205128205129,4248.717948717949,4480.000000000001,4426.666666666667,4352.307692307693,4298.974358974359,4640.000000000001,4510.256410256411,4168.717948717949,4065.6410256410263,4255.384615384616
537.96234,0.26021147,1.0,0.6666667,0.038472857,0,0.0,0.0,0.0,0.0,0.0,0,0,0.0,0.0,0,0,43.0,0.0,0.0,4546.666666666667,3819.48717948718,4466.153846153847,4353.846153846154,4238.461538461539,4461.538461538462,4357.435897435898,4322.051282051282,4285.128205128206,4674.871794871796,4604.615384615385,4106.666666666667,4108.205128205129,4338.974358974359
537.96234,0.26021147,1.0,0.6666667,0.038472857,0,0.0,0.0,0.0,0.0,0.0,0,0,0.0,0.0,0,0,43.0,0.0,0.0,4546.666666666667,3819.48717948718,4466.153846153847,4353.846153846154,4238.461538461539,4461.538461538462,4357.435897435898,4322.051282051282,4285.128205128206,4674.871794871796,4604.615384615385,4106.666666666667,4108.205128205129,4338.974358974359
538.5566,0.2928138,1.0,0.6666667,0.03413751,0,0.0,0.0,0.0,0.0,0.0,0,0,0.0,0.0,0,1,119.0,0.0,509.0,4613.333333333334,3930.2564102564106,4500.000000000001,4436.410256410257,4214.871794871796,4506.153846153847,4414.358974358975,4388.205128205129,4332.307692307693,4664.615384615386,4443.589743589744,4100.512820512821,4202.051282051282,4646.666666666667
538.5566,0.2928138,1.0,0.6666667,0.03413751,0,0.0,0.0,0.0,0.0,0.0,0,0,0.0,0.0,0,1,119.0,0.0,509.0,4613.333333333334,3930.2564102564106,4500.000000000001,4436.410256410257,4214.871794871796,4506.153846153847,4414.358974358975,4388.205128205129,4332.307692307693,4664.615384615386,4443.589743589744,4100.512820512821,4202.051282051282,4646.666666666667
538.9632,0.35527027,1.0,0.6666667,0.029606577,0,0.0,0.0,0.0,0.0,0.0,0,0,0.0,0.0,0,0,42.0,0.0,0.0,4658.461538461539,4013.8461538461543,4550.769230769231,4471.794871794872,4218.461538461539,4569.2307692307695,4510.769230769231,4505.128205128206,4435.384615384616,4715.8974358974365,4293.846153846154,4200.000000000001,4245.128205128206,4753.846153846154
538.9632,0.35527027,1.0,0.6666667,0.029606577,0,0.0,0.0,0.0,0.0,0.0,0,0,0.0,0.0,0,0,42.0,0.0,0.0,4658.461538461539,4013.8461538461543,4550.769230769231,4471.794871794872,4218.461538461539,4569.2307692307695,4510.769230769231,4505.128205128206,4435.384615384616,4715.8974358974365,4293.846153846154,4200.000000000001,4245.128205128206,4753.846153846154
539.4636,0.41530955,1.0,0.6666667,0.019075174,0,0.0,0.0,0.0,0.0,0.0,0,0,0.0,0.0,0,0,106.0,0.0,537.0,4704.615384615386,4051.2820512820517,4615.384615384616,4491.794871794872,4231.282051282052,4598.461538461539,4542.051282051282,4493.846153846154,4453.333333333334,4720.000000000001,4169.74358974359,4316.410256410257,4267.6923076923085,4655.384615384616
539.4636,0.41530955,1.0,0.6666667,0.019075174,0,0.0,0.0,0.0,0.0,0.0,0,0,0.0,0.0,0,0,106.0,0.0,537.0,4704.615384615386,4051.2820512820517,4615.384615384616,4491.794871794872,4231.282051282052,4598.461538461539,4542.051282051282,4493.846153846154,4453.333333333334,4720.000000000001,4169.74358974359,4316.410256410257,4267.6923076923085,4655.384615384616
539.96405,0.5018504,1.0,0.6666667,0.0037206411,0,0.0,0.0,0.0,0.0,0.0,0,0,0.0,0.0,0,0,41.0,0.0,0.0,4729.743589743591,4034.358974358975,4619.48717948718,4482.051282051282,4217.435897435898,4584.102564102564,4519.48717948718,4484.615384615385,4398.461538461539,4651.282051282052,4085.6410256410263,4303.589743589744,4166.153846153847,4450.769230769231
539.96405,0.5018504,1.0,0.6666667,0.0037206411,0,0.0,0.0,0.0,0.0,0.0,0,0,0.0,0.0,0,0,41.0,0.0,0.0,4729.743589743591,4034.358974358975,4619.48717948718,4482.051282051282,4217.435897435898,4584.102564102564,4519.48717948718,4484.615384615385,4398.461538461539,4651.282051282052,4085.6410256410263,4303.589743589744,4166.153846153847,4450.769230769231
540.4645,0.47790313,1.0,0.6666667,0.0,0,0.0,0.0,0.0,0.0,0.0,0,0,0.0,0.0,0,0,105.0,0.0,437.0,4734.358974358975,3978.9743589743593,4594.871794871796,4432.307692307693,4231.282051282052,4585.641025641026,4538.974358974359,4540.000000000001,4454.871794871796,4735.384615384616,4172.307692307693,4344.615384615385,4190.769230769231,4455.384615384616
540.4645,0.47790313,1.0,0.6666667,0.0,0,0.0,0.0,0.0,0.0,0.0,0,0,0.0,0.0,0,0,105.0,0.0,437.0,4734.358974358975,3978.9743589743593,4594.871794871796,4432.307692307693,4231.282051282052,4585.641025641026,4538.974358974359,4540.000000000001,4454.871794871796,4735.384615384616,4172.307692307693,4344.615384615385,4190.769230769231,4455.384615384616
540.9649,0.39533687,1.0,0.6666667,0.0,0,0.0,0.0,0.0,0.0,0.0,0,0,0.0,0.0,0,0,40.0,0.0,0.0,4733.333333333334,3951.7948717948725,4573.846153846154,4416.410256410257,4246.153846153847,4563.076923076924,4509.743589743591,4551.282051282052,4476.923076923077,4773.333333333334,4235.8974358974365,4342.051282051282,4225.641025641026,4662.564102564103
541.2151,0.39533687,1.0,0.6666667,0.0,0,0.0,0.0,0.0,0.0,0.24525654,0,0,0.0,0.0,0,0,72.0,0.0,448.0,4727.179487179488,3926.1538461538466,4571.282051282052,4394.358974358975,4246.666666666667,4545.128205128206,4488.205128205129,4514.871794871796,4455.8974358974365,4780.512820512821,4276.410256410257,4359.48717948718,4236.923076923077,4727.179487179488
541.46533,0.3716743,1.0,0.6666667,0.0,0,0.0,0.0,0.0,0.0,0.0,0,0,0.0,0.0,0,0,104.0,0.0,499.0,4721.025641025642,3908.717948717949,4554.871794871796,4381.538461538462,4230.256410256411,4540.512820512821,4491.282051282052,4470.256410256411,4392.820512820514,4715.8974358974365,4226.666666666667,4317.435897435898,4181.025641025642,4780.512820512821
541.46533,0.3716743,1.0,0.6666667,0.0,0,0.0,0.0,0.0,0.0,0.0,0,0,0.0,0.0,0,0,104.0,0.0,499.0,4721.025641025642,3908.717948717949,4554.871794871796,4381.538461538462,4230.256410256411,4540.512820512821,4491.282051282052,4470.256410256411,4392.820512820514,4715.8974358974365,4226.666666666667,4317.435897435898,4181.025641025642,4780.512820512821
541.96576,0.38107356,1.0,0.6666667,0.0,0,0.0,0.0,0.0,0.0,0.9301659,0,0,0.0,0.0,0,0,39.0,0.0,0.0,4698.974358974359,3896.9230769230776,4523.589743589744,4387.6923076923085,4249.2307692307695,4536.410256410257,4474.358974358975,4465.641025641026,4426.153846153847,4769.743589743591,4298.461538461539,4314.871794871796,4223.076923076924,4584.102564102564
542.21594,0.38107356,1.0,0.6666667,0.0,0,0.0,0.0,0.0,0.0,0.20574567,0,0,0.0,0.0,0,0,71.0,0.0,443.0,4684.102564102564,3898.9743589743593,4527.179487179488,4384.615384615385,4247.179487179487,4521.538461538462,4468.717948717949,4449.2307692307695,4425.128205128206,4785.128205128206,4306.153846153847,4303.589743589744,4233.333333333334,4559.48717948718
542.4662,0.31314197,1.0,0.6666667,0.0,0,0.0,0.0,0.0,0.0,0.0,0,0,0.0,0.0,0,0,103.0,0.0,505.0,4664.102564102564,3875.3846153846157,4503.076923076924,4356.923076923077,4248.205128205129,4550.256410256411,4475.384615384616,4446.666666666667,4429.2307692307695,4768.717948717949,4285.641025641026,4263.589743589744,4195.8974358974365,4443.076923076924
542.4662,0.31314197,1.0,0.6666667,0.0,0,0.0,0.0,0.0,0.0,0.0,0,0,0.0,0.0,0,0,103.0,0.0,505.0,4664.102564102564,3875.3846153846157,4503.076923076924,4356.923076923077,4248.205128205129,4550.256410256411,4475.384615384616,4446.666666666667,4429.2307692307695,4768.717948717949,4285.641025641026,4263.589743589744,4195.8974358974365,4443.076923076924
542.9666,0.30004746,1.0,0.6666667,0.0,0,0.0,0.0,0.0,0.0,0.0,0,0,0.0,0.0,0,0,38.0,0.0,0.0,4667.6923076923085,3894.8717948717954,4506.666666666667,4381.025641025642,4261.538461538462,4538.974358974359,4457.435897435898,4434.871794871796,4417.435897435898,4762.051282051282,4294.871794871796,4259.48717948718,4195.8974358974365,4480.000000000001
542.9666,0.30004746,1.0,0.6666667,0.0,0,0.0,0.0,0.0,0.0,0.0,0,0,0.0,0.0,0,0,38.0,0.0,0.0,4667.6923076923085,3894.8717948717954,4506.666666666667,4381.025641025642,4261.538461538462,4538.974358974359,4457.435897435898,4434.871794871796,4417.435897435898,4762.051282051282,4294.871794871796,4259.48717948718,4195.8974358974365,4480.000000000001
543.46704,0.3101509,0.96599376,0.6666667,0.0,0,0.0,0.0,0.0,0.0,0.0,0,0,0.0,0.0,0,0,102.0,0.0,537.0,4684.102564102564,3909.7435897435903,4519.48717948718,4396.923076923077,4248.205128205129,4522.051282051282,4442.564102564103,4421.538461538462,4385.128205128206,4733.333333333334,4295.8974358974365,4247.6923076923085,4155.8974358974365,4443.589743589744
543.46704,0.3101509,0.96599376,0.6666667,0.0,0,0.0,0.0,0.0,0.0,0.0,0,0,0.0,0.0,0,0,102.0,0.0,537.0,4684.102564102564,3909.7435897435903,4519.48717948718,4396.923076923077,4248.205128205129,4522.051282051282,4442.564102564103,4421.538461538462,4385.128205128206,4733.333333333334,4295.8974358974365,4247.6923076923085,4155.8974358974365,4443.589743589744
543.96747,0.25294688,0.91796875,0.6666667,0.0,0,0.0,0.0,0.0,0.0,1.0,0,0,0.0,0.0,0,0,37.0,0.0,0.0,4682.564102564103,3903.589743589744,4530.769230769231,4398.461538461539,4245.641025641026,4519.48717948718,4466.666666666667,4422.051282051282,4393.333333333334,4726.666666666667,4320.000000000001,4256.410256410257,4163.589743589744,4675.8974358974365
544.24896,0.25294688,0.91796875,0.6666667,0.0,0,0.0,0.0,0.0,0.0,0.97451687,0,0,0.0,0.0,0,0,73.0,0.0,473.0,4646.666666666667,3864.1025641025644,4520.512820512821,4373.846153846154,4242.564102564103,4523.076923076924,4455.8974358974365,4426.153846153847,4397.435897435898,4729.743589743591,4333.846153846154,4268.205128205129,4168.205128205129,4538.461538461539
544.4679,0.21883379,0.8699683,0.6666667,0.0,0,0.0,0.0,0.0,0.0,1.0,0,0,0.0,0.0,0,0,101.0,0.0,437.0,4638.461538461539,3879.48717948718,4540.512820512821,4382.051282051282,4241.025641025642,4522.051282051282,4456.923076923077,4422.051282051282,4383.589743589744,4723.589743589744,4374.871794871796,4297.948717948719,4174.871794871796,4477.948717948719
544.4679,0.21883379,0.8699683,0.6666667,0.0,0,0.0,0.0,0.0,0.0,1.0,0,0,0.0,0.0,0,0,101.0,0.0,437.0,4638.461538461539,3879.48717948718,4540.512820512821,4382.051282051282,4241.025641025642,4522.051282051282,4456.923076923077,4422.051282051282,4383.589743589744,4723.589743589744,4374.871794871796,4297.948717948719,4174.871794871796,4477.948717948719
544.9683,0.20503995,0.81803757,0.6666667,0.0078141885,0,0.0,0.0,0.0,0.0,1.0,0,0,0.0,0.0,0,0,36.0,0.0,0.0,4637.948717948719,3896.410256410257,4540.512820512821,4399.48717948718,4266.666666666667,4518.974358974359,4461.025641025642,4427.179487179487,4356.923076923077,4698.461538461539,4392.307692307693,4292.307692307693,4169.2307692307695,4750.769230769231
544.9683,0.20503995,0.81803757,0.6666667,0.0078141885,0,0.0,0.0,0.0,0.0,1.0,0,0,0.0,0.0,0,0,36.0,0.0,0.0,4637.948717948719,3896.410256410257,4540.512820512821,4399.48717948718,4266.666666666667,4518.974358974359,4461.025641025642,4427.179487179487,4356.923076923077,4698.461538461539,4392.307692307693,4292.307692307693,4169.2307692307695,4750.769230769231
545.46875,0.15494679,0.7559729,0.6666667,0.045123067,0,0.0,0.0,0.0,0.0,1.0,0,0,0.0,0.0,0,0,100.0,0.0,499.0,4650.256410256411,3896.9230769230776,4540.000000000001,4398.461538461539,4262.051282051282,4508.717948717949,4458.461538461539,4424.615384615385,4373.333333333334,4722.051282051282,4423.589743589744,4300.512820512821,4202.564102564103,4648.717948717949
545.46875,0.15494679,0.7559729,0.6666667,0.045123067,0,0.0,0.0,0.0,0.0,1.0,0,0,0.0,0.0,0,0,100.0,0.0,499.0,4650.256410256411,3896.9230769230776,4540.000000000001,4398.461538461539,4262.051282051282,4508.717948717949,4458.461538461539,4424.615384615385,4373.333333333334,4722.051282051282,4423.589743589744,4300.512820512821,4202.564102564103,4648.717948717949
545.9692,0.12674451,0.6917589,0.6666667,0.09380154,0,0.0,0.0,0.0,0.0,1.0,0,0,0.0,0.0,0,0,35.0,0.0,0.0,4649.743589743591,3880.0000000000005,4508.205128205129,4382.564102564103,4252.307692307693,4535.384615384616,4467.179487179487,4417.435897435898,4376.410256410257,4718.461538461539,4366.153846153847,4257.435897435898,4201.538461538462,4506.666666666667
546.2194,0.12674451,0.6917589,0.6666667,0.09380154,0,0.0,0.0,0.0,0.0,0.37411356,0,0,0.0,0.0,0,0,67.0,0.0,544.0,4660.512820512821,3891.7948717948725,4516.923076923077,4389.743589743591,4249.2307692307695,4538.461538461539,4448.205128205129,4405.641025641026,4377.435897435898,4727.6923076923085,4365.128205128206,4261.025641025642,4214.358974358975,4600.512820512821
546.4696,0.07976161,0.62871724,0.6666667,0.15170074,0,0.0,0.0,0.0,0.0,0.70380205,0,0,0.0,0.0,0,0,99.0,0.0,508.0,4662.051282051282,3884.615384615385,4520.512820512821,4383.076923076924,4251.794871794872,4553.846153846154,4473.846153846154,4430.769230769231,4398.461538461539,4733.846153846154,4346.153846153847,4265.641025641026,4201.025641025642,4584.615384615385
546.71985,0.07976161,0.62871724,0.6666667,0.15170074,0,0.0,0.0,0.0,0.0,0.7600196,0,0,0.0,0.0,0,0,2.0,0.0,245.0,4669.743589743591,3895.3846153846157,4524.102564102564,4384.615384615385,4247.6923076923085,4552.820512820514,4475.8974358974365,4437.435897435898,4424.615384615385,4759.48717948718,4354.871794871796,4277.948717948719,4226.666666666667,4524.615384615385
546.97003,0.0552755,0.58058834,0.6666667,0.20529784,0,0.0,0.0,0.0,0.0,1.0,0,0,0.0,0.0,0,0,34.0,0.0,0.0,4661.538461538462,3891.2820512820517,4517.435897435898,4380.512820512821,4245.128205128206,4548.205128205129,4459.48717948718,4397.948717948719,4395.384615384616,4731.282051282052,4327.6923076923085,4250.769230769231,4192.820512820514,4405.128205128206
547.2203,0.0552755,0.58058834,0.6666667,0.20529784,1,0.0,0.0,0.0,0.0,0.39270115,0,0,0.0,0.0,0,0,66.0,0.0,245.0,4694.871794871796,3896.410256410257,4551.282051282052,4395.8974358974365,4245.128205128206,4552.307692307693,4476.410256410257,4412.820512820514,4406.153846153847,4742.564102564103,4361.025641025642,4293.333333333334,4217.435897435898,4487.6923076923085
547.47046,0.06574799,0.5474181,0.6666667,0.25406927,0,0.0,0.0,0.0,0.0,0.495447,0,0,0.0,0.0,0,0,98.0,0.0,536.0,4651.282051282052,3869.2307692307695,4523.076923076924,4367.6923076923085,4249.74358974359,4557.435897435898,4475.8974358974365,4400.000000000001,4369.2307692307695,4709.2307692307695,4331.282051282052,4252.307692307693,4146.666666666667,4371.282051282052
547.7207,0.06574799,0.5474181,0.6666667,0.25406927,0,0.0,0.0,0.0,0.0,0.307868,0,0,0.0,0.0,0,0,1.0,0.0,471.0,4649.2307692307695,3884.1025641025644,4527.179487179488,4383.076923076924,4249.74358974359,4568.205128205129,4491.282051282052,4414.871794871796,4387.179487179487,4726.666666666667,4354.358974358975,4248.205128205129,4156.410256410257,4381.538461538462
547.9709,0.034503162,0.5150391,0.6666667,0.30151942,0,0.0,0.0,0.0,0.0,0.1570573,0,0,0.0,0.0,0,0,33.0,0.0,0.0,4654.871794871796,3906.666666666667,4558.461538461539,4405.128205128206,4249.2307692307695,4553.333333333334,4475.384615384616,4390.769230769231,4366.153846153847,4720.000000000001,4384.102564102564,4265.641025641026,4138.974358974359,4432.307692307693
548.2211,0.034503162,0.5150391,0.6666667,0.30151942,0,0.0,0.0,0.0,0.0,0.38389385,0,0,0.0,0.0,0,0,65.0,0.0,471.0,4642.051282051282,3910.2564102564106,4524.615384615385,4405.128205128206,4247.179487179487,4540.000000000001,4458.974358974359,4369.2307692307695,4335.384615384616,4680.512820512821,4353.333333333334,4244.615384615385,4123.076923076924,4432.307692307693
548.4714,0.007633079,0.48435098,0.6590173,0.3481,0,0.0,0.0,0.0,0.0,0.6990098,0,0,0.0,0.0,0,0,97.0,0.0,437.0,4652.307692307693,3925.1282051282055,4542.564102564103,4414.871794871796,4249.2307692307695,4552.307692307693,4472.820512820514,4380.000000000001,4351.282051282052,4703.076923076924,4358.461538461539,4253.333333333334,4138.461538461539,4489.743589743591
548.72156,0.007633079,0.48435098,0.6590173,0.3481,0,0.0,0.0,0.0,0.0,0.14410472,0,0,0.0,0.0,0,0,0.0,0.0,513.0,4629.2307692307695,3892.820512820513,4504.615384615385,4394.358974358975,4245.128205128206,4537.435897435898,4456.923076923077,4372.307692307693,4354.358974358975,4701.025641025642,4348.717948717949,4244.102564102564,4150.256410256411,4473.846153846154
548.9718,0.0,0.4599272,0.61845803,0.39055306,0,0.0,0.0,0.0,0.0,0.08872332,0,0,0.0,0.0,0,0,32.0,0.0,0.0,4642.564102564103,3918.461538461539,4524.102564102564,4413.333333333334,4248.717948717949,4544.615384615385,4470.769230769231,4397.948717948719,4380.512820512821,4742.051282051282,4365.128205128206,4274.871794871796,4200.000000000001,4509.2307692307695
549.09686,0.0,0.4599272,0.61845803,0.39055306,0,0.0,0.0,0.0,0.0,0.0,0,0,0.0,0.0,0,0,48.0,0.0,0.0,4630.256410256411,3910.2564102564106,4522.051282051282,4405.641025641026,4249.74358974359,4537.435897435898,4458.974358974359,4398.974358974359,4384.615384615385,4725.641025641026,4356.923076923077,4272.307692307693,4184.615384615385,4488.717948717949
549.4722,0.0,0.43459693,0.5819786,0.43156344,0,0.0,0.0,0.0,0.0,0.0,0,0,0.0,0.0,0,0,96.0,0.0,499.0,4573.333333333334,3847.692307692308,4525.128205128206,4377.948717948719,4250.256410256411,4504.102564102564,4445.128205128206,4390.256410256411,4347.179487179487,4690.256410256411,4395.384615384616,4301.025641025642,4156.923076923077,4358.461538461539
549.7224,0.0,0.43459693,0.5819786,0.43156344,0,0.0,0.0,0.0,0.0,0.38947365,0,0,0.0,0.0,0,0,128.0,0.0,499.0,4509.2307692307695,3780.512820512821,4504.615384615385,4336.410256410257,4275.384615384616,4430.769230769231,4388.205128205129,4298.974358974359,4248.717948717949,4602.564102564103,4521.538461538462,4292.820512820514,4075.3846153846157,4280.000000000001
549.97266,0.11505195,0.40935776,0.55005413,0.47114587,0,0.0,0.0,0.0,0.0,0.010002156,0,0,0.0,0.0,0,0,31.0,0.0,0.0,4492.307692307693,3734.8717948717954,4454.358974358975,4316.410256410257,4280.000000000001,4396.410256410257,4337.948717948719,4240.512820512821,4203.589743589744,4569.2307692307695,4665.128205128206,4262.051282051282,4063.076923076924,4292.820512820514
550.22284,0.11505195,0.40935776,0.55005413,0.47114587,0,0.0,0.0,0.0,0.0,0.0,0,0,0.0,0.11459148,0,0,63.0,0.0,0.0,4474.871794871796,3748.717948717949,4397.435897435898,4332.307692307693,4268.717948717949,4396.923076923077,4333.333333333334,4242.051282051282,4218.461538461539,4609.743589743591,4722.564102564103,4184.102564102564,4127.179487179487,4357.948717948719
550.4731,0.23962905,0.38526964,0.52294695,0.50676286,0,0.0,0.0,0.0,0.0,1.0,0,0,0.0,0.0,0,0,95.0,0.0,511.0,4498.974358974359,3791.2820512820517,4352.307692307693,4360.000000000001,4261.025641025642,4421.025641025642,4344.102564102564,4261.538461538462,4263.589743589744,4642.564102564103,4690.256410256411,4131.282051282052,4148.205128205129,4490.769230769231
550.4731,0.23962905,0.38526964,0.52294695,0.50676286,0,0.0,0.0,0.0,0.0,1.0,0,0,0.0,0.0,0,0,95.0,0.0,511.0,4498.974358974359,3791.2820512820517,4352.307692307693,4360.000000000001,4261.025641025642,4421.025641025642,4344.102564102564,4261.538461538462,4263.589743589744,4642.564102564103,4690.256410256411,4131.282051282052,4148.205128205129,4490.769230769231
550.9735,0.28616685,0.37403813,0.4992082,0.54322666,0,0.0,0.0,0.0,0.0,0.066072196,0,0,0.0,0.0,0,0,30.0,0.0,0.0,4562.564102564103,3926.666666666667,4443.076923076924,4446.666666666667,4233.846153846154,4505.128205128206,4436.923076923077,4334.871794871796,4357.435897435898,4693.846153846154,4545.128205128206,4152.307692307693,4217.435897435898,4600.512820512821
551.2237,0.28616685,0.37403813,0.4992082,0.54322666,0,0.0,0.0,0.0,0.0,0.45163673,0,0,0.0,0.0,0,0,62.0,0.0,0.0,4599.48717948718,3997.9487179487182,4478.461538461539,4479.48717948718,4229.2307692307695,4536.923076923077,4474.358974358975,4378.461538461539,4393.333333333334,4711.282051282052,4437.435897435898,4195.8974358974365,4234.871794871796,4713.846153846154
551.47394,0.35949054,0.37179548,0.47845122,0.57813203,0,0.0,0.0,0.0,0.0,0.1610683,0,0,0.0,0.0,0,0,94.0,0.0,536.0,4636.923076923077,4033.8461538461543,4510.256410256411,4490.769230769231,4215.8974358974365,4555.8974358974365,4520.000000000001,4429.2307692307695,4423.076923076924,4735.8974358974365,4352.820512820514,4247.179487179487,4247.6923076923085,4689.2307692307695
551.7241,0.35949054,0.37179548,0.47845122,0.57813203,0,0.0,0.0,0.0,0.0,0.7246202,0,0,0.0,0.0,0,0,126.0,0.0,536.0,4675.384615384616,4062.0512820512827,4554.358974358975,4507.6923076923085,4217.435897435898,4598.461538461539,4556.410256410257,4473.333333333334,4472.820512820514,4771.282051282052,4286.666666666667,4295.384615384616,4287.179487179487,4613.333333333334
551.97437,0.434826,0.3684945,0.46024984,0.6074544,0,0.0,0.0,0.0,0.0,0.73163956,0,0,0.0,0.0,0,0,29.0,0.0,0.0,4703.589743589744,4076.410256410257,4590.256410256411,4508.717948717949,4217.948717948719,4609.743589743591,4568.205128205129,4486.153846153847,4484.615384615385,4782.564102564103,4236.923076923077,4304.102564102564,4276.410256410257,4551.282051282052
552.22455,0.434826,0.3684945,0.46024984,0.6074544,0,0.0,0.0,0.0,0.0,0.3562062,0,0,0.0,0.0,0,0,61.0,0.0,0.0,4711.794871794872,4050.2564102564106,4586.153846153847,4490.769230769231,4229.74358974359,4605.128205128206,4535.384615384616,4480.512820512821,4473.333333333334,4766.153846153847,4208.205128205129,4308.205128205129,4240.512820512821,4523.589743589744
552.4748,0.49818662,0.36972684,0.44391698,0.6281755,0,0.0,0.0,0.0,0.0,0.13555315,0,0,0.0,0.0,0,0,93.0,0.0,438.0,4731.282051282052,4051.7948717948725,4587.6923076923085,4503.589743589744,4241.538461538462,4615.384615384616,4538.974358974359,4489.2307692307695,4478.461538461539,4766.153846153847,4198.974358974359,4310.769230769231,4223.589743589744,4554.358974358975
552.725,0.49818662,0.36972684,0.44391698,0.6281755,0,0.0,0.0,0.0,0.0,0.0,0,0,0.0,0.2776544,0,0,125.0,0.0,438.0,4749.743589743591,4046.1538461538466,4598.461538461539,4495.384615384616,4233.846153846154,4601.538461538462,4535.8974358974365,4499.48717948718,4474.358974358975,4765.641025641026,4203.589743589744,4324.615384615385,4230.256410256411,4555.384615384616
552.9752,0.48478472,0.36822206,0.42921433,0.6387681,0,0.0,0.0,0.0,0.0,0.0,0,0,0.0,0.0,0,0,28.0,0.0,0.0,4744.615384615386,4024.1025641025644,4580.000000000001,4471.794871794872,4234.871794871796,4583.076923076924,4520.512820512821,4489.2307692307695,4455.8974358974365,4737.948717948719,4187.179487179487,4305.641025641026,4203.589743589744,4555.384615384616
552.9752,0.48478472,0.36822206,0.42921433,0.6387681,0,0.0,0.0,0.0,0.0,0.0,0,0,0.0,0.0,0,0,28.0,0.0,0.0,4744.615384615386,4024.1025641025644,4580.000000000001,4471.794871794872,4234.871794871796,4583.076923076924,4520.512820512821,4489.2307692307695,4455.8974358974365,4737.948717948719,4187.179487179487,4305.641025641026,4203.589743589744,4555.384615384616
553.47565,0.46239144,0.36577854,0.41488647,0.64212847,0,0.0,0.0,0.0,0.0,0.0,0,0,0.0,0.0,0,0,92.0,0.0,498.0,4760.512820512821,3993.8461538461543,4555.384615384616,4455.8974358974365,4246.153846153847,4554.358974358975,4492.820512820514,4486.153846153847,4434.871794871796,4736.410256410257,4215.384615384616,4298.974358974359,4187.179487179487,4587.6923076923085
553.7259,0.46239144,0.36577854,0.41488647,0.64212847,0,0.0,0.0,0.0,0.0,0.27868226,0,0,0.0,0.0,0,0,124.0,0.0,498.0,4766.153846153847,4004.1025641025644,4585.641025641026,4473.333333333334,4248.717948717949,4524.615384615385,4487.179487179488,4473.846153846154,4435.8974358974365,4752.307692307693,4236.410256410257,4312.820512820514,4196.410256410257,4568.717948717949
553.9761,0.40476874,0.36827058,0.40308142,0.64173424,0,0.0,0.0,0.0,0.0,0.0,0,0,0.0,0.0,0,0,27.0,0.0,0.0,4746.666666666667,3981.538461538462,4562.564102564103,4458.974358974359,4248.205128205129,4508.717948717949,4475.8974358974365,4461.025641025642,4416.923076923077,4750.769230769231,4243.589743589744,4298.974358974359,4165.641025641026,4493.846153846154
554.2263,0.40476874,0.36827058,0.40308142,0.64173424,0,0.0,0.0,0.0,0.0,1.0,0,0,0.0,0.0,0,0,59.0,0.0,0.0,4781.025641025642,3985.6410256410263,4578.461538461539,4461.025641025642,4246.666666666667,4506.153846153847,4475.8974358974365,4458.461538461539,4410.769230769231,4748.717948717949,4269.74358974359,4311.282051282052,4171.794871794872,4514.871794871796
554.4765,0.34405056,0.37867874,0.39245415,0.6362087,0,0.0,0.0,0.0,0.0,0.0,0,0,0.0,0.0,0,1,91.0,0.0,505.0,4732.820512820514,3929.7435897435903,4553.333333333334,4414.358974358975,4242.051282051282,4519.48717948718,4474.358974358975,4437.948717948719,4401.025641025642,4748.205128205129,4277.435897435898,4295.8974358974365,4156.410256410257,4422.051282051282
554.69543,0.34405056,0.37867874,0.39245415,0.6362087,0,0.0,0.0,0.0,0.0,0.0,0,0,0.0,0.0,0,0,119.0,0.0,505.0,4731.794871794872,3911.7948717948725,4540.000000000001,4393.846153846154,4238.974358974359,4509.743589743591,4474.358974358975,4425.128205128206,4393.333333333334,4747.6923076923085,4278.974358974359,4280.512820512821,4151.794871794872,4406.153846153847
554.9769,0.28091207,0.38375214,0.38457432,0.63123393,0,0.0,0.0,0.0,0.0,0.0,0,0,0.0,0.0,0,0,26.0,0.0,0.0,4716.923076923077,3942.0512820512827,4525.128205128206,4422.564102564103,4257.948717948719,4513.333333333334,4438.461538461539,4423.076923076924,4403.589743589744,4768.717948717949,4328.205128205129,4281.025641025642,4175.8974358974365,4459.48717948718
555.2272,0.28091207,0.38375214,0.38457432,0.63123393,1,0.0,0.0,0.0,0.0,0.7611905,0,0,0.0,0.0,0,0,58.0,0.0,0.0,4719.48717948718,3942.0512820512827,4523.589743589744,4428.205128205129,4262.564102564103,4507.179487179488,4429.2307692307695,4412.307692307693,4398.974358974359,4752.820512820514,4351.794871794872,4287.6923076923085,4184.615384615385,4553.846153846154
555.47736,0.26436272,0.38654527,0.38121235,0.6241898,0,0.0,0.0,0.0,0.0,0.4748128,0,0,0.0,0.0,0,0,90.0,0.0,536.0,4693.846153846154,3932.307692307693,4505.641025641026,4420.000000000001,4259.48717948718,4522.564102564103,4456.410256410257,4427.179487179487,4400.000000000001,4748.205128205129,4325.128205128206,4250.256410256411,4169.74358974359,4488.205128205129
555.7276,0.26436272,0.38654527,0.38121235,0.6241898,0,0.0,0.0,0.0,0.0,0.29173777,0,0,0.0,0.0,0,0,122.0,0.0,536.0,4693.846153846154,3934.8717948717954,4513.846153846154,4427.179487179487,4260.512820512821,4521.538461538462,4456.923076923077,4441.538461538462,4410.256410256411,4764.102564102564,4444.615384615385,4269.74358974359,4200.512820512821,4554.871794871796
555.9778,0.22547431,0.38648117,0.38020262,0.61750364,0,0.0,0.0,0.0,0.0,0.21794721,0,0,0.0,0.0,0,0,25.0,0.0,0.0,4693.846153846154,3927.1794871794878,4522.564102564103,4427.179487179487,4262.051282051282,4530.256410256411,4476.410256410257,4462.051282051282,4427.6923076923085,4752.820512820514,4412.820512820514,4263.589743589744,4186.666666666667,4512.307692307693
556.1029,0.22547431,0.38648117,0.38020262,0.61750364,0,0.0,0.0,0.0,0.0,0.0,0,0,0.0,0.0,0,0,41.0,0.0,0.0,4695.384615384616,3927.1794871794878,4524.102564102564,4426.666666666667,4264.102564102564,4523.076923076924,4461.025641025642,4445.128205128206,4400.512820512821,4730.769230769231,4384.102564102564,4255.384615384616,4167.179487179487,4507.179487179488
556.4782,0.16461106,0.3730394,0.3805622,0.6124927,0,0.0,0.0,0.0,0.0,0.37579557,0,0,0.0,0.0,0,0,89.0,0.0,438.0,4681.538461538462,3914.8717948717954,4534.871794871796,4417.435897435898,4266.153846153847,4513.333333333334,4448.717948717949,4443.076923076924,4397.948717948719,4725.128205128206,4391.794871794872,4267.179487179487,4163.589743589744,4550.769230769231
556.72845,0.16461106,0.3730394,0.3805622,0.6124927,0,0.0,0.0,0.0,0.0,0.17813002,0,0,0.0,0.0,0,0,121.0,0.0,438.0,4651.282051282052,3893.333333333334,4529.743589743591,4405.128205128206,4267.6923076923085,4479.48717948718,4418.461538461539,4380.000000000001,4349.743589743591,4667.6923076923085,4450.256410256411,4262.564102564103,4083.076923076924,4442.564102564103
556.97864,0.21242374,0.36285672,0.38173863,0.6137292,0,0.0,0.0,0.0,0.0,0.24740973,0,0,0.0,0.0,0,0,24.0,0.0,0.0,4628.717948717949,3862.564102564103,4548.205128205129,4395.384615384616,4279.48717948718,4454.871794871796,4411.282051282052,4319.48717948718,4276.410256410257,4603.076923076924,4525.128205128206,4247.6923076923085,4016.9230769230776,4379.48717948718
557.2289,0.21242374,0.36285672,0.38173863,0.6137292,0,0.0,0.0,0.0,0.0,0.0,0,0,0.0,0.2558205,0,0,56.0,0.0,0.0,4620.512820512821,3891.2820512820517,4535.8974358974365,4417.948717948719,4291.282051282052,4458.461538461539,4430.256410256411,4284.615384615385,4245.128205128206,4580.000000000001,4556.410256410257,4217.435897435898,4029.7435897435903,4376.923076923077
557.47906,0.25590947,0.35071594,0.3833855,0.62011135,0,0.0,0.0,0.0,0.0,0.0,0,0,0.0,0.03682957,0,0,88.0,0.0,496.0,4626.666666666667,3912.820512820513,4508.717948717949,4442.564102564103,4296.410256410257,4475.8974358974365,4431.282051282052,4243.076923076924,4249.74358974359,4590.256410256411,4557.948717948719,4200.000000000001,4061.0256410256416,4372.307692307693
557.7293,0.25590947,0.35071594,0.3833855,0.62011135,0,0.0,0.0,0.0,0.0,0.13925545,0,0,0.0,0.0,0,0,120.0,0.0,496.0,4623.589743589744,3926.1538461538466,4479.48717948718,4441.538461538462,4285.641025641026,4494.871794871796,4429.2307692307695,4261.538461538462,4261.538461538462,4608.717948717949,4524.102564102564,4168.717948717949,4097.435897435898,4356.410256410257
557.9795,0.31276363,0.33751288,0.3864759,0.6218002,0,0.0,0.0,0.0,0.0,0.0,0,0,0.0,0.0,0,0,23.0,0.0,0.0,4677.948717948719,3976.9230769230776,4521.025641025642,4489.743589743591,4269.2307692307695,4506.153846153847,4449.743589743591,4328.205128205129,4335.384615384616,4675.384615384616,4522.051282051282,4232.820512820514,4187.6923076923085,4511.794871794872
557.9795,0.31276363,0.33751288,0.3864759,0.6218002,0,0.0,0.0,0.0,0.0,0.0,0,0,0.0,0.0,0,0,23.0,0.0,0.0,4677.948717948719,3976.9230769230776,4521.025641025642,4489.743589743591,4269.2307692307695,4506.153846153847,4449.743589743591,4328.205128205129,4335.384615384616,4675.384615384616,4522.051282051282,4232.820512820514,4187.6923076923085,4511.794871794872
558.4799,0.29523107,0.3352263,0.39090884,0.6273681,0,0.0,0.0,0.0,0.0,0.0,0,0,0.0,0.0,0,0,87.0,0.0,508.0,4652.820512820514,3981.0256410256416,4505.641025641026,4475.384615384616,4263.589743589744,4551.282051282052,4478.461538461539,4382.051282051282,4406.153846153847,4718.461538461539,4358.974358974359,4217.435897435898,4227.6923076923085,4489.2307692307695
558.4799,0.29523107,0.3352263,0.39090884,0.6273681,0,0.0,0.0,0.0,0.0,0.0,0,0,0.0,0.0,0,0,87.0,0.0,508.0,4652.820512820514,3981.0256410256416,4505.641025641026,4475.384615384616,4263.589743589744,4551.282051282052,4478.461538461539,4382.051282051282,4406.153846153847,4718.461538461539,4358.974358974359,4217.435897435898,4227.6923076923085,4489.2307692307695
558.98035,0.23241213,0.33726144,0.3948954,0.6326092,0,0.0,0.0,0.0,0.0,0.8451096,0,0,0.0,0.0,0,0,22.0,0.0,0.0,4597.435897435898,3875.3846153846157,4521.025641025642,4396.923076923077,4259.48717948718,4510.256410256411,4465.128205128206,4404.615384615385,4373.333333333334,4689.743589743591,4367.179487179487,4268.717948717949,4183.076923076924,4589.743589743591
559.2306,0.23241213,0.33726144,0.3948954,0.6326092,0,0.0,0.0,0.0,0.0,0.34154025,0,0,0.0,0.0,0,0,54.0,0.0,0.0,4557.948717948719,3815.3846153846157,4508.205128205129,4355.384615384616,4282.564102564103,4462.051282051282,4414.358974358975,4344.102564102564,4292.820512820514,4634.358974358975,4505.128205128206,4278.461538461539,4109.2307692307695,4557.435897435898
559.48083,0.2773976,0.33024526,0.3968671,0.64198744,0,0.0,0.0,0.0,0.0,0.6974361,0,0,0.0,0.0,0,0,86.0,0.0,537.0,4524.102564102564,3769.2307692307695,4441.538461538462,4281.538461538462,4281.025641025642,4444.102564102564,4388.205128205129,4308.205128205129,4249.2307692307695,4630.256410256411,4561.538461538462,4257.948717948719,4087.1794871794878,4429.743589743591
559.6059,0.2773976,0.33024526,0.3968671,0.64198744,0,0.0,0.0,0.0,0.0,1.0,0,0,0.0,0.0,0,0,102.0,0.0,537.0,4523.076923076924,3782.0512820512827,4441.538461538462,4297.435897435898,4282.051282051282,4445.641025641026,4384.615384615385,4309.2307692307695,4263.076923076924,4644.615384615385,4567.179487179488,4247.179487179487,4088.717948717949,4364.615384615385
559.98126,0.24427198,0.31263223,0.3974491,0.6552502,0,0.0,0.0,0.0,0.0,0.24087228,0,0,0.0,0.0,0,0,21.0,0.0,0.0,4541.538461538462,3846.666666666667,4442.051282051282,4350.769230769231,4268.205128205129,4492.307692307693,4383.076923076924,4355.8974358974365,4294.871794871796,4673.333333333334,4509.743589743591,4214.871794871796,4125.128205128206,4413.846153846154
560.23145,0.24427198,0.31263223,0.3974491,0.6552502,0,0.0,0.0,0.0,0.0,1.0,0,0,0.0,0.0,0,0,53.0,0.0,0.0,4567.179487179488,3895.8974358974365,4460.000000000001,4383.589743589744,4262.051282051282,4523.076923076924,4401.025641025642,4376.923076923077,4329.2307692307695,4683.589743589744,4443.589743589744,4217.948717948719,4153.333333333334,4506.153846153847
560.4817,0.2525363,0.30403656,0.39451975,0.66717225,0,0.0,0.0,0.0,0.0,1.0,0,0,0.0,0.0,0,0,89.0,0.0,438.0,4611.794871794872,3961.538461538462,4506.666666666667,4425.128205128206,4253.333333333334,4570.256410256411,4468.717948717949,4460.512820512821,4399.48717948718,4717.948717948719,4375.8974358974365,4265.128205128206,4227.179487179487,4726.666666666667
560.4817,0.2525363,0.30403656,0.39451975,0.66717225,0,0.0,0.0,0.0,0.0,1.0,0,0,0.0,0.0,0,0,89.0,0.0,438.0,4611.794871794872,3961.538461538462,4506.666666666667,4425.128205128206,4253.333333333334,4570.256410256411,4468.717948717949,4460.512820512821,4399.48717948718,4717.948717948719,4375.8974358974365,4265.128205128206,4227.179487179487,4726.666666666667
560.9821,0.33487442,0.30683714,0.3903455,0.67981356,0,0.0,0.0,0.0,0.0,0.6440045,0,0,0.0,0.0,0,0,20.0,0.0,0.0,4694.358974358975,4085.6410256410263,4598.461538461539,4507.6923076923085,4240.512820512821,4610.769230769231,4520.512820512821,4531.794871794872,4458.461538461539,4750.769230769231,4236.923076923077,4317.435897435898,4278.974358974359,4680.000000000001
561.2323,0.33487442,0.30683714,0.3903455,0.67981356,0,0.0,0.0,0.0,0.0,0.48578975,0,0,0.0,0.0,0,0,52.0,0.0,0.0,4711.794871794872,4078.9743589743593,4601.025641025642,4492.820512820514,4246.666666666667,4628.205128205129,4537.948717948719,4523.589743589744,4454.358974358975,4732.307692307693,4122.051282051282,4277.948717948719,4227.6923076923085,4570.769230769231
561.5138,0.33903983,0.32461146,0.38325348,0.6961819,0,0.0,0.0,0.0,0.0,0.26661995,0,0,0.0,0.0,0,0,88.0,0.0,497.0,4734.871794871796,4090.2564102564106,4623.076923076924,4490.256410256411,4234.358974358975,4615.384615384616,4537.948717948719,4506.666666666667,4457.948717948719,4747.6923076923085,4127.179487179487,4297.435897435898,4226.666666666667,4568.205128205129
561.7327,0.33903983,0.32461146,0.38325348,0.6961819,0,0.0,0.0,0.0,0.0,0.18378523,0,0,0.0,0.0,0,0,116.0,0.0,497.0,4750.256410256411,4082.0512820512827,4625.128205128206,4493.333333333334,4243.589743589744,4614.871794871796,4541.025641025642,4504.615384615385,4443.076923076924,4747.179487179488,4121.538461538462,4298.974358974359,4213.333333333334,4537.435897435898
561.983,0.37733737,0.34684047,0.37452456,0.7074896,0,0.0,0.0,0.0,0.0,1.0,0,0,0.0,0.0,0,0,19.0,0.0,0.0,4767.6923076923085,4055.3846153846157,4603.589743589744,4475.8974358974365,4235.384615384616,4584.102564102564,4523.589743589744,4492.820512820514,4443.589743589744,4761.538461538462,4147.6923076923085,4297.948717948719,4208.205128205129,4503.076923076924
562.23315,0.37733737,0.34684047,0.37452456,0.7074896,0,0.0,0.0,0.0,0.0,0.26910064,0,0,0.0,0.0,0,0,51.0,0.0,0.0,4771.282051282052,4045.1282051282055,4594.871794871796,4458.974358974359,4245.641025641026,4571.282051282052,4520.512820512821,4492.307692307693,4432.307692307693,4750.769230769231,4155.8974358974365,4298.461538461539,4190.256410256411,4535.8974358974365
562.4834,0.33030927,0.35524052,0.36666673,0.71597874,0,0.0,0.0,0.0,0.0,0.0,0,0,0.0,0.0,0,0,83.0,0.0,506.0,4766.666666666667,4020.5128205128212,4581.025641025642,4429.743589743591,4251.282051282052,4557.435897435898,4505.641025641026,4496.410256410257,4450.769230769231,4768.717948717949,4189.74358974359,4303.589743589744,4200.512820512821,4642.051282051282
562.7336,0.33030927,0.35524052,0.36666673,0.71597874,0,0.0,0.0,0.0,0.0,0.9005415,0,0,0.0,0.0,0,0,115.0,0.0,506.0,4767.6923076923085,3998.461538461539,4571.794871794872,4442.564102564103,4249.2307692307695,4538.974358974359,4490.769230769231,4480.512820512821,4443.589743589744,4757.435897435898,4205.128205128206,4299.48717948718,4189.74358974359,4588.717948717949
562.9838,0.31614804,0.35289222,0.3595932,0.71780324,0,0.0,0.0,0.0,0.0,0.53830254,0,0,0.0,0.0,0,0,18.0,0.0,0.0,4750.769230769231,3973.8461538461543,4552.307692307693,4429.743589743591,4242.051282051282,4537.435897435898,4490.256410256411,4507.179487179488,4450.256410256411,4779.48717948718,4245.128205128206,4312.820512820514,4229.74358974359,4568.717948717949
563.234,0.31614804,0.35289222,0.3595932,0.71780324,0,0.0,0.0,0.0,0.0,0.2864285,0,0,0.0,0.0,0,0,50.0,0.0,0.0,4737.435897435898,3915.3846153846157,4540.512820512821,4391.282051282052,4240.000000000001,4525.128205128206,4470.769230769231,4473.333333333334,4411.282051282052,4758.974358974359,4263.589743589744,4309.2307692307695,4221.538461538462,4575.8974358974365
563.48425,0.30197284,0.34333602,0.35499987,0.71739405,0,0.0,0.0,0.0,0.0,0.1493354,0,0,0.0,0.0,0,0,82.0,0.0,537.0,4734.358974358975,3924.615384615385,4533.846153846154,4402.564102564103,4247.6923076923085,4524.615384615385,4472.307692307693,4471.794871794872,4421.538461538462,4750.256410256411,4275.8974358974365,4305.641025641026,4207.6923076923085,4601.538461538462
563.73444,0.30197284,0.34333602,0.35499987,0.71739405,0,0.0,0.0,0.0,0.0,0.20220739,0,0,0.0,0.0,0,0,114.0,0.0,537.0,4721.025641025642,3910.7692307692314,4523.076923076924,4378.974358974359,4244.615384615385,4524.615384615385,4475.384615384616,4458.461538461539,4422.051282051282,4748.717948717949,4277.435897435898,4283.589743589744,4195.384615384616,4550.256410256411
563.9847,0.26188433,0.33876666,0.35333863,0.7063981,0,0.0,0.0,0.0,0.0,0.0,0,0,0.0,0.0,0,0,17.0,0.0,0.0,4723.076923076924,3924.1025641025644,4530.256410256411,4388.205128205129,4246.153846153847,4527.179487179488,4477.948717948719,4461.538461538462,4442.051282051282,4766.153846153847,4295.8974358974365,4298.974358974359,4214.358974358975,4597.435897435898
563.9847,0.26188433,0.33876666,0.35333863,0.7063981,0,0.0,0.0,0.0,0.0,0.0,0,0,0.0,0.0,0,0,17.0,0.0,0.0,4723.076923076924,3924.1025641025644,4530.256410256411,4388.205128205129,4246.153846153847,4527.179487179488,4477.948717948719,4461.538461538462,4442.051282051282,4766.153846153847,4295.8974358974365,4298.974358974359,4214.358974358975,4597.435897435898
564.4851,0.23068982,0.33881456,0.3526567,0.6924484,0,0.0,0.0,0.0,0.0,0.0,0,0,0.0,0.0,0,0,81.0,0.0,438.0,4715.384615384616,3923.589743589744,4538.974358974359,4401.538461538462,4248.205128205129,4520.512820512821,4457.948717948719,4446.153846153847,4441.538461538462,4751.282051282052,4311.282051282052,4304.615384615385,4171.282051282052,4673.333333333334
564.4851,0.23068982,0.33881456,0.3526567,0.6924484,0,0.0,0.0,0.0,0.0,0.0,0,0,0.0,0.0,0,0,81.0,0.0,438.0,4715.384615384616,3923.589743589744,4538.974358974359,4401.538461538462,4248.205128205129,4520.512820512821,4457.948717948719,4446.153846153847,4441.538461538462,4751.282051282052,4311.282051282052,4304.615384615385,4171.282051282052,4673.333333333334
564.98553,0.21462557,0.3479876,0.3521599,0.67989904,0,0.0,0.0,0.0,0.0,0.0,0,0,0.0,0.0,0,0,16.0,0.0,0.0,4698.974358974359,3917.435897435898,4518.461538461539,4401.025641025642,4255.8974358974365,4539.48717948718,4473.846153846154,4442.564102564103,4431.282051282052,4765.641025641026,4319.48717948718,4282.564102564103,4187.179487179487,4575.8974358974365
564.98553,0.21462557,0.3479876,0.3521599,0.67989904,0,0.0,0.0,0.0,0.0,0.0,0,0,0.0,0.0,0,0,16.0,0.0,0.0,4698.974358974359,3917.435897435898,4518.461538461539,4401.025641025642,4255.8974358974365,4539.48717948718,4473.846153846154,4442.564102564103,4431.282051282052,4765.641025641026,4319.48717948718,4282.564102564103,4187.179487179487,4575.8974358974365
