timestamp,excitement,frustration,meditation,engagementBoredom,blink,clench,laugh,smile,eyebrow,furrowBrow,lookLeft,lookRight,smirkLeft,smirkRight,winkLeft,winkRight,eeg0,eeg1,eeg2,eeg3,eeg4,eeg5,eeg6,eeg7,eeg8,eeg9,eeg10,eeg11,eeg12,eeg13,eeg14,eeg15,eeg16
667.46423,0.5903685,1.0,0.40963447,0.5916651,0,0.0,0.0,0.0,0.0,0.008549662,0,0,0.0,0.0,0,0,91.0,0.0,504.0,4693.846153846154,4109.74358974359,4609.743589743591,4615.8974358974365,4250.256410256411,4591.282051282052,4530.256410256411,4286.153846153847,4440.512820512821,4779.48717948718,4292.307692307693,4395.384615384616,4311.282051282052,4582.564102564103
667.7144,0.5366592,1.0,0.42323384,0.57493645,0,0.0,0.0,0.0,0.0,0.0,0,0,0.0,0.0,0,0,123.0,0.0,504.0,4691.282051282052,4068.205128205129,4600.512820512821,4563.076923076924,4251.282051282052,4587.6923076923085,4539.48717948718,2419.4871794871797,4414.358974358975,4807.179487179488,4314.358974358975,4394.358974358975,4296.410256410257,4507.6923076923085
667.7144,0.5366592,1.0,0.42323384,0.57493645,0,0.0,0.0,0.0,0.0,0.0,0,0,0.0,0.0,0,0,123.0,0.0,504.0,4691.282051282052,4068.205128205129,4600.512820512821,4563.076923076924,4251.282051282052,4587.6923076923085,4539.48717948718,2419.4871794871797,4414.358974358975,4807.179487179488,4314.358974358975,4394.358974358975,4296.410256410257,4507.6923076923085
668.2149,0.5612403,0.95084256,0.4355131,0.562194,0,0.0,0.0,0.0,0.0,0.0,0,0,0.0,0.0,0,0,58.0,0.0,0.0,4681.538461538462,4061.538461538462,4570.256410256411,4559.48717948718,4251.282051282052,4568.717948717949,4486.666666666667,3098.461538461539,4415.384615384616,4781.025641025642,4293.846153846154,4346.666666666667,4241.025641025642,4458.974358974359
668.4651,0.5612403,0.95084256,0.4355131,0.562194,0,0.0,0.0,0.0,0.0,0.0,0,0,0.0,0.0,0,0,90.0,0.0,531.0,4674.871794871796,4091.2820512820517,4571.794871794872,4602.564102564103,4246.153846153847,4555.8974358974365,4490.769230769231,2781.0256410256416,4416.923076923077,4766.153846153847,4323.589743589744,4345.641025641026,4248.717948717949,4444.102564102564
668.71533,0.656195,0.8854854,0.44436148,0.5580222,0,0.0,0.0,0.0,0.0,0.0,0,0,0.0,0.0,0,0,122.0,0.0,531.0,4666.153846153847,4073.333333333334,4552.307692307693,4571.282051282052,4246.666666666667,4552.307692307693,4475.384615384616,3302.0512820512827,4402.051282051282,4747.6923076923085,4286.666666666667,4323.589743589744,4211.282051282052,4401.025641025642
668.9655,0.656195,0.8854854,0.44436148,0.5580222,0,0.0,0.0,0.0,0.0,0.0,0,0,0.0,0.0,0,0,25.0,0.0,0.0,4667.6923076923085,4007.1794871794878,4538.461538461539,4505.128205128206,4245.128205128206,4540.512820512821,4473.846153846154,3565.1282051282055,4412.820512820514,4777.948717948719,4312.307692307693,4315.8974358974365,4229.74358974359,4458.461538461539
669.21576,0.5234292,0.82315814,0.44152963,0.55744386,0,0.0,0.0,0.0,0.0,0.0026793454,0,0,0.0,0.0,0,0,57.0,0.0,0.0,4672.307692307693,3983.589743589744,4529.2307692307695,4476.410256410257,4245.641025641026,4542.051282051282,4460.000000000001,3912.820512820513,4410.256410256411,4768.717948717949,4328.717948717949,4312.307692307693,4217.948717948719,4557.435897435898
669.46594,0.5234292,0.82315814,0.44152963,0.55744386,0,0.0,0.0,0.0,0.0,0.0,0,0,0.0,0.0,0,0,89.0,0.0,443.0,4671.794871794872,3975.8974358974365,4541.538461538462,4465.641025641026,4248.205128205129,4538.974358974359,4465.641025641026,4212.307692307693,4410.256410256411,4765.128205128206,4340.000000000001,4324.615384615385,4220.512820512821,4582.051282051282
669.6223,0.5131185,0.76288027,0.43071002,0.55692333,0,0.0,0.0,0.0,0.0,0.0,0,0,0.0,0.0,0,0,109.0,0.0,443.0,4666.153846153847,3971.2820512820517,4535.384615384616,4459.48717948718,4247.179487179487,4552.820512820514,4478.461538461539,4380.512820512821,4424.102564102564,4750.256410256411,4312.307692307693,4297.948717948719,4200.512820512821,4553.333333333334
669.9664,0.5131185,0.76288027,0.43071002,0.55692333,0,0.0,0.0,0.0,0.0,0.0,0,0,0.0,0.0,0,0,24.0,0.0,0.0,4705.641025641026,3894.8717948717954,4556.410256410257,4348.717948717949,4248.717948717949,4565.641025641026,4477.435897435898,5854.871794871796,4442.564102564103,4733.846153846154,4330.256410256411,4295.384615384616,4141.538461538462,4559.48717948718
670.2166,0.48788685,0.7321309,0.42097235,0.5564549,0,0.0,0.0,0.0,0.0,0.0,0,0,0.0,0.0,0,0,56.0,0.0,0.0,4709.743589743591,3820.0000000000005,4553.333333333334,4280.000000000001,4248.205128205129,4555.8974358974365,4468.205128205129,6011.794871794873,4434.871794871796,4753.846153846154,4324.102564102564,4266.666666666667,4108.717948717949,4560.512820512821
670.3417,0.48788685,0.7321309,0.42097235,0.5564549,0,0.0,0.0,0.0,0.0,0.0,0,0,0.0,0.0,0,0,72.0,0.0,449.0,4711.794871794872,3836.9230769230776,4560.000000000001,4295.8974358974365,4231.794871794872,4540.512820512821,4459.48717948718,5854.3589743589755,4442.564102564103,4766.153846153847,4352.307692307693,4280.000000000001,4120.000000000001,4582.051282051282
670.71704,0.4661179,0.73727745,0.41220844,0.55603325,0,0.0,0.0,0.0,0.0,0.0076731434,0,0,0.0,0.0,0,0,120.0,0.0,500.0,4704.102564102564,3832.307692307693,4554.358974358975,4306.153846153847,4230.769230769231,4540.512820512821,4488.205128205129,5604.102564102564,4476.410256410257,4785.128205128206,4430.256410256411,4317.948717948719,4188.717948717949,4684.615384615386
670.9672,0.4661179,0.73727745,0.41220844,0.55603325,0,0.0,0.0,0.0,0.0,0.0018236686,0,0,0.0,0.0,0,0,23.0,0.0,0.0,4672.307692307693,3843.076923076924,4603.076923076924,4343.076923076924,4200.512820512821,4539.48717948718,4492.307692307693,5371.794871794872,4428.205128205129,4730.256410256411,4493.333333333334,4352.820512820514,4119.48717948718,4595.384615384616
671.21747,0.47625703,0.7340117,0.40429085,0.55565274,0,0.0,0.0,0.0,0.0,0.0033818525,0,0,0.0,0.0,0,0,55.0,0.0,0.0,4643.076923076924,3817.435897435898,4645.641025641026,4345.641025641026,4184.615384615385,4491.794871794872,4473.846153846154,5108.205128205129,4326.153846153847,4654.871794871796,4603.076923076924,4359.48717948718,4021.538461538462,4571.794871794872
671.46765,0.47625703,0.7340117,0.40429085,0.55565274,0,0.0,0.0,0.0,0.0,0.017170707,0,0,0.0,0.0,0,1,87.0,0.0,506.0,4604.102564102564,3770.2564102564106,4552.820512820514,4294.871794871796,4184.102564102564,4453.846153846154,4397.948717948719,4718.974358974359,4208.717948717949,4566.153846153847,4597.948717948719,4266.153846153847,3891.7948717948725,4581.025641025642
671.78046,0.49602833,0.7313105,0.39716253,0.5553102,0,0.0,0.0,0.0,0.0,0.019309709,0,0,0.0,0.0,0,0,127.0,0.0,506.0,4520.000000000001,3790.7692307692314,4380.512820512821,4325.641025641026,4229.74358974359,4464.615384615385,4326.153846153847,4540.000000000001,4231.282051282052,4689.2307692307695,4536.923076923077,4123.076923076924,3943.589743589744,4463.589743589744
671.9681,0.49602833,0.7313105,0.39716253,0.5553102,0,0.0,0.0,0.0,0.0,0.01430345,0,0,0.0,0.0,0,0,22.0,0.0,0.0,4507.6923076923085,3828.205128205129,4341.025641025642,4356.923076923077,4229.2307692307695,4489.2307692307695,4340.000000000001,4484.102564102564,4244.615384615385,4733.846153846154,4509.2307692307695,4107.6923076923085,4003.076923076924,4441.025641025642
672.2183,0.46299487,0.72887933,0.39074475,0.5550018,0,0.0,0.0,0.0,0.0,0.0270566,0,0,0.0,0.0,0,0,54.0,0.0,0.0,4501.538461538462,3851.2820512820517,4352.820512820514,4380.000000000001,4228.717948717949,4521.538461538462,4373.333333333334,4441.025641025642,4244.615384615385,4780.000000000001,4458.461538461539,4087.692307692308,4073.333333333334,4421.538461538462
672.4685,0.46299487,0.72887933,0.39074475,0.5550018,0,0.0,0.0,0.0,0.0,0.05690436,0,0,0.0,0.0,0,0,86.0,0.0,534.0,4514.871794871796,3892.307692307693,4411.282051282052,4414.358974358975,4216.923076923077,4523.076923076924,4414.358974358975,4536.923076923077,4304.102564102564,4780.512820512821,4446.666666666667,4153.846153846154,4181.025641025642,4501.025641025642
672.71875,0.46811703,0.72669137,0.3849695,0.5547241,0,0.0,0.0,0.0,0.0,0.07995424,0,0,0.0,0.0,0,0,118.0,0.0,534.0,4560.000000000001,3929.2307692307695,4436.410256410257,4427.179487179487,4216.410256410257,4529.2307692307695,4416.410256410257,4583.076923076924,4386.666666666667,4782.051282051282,4410.769230769231,4188.205128205129,4247.179487179487,4557.435897435898
672.96893,0.46811703,0.72669137,0.3849695,0.5547241,0,0.0,0.0,0.0,0.0,0.074287884,0,0,0.0,0.0,0,0,21.0,0.0,0.0,4594.358974358975,4010.7692307692314,4503.589743589744,4479.48717948718,4212.820512820514,4561.025641025642,4477.948717948719,4600.512820512821,4444.102564102564,4774.358974358975,4366.153846153847,4252.307692307693,4281.025641025642,4609.2307692307695
673.09406,0.44756308,0.72472215,0.37977535,0.55447423,0,0.0,0.0,0.0,0.0,0.0,0,0,0.0,0.0,0,0,37.0,0.0,0.0,4601.538461538462,4020.0000000000005,4508.717948717949,4487.6923076923085,4204.615384615385,4567.179487179488,4490.256410256411,4588.717948717949,4465.641025641026,4764.615384615386,4334.871794871796,4261.538461538462,4285.641025641026,4625.641025641026
673.09406,0.44756308,0.72472215,0.37977535,0.55447423,0,0.0,0.0,0.0,0.0,0.0,0,0,0.0,0.0,0,0,37.0,0.0,0.0,4601.538461538462,4020.0000000000005,4508.717948717949,4487.6923076923085,4204.615384615385,4567.179487179488,4490.256410256411,4588.717948717949,4465.641025641026,4764.615384615386,4334.871794871796,4261.538461538462,4285.641025641026,4625.641025641026
673.5945,0.45471537,0.72294986,0.37574762,0.5542495,0,0.0,0.0,0.0,0.0,0.0,0,0,0.0,0.0,0,0,101.0,0.0,443.0,4640.000000000001,3966.1538461538466,4525.128205128206,4393.846153846154,4233.846153846154,4554.871794871796,4457.948717948719,4534.358974358975,4473.333333333334,4672.307692307693,4213.846153846154,4276.410256410257,4254.358974358975,4567.6923076923085
673.5945,0.45471537,0.72294986,0.37574762,0.5542495,0,0.0,0.0,0.0,0.0,0.0,0,0,0.0,0.0,0,0,101.0,0.0,443.0,4640.000000000001,3966.1538461538466,4525.128205128206,4393.846153846154,4233.846153846154,4554.871794871796,4457.948717948719,4534.358974358975,4473.333333333334,4672.307692307693,4213.846153846154,4276.410256410257,4254.358974358975,4567.6923076923085
674.0949,0.38534963,0.7339886,0.37212107,0.5564088,0,0.0,0.0,0.0,0.0,0.0,0,0,0.0,0.0,0,0,36.0,0.0,0.0,4662.564102564103,3967.1794871794878,4524.615384615385,4397.948717948719,4230.256410256411,4523.076923076924,4460.000000000001,4524.615384615385,4457.948717948719,4702.051282051282,4201.025641025642,4267.6923076923085,4227.6923076923085,4566.153846153847
674.4703,0.38534963,0.7339886,0.37212107,0.5564088,0,0.0,0.0,0.0,0.0,0.124180205,0,0,0.0,0.0,0,0,84.0,0.0,501.0,4644.102564102564,3955.3846153846157,4522.051282051282,4405.128205128206,4230.256410256411,4508.717948717949,4418.974358974359,4472.820512820514,4428.205128205129,4704.102564102564,4201.538461538462,4248.717948717949,4197.435897435898,4553.333333333334
674.72046,0.36008212,0.7457968,0.36885566,0.56277347,0,0.0,0.0,0.0,0.0,0.069362305,0,0,0.0,0.0,0,0,116.0,0.0,501.0,4649.2307692307695,3959.48717948718,4506.666666666667,4417.435897435898,4228.205128205129,4513.333333333334,4427.179487179487,4460.000000000001,4431.282051282052,4704.615384615386,4215.8974358974365,4248.205128205129,4192.307692307693,4523.589743589744
674.9707,0.36008212,0.7457968,0.36885566,0.56277347,0,0.0,0.0,0.0,0.0,0.17988724,0,0,0.0,0.0,0,0,19.0,0.0,0.0,4649.743589743591,3973.8461538461543,4534.871794871796,4442.051282051282,4220.512820512821,4518.461538461539,4446.666666666667,4470.769230769231,4434.358974358975,4713.846153846154,4232.307692307693,4253.846153846154,4187.179487179487,4503.076923076924
675.09576,0.2870794,0.7410268,0.3648576,0.5746611,0,0.0,0.0,0.0,0.0,0.0,0,0,0.0,0.0,0,0,35.0,0.0,0.0,4651.282051282052,3973.8461538461543,4524.615384615385,4442.051282051282,4216.923076923077,4508.717948717949,4443.076923076924,4457.948717948719,4421.538461538462,4713.846153846154,4229.74358974359,4251.794871794872,4186.666666666667,4503.589743589744
675.09576,0.2870794,0.7410268,0.3648576,0.5746611,0,0.0,0.0,0.0,0.0,0.0,0,0,0.0,0.0,0,0,35.0,0.0,0.0,4651.282051282052,3973.8461538461543,4524.615384615385,4442.051282051282,4216.923076923077,4508.717948717949,4443.076923076924,4457.948717948719,4421.538461538462,4713.846153846154,4229.74358974359,4251.794871794872,4186.666666666667,4503.589743589744
675.5962,0.25284195,0.7227822,0.35872245,0.59050715,0,0.0,0.0,0.0,0.0,0.0,0,0,0.0,0.0,0,0,99.0,0.0,506.0,4677.435897435898,3975.3846153846157,4519.48717948718,4458.974358974359,4230.256410256411,4508.717948717949,4442.051282051282,4448.717948717949,4430.769230769231,4751.794871794872,4279.48717948718,4263.076923076924,4203.589743589744,4576.410256410257
675.97156,0.25284195,0.7227822,0.35872245,0.59050715,0,0.0,0.0,0.0,0.0,0.70387286,0,0,0.0,0.0,0,0,18.0,0.0,0.0,4675.8974358974365,3930.7692307692314,4492.820512820514,4415.8974358974365,4206.153846153847,4491.794871794872,4430.769230769231,4430.769230769231,4398.461538461539,4720.512820512821,4280.512820512821,4242.564102564103,4167.179487179487,4634.871794871796
676.22174,0.2655898,0.69786036,0.3531998,0.6047658,0,0.0,0.0,0.0,0.0,0.45139593,0,0,0.0,0.0,0,0,50.0,0.0,0.0,4695.384615384616,3927.692307692308,4493.333333333334,4415.8974358974365,4216.923076923077,4490.769230769231,4416.410256410257,4427.179487179487,4394.358974358975,4730.256410256411,4282.051282051282,4258.974358974359,4171.282051282052,4677.435897435898
676.472,0.2655898,0.69786036,0.3531998,0.6047658,0,0.0,0.0,0.0,0.0,0.31952593,0,0,0.0,0.0,0,0,82.0,0.0,534.0,4680.512820512821,3912.820512820513,4474.871794871796,4396.923076923077,4217.435897435898,4474.871794871796,4412.307692307693,4427.179487179487,4388.205128205129,4708.205128205129,4304.615384615385,4228.717948717949,4141.025641025642,4696.923076923077
676.72217,0.2747137,0.675401,0.34646738,0.61759436,0,0.0,0.0,0.0,0.0,0.5229278,0,0,0.0,0.0,0,0,114.0,0.0,534.0,4695.384615384616,3927.692307692308,4505.641025641026,4414.358974358975,4215.8974358974365,4491.282051282052,4434.871794871796,4457.948717948719,4412.307692307693,4733.333333333334,4360.000000000001,4269.2307692307695,4161.025641025642,4766.666666666667
676.8786,0.2747137,0.675401,0.34646738,0.61759436,0,0.0,0.0,0.0,0.0,1.0,0,0,0.0,0.0,0,1,5.0,0.0,561.0,4690.256410256411,3913.333333333334,4527.6923076923085,4412.820512820514,4218.461538461539,4494.358974358975,4438.974358974359,4446.153846153847,4382.564102564103,4718.974358974359,4374.871794871796,4269.2307692307695,4145.128205128206,4746.153846153847
677.2226,0.30870086,0.6675091,0.3412389,0.6286403,0,0.0,0.0,0.0,0.0,1.0,0,0,0.0,0.0,0,0,49.0,0.0,0.0,4684.615384615386,3929.2307692307695,4494.358974358975,4430.256410256411,4223.589743589744,4474.358974358975,4409.2307692307695,4403.076923076924,4348.717948717949,4673.846153846154,4348.717948717949,4218.461538461539,4078.9743589743593,4598.461538461539
677.47284,0.30870086,0.6675091,0.3412389,0.6286403,0,0.0,0.0,0.0,0.0,0.7821326,0,0,0.0,0.0,0,0,81.0,0.0,446.0,4692.820512820514,3930.2564102564106,4491.794871794872,4429.2307692307695,4228.717948717949,4472.820512820514,4413.846153846154,4390.769230769231,4346.153846153847,4669.2307692307695,4354.358974358975,4218.461538461539,4096.410256410257,4584.615384615385
677.723,0.28003755,0.6728492,0.33657056,0.63274497,0,0.0,0.0,0.0,0.0,0.062322035,0,0,0.0,0.0,0,0,113.0,0.0,446.0,4703.076923076924,3879.48717948718,4483.076923076924,4372.307692307693,4237.948717948719,4476.410256410257,4409.743589743591,4357.948717948719,4332.820512820514,4656.923076923077,4335.384615384616,4205.641025641026,4101.538461538462,4582.051282051282
677.97327,0.28003755,0.6728492,0.33657056,0.63274497,0,0.0,0.0,0.0,0.0,0.19595361,0,0,0.0,0.0,0,0,16.0,0.0,0.0,4698.461538461539,3867.692307692308,4473.333333333334,4356.923076923077,4249.2307692307695,4474.358974358975,4380.000000000001,4321.025641025642,4341.025641025642,4683.589743589744,4319.48717948718,4201.025641025642,4121.538461538462,4633.846153846154
678.22345,0.23083414,0.66035646,0.33448887,0.6315376,0,0.0,0.0,0.0,0.0,0.3125085,0,0,0.0,0.0,0,0,48.0,0.0,0.0,4677.435897435898,3852.307692307693,4488.717948717949,4358.461538461539,4235.8974358974365,4491.282051282052,4420.000000000001,4350.256410256411,4348.205128205129,4712.820512820514,4343.076923076924,4183.589743589744,4135.8974358974365,4581.538461538462
678.4737,0.23083414,0.66035646,0.33448887,0.6315376,0,0.0,0.0,0.0,0.0,0.35946298,0,0,0.0,0.0,0,0,80.0,0.0,501.0,4665.641025641026,3864.1025641025644,4501.538461538462,4367.6923076923085,4237.435897435898,4506.666666666667,4443.589743589744,4361.538461538462,4277.435897435898,4724.102564102564,4387.6923076923085,4198.461538461539,4143.076923076924,4486.666666666667
678.7239,0.19031818,0.64348614,0.33373722,0.62951714,0,0.0,0.0,0.0,0.0,0.3753183,0,0,0.0,0.0,0,0,112.0,0.0,501.0,4645.128205128206,3894.358974358975,4520.512820512821,4443.076923076924,4236.410256410257,4512.307692307693,4441.025641025642,4410.769230769231,4304.615384615385,4741.025641025642,4413.846153846154,4199.48717948718,4236.923076923077,4484.102564102564
678.9741,0.19031818,0.64348614,0.33373722,0.62951714,0,0.0,0.0,0.0,0.0,0.3333583,0,0,0.0,0.0,0,0,15.0,0.0,506.0,4648.205128205129,3912.820512820513,4523.589743589744,4442.051282051282,4241.025641025642,4509.2307692307695,4430.769230769231,4400.512820512821,4328.205128205129,4723.589743589744,4427.179487179487,4216.410256410257,4267.179487179487,4444.615384615385
679.22437,0.1339821,0.6105314,0.33403227,0.6276963,0,0.0,0.0,0.0,0.0,0.9394941,0,0,0.0,0.0,0,0,47.0,0.0,0.0,4677.948717948719,3964.1025641025644,4525.128205128206,4489.743589743591,4234.871794871796,4512.820512820514,4414.871794871796,4391.282051282052,4337.435897435898,4708.717948717949,4381.538461538462,4183.589743589744,4241.025641025642,4384.102564102564
679.47455,0.1339821,0.6105314,0.33403227,0.6276963,0,0.0,0.0,0.0,0.0,0.12523998,0,0,0.0,0.0,0,0,79.0,0.0,509.0,4694.358974358975,3998.461538461539,4537.948717948719,4511.794871794872,4236.410256410257,4524.615384615385,4416.410256410257,4373.333333333334,4357.435897435898,4727.6923076923085,4406.153846153847,4216.410256410257,4314.871794871796,4489.743589743591
679.7248,0.11001927,0.5776927,0.3344828,0.62666374,0,0.0,0.0,0.0,0.0,0.39739856,0,0,0.0,0.0,0,0,111.0,0.0,509.0,4731.794871794872,4082.564102564103,4540.000000000001,4586.666666666667,4235.8974358974365,4529.743589743591,4414.871794871796,4336.923076923077,4326.666666666667,4686.666666666667,4326.666666666667,4155.8974358974365,4272.820512820514,4544.615384615385
679.975,0.11001927,0.5776927,0.3344828,0.62666374,0,0.0,0.0,0.0,0.0,0.56589764,0,0,0.0,0.0,0,0,14.0,0.0,534.0,4725.641025641026,4082.564102564103,4506.666666666667,4588.205128205129,4235.8974358974365,4538.974358974359,4442.051282051282,4336.410256410257,4310.256410256411,4689.2307692307695,4283.589743589744,4123.076923076924,4226.666666666667,4466.666666666667
680.2252,0.11231828,0.56296915,0.33596084,0.62741673,0,0.0,0.0,0.0,0.0,0.1984843,0,0,0.0,0.0,0,0,46.0,0.0,0.0,4707.6923076923085,4057.9487179487182,4477.948717948719,4556.410256410257,4233.846153846154,4535.8974358974365,4427.6923076923085,4339.48717948718,4333.846153846154,4688.717948717949,4249.74358974359,4108.205128205129,4171.794871794872,4409.2307692307695
680.4754,0.11231828,0.56296915,0.33596084,0.62741673,0,0.0,0.0,0.0,0.0,0.0,0,0,0.0,0.0,0,0,78.0,0.0,534.0,4730.256410256411,4001.538461538462,4554.358974358975,4519.48717948718,4230.769230769231,4538.461538461539,4473.846153846154,4413.333333333334,4412.820512820514,4771.794871794872,4389.743589743591,4265.128205128206,4272.307692307693,4709.2307692307695
680.6005,0.1362422,0.56969506,0.33873957,0.6380809,0,0.0,0.0,0.0,0.0,1.0,0,0,0.0,0.0,0,0,94.0,0.0,534.0,4676.923076923077,3956.9230769230776,4488.717948717949,4477.948717948719,4233.333333333334,4558.461538461539,4490.256410256411,4415.384615384616,4415.384615384616,4766.666666666667,4385.128205128206,4253.333333333334,4295.8974358974365,4660.512820512821
680.9758,0.1362422,0.56969506,0.33873957,0.6380809,0,0.0,0.0,0.0,0.0,0.42649084,0,0,0.0,0.0,0,0,13.0,0.0,446.0,4662.564102564103,3926.666666666667,4497.435897435898,4451.282051282052,4232.307692307693,4555.384615384616,4499.48717948718,4478.461538461539,4445.641025641026,4771.794871794872,4386.153846153847,4335.384615384616,4254.358974358975,4548.205128205129
681.2261,0.16963464,0.5808522,0.34182483,0.6515387,0,0.0,0.0,0.0,0.0,0.1037373,0,0,0.0,0.0,0,0,45.0,0.0,0.0,4647.179487179488,3575.8974358974365,4538.461538461539,4062.0512820512827,4250.769230769231,4569.743589743591,4509.743589743591,4478.461538461539,4460.512820512821,4780.512820512821,4435.8974358974365,4400.512820512821,4136.410256410257,4434.871794871796
681.47626,0.16963464,0.5808522,0.34182483,0.6515387,0,0.0,0.0,0.0,0.0,0.034137692,0,0,0.0,0.0,0,0,77.0,0.0,446.0,4634.871794871796,3543.589743589744,4544.615384615385,4019.48717948718,4249.2307692307695,4553.333333333334,4505.641025641026,4461.538461538462,4427.6923076923085,4718.974358974359,4416.410256410257,4329.2307692307695,4064.615384615385,4394.358974358975
681.7265,0.23228508,0.59195226,0.34401637,0.663639,0,0.0,0.0,0.0,0.0,0.17789632,0,0,0.0,0.0,0,0,109.0,0.0,446.0,4677.948717948719,3511.794871794872,4556.410256410257,3962.0512820512827,4249.74358974359,4555.8974358974365,4510.769230769231,4467.179487179487,4430.256410256411,4734.358974358975,4445.128205128206,4316.410256410257,4123.076923076924,4489.743589743591
681.9767,0.23228508,0.59195226,0.34401637,0.663639,0,0.0,0.0,0.0,0.0,0.22574206,0,0,0.0,0.0,0,0,12.0,0.0,501.0,4678.461538461539,3545.1282051282055,4541.025641025642,3996.9230769230776,4260.512820512821,4550.769230769231,4489.2307692307695,4440.512820512821,4412.307692307693,4732.820512820514,4433.333333333334,4284.615384615385,4120.512820512821,4475.384615384616
682.2269,0.27313614,0.6053163,0.34783006,0.67084897,0,0.0,0.0,0.0,0.0,0.023363743,0,0,0.0,0.0,0,0,44.0,0.0,0.0,4692.307692307693,3632.307692307693,4520.512820512821,4084.1025641025644,4247.6923076923085,4543.589743589744,4488.205128205129,4415.8974358974365,4403.076923076924,4712.307692307693,4404.102564102564,4250.769230769231,4121.538461538462,4464.102564102564
682.4771,0.27313614,0.6053163,0.34783006,0.67084897,0,0.0,0.0,0.0,0.0,0.03384717,0,0,0.0,0.0,0,0,76.0,0.0,501.0,4720.512820512821,3786.666666666667,4525.641025641026,4252.820512820514,4249.74358974359,4550.256410256411,4490.256410256411,4452.820512820514,4433.333333333334,4739.48717948718,4411.282051282052,4251.794871794872,4182.564102564103,4523.076923076924
682.72736,0.22595185,0.6148705,0.35235354,0.67345816,0,0.0,0.0,0.0,0.0,0.047954343,0,0,0.0,0.0,0,0,108.0,0.0,501.0,4722.564102564103,3814.358974358975,4524.615384615385,4286.153846153847,4248.717948717949,4538.974358974359,4475.384615384616,4430.769230769231,4420.512820512821,4733.333333333334,4380.000000000001,4251.282051282052,4190.256410256411,4552.820512820514
682.97754,0.22595185,0.6148705,0.35235354,0.67345816,0,0.0,0.0,0.0,0.0,0.04261977,0,0,0.0,0.0,0,0,11.0,0.0,511.0,4722.564102564103,3882.564102564103,4524.615384615385,4366.666666666667,4254.358974358975,4551.794871794872,4468.717948717949,4417.948717948719,4418.974358974359,4736.410256410257,4357.948717948719,4242.051282051282,4182.564102564103,4540.512820512821
683.2278,0.18319742,0.6188149,0.35670957,0.6729378,0,0.0,0.0,0.0,0.0,0.7130171,0,0,0.0,0.0,0,0,43.0,0.0,0.0,4720.000000000001,3870.2564102564106,4517.948717948719,4356.923076923077,4253.333333333334,4555.8974358974365,4475.384615384616,4441.538461538462,4341.025641025642,4723.589743589744,4341.538461538462,4208.205128205129,4170.769230769231,4604.102564102564
683.3529,0.18319742,0.6188149,0.35670957,0.6729378,0,0.0,0.0,0.0,0.0,1.0,0,0,0.0,0.0,0,0,59.0,0.0,0.0,4703.076923076924,3876.410256410257,4502.564102564103,4364.615384615385,4247.6923076923085,4552.820512820514,4476.923076923077,4457.435897435898,4351.282051282052,4747.179487179488,4359.48717948718,4208.717948717949,4212.307692307693,4674.358974358975
683.7282,0.1749479,0.6183699,0.36217743,0.6649048,0,0.0,0.0,0.0,0.0,0.8504241,0,0,0.0,0.0,0,0,107.0,0.0,508.0,4703.076923076924,3877.435897435898,4507.6923076923085,4365.641025641026,4235.384615384616,4549.743589743591,4472.820512820514,4468.717948717949,4372.307692307693,4742.564102564103,4332.820512820514,4207.6923076923085,4211.794871794872,4725.128205128206
683.9784,0.1749479,0.6183699,0.36217743,0.6649048,0,0.0,0.0,0.0,0.0,0.51409006,0,0,0.0,0.0,0,0,10.0,0.0,534.0,4694.358974358975,3894.358974358975,4516.410256410257,4397.948717948719,4232.820512820514,4542.564102564103,4477.435897435898,4476.410256410257,4394.871794871796,4748.717948717949,4350.769230769231,4234.358974358975,4203.589743589744,4684.615384615386
684.1035,0.20500317,0.5939321,0.3659306,0.65531826,0,0.0,0.0,0.0,0.0,1.0,0,0,0.0,0.0,0,0,26.0,0.0,0.0,4682.051282051282,3887.692307692308,4505.641025641026,4394.358974358975,4230.769230769231,4535.8974358974365,4469.743589743591,4455.384615384616,4393.333333333334,4754.358974358975,4354.871794871796,4231.282051282052,4201.025641025642,4642.051282051282
684.4789,0.20500317,0.5939321,0.3659306,0.65531826,0,0.0,0.0,0.0,0.0,0.0,0,0,0.0,0.0,0,0,74.0,0.0,534.0,4666.153846153847,3929.7435897435903,4518.461538461539,4431.794871794872,4248.205128205129,4544.102564102564,4458.461538461539,4459.48717948718,4402.564102564103,4756.410256410257,4363.589743589744,4227.179487179487,4206.153846153847,4653.846153846154
684.60394,0.20810065,0.5714677,0.3693071,0.6452102,0,0.0,0.0,0.0,0.0,0.0,0,0,0.0,0.0,0,0,90.0,0.0,534.0,4664.102564102564,3920.5128205128212,4516.410256410257,4427.179487179487,4247.179487179487,4549.743589743591,4463.076923076924,4455.384615384616,4391.794871794872,4736.923076923077,4356.923076923077,4230.769230769231,4188.205128205129,4638.461538461539
684.60394,0.20810065,0.5714677,0.3693071,0.6452102,0,0.0,0.0,0.0,0.0,0.0,0,0,0.0,0.0,0,0,90.0,0.0,534.0,4664.102564102564,3920.5128205128212,4516.410256410257,4427.179487179487,4247.179487179487,4549.743589743591,4463.076923076924,4455.384615384616,4391.794871794872,4736.923076923077,4356.923076923077,4230.769230769231,4188.205128205129,4638.461538461539
685.1044,0.23109336,0.5517022,0.3707943,0.636113,0,0.0,0.0,0.0,0.0,1.0,0,0,0.0,0.0,0,0,25.0,0.0,0.0,4642.051282051282,3925.6410256410263,4528.205128205129,4428.205128205129,4253.333333333334,4540.512820512821,4463.076923076924,4445.128205128206,4363.076923076924,4679.48717948718,4354.871794871796,4266.153846153847,4111.282051282052,4386.666666666667
685.47974,0.23109336,0.5517022,0.3707943,0.636113,0,0.0,0.0,0.0,0.0,0.1415538,0,0,0.0,0.0,0,0,73.0,0.0,470.0,4675.384615384616,3960.0000000000005,4565.641025641026,4463.076923076924,4249.74358974359,4540.000000000001,4445.128205128206,4410.769230769231,4314.871794871796,4621.538461538462,4392.820512820514,4264.102564102564,4070.2564102564106,4364.615384615385
685.7299,0.29170775,0.5339317,0.36890092,0.63039696,0,0.0,0.0,0.0,0.0,0.15882978,0,0,0.0,0.0,0,0,105.0,0.0,446.0,4518.461538461539,3736.410256410257,4293.333333333334,4240.512820512821,4342.564102564103,4340.000000000001,4156.923076923077,4144.615384615385,4068.205128205129,4366.666666666667,4134.871794871796,4038.9743589743593,3816.9230769230776,4087.692307692308
685.85504,0.29170775,0.5339317,0.36890092,0.63039696,0,0.0,0.0,0.0,0.0,0.0,0,0,0.0,0.0,0,0,121.0,0.0,446.0,4611.794871794872,4063.076923076924,4357.948717948719,4582.051282051282,4296.410256410257,4356.410256410257,4186.153846153847,4152.820512820514,4050.2564102564106,4357.435897435898,4127.6923076923085,4021.538461538462,3815.3846153846157,4123.076923076924
686.1052,0.46670285,0.5179382,0.36808664,0.6241553,0,0.0,0.0,1.0,0.0,0.0,0,0,0.0,0.0,0,0,24.0,0.0,0.0,4603.589743589744,4345.641025641026,4446.153846153847,4894.871794871796,4158.974358974359,4448.205128205129,4365.128205128206,4318.974358974359,4205.128205128206,4552.820512820514,4278.974358974359,4086.1538461538466,4017.435897435898,4231.282051282052
686.4806,0.46670285,0.5179382,0.36808664,0.6241553,0,0.0,0.0,0.0,0.0,0.4254871,0,0,0.0,0.0,0,0,72.0,0.0,452.0,4585.641025641026,4215.8974358974365,4473.333333333334,4753.846153846154,4166.153846153847,4490.256410256411,4442.564102564103,4385.128205128206,4312.307692307693,4654.871794871796,4309.743589743591,4134.358974358975,4106.153846153847,4437.435897435898
686.60565,0.55893916,0.50354403,0.36735246,0.6184227,0,0.0,0.0,0.0,0.0,1.0,0,0,0.0,0.0,0,0,88.0,0.0,501.0,4580.000000000001,4166.666666666667,4454.871794871796,4703.589743589744,4168.717948717949,4490.256410256411,4438.461538461539,4399.48717948718,4350.769230769231,4672.820512820514,4316.923076923077,4145.128205128206,4115.384615384616,4533.846153846154
686.60565,0.55893916,0.50354403,0.36735246,0.6184227,0,0.0,0.0,0.0,0.0,1.0,0,0,0.0,0.0,0,0,88.0,0.0,501.0,4580.000000000001,4166.666666666667,4454.871794871796,4703.589743589744,4168.717948717949,4490.256410256411,4438.461538461539,4399.48717948718,4350.769230769231,4672.820512820514,4316.923076923077,4145.128205128206,4115.384615384616,4533.846153846154
687.2312,0.63337594,0.49058932,0.36669034,0.6127985,0,0.0,0.0,0.0,0.0,0.14191161,0,0,0.0,0.0,0,0,39.0,0.0,0.0,4536.410256410257,3975.3846153846157,4481.025641025642,4536.923076923077,4277.948717948719,4541.025641025642,4481.025641025642,4429.2307692307695,4384.615384615385,4807.6923076923085,4352.307692307693,4125.641025641026,4244.102564102564,4744.615384615386
687.48145,0.63337594,0.49058932,0.36669034,0.6127985,0,0.0,0.0,0.0,0.0,0.50062716,0,0,0.0,0.0,0,0,71.0,0.0,449.0,4533.333333333334,3943.076923076924,4504.102564102564,4508.717948717949,4270.769230769231,4520.512820512821,4453.333333333334,4318.974358974359,4387.179487179487,4740.000000000001,4383.589743589744,4132.307692307693,4238.974358974359,4943.076923076924
687.7316,0.6884505,0.4789301,0.37310725,0.6151089,0,0.0,0.0,0.0,0.0,0.20157029,0,0,0.0,0.0,0,0,103.0,0.0,499.0,4525.641025641026,3944.1025641025644,4495.8974358974365,4508.717948717949,4280.000000000001,4525.641025641026,4474.358974358975,4402.564102564103,4430.769230769231,4717.948717948719,4412.307692307693,4142.564102564103,4231.282051282052,4964.102564102564
687.9819,0.6884505,0.4789301,0.37310725,0.6151089,0,0.0,0.0,0.0,0.0,0.22845443,0,0,0.0,0.0,0,0,6.0,0.0,556.0,4562.564102564103,3959.48717948718,4522.564102564103,4506.153846153847,4262.564102564103,4526.666666666667,4479.48717948718,4427.179487179487,4448.717948717949,4726.666666666667,4441.538461538462,4179.48717948718,4250.256410256411,4887.6923076923085
688.23206,0.62354445,0.46421954,0.3788991,0.6102477,0,0.0,0.0,0.0,0.0,1.0,0,0,0.0,0.0,0,0,38.0,0.0,0.0,4590.769230769231,4110.256410256411,4524.102564102564,4621.538461538462,4267.179487179487,4536.410256410257,4479.48717948718,4406.153846153847,4412.820512820514,4688.205128205129,4355.8974358974365,4153.846153846154,4183.076923076924,4664.102564102564
688.23206,0.62354445,0.46421954,0.3788991,0.6102477,0,0.0,0.0,0.0,0.0,1.0,0,0,0.0,0.0,0,0,38.0,0.0,0.0,4590.769230769231,4110.256410256411,4524.102564102564,4621.538461538462,4267.179487179487,4536.410256410257,4479.48717948718,4406.153846153847,4412.820512820514,4688.205128205129,4355.8974358974365,4153.846153846154,4183.076923076924,4664.102564102564
688.7638,0.5607903,0.46116626,0.38409123,0.60442877,0,0.0,0.0,0.0,0.0,0.5533449,0,0,0.0,0.0,0,1,106.0,0.0,539.0,4529.2307692307695,4067.1794871794878,4518.461538461539,4587.179487179488,4269.74358974359,4569.743589743591,4484.615384615385,4466.153846153847,4461.025641025642,4900.512820512821,4444.102564102564,4295.384615384616,4341.025641025642,4752.307692307693
688.9827,0.5607903,0.46116626,0.38409123,0.60442877,0,0.0,0.0,0.0,0.0,1.0,0,0,0.0,0.0,0,1,5.0,0.0,561.0,4500.512820512821,4045.1282051282055,4480.000000000001,4572.820512820514,4263.589743589744,4552.820512820514,4461.025641025642,4446.153846153847,4441.538461538462,4877.948717948719,4362.051282051282,4244.102564102564,4283.076923076924,4511.282051282052
689.10785,0.53946376,0.45618227,0.38587174,0.59919065,0,0.0,0.0,0.0,0.0,1.0,0,0,0.0,0.0,0,0,21.0,0.0,0.0,4448.717948717949,4109.74358974359,4444.102564102564,4636.923076923077,4278.974358974359,4539.48717948718,4428.205128205129,4409.743589743591,4426.153846153847,4828.205128205129,4326.153846153847,4183.076923076924,4264.615384615385,4464.615384615385
689.48315,0.53946376,0.45618227,0.38587174,0.59919065,0,0.0,0.0,0.0,0.0,0.23425803,0,0,0.0,0.0,0,0,69.0,0.0,561.0,4416.410256410257,3988.205128205129,4320.512820512821,4512.307692307693,4360.512820512821,4446.153846153847,4297.948717948719,4233.333333333334,4343.589743589744,4665.641025641026,4188.205128205129,4058.461538461539,4108.205128205129,4240.000000000001
689.73334,0.6090316,0.45167044,0.38059682,0.59447694,0,0.0,0.0,0.0,0.0,0.1482518,0,0,0.0,0.0,0,0,101.0,0.0,446.0,4361.538461538462,3870.7692307692314,4203.589743589744,4394.358974358975,4426.153846153847,4378.974358974359,4152.307692307693,4083.076923076924,4216.410256410257,4521.538461538462,4057.435897435898,3957.9487179487182,3970.2564102564106,4088.717948717949
689.85846,0.6090316,0.45167044,0.38059682,0.59447694,0,0.0,0.0,0.0,0.0,0.0,0,0,0.0,0.0,0,0,117.0,0.0,446.0,4408.205128205129,3962.564102564103,4304.615384615385,4477.435897435898,4520.512820512821,4467.179487179487,4230.769230769231,4122.051282051282,4281.025641025642,4604.102564102564,4142.051282051282,4047.692307692308,4058.9743589743593,4174.871794871796
690.1087,0.7459478,0.44760975,0.37584358,0.59023666,0,0.0,0.0,0.0,0.0,0.0,0,0,0.0,0.0,0,0,20.0,0.0,0.0,4429.743589743591,3895.3846153846157,4317.948717948719,4411.282051282052,4488.205128205129,4456.410256410257,4220.512820512821,4151.794871794872,4279.48717948718,4614.871794871796,4190.769230769231,4093.333333333334,4091.2820512820517,4238.461538461539
690.484,0.7459478,0.44760975,0.37584358,0.59023666,0,0.0,0.0,0.0,0.0,0.15594141,0,0,0.0,0.0,0,0,68.0,0.0,560.0,4428.717948717949,3878.9743589743593,4336.923076923077,4397.435897435898,4382.051282051282,4431.282051282052,4244.615384615385,4150.256410256411,4246.666666666667,4610.256410256411,4152.820512820514,4077.9487179487187,4027.692307692308,4285.641025641026
690.73425,0.7089527,0.44395515,0.3715621,0.58641946,0,0.0,0.0,0.0,0.0,0.10001225,0,0,0.0,0.0,0,0,100.0,0.0,505.0,4434.871794871796,3926.666666666667,4352.307692307693,4457.435897435898,4334.871794871796,4440.512820512821,4293.333333333334,4219.48717948718,4302.564102564103,4662.051282051282,4187.179487179487,4036.9230769230776,4013.8461538461543,4365.641025641026
690.98444,0.7089527,0.44395515,0.3715621,0.58641946,0,0.0,0.0,0.0,0.0,0.09619894,0,0,0.0,0.0,0,0,3.0,0.0,546.0,4425.128205128206,3938.9743589743593,4343.589743589744,4452.307692307693,4302.564102564103,4444.615384615385,4303.589743589744,4218.974358974359,4282.051282051282,4677.948717948719,4166.666666666667,3870.2564102564106,4040.5128205128212,4366.666666666667
691.2347,0.74419415,0.44066602,0.36707544,0.58926916,0,0.0,0.0,0.0,0.3662887,0.0,0,0,0.0,0.0,0,0,35.0,0.0,0.0,4448.205128205129,3956.9230769230776,4366.666666666667,4444.102564102564,4308.717948717949,4466.666666666667,4320.000000000001,4266.666666666667,4334.358974358975,4717.435897435898,4231.794871794872,3938.9743589743593,4094.358974358975,4431.794871794872
691.48486,0.74419415,0.44066602,0.36707544,0.58926916,0,0.0,0.0,0.0,0.21773127,0.0,0,0,0.0,0.0,0,0,67.0,0.0,546.0,4468.717948717949,3958.461538461539,4414.358974358975,4461.025641025642,4316.410256410257,4506.153846153847,4372.307692307693,4326.666666666667,4386.153846153847,4780.000000000001,4298.461538461539,4018.9743589743593,4185.128205128206,4476.923076923077
691.7351,0.72730684,0.43770579,0.3630382,0.6026487,0,0.0,0.0,0.0,0.0,0.27855077,0,0,0.0,0.0,0,0,99.0,0.0,516.0,4506.666666666667,3962.0512820512827,4419.48717948718,4466.153846153847,4367.179487179487,4525.641025641026,4387.179487179487,4310.256410256411,4373.846153846154,4760.000000000001,4294.358974358975,4053.333333333334,4196.410256410257,4425.641025641026
691.9853,0.72730684,0.43770579,0.3630382,0.6026487,0,0.0,0.0,0.0,0.0,1.0,0,0,0.0,0.0,0,0,2.0,0.0,247.0,4483.589743589744,3936.9230769230776,4376.923076923077,4431.794871794872,4323.589743589744,4503.589743589744,4366.153846153847,4314.871794871796,4347.179487179487,4716.410256410257,4267.6923076923085,4052.307692307693,4169.2307692307695,4374.871794871796
692.23553,0.6912794,0.46280357,0.35940564,0.62343144,0,0.0,0.0,0.0,0.0,0.20123793,0,0,0.0,0.0,0,0,34.0,0.0,0.0,4489.2307692307695,3923.589743589744,4378.974358974359,4423.076923076924,4308.717948717949,4508.717948717949,4369.2307692307695,4286.666666666667,4307.6923076923085,4655.384615384616,4208.205128205129,4039.48717948718,4112.820512820514,4364.615384615385
692.4857,0.6912794,0.46280357,0.35940564,0.62343144,0,0.0,0.0,0.0,0.0,0.22763227,0,0,0.0,0.0,0,0,66.0,0.0,247.0,4524.102564102564,3749.7435897435903,4407.6923076923085,4221.025641025642,4294.871794871796,4513.333333333334,4399.48717948718,4330.256410256411,4391.282051282052,4718.461538461539,4315.384615384616,4202.564102564103,4140.000000000001,4397.948717948719
692.73596,0.61619943,0.5033241,0.35907874,0.6494721,0,0.0,0.0,0.0,0.0,0.21514532,0,0,0.0,0.0,0,0,98.0,0.0,537.0,4544.102564102564,3736.410256410257,4431.282051282052,4209.74358974359,4265.641025641026,4494.358974358975,4396.923076923077,4320.000000000001,4374.871794871796,4704.615384615386,4321.538461538462,4197.435897435898,4121.025641025642,4444.615384615385
692.98615,0.61619943,0.5033241,0.35907874,0.6494721,0,0.0,0.0,0.0,0.0,0.30305016,0,0,0.0,0.0,0,0,1.0,0.0,470.0,4586.153846153847,3710.7692307692314,4455.384615384616,4162.051282051282,4256.410256410257,4493.333333333334,4395.8974358974365,4283.589743589744,4361.025641025642,4685.128205128206,4309.743589743591,4201.025641025642,4102.051282051282,4379.48717948718
693.2364,0.5472802,0.56259274,0.365535,0.683931,0,0.0,0.0,0.0,0.0,0.036499873,0,0,0.0,0.0,0,0,33.0,0.0,0.0,4627.179487179488,3814.8717948717954,4490.769230769231,4212.307692307693,4281.538461538462,4537.948717948719,4428.717948717949,4500.000000000001,4371.282051282052,4697.435897435898,4305.641025641026,4208.205128205129,4106.666666666667,4385.128205128206
693.4866,0.5472802,0.56259274,0.365535,0.683931,0,0.0,0.0,0.0,0.0,0.012274611,0,0,0.0,0.0,0,0,65.0,0.0,470.0,4628.717948717949,3803.589743589744,4492.307692307693,4232.307692307693,4276.410256410257,4520.512820512821,4397.435897435898,4464.615384615385,4374.358974358975,4703.076923076924,4312.307692307693,4217.435897435898,4104.102564102564,4448.205128205129
693.7368,0.57403535,0.6370923,0.3737266,0.72292775,0,0.0,0.0,0.0,0.0,0.011348099,0,0,0.0,0.0,0,0,97.0,0.0,446.0,4725.128205128206,3861.538461538462,4495.384615384616,4277.948717948719,4276.410256410257,4494.358974358975,4375.384615384616,4268.717948717949,4355.384615384616,4706.666666666667,4332.307692307693,4246.666666666667,4125.641025641026,4474.358974358975
693.987,0.57403535,0.6370923,0.3737266,0.72292775,0,0.0,0.0,0.0,0.0,0.012431498,0,0,0.0,0.0,0,0,0.0,0.0,518.0,4675.8974358974365,3832.820512820513,4489.743589743591,4261.025641025642,4261.538461538462,4445.641025641026,4379.48717948718,4438.461538461539,4381.025641025642,4702.564102564103,4430.256410256411,4295.384615384616,4125.641025641026,4454.358974358975
694.23724,0.49733707,0.70642054,0.38111636,0.7581301,0,0.0,0.0,0.0,0.0,0.013451459,0,0,0.0,0.0,0,0,32.0,0.0,0.0,4658.461538461539,3805.6410256410263,4478.461538461539,4260.000000000001,4251.282051282052,4429.743589743591,4372.820512820514,4522.051282051282,4382.564102564103,4707.179487179488,4526.666666666667,4338.461538461539,4153.333333333334,4470.769230769231
694.4874,0.49733707,0.70642054,0.38111636,0.7581301,0,0.0,0.0,0.0,0.0,0.20758079,0,0,0.0,0.0,0,0,64.0,0.0,518.0,4690.769230769231,3876.410256410257,4488.717948717949,4339.48717948718,4252.820512820514,4453.846153846154,4395.8974358974365,4548.205128205129,4395.8974358974365,4703.076923076924,4556.923076923077,4371.282051282052,4121.538461538462,4421.025641025642
694.7377,0.43013138,0.75473124,0.3877453,0.78153914,0,0.0,0.0,0.0,0.0,0.36826724,0,0,0.0,0.0,0,0,96.0,0.0,497.0,4725.641025641026,3927.692307692308,4462.564102564103,4395.384615384616,4245.128205128206,4464.615384615385,4408.205128205129,4510.256410256411,4372.307692307693,4662.051282051282,4491.282051282052,4286.666666666667,4108.717948717949,4395.8974358974365
694.98785,0.43013138,0.75473124,0.3877453,0.78153914,0,0.0,0.0,0.0,0.0,0.1611094,0,0,0.0,0.0,0,0,128.0,0.0,497.0,4720.512820512821,3919.48717948718,4458.974358974359,4380.000000000001,4245.128205128206,4490.256410256411,4415.8974358974365,4458.461538461539,4346.153846153847,4643.589743589744,4439.48717948718,4250.769230769231,4115.8974358974365,4420.512820512821
695.2381,0.36390546,0.7966659,0.387602,0.77652884,0,0.0,0.0,0.0,0.0,0.481142,0,0,0.0,0.0,0,1,31.0,0.0,0.0,4715.384615384616,3941.0256410256416,4476.923076923077,4405.128205128206,4249.74358974359,4525.641025641026,4460.000000000001,4444.102564102564,4374.871794871796,4685.128205128206,4428.205128205129,4248.717948717949,4188.717948717949,4520.000000000001
695.5196,0.36390546,0.7966659,0.387602,0.77652884,0,0.0,0.0,0.0,0.0,0.1061259,0,0,0.0,0.0,0,0,67.0,0.0,546.0,4716.410256410257,3965.6410256410263,4485.128205128206,4427.6923076923085,4245.128205128206,4553.846153846154,4489.2307692307695,4429.2307692307695,4391.282051282052,4692.820512820514,4385.641025641026,4215.384615384616,4193.333333333334,4441.025641025642
695.7385,0.34757885,0.8077704,0.38215354,0.75391865,0,0.0,0.0,0.0,0.0,0.13177212,0,0,0.0,0.0,0,0,95.0,0.0,511.0,4678.974358974359,3958.461538461539,4508.205128205129,4413.846153846154,4233.846153846154,4568.205128205129,4529.2307692307695,4429.2307692307695,4387.6923076923085,4703.076923076924,4384.102564102564,4218.974358974359,4201.538461538462,4461.025641025642
695.86365,0.34757885,0.8077704,0.38215354,0.75391865,0,0.0,0.0,0.0,0.0,0.0,0,0,0.0,0.0,0,0,111.0,0.0,511.0,4678.974358974359,3967.692307692308,4534.871794871796,4427.6923076923085,4247.6923076923085,4586.153846153847,4538.974358974359,4410.256410256411,4376.923076923077,4700.512820512821,4365.641025641026,4203.589743589744,4181.538461538462,4445.128205128206
696.11383,0.3670826,0.78709555,0.37724814,0.7335942,0,0.0,0.0,0.0,0.0,0.0,0,0,0.0,0.0,0,0,14.0,0.0,537.0,4689.743589743591,3967.692307692308,4524.615384615385,4443.589743589744,4246.666666666667,4571.282051282052,4521.538461538462,4358.461538461539,4351.794871794872,4694.871794871796,4342.564102564103,4172.307692307693,4152.307692307693,4429.743589743591
696.4892,0.3670826,0.78709555,0.37724814,0.7335942,0,0.0,0.0,0.0,0.0,0.20930804,0,0,0.0,0.0,0,0,62.0,0.0,0.0,4718.461538461539,3983.076923076924,4506.153846153847,4460.512820512821,4231.794871794872,4555.384615384616,4518.974358974359,4369.743589743591,4349.2307692307695,4681.538461538462,4318.461538461539,4160.512820512821,4137.948717948719,4463.589743589744
696.7394,0.29698497,0.7673545,0.37283167,0.71530527,0,0.0,0.0,0.0,0.0,0.71009296,0,0,0.0,0.0,0,0,94.0,0.0,537.0,4708.205128205129,3957.9487179487182,4507.6923076923085,4431.282051282052,4232.307692307693,4556.410256410257,4506.153846153847,4397.435897435898,4375.384615384616,4703.589743589744,4328.205128205129,4182.051282051282,4152.820512820514,4525.128205128206
696.8645,0.29698497,0.7673545,0.37283167,0.71530527,0,0.0,0.0,0.0,0.0,0.0,0,0,0.0,0.0,0,0,110.0,0.0,537.0,4704.615384615386,3969.7435897435903,4520.000000000001,4440.512820512821,4230.769230769231,4552.820512820514,4493.846153846154,4387.179487179487,4370.769230769231,4707.179487179488,4331.794871794872,4185.641025641026,4164.615384615385,4538.974358974359
697.2398,0.27063754,0.7361861,0.36889282,0.6988705,0,0.0,0.0,0.0,0.0,0.14330296,0,0,0.0,0.0,0,0,29.0,0.0,0.0,4714.871794871796,3954.8717948717954,4505.128205128206,4428.205128205129,4234.871794871796,4552.820512820514,4491.282051282052,4407.6923076923085,4374.871794871796,4711.282051282052,4309.2307692307695,4185.641025641026,4151.282051282052,4502.564102564103
697.49005,0.27063754,0.7361861,0.36889282,0.6988705,0,0.0,0.0,0.0,0.0,1.0,0,0,0.0,0.0,0,0,61.0,0.0,0.0,4736.410256410257,3989.23076923077,4552.307692307693,4476.410256410257,4245.128205128206,4537.435897435898,4504.102564102564,4470.256410256411,4391.794871794872,4740.000000000001,4359.48717948718,4234.358974358975,3977.435897435898,752.8205128205129
697.74023,0.27939552,0.7225604,0.36536565,0.68418616,0,0.0,0.0,0.0,1.0,0.0,0,1,0.0,0.0,0,0,93.0,0.0,447.0,4757.435897435898,3991.2820512820517,4619.48717948718,4472.820512820514,4186.666666666667,4508.717948717949,4486.153846153847,4606.153846153847,4528.717948717949,4831.282051282052,4496.410256410257,4352.307692307693,4138.461538461539,1608.2051282051284
698.05304,0.27939552,0.7225604,0.36536565,0.68418616,0,0.0,0.0,0.0,1.0,0.0,0,0,0.0,0.0,0,1,4.0,0.0,561.0,4870.256410256411,3953.333333333334,4879.48717948718,4406.666666666667,4248.205128205129,4649.2307692307695,4750.769230769231,4841.538461538462,4637.948717948719,4952.820512820514,4827.179487179488,4631.794871794872,4274.358974358975,2165.641025641026
698.24066,0.41351718,0.7105027,0.3621912,0.6709914,0,0.0,0.0,0.0,0.0,0.73818684,0,0,0.0,0.0,0,1,28.0,0.0,0.0,4902.564102564103,3821.538461538462,4892.307692307693,4322.051282051282,4230.256410256411,4679.48717948718,4826.666666666667,4878.974358974359,4634.358974358975,4961.538461538462,4965.128205128206,4723.076923076924,4312.307692307693,2344.6153846153848
698.4909,0.41351718,0.7105027,0.3621912,0.6709914,0,0.0,0.0,0.0,0.0,1.0,0,0,0.0,0.0,0,0,60.0,0.0,0.0,4913.333333333334,3855.8974358974365,4791.794871794872,4402.564102564103,4232.307692307693,4649.743589743591,4749.743589743591,4793.846153846154,4531.282051282052,4907.179487179488,4973.846153846154,4669.2307692307695,4246.153846153847,1578.4615384615386
698.6473,0.5738951,0.69965076,0.3593342,0.6591162,0,0.0,0.0,0.0,0.0,1.0,0,0,0.0,0.0,0,0,80.0,0.0,483.0,4923.076923076924,3851.2820512820517,4695.384615384616,4418.974358974359,4244.615384615385,4627.6923076923085,4652.820512820514,4701.025641025642,4485.128205128206,4876.410256410257,4943.076923076924,4593.846153846154,4186.153846153847,1265.6410256410259
698.6473,0.5738951,0.69965076,0.3593342,0.6591162,0,0.0,0.0,0.0,0.0,1.0,0,0,0.0,0.0,0,0,80.0,0.0,483.0,4923.076923076924,3851.2820512820517,4695.384615384616,4418.974358974359,4244.615384615385,4627.6923076923085,4652.820512820514,4701.025641025642,4485.128205128206,4876.410256410257,4943.076923076924,4593.846153846154,4186.153846153847,1265.6410256410259
699.1477,0.57952046,0.689884,0.35673413,0.64842844,0,0.0,0.0,0.0,0.0,1.0,0,0,0.0,0.0,0,0,15.0,0.0,540.0,4853.846153846154,3909.2307692307695,4591.794871794872,4457.948717948719,4249.74358974359,4630.256410256411,4625.641025641026,4604.615384615385,4425.128205128206,4820.512820512821,4778.461538461539,4426.666666666667,4112.307692307693,899.4871794871796
699.1477,0.57952046,0.689884,0.35673413,0.64842844,0,0.0,0.0,0.0,0.0,1.0,0,0,0.0,0.0,0,0,15.0,0.0,540.0,4853.846153846154,3909.2307692307695,4591.794871794872,4457.948717948719,4249.74358974359,4630.256410256411,4625.641025641026,4604.615384615385,4425.128205128206,4820.512820512821,4778.461538461539,4426.666666666667,4112.307692307693,899.4871794871796
699.6169,0.5505765,0.68109393,0.35438582,0.6387742,0,0.0,0.0,0.0,0.0,1.0,0,0,0.0,0.0,0,0,75.0,0.0,533.0,4852.820512820514,3913.8461538461543,4584.102564102564,4383.589743589744,4231.794871794872,4614.871794871796,4577.948717948719,4525.128205128206,4436.923076923077,4795.8974358974365,4588.717948717949,4337.948717948719,4258.974358974359,2144.6153846153848
699.6169,0.5505765,0.68109393,0.35438582,0.6387742,0,0.0,0.0,0.0,0.0,1.0,0,0,0.0,0.0,0,0,75.0,0.0,533.0,4852.820512820514,3913.8461538461543,4584.102564102564,4383.589743589744,4231.794871794872,4614.871794871796,4577.948717948719,4525.128205128206,4436.923076923077,4795.8974358974365,4588.717948717949,4337.948717948719,4258.974358974359,2144.6153846153848
700.2424,0.4783134,0.6731829,0.35227153,0.63008523,0,0.0,0.0,0.0,0.0,1.0,0,0,0.0,0.0,0,0,26.0,0.0,0.0,5042.564102564103,3864.615384615385,4649.2307692307695,4338.974358974359,4232.307692307693,4633.846153846154,4630.769230769231,4490.769230769231,4482.051282051282,4784.615384615386,4413.333333333334,4313.333333333334,4231.282051282052,3223.0769230769233
700.2424,0.4783134,0.6731829,0.35227153,0.63008523,0,0.0,0.0,0.0,0.0,1.0,0,0,0.0,0.0,0,0,26.0,0.0,0.0,5042.564102564103,3864.615384615385,4649.2307692307695,4338.974358974359,4232.307692307693,4633.846153846154,4630.769230769231,4490.769230769231,4482.051282051282,4784.615384615386,4413.333333333334,4313.333333333334,4231.282051282052,3223.0769230769233
700.61774,0.44420734,0.66606295,0.35036796,0.62226456,0,0.0,0.0,0.0,0.0,1.0,0,0,0.0,0.0,0,0,74.0,0.0,545.0,5148.205128205129,4044.615384615385,4686.153846153847,4537.435897435898,4257.435897435898,4660.512820512821,4618.461538461539,4447.6923076923085,4414.871794871796,4748.205128205129,4425.641025641026,4292.307692307693,4183.589743589744,3654.358974358975
700.99304,0.44420734,0.66606295,0.35036796,0.62226456,0,0.0,0.0,0.0,0.0,0.5305119,0,0,0.0,0.0,0,0,122.0,0.0,545.0,5104.615384615386,4142.564102564103,4686.666666666667,4677.435897435898,4255.8974358974365,4622.051282051282,4570.769230769231,4403.589743589744,4337.435897435898,4724.615384615386,4443.076923076924,4233.333333333334,4183.589743589744,3941.0256410256416
701.11816,0.4204164,0.83387274,0.34865493,0.61522776,0,0.0,0.0,0.0,0.0,1.0,0,0,0.0,0.0,0,0,9.0,0.0,474.0,5103.076923076924,4135.8974358974365,4653.333333333334,4670.256410256411,4265.641025641026,4616.410256410257,4560.512820512821,4386.153846153847,4310.769230769231,4700.512820512821,4427.6923076923085,4192.820512820514,4174.358974358975,4002.0512820512827
701.11816,0.4204164,0.83387274,0.34865493,0.61522776,0,0.0,0.0,0.0,0.0,1.0,0,0,0.0,0.0,0,0,9.0,0.0,474.0,5103.076923076924,4135.8974358974365,4653.333333333334,4670.256410256411,4265.641025641026,4616.410256410257,4560.512820512821,4386.153846153847,4310.769230769231,4700.512820512821,4427.6923076923085,4192.820512820514,4174.358974358975,4002.0512820512827
701.7437,0.44053966,1.0,0.34711415,0.6088987,0,0.0,0.0,0.0,0.0,1.0,0,0,0.0,0.0,0,0,89.0,0.0,443.0,5192.307692307693,4095.8974358974365,4617.948717948719,4607.6923076923085,4268.205128205129,4606.153846153847,4537.948717948719,4428.717948717949,4384.615384615385,4795.8974358974365,4470.769230769231,4235.384615384616,4295.384615384616,4422.564102564103
701.7437,0.44053966,1.0,0.34711415,0.6088987,0,0.0,0.0,0.0,0.0,1.0,0,0,0.0,0.0,0,0,89.0,0.0,443.0,5192.307692307693,4095.8974358974365,4617.948717948719,4607.6923076923085,4268.205128205129,4606.153846153847,4537.948717948719,4428.717948717949,4384.615384615385,4795.8974358974365,4470.769230769231,4235.384615384616,4295.384615384616,4422.564102564103
702.24414,0.49380046,1.0,0.34728667,0.6201727,0,0.0,0.0,0.0,0.0,0.32727757,0,0,0.0,0.0,0,0,24.0,0.0,0.0,4581.025641025642,4108.717948717949,4251.794871794872,4593.846153846154,4431.794871794872,4439.48717948718,4207.179487179487,4019.48717948718,4129.2307692307695,4553.333333333334,4047.1794871794878,4001.538461538462,4065.1282051282055,4098.461538461539
702.4943,0.49380046,1.0,0.34728667,0.6201727,0,0.0,0.0,0.0,0.0,0.05395108,0,0,0.0,0.0,0,0,56.0,0.0,0.0,4354.871794871796,4205.641025641026,4168.717948717949,4533.846153846154,4472.820512820514,4369.743589743591,4121.538461538462,3896.410256410257,4170.256410256411,4507.6923076923085,3925.6410256410263,3895.8974358974365,4044.615384615385,3903.589743589744
702.74457,0.6445444,1.0,0.35257602,0.64615995,0,0.0,0.0,0.0,0.0,0.4945302,0,0,0.0,0.0,0,0,88.0,0.0,501.0,4275.8974358974365,4200.000000000001,4257.435897435898,4551.282051282052,4457.948717948719,4386.666666666667,4177.435897435898,4027.1794871794878,4230.769230769231,4563.589743589744,4013.333333333334,3976.9230769230776,4076.410256410257,3998.461538461539
702.99475,0.6445444,1.0,0.35257602,0.64615995,0,0.0,0.0,0.0,0.0,0.2863878,0,0,0.0,0.0,0,0,120.0,0.0,501.0,4201.538461538462,4216.923076923077,4305.128205128206,4654.358974358975,4438.461538461539,4398.461538461539,4197.435897435898,4046.666666666667,4210.256410256411,4528.205128205129,4088.717948717949,4002.0512820512827,4040.5128205128212,4071.2820512820517
703.1199,0.66435146,1.0,0.36279857,0.669531,0,0.0,0.0,0.0,0.0,1.0,0,0,0.0,0.0,0,0,7.0,0.0,448.0,4185.128205128206,4081.0256410256416,4348.717948717949,4552.820512820514,4403.076923076924,4386.666666666667,4228.717948717949,4096.923076923077,4173.846153846154,4497.435897435898,4172.820512820514,4038.461538461539,3998.461538461539,4307.6923076923085
703.4952,0.66435146,1.0,0.36279857,0.669531,0,0.0,0.0,0.0,0.0,0.42990208,0,0,0.0,0.0,0,0,55.0,0.0,0.0,4097.948717948719,3972.307692307693,4257.948717948719,4538.461538461539,4375.384615384616,4357.948717948719,4184.102564102564,4107.179487179487,4119.48717948718,4442.051282051282,4306.666666666667,3916.9230769230776,3896.410256410257,4353.846153846154
703.7454,0.6918366,1.0,0.37505627,0.6905412,0,0.0,0.0,0.0,0.0,0.15498438,0,0,0.0,0.0,0,0,87.0,0.0,516.0,4113.333333333334,3957.9487179487182,4214.358974358975,4588.205128205129,4338.461538461539,4369.2307692307695,4184.102564102564,4191.282051282052,4174.871794871796,4529.2307692307695,4421.538461538462,3949.7435897435903,3972.307692307693,4449.2307692307695
703.9956,0.6918366,1.0,0.37505627,0.6905412,0,0.0,0.0,0.0,0.0,0.18048851,0,0,0.0,0.0,0,0,119.0,0.0,516.0,4138.461538461539,3989.23076923077,4190.769230769231,4646.666666666667,4307.179487179487,4395.384615384616,4216.410256410257,4228.205128205129,4228.205128205129,4553.846153846154,4428.205128205129,3937.9487179487182,4001.0256410256416,4481.025641025642
704.24585,0.7666233,1.0,0.38608626,0.70230424,0,0.0,0.0,0.0,0.0,0.04910559,0,0,0.0,0.0,0,0,22.0,0.0,0.0,4174.358974358975,4007.692307692308,4234.358974358975,4735.384615384616,4280.512820512821,4442.051282051282,4281.025641025642,4265.128205128206,4264.615384615385,4607.179487179488,4416.923076923077,4012.820512820513,4048.205128205129,4522.051282051282
704.49603,0.7666233,1.0,0.38608626,0.70230424,0,0.0,0.0,0.0,0.0,0.0,0,0,0.0,0.0,0,0,54.0,0.0,0.0,4203.589743589744,4011.2820512820517,4306.153846153847,4722.564102564103,4254.358974358975,4461.025641025642,4343.589743589744,4312.307692307693,4327.6923076923085,4663.589743589744,4387.6923076923085,4072.307692307693,4113.333333333334,4582.051282051282
704.62115,0.79511476,1.0,0.39601073,0.70428437,0,0.0,0.0,0.0,0.0,0.0,0,0,0.0,0.0,0,0,70.0,0.0,558.0,4216.410256410257,4070.2564102564106,4325.128205128206,4756.410256410257,4232.307692307693,4458.461538461539,4351.282051282052,4308.717948717949,4331.282051282052,4649.743589743591,4340.000000000001,4087.1794871794878,4105.641025641026,4562.051282051282
704.99646,0.79511476,1.0,0.39601073,0.70428437,0,0.0,0.0,0.0,0.0,0.090500206,0,0,0.0,0.0,0,0,118.0,0.0,535.0,4262.564102564103,4000.5128205128212,4410.769230769231,4635.384615384616,4214.871794871796,4485.641025641026,4431.282051282052,4445.641025641026,4422.564102564103,4696.923076923077,4308.205128205129,4196.410256410257,4206.153846153847,4640.000000000001
705.2467,0.77487034,1.0,0.40386915,0.7060549,0,0.0,0.0,0.0,0.0,0.11833535,0,0,0.0,0.0,0,0,21.0,0.0,0.0,4263.589743589744,3911.7948717948725,4479.48717948718,4540.000000000001,4234.358974358975,4491.794871794872,4458.461538461539,4397.435897435898,4367.6923076923085,4660.000000000001,4340.512820512821,4213.333333333334,4137.435897435898,4586.153846153847
705.4969,0.77487034,1.0,0.40386915,0.7060549,0,0.0,0.0,0.0,0.0,0.09103738,0,0,0.0,0.0,0,0,53.0,0.0,0.0,4208.205128205129,3836.9230769230776,4413.333333333334,4472.307692307693,4244.102564102564,4462.564102564103,4390.256410256411,4307.179487179487,4280.000000000001,4586.153846153847,4370.769230769231,4153.333333333334,4008.205128205129,4467.179487179487
705.74713,0.81548893,1.0,0.40922096,0.7037166,0,0.0,0.0,0.0,0.0,0.16643052,0,0,0.0,0.0,0,0,85.0,0.0,446.0,4238.461538461539,3846.666666666667,4398.461538461539,4470.769230769231,4247.6923076923085,4457.435897435898,4358.974358974359,4265.641025641026,4246.153846153847,4611.794871794872,4412.307692307693,4142.564102564103,4012.820512820513,4549.2307692307695
705.9973,0.81548893,1.0,0.40922096,0.7037166,0,0.0,0.0,0.0,0.0,0.36804903,0,0,0.0,0.0,0,0,117.0,0.0,446.0,4257.435897435898,3875.8974358974365,4377.435897435898,4485.641025641026,4230.256410256411,4448.205128205129,4360.000000000001,4244.102564102564,4231.794871794872,4601.025641025642,4380.512820512821,4118.461538461539,3991.2820512820517,4584.102564102564
706.24756,0.7375387,1.0,0.4111704,0.6983159,0,0.0,0.0,0.0,0.0,0.10642,0,0,0.0,0.0,0,0,20.0,0.0,0.0,4281.538461538462,3935.8974358974365,4430.769230769231,4507.6923076923085,4220.512820512821,4480.000000000001,4394.358974358975,4305.641025641026,4278.974358974359,4628.717948717949,4350.256410256411,4141.025641025642,4044.615384615385,4603.076923076924
706.4978,0.7375387,1.0,0.4111704,0.6983159,0,0.0,0.0,0.0,0.0,0.04168272,0,0,0.0,0.0,0,0,52.0,0.0,0.0,4313.333333333334,3960.5128205128212,4458.974358974359,4505.641025641026,4220.512820512821,4501.025641025642,4395.384615384616,4346.666666666667,4318.974358974359,4647.179487179488,4312.307692307693,4171.282051282052,4103.589743589744,4599.48717948718
706.748,0.70564324,1.0,0.4108725,0.6910148,0,0.0,0.0,0.0,0.0,0.017210905,0,0,0.0,0.0,0,0,84.0,0.0,501.0,4358.974358974359,4003.076923076924,4508.205128205129,4522.051282051282,4211.794871794872,4525.641025641026,4444.615384615385,4425.128205128206,4381.025641025642,4673.846153846154,4255.384615384616,4215.8974358974365,4180.000000000001,4672.820512820514
706.9982,0.70564324,1.0,0.4108725,0.6910148,0,0.0,0.0,0.0,0.0,0.10280098,0,0,0.0,0.0,0,0,116.0,0.0,501.0,4408.717948717949,4128.717948717949,4585.641025641026,4630.769230769231,4201.538461538462,4554.358974358975,4506.153846153847,4480.512820512821,4457.435897435898,4709.2307692307695,4205.641025641026,4277.948717948719,4255.384615384616,4705.641025641026
707.2484,0.74621534,1.0,0.4090874,0.68444264,0,0.0,0.0,0.0,0.0,0.26534283,0,0,0.0,0.0,0,0,19.0,0.0,0.0,4468.717948717949,4166.666666666667,4627.6923076923085,4656.923076923077,4205.128205128206,4568.205128205129,4506.666666666667,4508.205128205129,4477.435897435898,4698.461538461539,4135.384615384616,4285.641025641026,4245.641025641026,4692.820512820514
707.49866,0.74621534,1.0,0.4090874,0.68444264,0,0.0,0.0,0.0,0.0,0.7267095,0,0,0.0,0.0,0,0,51.0,0.0,0.0,4508.205128205129,4200.000000000001,4656.410256410257,4680.512820512821,4215.384615384616,4573.333333333334,4521.025641025642,4524.102564102564,4492.307692307693,4693.333333333334,4102.051282051282,4295.384615384616,4228.717948717949,4664.102564102564
707.74884,0.66270125,1.0,0.40604636,0.6773262,0,0.0,0.0,0.0,0.0,0.5208596,0,0,0.0,0.0,0,0,83.0,0.0,508.0,4527.6923076923085,4181.538461538462,4646.153846153847,4657.948717948719,4214.871794871796,4567.179487179488,4519.48717948718,4531.794871794872,4472.307692307693,4684.615384615386,4092.820512820513,4304.615384615385,4213.846153846154,4702.051282051282
707.9991,0.66270125,1.0,0.40604636,0.6773262,0,0.0,0.0,0.0,0.0,0.7269734,0,0,0.0,0.0,0,0,115.0,0.0,508.0,4549.2307692307695,4146.153846153847,4634.358974358975,4626.666666666667,4220.512820512821,4570.256410256411,4524.615384615385,4536.923076923077,4491.282051282052,4720.512820512821,4124.102564102564,4312.820512820514,4215.8974358974365,4741.538461538462
708.24927,0.60425735,1.0,0.40249565,0.6687573,0,0.0,0.0,0.0,0.0,0.87190753,0,0,0.0,0.0,0,0,18.0,0.0,0.0,4564.615384615385,4096.923076923077,4633.846153846154,4585.128205128206,4242.564102564103,4575.384615384616,4512.820512820514,4538.974358974359,4489.743589743591,4741.538461538462,4159.48717948718,4331.282051282052,4230.256410256411,4795.8974358974365
708.4995,0.60425735,1.0,0.40249565,0.6687573,0,0.0,0.0,0.0,0.0,0.3762522,0,0,0.0,0.0,0,0,50.0,0.0,0.0,4578.461538461539,4062.0512820512827,4607.179487179488,4554.358974358975,4233.846153846154,4555.384615384616,4496.923076923077,4525.128205128206,4471.794871794872,4722.051282051282,4157.435897435898,4306.153846153847,4196.923076923077,4755.384615384616
708.7497,0.63289326,1.0,0.39576825,0.66442823,0,0.0,0.0,0.0,0.0,0.24446777,0,0,0.0,0.0,0,0,82.0,0.0,536.0,4586.666666666667,4070.2564102564106,4606.666666666667,4561.025641025642,4246.153846153847,4553.333333333334,4489.743589743591,4505.128205128206,4447.179487179487,4720.000000000001,4157.435897435898,4283.589743589744,4168.205128205129,4715.384615384616
708.99994,0.63289326,1.0,0.39576825,0.66442823,0,0.0,0.0,0.0,0.0,0.09984581,0,0,0.0,0.0,0,0,114.0,0.0,536.0,4587.6923076923085,4036.9230769230776,4583.589743589744,4536.410256410257,4259.48717948718,4555.384615384616,4481.538461538462,4494.358974358975,4436.923076923077,4733.333333333334,4202.051282051282,4275.384615384616,4184.102564102564,4738.461538461539
709.2501,0.5876918,1.0,0.3882125,0.66902655,0,0.0,0.0,0.0,0.0,0.23502582,0,0,0.0,0.0,0,0,17.0,0.0,0.0,4614.871794871796,4031.7948717948725,4613.333333333334,4539.48717948718,4276.923076923077,4567.6923076923085,4507.179487179488,4504.102564102564,4462.564102564103,4772.820512820514,4277.948717948719,4308.717948717949,4222.564102564103,4867.6923076923085
709.50037,0.5876918,1.0,0.3882125,0.66902655,0,0.0,0.0,0.0,0.0,0.7015308,0,0,0.0,0.0,0,0,49.0,0.0,0.0,4588.205128205129,3989.7435897435903,4568.717948717949,4494.871794871796,4268.717948717949,4555.384615384616,4477.435897435898,4487.179487179488,4450.256410256411,4753.846153846154,4262.564102564103,4282.051282051282,4195.8974358974365,4787.6923076923085
709.75055,0.57161087,1.0,0.3795745,0.68066186,0,0.0,0.0,0.0,0.0,0.27754477,0,0,0.0,0.0,0,0,81.0,0.0,446.0,4588.205128205129,3997.435897435898,4585.128205128206,4505.128205128206,4276.410256410257,4555.8974358974365,4476.410256410257,4488.205128205129,4461.025641025642,4781.538461538462,4315.384615384616,4319.48717948718,4214.871794871796,4800.000000000001
709.8757,0.57161087,1.0,0.3795745,0.68066186,0,0.0,0.0,0.0,0.0,0.0,0,0,0.0,0.0,0,0,97.0,0.0,446.0,4573.333333333334,3974.358974358975,4553.846153846154,4486.153846153847,4267.179487179487,4541.025641025642,4458.974358974359,4472.820512820514,4443.076923076924,4764.102564102564,4309.2307692307695,4288.717948717949,4198.974358974359,4763.589743589744
710.1259,0.59232664,1.0,0.37282488,0.69108874,0,0.0,0.0,0.0,0.0,0.0,0,0,0.0,0.0,0,0,0.0,0.0,513.0,4563.076923076924,3976.9230769230776,4551.794871794872,4485.641025641026,4272.307692307693,4541.025641025642,4461.538461538462,4476.410256410257,4443.076923076924,4776.923076923077,4323.076923076924,4295.8974358974365,4200.000000000001,4770.769230769231
710.1259,0.59232664,1.0,0.37282488,0.69108874,0,0.0,0.0,0.0,0.0,0.0,0,0,0.0,0.0,0,0,0.0,0.0,513.0,4563.076923076924,3976.9230769230776,4551.794871794872,4485.641025641026,4272.307692307693,4541.025641025642,4461.538461538462,4476.410256410257,4443.076923076924,4776.923076923077,4323.076923076924,4295.8974358974365,4200.000000000001,4770.769230769231
710.7514,0.53603005,1.0,0.36674878,0.70045495,0,0.0,0.0,0.0,0.0,0.99044275,0,0,0.0,0.0,0,0,80.0,0.0,504.0,4556.410256410257,3949.7435897435903,4524.102564102564,4450.769230769231,4266.153846153847,4523.589743589744,4443.076923076924,4447.6923076923085,4414.871794871796,4768.205128205129,4311.794871794872,4280.000000000001,4173.333333333334,4662.051282051282
711.00165,0.53603005,1.0,0.36674878,0.70045495,0,0.0,0.0,0.0,0.0,0.36167225,0,0,0.0,0.0,0,0,112.0,0.0,504.0,4545.641025641026,3952.820512820513,4511.794871794872,4456.410256410257,4276.923076923077,4497.435897435898,4444.102564102564,4442.564102564103,4410.769230769231,4764.102564102564,4318.974358974359,4266.153846153847,4166.153846153847,4645.641025641026
711.1268,0.5001458,1.0,0.35905033,0.7088653,0,0.0,0.0,0.0,0.0,0.0,0,0,0.0,0.0,0,0,128.0,0.0,504.0,4528.717948717949,3908.717948717949,4475.8974358974365,4411.794871794872,4311.282051282052,4471.794871794872,4404.615384615385,4405.128205128206,4367.179487179487,4708.717948717949,4273.333333333334,4234.871794871796,4120.512820512821,4589.743589743591
711.1268,0.5001458,1.0,0.35905033,0.7088653,0,0.0,0.0,0.0,0.0,0.0,0,0,0.0,0.0,0,0,128.0,0.0,504.0,4528.717948717949,3908.717948717949,4475.8974358974365,4411.794871794872,4311.282051282052,4471.794871794872,4404.615384615385,4405.128205128206,4367.179487179487,4708.717948717949,4273.333333333334,4234.871794871796,4120.512820512821,4589.743589743591
711.7523,0.54431593,0.96453315,0.35170552,0.7152238,0,0.0,0.0,0.0,0.0,0.5080761,0,0,0.0,0.0,0,0,79.0,0.0,503.0,4555.384615384616,3928.205128205129,4492.307692307693,4431.282051282052,4282.051282051282,4503.076923076924,4410.256410256411,4406.666666666667,4368.205128205129,4713.846153846154,4287.179487179487,4244.102564102564,4124.102564102564,4603.076923076924
712.0025,0.54431593,0.96453315,0.35170552,0.7152238,0,0.0,0.0,0.0,0.0,1.0,0,0,0.0,0.0,0,0,111.0,0.0,503.0,4533.846153846154,3908.717948717949,4480.512820512821,4414.871794871796,4281.025641025642,4507.6923076923085,4426.153846153847,4427.6923076923085,4398.461538461539,4749.743589743591,4322.051282051282,4272.820512820514,4155.8974358974365,4680.512820512821
712.25275,0.529272,0.9122368,0.34509447,0.71810406,0,0.0,0.0,0.0,0.0,0.33448592,0,0,0.0,0.0,0,0,14.0,0.0,536.0,4532.307692307693,3914.8717948717954,4493.846153846154,4427.6923076923085,4275.8974358974365,4521.025641025642,4444.615384615385,4426.666666666667,4398.461538461539,4749.2307692307695,4326.153846153847,4265.641025641026,4161.025641025642,4661.025641025642
712.5029,0.529272,0.9122368,0.34509447,0.71810406,0,0.0,0.0,0.0,0.0,0.39789802,0,0,0.0,0.0,0,0,46.0,0.0,0.0,4532.307692307693,3913.8461538461543,4489.2307692307695,4427.6923076923085,4267.179487179487,4523.076923076924,4429.2307692307695,4425.641025641026,4396.923076923077,4749.2307692307695,4335.384615384616,4264.615384615385,4160.000000000001,4636.923076923077
712.7532,0.4927369,0.86514044,0.3391441,0.7173552,0,0.0,0.0,0.0,0.0,0.07315611,0,0,0.0,0.0,0,0,78.0,0.0,536.0,4537.948717948719,3929.7435897435903,4508.717948717949,4443.589743589744,4265.641025641026,4523.589743589744,4444.102564102564,4412.820512820514,4388.205128205129,4746.666666666667,4326.666666666667,4270.256410256411,4164.102564102564,4658.461538461539
713.00336,0.4927369,0.86514044,0.3391441,0.7173552,0,0.0,0.0,0.0,0.0,0.45594907,0,0,0.0,0.0,0,0,110.0,0.0,536.0,4537.435897435898,3943.589743589744,4510.256410256411,4450.256410256411,4265.128205128206,4524.102564102564,4459.48717948718,4415.8974358974365,4395.384615384616,4754.358974358975,4336.410256410257,4276.923076923077,4179.48717948718,4701.538461538462
713.2536,0.4376625,0.8205628,0.3333734,0.7126665,0,0.0,0.0,0.0,0.0,0.344143,0,0,0.0,0.0,0,0,13.0,0.0,447.0,4527.179487179488,3928.205128205129,4496.410256410257,4442.564102564103,4253.846153846154,4521.538461538462,4442.051282051282,4410.256410256411,4393.846153846154,4751.282051282052,4325.641025641026,4247.6923076923085,4167.6923076923085,4692.820512820514
713.56635,0.4376625,0.8205628,0.3333734,0.7126665,1,0.0,0.0,0.0,0.0,0.46182528,0,0,0.0,0.0,0,0,53.0,0.0,0.0,4553.333333333334,3936.410256410257,4522.051282051282,4442.564102564103,4245.641025641026,4523.589743589744,4441.025641025642,4408.717948717949,4404.615384615385,4763.076923076924,4356.923076923077,4266.153846153847,4182.564102564103,4762.051282051282
713.754,0.37672603,0.7785825,0.32723942,0.70844215,0,0.0,0.0,0.0,0.0,0.598213,0,0,0.0,0.0,0,0,77.0,0.0,447.0,4525.128205128206,3923.589743589744,4489.743589743591,4429.2307692307695,4235.8974358974365,4516.923076923077,4441.025641025642,4395.384615384616,4389.743589743591,4746.666666666667,4314.871794871796,4227.179487179487,4133.846153846154,4631.794871794872
714.0042,0.37672603,0.7785825,0.32723942,0.70844215,0,0.0,0.0,0.0,0.0,0.697493,0,0,0.0,0.0,0,0,109.0,0.0,447.0,4524.102564102564,3941.538461538462,4521.025641025642,4455.8974358974365,4245.128205128206,4517.948717948719,4456.923076923077,4431.282051282052,4423.589743589744,4783.076923076924,4381.538461538462,4259.48717948718,4169.74358974359,4632.307692307693
714.25446,0.33877042,0.7403908,0.3217191,0.70390195,0,0.0,0.0,0.0,0.0,0.0,0,0,0.0,0.0,0,0,12.0,0.0,504.0,4491.794871794872,3878.9743589743593,4538.461538461539,4398.974358974359,4252.820512820514,4508.717948717949,4444.615384615385,4435.8974358974365,4394.871794871796,4748.205128205129,4409.743589743591,4186.666666666667,4097.435897435898,4554.871794871796
714.25446,0.33877042,0.7403908,0.3217191,0.70390195,0,0.0,0.0,0.0,0.0,0.0,0,0,0.0,0.0,0,0,12.0,0.0,504.0,4491.794871794872,3878.9743589743593,4538.461538461539,4398.974358974359,4252.820512820514,4508.717948717949,4444.615384615385,4435.8974358974365,4394.871794871796,4748.205128205129,4409.743589743591,4186.666666666667,4097.435897435898,4554.871794871796
714.62976,0.37499326,0.69359934,0.313873,0.6998116,0,0.0,0.0,0.0,0.0,0.0,0,0,0.0,0.0,0,0,60.0,0.0,0.0,4479.48717948718,3860.512820512821,4556.410256410257,4402.051282051282,4260.512820512821,4442.564102564103,4436.923076923077,4443.589743589744,4338.461538461539,4684.615384615386,4508.205128205129,4304.615384615385,4060.5128205128212,4555.8974358974365
714.62976,0.37499326,0.69359934,0.313873,0.6998116,0,0.0,0.0,0.0,0.0,0.0,0,0,0.0,0.0,0,0,60.0,0.0,0.0,4479.48717948718,3860.512820512821,4556.410256410257,4402.051282051282,4260.512820512821,4442.564102564103,4436.923076923077,4443.589743589744,4338.461538461539,4684.615384615386,4508.205128205129,4304.615384615385,4060.5128205128212,4555.8974358974365
715.2553,0.38552743,0.6468713,0.30773008,0.69612575,0,0.0,0.0,0.0,0.0,0.029434465,0,0,0.0,0.0,0,0,11.0,0.0,506.0,4484.615384615385,3893.333333333334,4462.051282051282,4431.282051282052,4262.051282051282,4488.205128205129,4419.48717948718,4371.794871794872,4312.307692307693,4664.102564102564,4470.256410256411,4280.000000000001,4105.128205128206,4566.666666666667
715.5055,0.38552743,0.6468713,0.30773008,0.69612575,0,0.0,0.0,0.0,0.0,0.05754224,0,0,0.0,0.0,0,0,43.0,0.0,0.0,4509.2307692307695,3928.205128205129,4475.8974358974365,4449.2307692307695,4266.666666666667,4522.051282051282,4463.076923076924,4409.743589743591,4363.589743589744,4714.358974358975,4446.153846153847,4273.333333333334,4166.666666666667,4587.179487179488
715.75574,0.39407635,0.6059828,0.30220246,0.7002949,0,0.0,0.0,0.0,0.0,0.075928226,0,0,0.0,0.0,0,0,75.0,0.0,506.0,4543.589743589744,3977.9487179487182,4490.256410256411,4477.948717948719,4275.384615384616,4535.8974358974365,4474.871794871796,4365.128205128206,4375.384615384616,4712.307692307693,4403.076923076924,4265.128205128206,4218.461538461539,4594.871794871796
716.0059,0.39407635,0.6059828,0.30220246,0.7002949,0,0.0,0.0,0.0,0.0,0.0759052,0,0,0.0,0.0,0,0,107.0,0.0,506.0,4564.615384615385,3993.333333333334,4488.205128205129,4490.256410256411,4249.2307692307695,4555.8974358974365,4480.000000000001,4404.102564102564,4413.333333333334,4735.8974358974365,4362.051282051282,4242.051282051282,4241.025641025642,4575.384615384616
716.13104,0.41212615,0.5974684,0.29593343,0.72292,0,0.0,0.0,0.0,0.0,0.0,0,0,0.0,0.0,0,0,123.0,0.0,506.0,4589.2307692307695,4005.1282051282055,4486.666666666667,4491.794871794872,4247.179487179487,4563.589743589744,4488.205128205129,4407.6923076923085,4420.512820512821,4728.717948717949,4332.820512820514,4224.102564102564,4236.410256410257,4580.512820512821
716.13104,0.41212615,0.5974684,0.29593343,0.72292,0,0.0,0.0,0.0,0.0,0.0,0,0,0.0,0.0,0,0,123.0,0.0,506.0,4589.2307692307695,4005.1282051282055,4486.666666666667,4491.794871794872,4247.179487179487,4563.589743589744,4488.205128205129,4407.6923076923085,4420.512820512821,4728.717948717949,4332.820512820514,4224.102564102564,4236.410256410257,4580.512820512821
716.7566,0.3453808,0.5932902,0.29182687,0.7482743,0,0.0,0.0,0.0,0.0,0.33520097,0,0,0.0,0.0,0,0,74.0,0.0,536.0,4655.8974358974365,4022.0512820512827,4512.820512820514,4504.615384615385,4245.641025641026,4587.6923076923085,4495.384615384616,4392.307692307693,4445.128205128206,4752.307692307693,4295.384615384616,4220.512820512821,4247.6923076923085,4558.461538461539
717.00684,0.3453808,0.5932902,0.29182687,0.7482743,0,0.0,0.0,0.0,0.0,0.0,0,0,0.0,0.0,0,0,106.0,0.0,536.0,4678.461538461539,4016.9230769230776,4511.282051282052,4506.666666666667,4250.256410256411,4597.435897435898,4495.384615384616,4404.615384615385,4444.615384615385,4750.769230769231,4295.384615384616,4215.384615384616,4224.615384615385,4545.128205128206
717.257,0.3512138,0.59238505,0.2906589,0.7710261,0,0.0,0.0,0.0,0.0,0.11471421,0,0,0.0,0.0,0,0,9.0,0.0,476.0,4685.128205128206,4027.692307692308,4508.205128205129,4517.948717948719,4259.48717948718,4585.641025641026,4491.282051282052,4403.076923076924,4428.717948717949,4737.435897435898,4292.820512820514,4214.358974358975,4221.025641025642,4589.2307692307695
717.50726,0.3512138,0.59238505,0.2906589,0.7710261,0,0.0,0.0,0.0,0.0,0.19321132,0,0,0.0,0.0,0,0,41.0,0.0,0.0,4660.000000000001,4003.076923076924,4509.743589743591,4492.820512820514,4261.025641025642,4584.102564102564,4508.205128205129,4412.820512820514,4428.205128205129,4733.846153846154,4292.307692307693,4213.333333333334,4208.717948717949,4571.282051282052
717.6323,0.30785438,0.5920995,0.29322556,0.79142594,0,0.0,0.0,0.0,0.0,0.0,0,0,0.0,0.0,0,0,57.0,0.0,0.0,4664.102564102564,4004.615384615385,4521.538461538462,4502.564102564103,4253.333333333334,4570.769230769231,4502.051282051282,4413.333333333334,4429.743589743591,4722.564102564103,4300.512820512821,4228.205128205129,4212.820512820514,4569.2307692307695
717.6323,0.30785438,0.5920995,0.29322556,0.79142594,0,0.0,0.0,0.0,0.0,0.0,0,0,0.0,0.0,0,0,57.0,0.0,0.0,4664.102564102564,4004.615384615385,4521.538461538462,4502.564102564103,4253.333333333334,4570.769230769231,4502.051282051282,4413.333333333334,4429.743589743591,4722.564102564103,4300.512820512821,4228.205128205129,4212.820512820514,4569.2307692307695
718.2579,0.23390219,0.5779616,0.29191947,0.80998886,0,0.0,0.0,0.0,0.0,0.36928833,0,0,0.0,0.0,0,0,8.0,0.0,453.0,4618.974358974359,3968.717948717949,4526.153846153847,4458.974358974359,4262.051282051282,4553.846153846154,4475.8974358974365,4416.923076923077,4442.564102564103,4761.538461538462,4340.000000000001,4265.641025641026,4207.6923076923085,4563.589743589744
718.5081,0.23390219,0.5779616,0.29191947,0.80998886,0,0.0,0.0,0.0,0.0,0.068162106,0,0,0.0,0.0,0,0,40.0,0.0,0.0,4613.333333333334,3949.2307692307695,4525.641025641026,4444.102564102564,4260.512820512821,4546.153846153847,4460.000000000001,4427.6923076923085,4441.538461538462,4768.205128205129,4365.641025641026,4267.179487179487,4206.666666666667,4555.8974358974365
718.7583,0.1904372,0.5619924,0.28821653,0.82660264,0,0.0,0.0,0.0,0.0,0.12572637,0,0,0.0,0.0,0,0,72.0,0.0,453.0,4620.512820512821,3951.7948717948725,4537.435897435898,4446.153846153847,4264.102564102564,4552.307692307693,4458.461538461539,4427.179487179487,4429.2307692307695,4748.205128205129,4357.435897435898,4266.666666666667,4173.846153846154,4602.564102564103
719.00854,0.1904372,0.5619924,0.28821653,0.82660264,0,0.0,0.0,0.0,0.0,0.23376432,0,0,0.0,0.0,0,0,104.0,0.0,500.0,4636.923076923077,3966.666666666667,4538.461538461539,4465.641025641026,4264.615384615385,4554.358974358975,4471.282051282052,4433.333333333334,4442.564102564103,4767.6923076923085,4386.666666666667,4295.384615384616,4203.076923076924,4605.641025641026
719.2587,0.17039813,0.54659235,0.28481498,0.82923067,0,0.0,0.0,0.0,0.0,0.32933006,0,0,0.0,0.0,0,0,7.0,0.0,449.0,4640.000000000001,3977.9487179487182,4525.641025641026,4483.589743589744,4263.589743589744,4552.820512820514,4475.8974358974365,4428.717948717949,4426.666666666667,4752.307692307693,4355.384615384616,4268.717948717949,4191.794871794872,4571.282051282052
719.509,0.17039813,0.54659235,0.28481498,0.82923067,0,0.0,0.0,0.0,0.0,0.113679,0,0,0.0,0.0,0,0,39.0,0.0,0.0,4633.333333333334,3959.48717948718,4527.179487179488,4471.794871794872,4258.974358974359,4551.282051282052,4472.820512820514,4452.307692307693,4446.666666666667,4782.564102564103,4387.6923076923085,4296.923076923077,4214.871794871796,4603.076923076924
719.75916,0.13348018,0.5267714,0.2842865,0.8261554,0,0.0,0.0,0.0,0.0,0.21767299,0,0,0.0,0.0,0,0,71.0,0.0,449.0,4617.948717948719,3941.0256410256416,4504.102564102564,4454.871794871796,4249.2307692307695,4538.461538461539,4458.461538461539,4441.025641025642,4408.717948717949,4746.666666666667,4357.948717948719,4274.871794871796,4181.538461538462,4535.8974358974365
720.0094,0.13348018,0.5267714,0.2842865,0.8261554,0,0.0,0.0,0.0,0.0,0.18501358,0,0,0.0,0.0,0,0,103.0,0.0,508.0,4635.8974358974365,3934.358974358975,4523.076923076924,4455.8974358974365,4253.333333333334,4538.974358974359,4469.2307692307695,4431.794871794872,4409.743589743591,4744.102564102564,4396.410256410257,4296.410256410257,4175.8974358974365,4555.384615384616
720.2596,0.13771108,0.50426936,0.2849565,0.8233631,0,0.0,0.0,0.0,0.0,0.48499382,0,0,0.0,0.0,0,0,6.0,0.0,558.0,4658.974358974359,3927.692307692308,4522.564102564103,4454.871794871796,4251.282051282052,4504.615384615385,4394.358974358975,4404.102564102564,4376.410256410257,4688.205128205129,4382.051282051282,4278.461538461539,4096.410256410257,4488.717948717949
720.5098,0.13771108,0.50426936,0.2849565,0.8233631,0,0.0,0.0,0.0,0.0,0.024666818,0,0,0.0,0.0,0,0,38.0,0.0,0.0,4665.641025641026,3938.461538461539,4518.461538461539,4469.2307692307695,4265.128205128206,4472.307692307693,4383.589743589744,4333.846153846154,4323.589743589744,4644.102564102564,4394.871794871796,4276.410256410257,4069.23076923077,4484.102564102564
720.76,0.19852954,0.49660224,0.28561893,0.8255164,0,0.0,0.0,0.0,0.0,0.032110285,0,0,0.0,0.0,0,0,70.0,0.0,558.0,4675.8974358974365,3958.9743589743593,4503.589743589744,4489.2307692307695,4267.179487179487,4461.538461538462,4390.769230769231,4292.307692307693,4294.871794871796,4616.410256410257,4396.923076923077,4241.025641025642,4052.820512820513,4521.025641025642
721.01025,0.19852954,0.49660224,0.28561893,0.8255164,0,0.0,0.0,0.0,0.0,0.5816774,0,0,0.0,0.0,0,0,102.0,0.0,537.0,4673.333333333334,3966.1538461538466,4489.743589743591,4506.666666666667,4261.538461538462,4473.333333333334,4409.743589743591,4290.769230769231,4308.717948717949,4631.794871794872,4397.435897435898,4202.564102564103,4092.820512820513,4595.384615384616
721.26044,0.19423598,0.49002016,0.28810632,0.81763196,0,0.0,0.0,0.0,0.0,0.6464192,0,0,0.0,0.0,0,0,5.0,0.0,561.0,4674.358974358975,3970.7692307692314,4461.538461538462,4504.102564102564,4261.538461538462,4478.461538461539,4396.410256410257,4277.435897435898,4303.076923076924,4628.717948717949,4375.384615384616,4171.794871794872,4109.74358974359,4599.48717948718
721.5107,0.19423598,0.49002016,0.28810632,0.81763196,0,0.0,0.0,0.0,0.0,0.062470898,0,0,0.0,0.0,0,0,37.0,0.0,0.0,4669.743589743591,3973.333333333334,4462.051282051282,4505.641025641026,4249.2307692307695,4507.6923076923085,4426.153846153847,4318.974358974359,4326.153846153847,4656.923076923077,4353.846153846154,4143.076923076924,4134.358974358975,4554.871794871796
721.6358,0.20885871,0.4801333,0.29034662,0.8088072,0,0.0,0.0,0.0,0.0,0.0,0,0,0.0,0.0,0,0,53.0,0.0,0.0,4668.205128205129,3962.564102564103,4461.025641025642,4491.794871794872,4246.666666666667,4511.282051282052,4429.743589743591,4325.641025641026,4343.589743589744,4674.358974358975,4350.769230769231,4143.589743589744,4157.435897435898,4563.076923076924
721.6358,0.20885871,0.4801333,0.29034662,0.8088072,0,0.0,0.0,0.0,0.0,0.0,0,0,0.0,0.0,0,0,53.0,0.0,0.0,4668.205128205129,3962.564102564103,4461.025641025642,4491.794871794872,4246.666666666667,4511.282051282052,4429.743589743591,4325.641025641026,4343.589743589744,4674.358974358975,4350.769230769231,4143.589743589744,4157.435897435898,4563.076923076924
722.1362,0.14686868,0.4728239,0.29236448,0.8008621,0,0.0,0.0,0.0,0.0,0.0,0,0,0.0,0.0,0,0,117.0,0.0,449.0,4654.871794871796,3946.1538461538466,4489.743589743591,4475.384615384616,4239.48717948718,4540.000000000001,4445.641025641026,4360.000000000001,4384.102564102564,4720.512820512821,4320.000000000001,4156.410256410257,4189.2307692307695,4504.102564102564
722.1362,0.14686868,0.4728239,0.29236448,0.8008621,0,0.0,0.0,0.0,0.0,0.0,0,0,0.0,0.0,0,0,117.0,0.0,449.0,4654.871794871796,3946.1538461538466,4489.743589743591,4475.384615384616,4239.48717948718,4540.000000000001,4445.641025641026,4360.000000000001,4384.102564102564,4720.512820512821,4320.000000000001,4156.410256410257,4189.2307692307695,4504.102564102564
722.6445,0.16426727,0.47117704,0.29056603,0.79609215,0,0.0,0.0,0.0,0.0,0.0,0,0,0.0,0.0,0,0,52.0,0.0,0.0,4651.282051282052,3956.410256410257,4522.051282051282,4473.333333333334,4254.871794871796,4571.794871794872,4475.8974358974365,4411.794871794872,4410.256410256411,4724.102564102564,4306.666666666667,4214.871794871796,4193.846153846154,4537.948717948719
722.6445,0.16426727,0.47117704,0.29056603,0.79609215,0,0.0,0.0,0.0,0.0,0.0,0,0,0.0,0.0,0,0,52.0,0.0,0.0,4651.282051282052,3956.410256410257,4522.051282051282,4473.333333333334,4254.871794871796,4571.794871794872,4475.8974358974365,4411.794871794872,4410.256410256411,4724.102564102564,4306.666666666667,4214.871794871796,4193.846153846154,4537.948717948719
723.27,0.16299005,0.4584737,0.28619874,0.7930119,0,0.0,0.0,0.0,0.0,0.19268827,0,0,0.0,0.0,0,0,3.0,0.0,548.0,4666.153846153847,3942.564102564103,4510.769230769231,4503.076923076924,4251.282051282052,4553.333333333334,4476.923076923077,4430.769230769231,4418.974358974359,4748.717948717949,4327.6923076923085,4264.102564102564,4198.974358974359,4552.820512820514
723.5202,0.16299005,0.4584737,0.28619874,0.7930119,0,0.0,0.0,0.0,0.0,0.25312784,0,0,0.0,0.0,0,0,35.0,0.0,0.0,4651.282051282052,3924.1025641025644,4500.512820512821,4476.410256410257,4245.641025641026,4544.615384615385,4461.538461538462,4411.794871794872,4391.794871794872,4714.871794871796,4296.410256410257,4237.948717948719,4168.717948717949,4521.025641025642
723.77045,0.13038568,0.45291752,0.28036082,0.79022247,0,0.0,0.0,0.0,0.0,0.0,0,0,0.0,0.0,0,0,67.0,0.0,548.0,4672.820512820514,3927.1794871794878,4515.384615384616,4473.846153846154,4243.076923076924,4541.025641025642,4470.256410256411,4426.666666666667,4400.000000000001,4734.871794871796,4322.564102564103,4240.000000000001,4180.512820512821,4522.564102564103
723.77045,0.13038568,0.45291752,0.28036082,0.79022247,0,0.0,0.0,0.0,0.0,0.0,0,0,0.0,0.0,0,0,67.0,0.0,548.0,4672.820512820514,3927.1794871794878,4515.384615384616,4473.846153846154,4243.076923076924,4541.025641025642,4470.256410256411,4426.666666666667,4400.000000000001,4734.871794871796,4322.564102564103,4240.000000000001,4180.512820512821,4522.564102564103
724.14575,0.12371121,0.447683,0.27413145,0.78769463,0,0.0,0.0,0.0,0.0,0.0,0,0,0.0,0.0,0,0,115.0,0.0,509.0,4647.6923076923085,3936.9230769230776,4510.256410256411,4471.794871794872,4242.564102564103,4534.871794871796,4460.000000000001,4425.641025641026,4396.923076923077,4728.205128205129,4318.974358974359,4260.512820512821,4151.794871794872,4543.589743589744
724.52106,0.12371121,0.447683,0.27413145,0.78769463,0,0.0,0.0,0.0,0.0,0.5797524,0,0,0.0,0.0,0,0,34.0,0.0,0.0,4625.641025641026,3941.0256410256416,4503.589743589744,4474.358974358975,4238.974358974359,4527.6923076923085,4460.000000000001,4423.589743589744,4389.743589743591,4749.2307692307695,4335.384615384616,4263.589743589744,4174.358974358975,4559.48717948718
724.7713,0.06356571,0.43521237,0.26852757,0.78483844,0,0.0,0.0,0.0,0.0,0.1380959,0,0,0.0,0.0,0,0,66.0,0.0,256.0,4612.307692307693,3925.6410256410263,4490.256410256411,4447.6923076923085,4245.128205128206,4523.076923076924,4442.564102564103,4410.769230769231,4382.051282051282,4745.641025641026,4326.666666666667,4245.641025641026,4174.358974358975,4546.153846153847
725.0215,0.06356571,0.43521237,0.26852757,0.78483844,0,0.0,0.0,0.0,0.0,0.1886783,0,0,0.0,0.0,0,0,98.0,0.0,537.0,4634.871794871796,3941.538461538462,4503.589743589744,4457.948717948719,4241.538461538462,4522.051282051282,4443.589743589744,4411.794871794872,4371.794871794872,4731.794871794872,4307.6923076923085,4251.282051282052,4166.666666666667,4613.846153846154
725.2717,0.017086295,0.42313573,0.26348686,0.781028,0,0.0,0.0,0.0,0.0,0.46505353,0,0,0.0,0.0,0,0,1.0,0.0,470.0,4637.948717948719,3943.076923076924,4491.794871794872,4457.948717948719,4246.153846153847,4520.512820512821,4437.435897435898,4430.256410256411,4390.256410256411,4749.743589743591,4330.769230769231,4257.948717948719,4181.025641025642,4602.564102564103
725.5219,0.017086295,0.42313573,0.26348686,0.781028,0,0.0,0.0,0.0,0.0,0.12767012,0,0,0.0,0.0,0,0,33.0,0.0,0.0,4619.48717948718,3946.1538461538466,4505.641025641026,4459.48717948718,4244.102564102564,4509.743589743591,4425.641025641026,4422.051282051282,4376.410256410257,4745.641025641026,4335.384615384616,4258.974358974359,4185.641025641026,4624.102564102564
725.77216,0.0029507414,0.40903518,0.2598521,0.7842062,0,0.0,0.0,0.0,0.0,0.06684163,0,0,0.0,0.0,0,0,65.0,0.0,470.0,4617.435897435898,3934.358974358975,4508.205128205129,4455.384615384616,4237.435897435898,4511.282051282052,4412.820512820514,4449.2307692307695,4398.974358974359,4754.358974358975,4351.282051282052,4280.000000000001,4191.794871794872,4634.358974358975
726.02234,0.0029507414,0.40903518,0.2598521,0.7842062,0,0.0,0.0,0.0,0.0,0.1273623,0,0,0.0,0.0,0,0,97.0,0.0,449.0,4607.6923076923085,3921.0256410256416,4486.153846153847,4442.564102564103,4230.769230769231,4510.256410256411,4423.589743589744,4453.846153846154,4394.358974358975,4748.717948717949,4332.307692307693,4256.410256410257,4183.076923076924,4574.358974358975
726.2726,0.0,0.39546734,0.25662637,0.78703505,0,0.0,0.0,0.0,0.0,0.8702816,0,0,0.0,0.0,0,0,0.0,0.0,513.0,4642.051282051282,3961.538461538462,4521.538461538462,4480.000000000001,4230.256410256411,4506.666666666667,4435.8974358974365,4460.000000000001,4387.179487179487,4730.256410256411,4314.871794871796,4238.974358974359,4140.512820512821,4522.564102564103
726.52277,0.0,0.39546734,0.25662637,0.78703505,0,0.0,0.0,0.0,0.0,0.5409389,0,0,0.0,0.0,0,0,32.0,0.0,0.0,4639.48717948718,3952.307692307693,4507.6923076923085,4474.871794871796,4234.871794871796,4523.076923076924,4428.717948717949,4457.948717948719,4390.256410256411,4720.000000000001,4307.6923076923085,4231.794871794872,4141.025641025642,4502.051282051282
726.773,0.0,0.40318117,0.2547738,0.78954947,0,0.0,0.0,0.0,0.0,0.096202984,0,0,0.0,0.0,0,0,64.0,0.0,513.0,4611.794871794872,3940.0000000000005,4507.6923076923085,4456.410256410257,4246.666666666667,4525.128205128206,4442.564102564103,4454.358974358975,4396.923076923077,4734.871794871796,4327.179487179487,4232.307692307693,4157.435897435898,4509.2307692307695
727.02325,0.0,0.40318117,0.2547738,0.78954947,0,0.0,0.0,0.0,0.0,1.0,0,0,0.0,0.0,0,0,96.0,0.0,507.0,4620.512820512821,3943.589743589744,4524.615384615385,4457.948717948719,4249.74358974359,4538.974358974359,4473.846153846154,4460.000000000001,4413.846153846154,4748.717948717949,4349.743589743591,4253.333333333334,4172.307692307693,4704.615384615386
727.1483,0.0,0.42268717,0.253123,0.79094386,0,0.0,0.0,0.0,0.0,1.0,0,0,0.0,0.0,0,0,112.0,0.0,507.0,4617.948717948719,3934.8717948717954,4509.743589743591,4444.615384615385,4247.179487179487,4525.641025641026,4455.8974358974365,4431.282051282052,4398.461538461539,4731.794871794872,4334.871794871796,4244.615384615385,4167.179487179487,4732.307692307693
727.1483,0.0,0.42268717,0.253123,0.79094386,0,0.0,0.0,0.0,0.0,1.0,0,0,0.0,0.0,0,0,112.0,0.0,507.0,4617.948717948719,3934.8717948717954,4509.743589743591,4444.615384615385,4247.179487179487,4525.641025641026,4455.8974358974365,4431.282051282052,4398.461538461539,4731.794871794872,4334.871794871796,4244.615384615385,4167.179487179487,4732.307692307693
727.64874,0.0,0.44150734,0.2516405,0.79217,0,0.0,0.0,0.0,0.0,1.0,0,0,0.0,0.0,0,0,47.0,0.0,0.0,4619.48717948718,3946.666666666667,4512.307692307693,4459.48717948718,4253.333333333334,4526.666666666667,4444.615384615385,4435.384615384616,4398.461538461539,4742.051282051282,4340.000000000001,4251.282051282052,4182.564102564103,4879.48717948718
728.0241,0.0,0.44150734,0.2516405,0.79217,0,0.0,0.0,0.0,0.0,0.63832724,0,0,0.0,0.0,0,0,95.0,0.0,508.0,4601.025641025642,3948.205128205129,4506.153846153847,4453.333333333334,4248.717948717949,4524.102564102564,4460.000000000001,4445.128205128206,4416.923076923077,4754.871794871796,4339.48717948718,4250.256410256411,4169.2307692307695,4775.384615384616
728.2743,0.0,0.45862976,0.2503096,0.7922041,0,0.0,0.0,0.0,0.0,0.8697203,0,0,0.0,0.0,0,0,127.0,0.0,508.0,4581.538461538462,3930.2564102564106,4505.128205128206,4438.461538461539,4248.717948717949,4521.538461538462,4460.512820512821,4450.769230769231,4412.820512820514,4750.256410256411,4338.461538461539,4337.435897435898,4166.153846153847,4707.179487179488
728.3994,0.0,0.45862976,0.2503096,0.7922041,0,0.0,0.0,0.0,0.0,1.0,0,0,0.0,0.0,0,0,14.0,0.0,537.0,4571.282051282052,3927.692307692308,4494.358974358975,4428.717948717949,4249.2307692307695,4524.102564102564,4446.153846153847,4428.717948717949,4403.589743589744,4750.256410256411,4334.871794871796,4350.256410256411,4166.153846153847,4675.8974358974365
728.7747,0.0,0.45651183,0.24806632,0.78204817,0,0.0,0.0,0.0,0.0,0.36488208,0,0,0.0,0.0,0,0,62.0,0.0,0.0,4576.923076923077,3932.307692307693,4491.794871794872,4430.256410256411,4247.6923076923085,4509.2307692307695,4443.076923076924,4413.846153846154,4409.743589743591,4758.974358974359,4331.282051282052,4345.128205128206,4158.974358974359,4611.794871794872
729.02496,0.0,0.45651183,0.24806632,0.78204817,0,0.0,0.0,0.0,0.0,0.57447636,0,0,0.0,0.0,0,0,94.0,0.0,537.0,4577.948717948719,3945.1282051282055,4505.128205128206,4442.564102564103,4263.076923076924,4524.615384615385,4447.179487179487,4426.666666666667,4410.769230769231,4765.641025641026,4344.102564102564,4345.641025641026,4188.205128205129,4627.179487179488
729.27515,0.0,0.4664727,0.2471001,0.7729098,0,0.0,0.0,0.0,0.0,0.23023303,0,0,0.0,0.0,0,0,126.0,0.0,537.0,4577.435897435898,3956.9230769230776,4506.666666666667,4438.461538461539,4249.74358974359,4521.025641025642,4430.256410256411,4429.2307692307695,4411.282051282052,4765.128205128206,4360.000000000001,4335.384615384616,4183.589743589744,4617.435897435898
729.5254,0.0,0.4664727,0.2471001,0.7729098,0,0.0,0.0,0.0,0.0,0.15811816,0,0,0.0,0.0,0,0,29.0,0.0,0.0,4579.48717948718,3943.589743589744,4502.564102564103,4434.358974358975,4248.205128205129,4510.769230769231,4433.846153846154,4415.384615384616,4406.666666666667,4756.410256410257,4338.461538461539,4311.794871794872,4173.333333333334,4614.871794871796
729.7756,0.0,0.474164,0.2466456,0.76408005,0,0.0,0.0,0.0,0.0,0.024872305,0,0,0.0,0.0,0,0,61.0,0.0,0.0,4561.025641025642,3912.820512820513,4489.2307692307695,4412.307692307693,4249.74358974359,4523.589743589744,4454.871794871796,4445.128205128206,4416.923076923077,4752.820512820514,4345.641025641026,4302.564102564103,4145.641025641026,4598.461538461539
729.9007,0.0,0.474164,0.2466456,0.76408005,0,0.0,0.0,0.0,0.0,0.0,0,0,0.0,0.0,0,0,77.0,0.0,449.0,4568.717948717949,3937.9487179487182,4505.128205128206,4438.461538461539,4250.256410256411,4510.256410256411,4460.000000000001,4457.435897435898,4423.076923076924,4763.589743589744,4381.538461538462,4323.589743589744,4166.666666666667,4611.794871794872
730.15094,0.0018233759,0.4796828,0.24454546,0.75801075,0,0.0,0.0,0.0,0.0,0.0,0,0,0.0,0.0,0,0,109.0,0.0,449.0,4554.358974358975,3911.7948717948725,4507.179487179488,4423.589743589744,4249.2307692307695,4477.948717948719,4428.205128205129,4428.717948717949,4373.846153846154,4725.641025641026,4398.461538461539,4310.256410256411,4111.794871794872,4590.256410256411
730.15094,0.0018233759,0.4796828,0.24454546,0.75801075,0,0.0,0.0,0.0,0.0,0.0,0,0,0.0,0.0,0,0,109.0,0.0,449.0,4554.358974358975,3911.7948717948725,4507.179487179488,4423.589743589744,4249.2307692307695,4477.948717948719,4428.205128205129,4428.717948717949,4373.846153846154,4725.641025641026,4398.461538461539,4310.256410256411,4111.794871794872,4590.256410256411
730.65137,0.098508514,0.46396556,0.23996304,0.75430334,0,0.0,0.0,0.0,0.0,0.0,0,0,0.0,0.0,0,0,44.0,0.0,0.0,4525.128205128206,3882.564102564103,4504.615384615385,4405.641025641026,4246.666666666667,4417.948717948719,4374.871794871796,4302.564102564103,4247.6923076923085,4610.256410256411,4421.538461538462,4254.871794871796,3984.1025641025644,4539.48717948718
731.0267,0.098508514,0.46396556,0.23996304,0.75430334,0,0.0,0.0,0.0,0.0,0.030238658,0,0,0.0,0.0,0,0,92.0,0.0,503.0,4540.512820512821,3893.8461538461543,4467.6923076923085,4423.589743589744,4231.794871794872,4442.564102564103,4374.358974358975,4266.666666666667,4267.179487179487,4608.717948717949,4417.948717948719,4215.8974358974365,4047.692307692308,4539.48717948718
731.27686,0.11065714,0.4509115,0.23760825,0.7517779,0,0.0,0.0,0.0,0.0,0.21561968,0,0,0.0,0.0,0,0,124.0,0.0,503.0,4539.48717948718,3908.205128205129,4449.743589743591,4418.974358974359,4233.333333333334,4473.333333333334,4374.871794871796,4277.948717948719,4277.435897435898,4615.384615384616,4390.769230769231,4201.025641025642,4088.717948717949,4509.2307692307695
731.5271,0.11065714,0.4509115,0.23760825,0.7517779,0,0.0,0.0,0.0,0.0,0.0,0,0,0.0,0.0,0,0,27.0,0.0,0.0,4534.871794871796,3902.564102564103,4460.512820512821,4409.743589743591,4245.128205128206,4490.256410256411,4390.256410256411,4294.871794871796,4305.641025641026,4625.128205128206,4361.025641025642,4199.48717948718,4116.923076923077,4486.153846153847
731.7773,0.18871747,0.44605556,0.23778804,0.7494935,0,0.0,0.0,0.0,0.0,0.3260968,0,0,0.0,0.0,0,0,59.0,0.0,0.0,4530.769230769231,3903.589743589744,4478.461538461539,4424.102564102564,4232.820512820514,4475.384615384616,4388.205128205129,4317.948717948719,4323.076923076924,4660.512820512821,4385.641025641026,4228.205128205129,4154.871794871796,4447.179487179487
732.0275,0.18871747,0.44605556,0.23778804,0.7494935,0,0.0,0.0,0.0,0.0,0.24200341,0,0,0.0,0.0,0,0,91.0,0.0,508.0,4505.641025641026,3896.9230769230776,4480.512820512821,4428.205128205129,4244.615384615385,4472.820512820514,4362.564102564103,4344.615384615385,4321.538461538462,4643.589743589744,4440.000000000001,4235.8974358974365,4140.000000000001,4436.923076923077
732.15265,0.19283429,0.44901156,0.23795363,0.74506176,0,0.0,0.0,0.0,0.0,0.0,0,0,0.0,0.0,0,0,107.0,0.0,508.0,4486.666666666667,3877.9487179487182,4442.564102564103,4410.256410256411,4232.820512820514,4475.8974358974365,4349.2307692307695,4325.128205128206,4313.333333333334,4635.384615384616,4439.48717948718,4201.025641025642,4128.717948717949,4428.717948717949
732.52795,0.19283429,0.44901156,0.23795363,0.74506176,0,0.0,0.0,0.0,0.0,0.068708405,0,0,0.0,0.0,0,0,26.0,0.0,0.0,4457.435897435898,3847.692307692308,4358.461538461539,4352.820512820514,4218.974358974359,4400.000000000001,4309.743589743591,4430.769230769231,4296.923076923077,4575.384615384616,4399.48717948718,4093.333333333334,4111.794871794872,4337.435897435898
732.7782,0.24555118,0.45368356,0.23810641,0.7364226,0,0.0,0.0,0.0,0.0,0.13233693,0,0,0.0,0.0,0,0,58.0,0.0,0.0,4507.179487179488,3960.5128205128212,4465.128205128206,4473.333333333334,4232.307692307693,4493.846153846154,4455.8974358974365,4455.384615384616,4313.333333333334,4671.794871794872,4506.666666666667,4186.153846153847,4240.512820512821,4523.589743589744
733.0284,0.24555118,0.45368356,0.23810641,0.7364226,0,0.0,0.0,0.0,0.0,0.22998166,0,0,0.0,0.0,0,0,90.0,0.0,537.0,4525.128205128206,3985.6410256410263,4457.948717948719,4506.153846153847,4229.2307692307695,4538.974358974359,4494.871794871796,4477.948717948719,4370.769230769231,4664.102564102564,4476.410256410257,4200.512820512821,4283.589743589744,4558.461538461539
733.2786,0.3442931,0.46853292,0.24441703,0.72864723,0,0.0,0.0,0.0,0.0,0.018089155,0,0,0.0,0.0,0,0,122.0,0.0,537.0,4538.461538461539,3975.3846153846157,4521.025641025642,4509.743589743591,4232.307692307693,4580.000000000001,4557.435897435898,4538.461538461539,4405.641025641026,4715.384615384616,4456.923076923077,4243.589743589744,4315.8974358974365,4594.358974358975
733.5288,0.3442931,0.46853292,0.24441703,0.72864723,0,0.0,0.0,0.0,0.0,0.06523667,0,0,0.0,0.0,0,0,25.0,0.0,0.0,4570.769230769231,3942.0512820512827,4555.384615384616,4475.384615384616,4238.461538461539,4603.076923076924,4555.8974358974365,4536.410256410257,4435.8974358974365,4750.256410256411,4445.641025641026,4249.74358974359,4325.128205128206,4567.179487179488
733.77905,0.4060964,0.49332976,0.25526148,0.7216482,0,0.0,0.0,0.0,0.0,0.0,0,0,0.535258,0.0,0,0,57.0,0.0,0.0,4604.102564102564,3990.2564102564106,4582.051282051282,4510.256410256411,4258.461538461539,4632.307692307693,4598.974358974359,4537.948717948719,4475.8974358974365,4787.179487179488,4427.6923076923085,4277.435897435898,4342.564102564103,4573.333333333334
734.02924,0.4060964,0.49332976,0.25526148,0.7216482,0,0.0,0.0,0.0,0.0,0.0,0,0,0.16627157,0.0,0,0,89.0,0.0,449.0,4603.589743589744,3963.589743589744,4557.948717948719,4489.2307692307695,4248.205128205129,4624.615384615385,4580.512820512821,4505.641025641026,4428.205128205129,4743.076923076924,4348.717948717949,4246.666666666667,4277.435897435898,4542.564102564103
734.2795,0.5024131,0.5338547,0.265706,0.70912296,0,0.0,0.0,0.0,0.0,0.0,0,0,0.0992573,0.0,0,0,121.0,0.0,449.0,4639.48717948718,4004.1025641025644,4586.153846153847,4509.743589743591,4245.641025641026,4612.307692307693,4568.717948717949,4471.282051282052,4428.717948717949,4761.025641025642,4330.256410256411,4264.615384615385,4263.589743589744,4576.923076923077
734.40454,0.5024131,0.5338547,0.265706,0.70912296,0,0.0,0.0,0.0,0.0,0.0,0,0,0.0,0.0,0,0,8.0,0.0,453.0,4637.948717948719,3996.410256410257,4581.025641025642,4508.717948717949,4236.410256410257,4599.48717948718,4553.846153846154,4457.435897435898,4427.179487179487,4752.307692307693,4326.153846153847,4263.076923076924,4248.205128205129,4585.641025641026
734.7799,0.5361775,0.5752376,0.27618688,0.70322293,0,0.0,0.0,0.0,0.0,0.22160846,0,0,0.0,0.0,0,0,56.0,0.0,0.0,4636.923076923077,3946.666666666667,4581.025641025642,4460.000000000001,4243.076923076924,4587.6923076923085,4553.333333333334,4458.974358974359,4429.2307692307695,4766.153846153847,4313.333333333334,4256.410256410257,4244.615384615385,4615.384615384616
735.0301,0.5361775,0.5752376,0.27618688,0.70322293,0,0.0,0.0,0.0,0.0,0.14066677,0,0,0.0,0.0,0,0,88.0,0.0,503.0,4650.256410256411,3903.076923076924,4566.666666666667,4457.948717948719,4233.333333333334,4572.820512820514,4532.307692307693,4458.974358974359,4416.923076923077,4769.2307692307695,4294.358974358975,4249.74358974359,4245.641025641026,4623.589743589744
735.28033,0.5004203,0.6139067,0.28702852,0.7057924,0,0.0,0.0,0.0,0.0,0.2192836,0,0,0.0,0.0,0,0,120.0,0.0,503.0,4687.6923076923085,3914.8717948717954,4556.410256410257,4476.923076923077,4232.307692307693,4554.358974358975,4486.153846153847,4448.717948717949,4411.282051282052,4764.615384615386,4280.000000000001,4247.6923076923085,4198.461538461539,4659.48717948718
735.5305,0.5004203,0.6139067,0.28702852,0.7057924,0,0.0,0.0,0.0,0.0,0.21014284,0,0,0.0,0.0,0,0,23.0,0.0,0.0,4672.820512820514,3947.1794871794878,4541.025641025642,4490.256410256411,4231.282051282052,4548.717948717949,4473.333333333334,4442.051282051282,4396.410256410257,4748.717948717949,4276.923076923077,4248.717948717949,4143.589743589744,4672.820512820514
735.78076,0.4506449,0.63148147,0.29523057,0.71314555,0,0.0,0.0,0.0,0.0,0.051750302,0,0,0.0,0.0,0,0,55.0,0.0,0.0,4666.666666666667,3986.666666666667,4556.410256410257,4518.974358974359,4219.48717948718,4539.48717948718,4487.179487179488,4505.641025641026,4423.589743589744,4760.512820512821,4296.410256410257,4273.846153846154,4148.717948717949,4692.820512820514
736.06226,0.4506449,0.63148147,0.29523057,0.71314555,0,0.0,0.0,0.0,0.0,1.0,0,0,0.0,0.0,0,1,91.0,0.0,506.0,4642.564102564103,3952.307692307693,4567.6923076923085,4502.564102564103,4231.282051282052,4537.948717948719,4487.6923076923085,4489.743589743591,4447.6923076923085,4793.333333333334,4394.358974358975,4342.564102564103,4249.2307692307695,4930.769230769231
736.2812,0.46217036,0.63885367,0.30455512,0.7197215,0,0.0,0.0,0.0,0.0,0.97472334,0,0,0.0,0.0,0,1,119.0,0.0,506.0,4582.564102564103,3890.7692307692314,4504.102564102564,4440.512820512821,4249.74358974359,4511.794871794872,4463.589743589744,4416.410256410257,4393.333333333334,4835.384615384616,4324.102564102564,4261.538461538462,4197.435897435898,4793.846153846154
736.5314,0.46217036,0.63885367,0.30455512,0.7197215,0,0.0,0.0,0.0,0.0,0.13272965,0,0,0.0,0.0,0,0,22.0,0.0,0.0,4567.6923076923085,3832.820512820513,4456.923076923077,4376.923076923077,4320.512820512821,4505.128205128206,4418.974358974359,4319.48717948718,4362.051282051282,4785.128205128206,4244.102564102564,4213.333333333334,4153.846153846154,4711.282051282052
736.7816,0.5222043,0.64516616,0.3141495,0.72056866,0,0.0,0.0,0.0,0.0,0.58342606,0,0,0.0,0.0,0,0,54.0,0.0,0.0,4576.410256410257,3864.1025641025644,4431.794871794872,4366.153846153847,4304.615384615385,4490.256410256411,4386.153846153847,4297.435897435898,4358.974358974359,4735.384615384616,4232.307692307693,4204.615384615385,4123.589743589744,4618.461538461539
737.0318,0.5222043,0.64516616,0.3141495,0.72056866,0,0.0,0.0,0.0,0.0,0.44507292,0,0,0.0,0.0,0,0,86.0,0.0,537.0,4577.948717948719,3886.1538461538466,4434.871794871796,4375.8974358974365,4269.74358974359,4490.769230769231,4388.205128205129,4299.48717948718,4355.384615384616,4732.820512820514,4234.871794871796,4193.846153846154,4111.282051282052,4570.256410256411
737.28204,0.50537956,0.6458343,0.32278514,0.7241316,0,0.0,0.0,0.0,0.0,0.4770648,0,0,0.0,0.0,0,0,118.0,0.0,537.0,4567.179487179488,3909.2307692307695,4431.794871794872,4411.282051282052,4247.6923076923085,4492.307692307693,4390.769230769231,4317.435897435898,4364.102564102564,4725.641025641026,4252.820512820514,4205.128205128206,4107.6923076923085,4513.846153846154
737.40717,0.50537956,0.6458343,0.32278514,0.7241316,0,0.0,0.0,0.0,0.0,1.0,0,0,0.0,0.0,0,0,5.0,0.0,561.0,4562.564102564103,3932.820512820513,4443.589743589744,4438.974358974359,4247.179487179487,4490.769230769231,4391.282051282052,4325.641025641026,4358.461538461539,4723.076923076924,4256.923076923077,4203.589743589744,4108.205128205129,4478.461538461539
737.7825,0.49686432,0.63970345,0.32928178,0.730642,0,0.0,0.0,0.0,0.0,0.09131156,0,0,0.0,0.0,0,0,53.0,0.0,0.0,4567.6923076923085,3954.358974358975,4445.641025641026,4428.205128205129,4232.820512820514,4524.102564102564,4450.769230769231,4358.974358974359,4384.615384615385,4731.794871794872,4262.564102564103,4215.8974358974365,4117.948717948719,4422.564102564103
738.0327,0.49686432,0.63970345,0.32928178,0.730642,0,0.0,0.0,0.0,0.0,0.20546696,0,0,0.0,0.0,0,0,85.0,0.0,449.0,4570.256410256411,3958.9743589743593,4456.923076923077,4441.538461538462,4230.769230769231,4510.256410256411,4428.205128205129,4328.205128205129,4390.256410256411,4725.128205128206,4277.435897435898,4212.820512820514,4124.102564102564,4393.333333333334
738.2829,0.44853386,0.6299695,0.33392626,0.7331591,0,0.0,0.0,0.0,0.0,0.0,0,0,0.0,0.0,0,0,117.0,0.0,449.0,4544.102564102564,3940.0000000000005,4488.205128205129,4440.512820512821,4216.923076923077,4504.102564102564,4443.076923076924,4370.256410256411,4391.282051282052,4724.102564102564,4340.512820512821,4247.179487179487,4110.256410256411,4379.48717948718
738.2829,0.44853386,0.6299695,0.33392626,0.7331591,0,0.0,0.0,0.0,0.0,0.0,0,0,0.0,0.0,0,0,117.0,0.0,449.0,4544.102564102564,3940.0000000000005,4488.205128205129,4440.512820512821,4216.923076923077,4504.102564102564,4443.076923076924,4370.256410256411,4391.282051282052,4724.102564102564,4340.512820512821,4247.179487179487,4110.256410256411,4379.48717948718
738.6582,0.50023186,0.6224989,0.33458576,0.7354077,0,0.0,0.0,0.0,0.0,0.0,0,0,0.0,0.0,0,0,36.0,0.0,0.0,4515.384615384616,3860.0000000000005,4503.076923076924,4389.2307692307695,4236.410256410257,4425.641025641026,4366.666666666667,4245.641025641026,4241.025641025642,4591.282051282052,4423.076923076924,4201.025641025642,3975.8974358974365,4292.820512820514
739.03357,0.50023186,0.6224989,0.33458576,0.7354077,0,0.0,0.0,0.0,0.0,0.091140136,0,0,0.0,0.0,0,0,46.0,0.0,0.0,4511.794871794872,3843.589743589744,4488.205128205129,4381.025641025642,4247.6923076923085,4413.846153846154,4337.435897435898,4200.512820512821,4215.8974358974365,4576.410256410257,4457.435897435898,4175.384615384616,3963.589743589744,4291.794871794872
739.28375,0.5698903,0.61584616,0.3338807,0.7413014,0,0.0,0.0,0.0,0.13334562,0.0,0,0,0.0,0.0,0,0,116.0,0.0,503.0,4512.307692307693,3844.615384615385,4330.769230769231,4368.205128205129,4244.615384615385,4433.846153846154,4343.589743589744,4206.666666666667,4203.589743589744,4571.282051282052,4470.256410256411,4074.8717948717954,3965.6410256410263,4293.333333333334
739.534,0.5698903,0.61584616,0.3338807,0.7413014,0,0.0,0.0,0.0,0.5948445,0.0,0,0,0.0,0.0,0,1,19.0,0.0,0.0,4521.025641025642,3828.205128205129,4341.538461538462,4351.282051282052,4229.74358974359,4460.000000000001,4379.48717948718,4264.615384615385,4277.435897435898,4645.641025641026,4503.589743589744,4134.871794871796,4108.205128205129,4429.2307692307695
739.7842,0.58858573,0.60985863,0.3332461,0.7474226,0,0.0,0.0,0.0,0.0,0.6786646,0,0,0.0,0.0,0,0,51.0,0.0,0.0,4536.410256410257,3846.666666666667,4407.6923076923085,4366.153846153847,4221.025641025642,4489.2307692307695,4411.282051282052,4300.000000000001,4342.564102564103,4687.179487179488,4441.538461538462,4152.820512820514,4161.538461538462,4516.923076923077
740.0344,0.58858573,0.60985863,0.3332461,0.7474226,0,0.0,0.0,0.0,0.0,0.684388,0,0,0.0,0.0,0,0,83.0,0.0,514.0,4532.307692307693,3865.1282051282055,4445.641025641026,4381.538461538462,4218.974358974359,4507.6923076923085,4463.589743589744,4346.153846153847,4397.948717948719,4728.717948717949,4408.717948717949,4199.48717948718,4220.512820512821,4615.384615384616
740.2846,0.5801862,0.60446984,0.332675,0.7559077,0,0.0,0.0,0.0,0.0,0.7730647,0,0,0.0,0.0,0,0,115.0,0.0,514.0,4563.076923076924,3876.9230769230776,4456.923076923077,4385.641025641026,4228.205128205129,4537.948717948719,4480.000000000001,4356.923076923077,4411.282051282052,4732.307692307693,4350.769230769231,4201.538461538462,4244.615384615385,4627.179487179488
740.53485,0.5801862,0.60446984,0.332675,0.7559077,0,0.0,0.0,0.0,0.0,0.0,0,0,0.0,0.0,0,0,18.0,0.0,0.0,4589.743589743591,3911.2820512820517,4493.846153846154,4414.358974358975,4219.48717948718,4546.153846153847,4504.615384615385,4400.512820512821,4454.871794871796,4762.051282051282,4314.358974358975,4267.6923076923085,4261.025641025642,4588.717948717949
740.66,0.5959052,0.5996199,0.33493963,0.760509,0,0.0,0.0,0.0,0.0,0.0,0,0,0.0,0.0,0,0,34.0,0.0,0.0,4595.384615384616,3926.1538461538466,4490.769230769231,4424.615384615385,4214.871794871796,4540.512820512821,4498.974358974359,4379.48717948718,4428.717948717949,4734.358974358975,4260.512820512821,4247.179487179487,4229.74358974359,4564.615384615385
741.0353,0.5959052,0.5996199,0.33493963,0.760509,0,0.0,0.0,0.0,0.0,0.18288262,0,0,0.0,0.0,0,0,82.0,0.0,540.0,4604.615384615385,3938.9743589743593,4520.512820512821,4432.820512820514,4221.025641025642,4568.717948717949,4508.717948717949,4417.435897435898,4458.461538461539,4767.179487179488,4266.666666666667,4271.282051282052,4267.179487179487,4579.48717948718
741.28546,0.5736397,0.6299147,0.3384282,0.7646229,0,0.0,0.0,0.0,0.0,0.2899448,0,0,0.0,0.0,0,0,114.0,0.0,540.0,4616.410256410257,3943.589743589744,4524.102564102564,4444.102564102564,4223.076923076924,4556.923076923077,4500.000000000001,4426.666666666667,4444.615384615385,4764.615384615386,4253.333333333334,4287.179487179487,4261.025641025642,4568.717948717949
741.5357,0.5736397,0.6299147,0.3384282,0.7646229,0,0.0,0.0,0.0,0.0,0.14981495,0,0,0.0,0.0,0,0,17.0,0.0,0.0,4644.615384615385,3960.0000000000005,4553.333333333334,4450.769230769231,4217.948717948719,4566.153846153847,4509.743589743591,4443.076923076924,4443.589743589744,4758.974358974359,4231.282051282052,4290.769230769231,4251.282051282052,4555.8974358974365
741.7859,0.49448928,0.65545195,0.34277147,0.76466966,0,0.0,0.0,0.0,0.0,0.352569,0,0,0.0,0.0,0,0,49.0,0.0,0.0,4635.8974358974365,3940.5128205128212,4542.564102564103,4441.025641025642,4216.410256410257,4565.128205128206,4508.205128205129,4446.666666666667,4458.461538461539,4767.6923076923085,4244.615384615385,4293.846153846154,4230.769230769231,4545.641025641026
741.911,0.49448928,0.65545195,0.34277147,0.76466966,0,0.0,0.0,0.0,0.0,0.0,0,0,0.0,0.0,0,0,65.0,0.0,474.0,4627.179487179488,3924.615384615385,4490.769230769231,4415.8974358974365,4218.974358974359,4563.076923076924,4492.820512820514,4462.564102564103,4462.564102564103,4784.102564102564,4256.923076923077,4298.974358974359,4250.256410256411,4565.641025641026
742.2863,0.4562258,0.6616506,0.3466801,0.7620592,0,0.0,0.0,0.0,0.0,0.13398178,0,0,0.0,0.0,0,0,113.0,0.0,449.0,4629.743589743591,3910.2564102564106,4490.769230769231,4422.051282051282,4229.74358974359,4555.384615384616,4489.2307692307695,4391.794871794872,4449.2307692307695,4781.538461538462,4257.435897435898,4272.820512820514,4227.6923076923085,4508.205128205129
742.53656,0.4562258,0.6616506,0.3466801,0.7620592,0,0.0,0.0,0.0,0.0,0.023481851,0,0,0.0,0.0,0,0,16.0,0.0,0.0,4624.615384615385,3879.48717948718,4484.615384615385,4389.2307692307695,4245.641025641026,4574.358974358975,4490.256410256411,4323.589743589744,4407.179487179487,4760.000000000001,4213.333333333334,4260.512820512821,4158.461538461539,4437.435897435898
742.78674,0.41401255,0.65360177,0.3489927,0.75969714,0,0.0,0.0,0.0,0.0,0.108518876,0,0,0.0,0.0,0,0,48.0,0.0,0.0,4611.794871794872,3895.8974358974365,4505.128205128206,4406.153846153847,4232.820512820514,4560.000000000001,4492.820512820514,4390.769230769231,4417.948717948719,4764.615384615386,4249.2307692307695,4281.025641025642,4183.076923076924,4446.153846153847
743.037,0.41401255,0.65360177,0.3489927,0.75969714,0,0.0,0.0,0.0,0.0,0.04072709,0,0,0.0,0.0,0,0,80.0,0.0,501.0,4644.102564102564,3941.538461538462,4518.974358974359,4443.076923076924,4245.128205128206,4550.256410256411,4462.051282051282,4391.794871794872,4394.871794871796,4746.666666666667,4230.256410256411,4245.128205128206,4140.000000000001,4463.076923076924
743.28723,0.3259556,0.6346277,0.34838736,0.75586724,0,0.0,0.0,0.0,0.0,0.21609658,0,0,0.0,0.0,0,0,112.0,0.0,501.0,4621.538461538462,3925.6410256410263,4505.128205128206,4429.743589743591,4247.6923076923085,4551.282051282052,4470.769230769231,4409.2307692307695,4396.410256410257,4765.128205128206,4258.974358974359,4245.128205128206,4151.282051282052,4502.051282051282
743.5374,0.3259556,0.6346277,0.34838736,0.75586724,0,0.0,0.0,0.0,0.0,0.29947332,0,0,0.0,0.0,0,0,15.0,0.0,510.0,4611.282051282052,3930.7692307692314,4511.282051282052,4436.410256410257,4236.410256410257,4538.974358974359,4457.948717948719,4387.6923076923085,4405.128205128206,4752.307692307693,4278.461538461539,4250.769230769231,4158.974358974359,4552.820512820514
743.78766,0.26978308,0.60719055,0.34728998,0.74426585,0,0.0,0.0,0.0,0.0,0.26733345,0,0,0.0,0.0,0,0,47.0,0.0,0.0,4600.512820512821,3910.7692307692314,4522.051282051282,4418.461538461539,4234.871794871796,4526.666666666667,4442.564102564103,4391.282051282052,4405.128205128206,4759.48717948718,4309.743589743591,4257.435897435898,4171.282051282052,4536.410256410257
744.03784,0.26978308,0.60719055,0.34728998,0.74426585,0,0.0,0.0,0.0,0.0,0.103349246,0,0,0.0,0.0,0,0,79.0,0.0,510.0,4605.641025641026,3907.692307692308,4524.615384615385,4412.307692307693,4242.051282051282,4538.461538461539,4465.128205128206,4428.205128205129,4425.641025641026,4765.641025641026,4335.384615384616,4276.410256410257,4181.025641025642,4560.000000000001
744.2881,0.24900347,0.58029264,0.34630185,0.73663986,0,0.0,0.0,0.0,0.0,0.18475303,0,0,0.0,0.0,0,0,111.0,0.0,510.0,4608.717948717949,3915.3846153846157,4513.846153846154,4428.205128205129,4231.794871794872,4525.128205128206,4447.179487179487,4414.871794871796,4394.358974358975,4725.641025641026,4307.179487179487,4248.205128205129,4134.358974358975,4508.717948717949
744.53827,0.24900347,0.58029264,0.34630185,0.73663986,0,0.0,0.0,0.0,0.0,0.2552684,0,0,0.0,0.0,0,0,14.0,0.0,540.0,4608.717948717949,3912.820512820513,4519.48717948718,4427.6923076923085,4234.358974358975,4518.974358974359,4443.589743589744,4431.794871794872,4423.589743589744,4765.128205128206,4337.435897435898,4264.615384615385,4181.025641025642,4537.948717948719
744.7885,0.19352898,0.55810136,0.34482497,0.73417735,0,0.0,0.0,0.0,0.0,0.341761,0,0,0.0,0.0,0,0,46.0,0.0,0.0,4586.666666666667,3895.8974358974365,4502.564102564103,4413.333333333334,4248.717948717949,4513.846153846154,4428.717948717949,4435.8974358974365,4409.743589743591,4768.205128205129,4345.128205128206,4256.923076923077,4166.153846153847,4460.000000000001
745.0622,0.19352898,0.55810136,0.34482497,0.73417735,0,0.0,0.0,0.0,0.0,0.30722934,0,0,0.0,0.0,0,0,82.0,0.0,540.0,4566.153846153847,3876.9230769230776,4514.871794871796,4388.717948717949,4250.769230769231,4476.923076923077,4411.282051282052,4441.025641025642,4381.025641025642,4736.410256410257,4388.717948717949,4277.435897435898,4109.74358974359,4404.615384615385
745.2811,0.16736111,0.53601265,0.34325245,0.7319519,0,0.0,0.0,0.0,0.0,0.09984944,0,0,0.0,0.0,0,0,110.0,0.0,540.0,4564.615384615385,3885.1282051282055,4536.923076923077,4410.769230769231,4264.102564102564,4458.461538461539,4420.000000000001,4464.102564102564,4395.384615384616,4767.179487179488,4476.923076923077,4320.000000000001,4141.025641025642,4465.128205128206
745.4062,0.16736111,0.53601265,0.34325245,0.7319519,0,0.0,0.0,0.0,0.0,0.0,0,0,0.0,0.0,0,0,126.0,0.0,540.0,4551.794871794872,3873.8461538461543,4516.923076923077,4404.102564102564,4263.076923076924,4443.076923076924,4388.717948717949,4422.051282051282,4351.282051282052,4718.974358974359,4477.435897435898,4277.435897435898,4095.8974358974365,4436.410256410257
745.78156,0.18270539,0.5241855,0.34038445,0.72993964,0,0.0,0.0,0.0,0.0,0.056108862,0,0,0.0,0.0,0,0,45.0,0.0,0.0,4575.8974358974365,3896.410256410257,4454.871794871796,4433.333333333334,4262.051282051282,4453.333333333334,4383.076923076924,4336.923076923077,4314.358974358975,4694.871794871796,4495.8974358974365,4170.256410256411,4109.74358974359,4481.538461538462
746.03174,0.18270539,0.5241855,0.34038445,0.72993964,0,0.0,0.0,0.0,0.0,0.011697713,0,0,0.0,0.0,0,0,77.0,0.0,449.0,4586.666666666667,3920.0000000000005,4454.871794871796,4449.2307692307695,4261.538461538462,4475.384615384616,4411.282051282052,4330.256410256411,4320.000000000001,4700.000000000001,4472.820512820514,4153.846153846154,4126.153846153847,4474.358974358975
746.282,0.21246293,0.515654,0.33571154,0.735248,0,0.0,0.0,0.0,0.0,0.0,0,0,0.0,0.0,0,0,109.0,0.0,449.0,4587.179487179488,3925.1282051282055,4446.666666666667,4441.538461538462,4247.179487179487,4489.2307692307695,4427.179487179487,4300.512820512821,4280.000000000001,4677.435897435898,4410.769230769231,4129.74358974359,4120.000000000001,4435.8974358974365
746.282,0.21246293,0.515654,0.33571154,0.735248,0,0.0,0.0,0.0,0.0,0.0,0,0,0.0,0.0,0,0,109.0,0.0,449.0,4587.179487179488,3925.1282051282055,4446.666666666667,4441.538461538462,4247.179487179487,4489.2307692307695,4427.179487179487,4300.512820512821,4280.000000000001,4677.435897435898,4410.769230769231,4129.74358974359,4120.000000000001,4435.8974358974365
746.7824,0.1587035,0.510014,0.3270146,0.7466059,0,0.0,0.0,0.0,0.0,0.21746022,0,0,0.0,0.0,0,0,44.0,0.0,0.0,4594.871794871796,3935.3846153846157,4462.051282051282,4452.820512820514,4248.205128205129,4525.641025641026,4475.8974358974365,4294.358974358975,4308.205128205129,4651.282051282052,4366.666666666667,4155.8974358974365,4137.948717948719,4495.8974358974365
747.0326,0.1587035,0.510014,0.3270146,0.7466059,0,0.0,0.0,0.0,0.0,0.091358915,0,0,0.0,0.0,0,0,76.0,0.0,501.0,4608.717948717949,3974.358974358975,4506.666666666667,4488.717948717949,4250.256410256411,4538.461538461539,4489.2307692307695,4323.589743589744,4325.128205128206,4670.769230769231,4362.564102564103,4199.48717948718,4155.384615384616,4523.076923076924
747.1577,0.16211195,0.5024109,0.31690964,0.7572762,0,0.0,0.0,0.0,0.0,0.0,0,0,0.0,0.0,0,0,92.0,0.0,501.0,4616.410256410257,3964.1025641025644,4526.666666666667,4473.333333333334,4247.6923076923085,4549.743589743591,4504.102564102564,4325.641025641026,4324.615384615385,4665.641025641026,4355.384615384616,4235.384615384616,4158.461538461539,4532.820512820514
747.1577,0.16211195,0.5024109,0.31690964,0.7572762,0,0.0,0.0,0.0,0.0,0.0,0,0,0.0,0.0,0,0,92.0,0.0,501.0,4616.410256410257,3964.1025641025644,4526.666666666667,4473.333333333334,4247.6923076923085,4549.743589743591,4504.102564102564,4325.641025641026,4324.615384615385,4665.641025641026,4355.384615384616,4235.384615384616,4158.461538461539,4532.820512820514
747.65814,0.1142962,0.49858627,0.30579525,0.77072895,0,0.0,0.0,0.0,0.0,0.0,0,0,0.0,0.0,0,0,27.0,0.0,0.0,4598.461538461539,3949.7435897435903,4521.025641025642,4451.794871794872,4243.589743589744,4553.333333333334,4475.384615384616,4349.743589743591,4352.820512820514,4669.2307692307695,4275.8974358974365,4246.666666666667,4185.128205128206,4488.717948717949
747.65814,0.1142962,0.49858627,0.30579525,0.77072895,0,0.0,0.0,0.0,0.0,0.0,0,0,0.0,0.0,0,0,27.0,0.0,0.0,4598.461538461539,3949.7435897435903,4521.025641025642,4451.794871794872,4243.589743589744,4553.333333333334,4475.384615384616,4349.743589743591,4352.820512820514,4669.2307692307695,4275.8974358974365,4246.666666666667,4185.128205128206,4488.717948717949
748.15857,0.12510361,0.49883342,0.29579344,0.7788996,0,0.0,0.0,0.0,0.0,0.0,0,0,0.0,0.0,0,0,91.0,0.0,510.0,4583.076923076924,3944.615384615385,4505.128205128206,4455.384615384616,4245.128205128206,4555.384615384616,4473.846153846154,4380.512820512821,4395.384615384616,4716.923076923077,4271.282051282052,4256.410256410257,4229.74358974359,4456.410256410257
748.5339,0.12510361,0.49883342,0.29579344,0.7788996,0,0.0,0.0,0.0,0.0,0.038925122,0,0,0.0,0.0,0,0,10.0,0.0,539.0,4617.435897435898,3976.410256410257,4523.076923076924,4490.769230769231,4240.000000000001,4571.794871794872,4494.358974358975,4458.461538461539,4441.538461538462,4749.2307692307695,4286.666666666667,4265.128205128206,4210.256410256411,4470.769230769231
748.7841,0.08266772,0.50238836,0.28679338,0.78557265,0,0.0,0.0,0.0,0.0,0.054633673,0,0,0.0,0.0,0,0,42.0,0.0,0.0,4598.974358974359,3944.1025641025644,4504.615384615385,4459.48717948718,4232.307692307693,4551.282051282052,4476.923076923077,4450.256410256411,4440.512820512821,4766.666666666667,4292.820512820514,4262.051282051282,4228.205128205129,4496.923076923077
749.0343,0.08266772,0.50238836,0.28679338,0.78557265,0,0.0,0.0,0.0,0.0,0.8725552,0,0,0.0,0.0,0,0,74.0,0.0,539.0,4603.589743589744,3895.8974358974365,4520.512820512821,4190.256410256411,4248.717948717949,4542.051282051282,4458.461538461539,4441.025641025642,4422.051282051282,4763.589743589744,4301.538461538462,4268.205128205129,4212.820512820514,4536.410256410257
749.28455,0.07955291,0.5064724,0.28371963,0.791055,0,0.0,0.7121617,0.0,0.0,0.0,0,0,0.0,0.0,0,0,106.0,0.0,539.0,4594.871794871796,3909.7435897435903,4520.512820512821,4263.589743589744,4246.666666666667,4540.000000000001,4460.000000000001,4444.102564102564,4428.717948717949,4768.205128205129,4318.974358974359,4281.025641025642,4216.923076923077,4551.282051282052
749.5348,0.07955291,0.5064724,0.28371963,0.791055,0,0.0,0.29591212,0.0,0.0,0.0,0,0,0.0,0.0,0,0,9.0,0.0,476.0,4583.076923076924,3868.717948717949,4512.307692307693,4275.8974358974365,4247.6923076923085,4524.102564102564,4442.564102564103,4407.179487179487,4372.820512820514,4699.48717948718,4307.179487179487,4246.153846153847,4097.948717948719,4475.384615384616
749.785,0.09493054,0.5115626,0.2862657,0.7946688,0,0.0,0.0,0.0,0.0,0.0,0,0,0.9025107,0.0,0,0,41.0,0.0,0.0,4582.051282051282,3854.8717948717954,4522.564102564103,4297.948717948719,4248.717948717949,4457.435897435898,4398.974358974359,4381.025641025642,4322.564102564103,4672.820512820514,4413.333333333334,4260.000000000001,4066.666666666667,4495.384615384616
750.0352,0.09493054,0.5115626,0.2862657,0.7946688,0,0.0,0.0,0.0,0.0,0.0,0,0,0.0,0.0,0,0,73.0,0.0,476.0,4606.153846153847,3873.8461538461543,4440.000000000001,4358.974358974359,4264.615384615385,4427.6923076923085,4347.6923076923085,4342.564102564103,4287.6923076923085,4648.717948717949,4505.641025641026,4184.102564102564,4035.3846153846157,4525.641025641026
750.2854,0.118695825,0.51772803,0.28989223,0.78851277,0,0.0,0.0,0.0,0.07778017,0.0,0,0,0.0,0.0,0,0,105.0,0.0,449.0,4594.358974358975,3862.0512820512827,4351.794871794872,4375.8974358974365,4266.153846153847,4432.820512820514,4373.846153846154,4350.256410256411,4295.384615384616,4661.538461538462,4543.589743589744,4150.256410256411,4078.9743589743593,4543.589743589744
