timestamp,excitement,frustration,meditation,engagementBoredom,blink,clench,laugh,smile,eyebrow,furrowBrow,lookLeft,lookRight,smirkLeft,smirkRight,winkLeft,winkRight,eeg0,eeg1,eeg2,eeg3,eeg4,eeg5,eeg6,eeg7,eeg8,eeg9,eeg10,eeg11,eeg12,eeg13,eeg14,eeg15,eeg16
109.969505,0.3950922,0.577057,0.33333334,0.5522388,0,0.0,0.0,0.0,0.0,0.0,0,0,1.0,0.0,0,0,3.0,0.0,546.0,4421.025641025642,3432.307692307693,4182.051282051282,3898.461538461539,4417.948717948719,4203.589743589744,4081.538461538462,3721.538461538462,4388.205128205129,4344.615384615385,3897.9487179487182,3201.0256410256416,3697.9487179487182,3605.1282051282055
110.157166,0.507851,0.5984934,0.33333334,0.5522388,1,0.0,0.0,0.0,0.0,0.0,0,0,1.0,0.0,0,0,27.0,0.0,0.0,4449.743589743591,3438.461538461539,4235.384615384616,3911.2820512820517,4371.794871794872,4238.974358974359,4107.179487179487,3829.2307692307695,4496.923076923077,4412.820512820514,3990.2564102564106,3427.692307692308,3760.0000000000005,4654.358974358975
110.46993,0.507851,0.5984934,0.33333334,0.5522388,0,0.0,0.0,0.0,0.0,0.7638132,0,0,0.0,0.0,0,1,67.0,0.0,546.0,4554.871794871796,3670.2564102564106,4357.948717948719,4118.974358974359,4318.974358974359,4354.358974358975,4246.153846153847,4150.256410256411,4467.6923076923085,4568.205128205129,4152.820512820514,3679.48717948718,3948.205128205129,4516.410256410257
110.72015,0.63210833,0.6177862,0.33333334,0.5522388,0,0.0,0.0,0.0,0.0,0.54070467,0,0,0.0,0.0,0,0,99.0,0.0,501.0,4618.974358974359,3879.48717948718,4452.820512820514,4303.076923076924,4326.153846153847,4460.000000000001,4353.846153846154,4401.538461538462,4328.205128205129,4616.410256410257,4185.128205128206,3835.8974358974365,4046.666666666667,4086.666666666667
110.97037,0.63210833,0.6177862,0.33333334,0.5522388,0,0.0,0.0,0.0,0.0,0.7402095,0,0,0.0,0.0,0,0,2.0,0.0,244.0,4632.820512820514,3912.820512820513,4496.410256410257,4373.846153846154,4290.256410256411,4526.153846153847,4437.948717948719,4590.769230769231,4278.974358974359,4709.2307692307695,4189.74358974359,4007.1794871794878,4129.74358974359,3861.0256410256416
111.22058,0.63009566,0.6351497,0.33333334,0.5522388,0,0.0,0.0,0.0,0.0,0.13742702,0,0,0.0,0.0,0,0,34.0,0.0,0.0,4628.205128205129,3861.0256410256416,4460.000000000001,4332.307692307693,4313.846153846154,4507.179487179488,4379.48717948718,4529.743589743591,4245.128205128206,4667.179487179488,4018.9743589743593,4035.8974358974365,4122.051282051282,3845.6410256410263
111.470795,0.63009566,0.6351497,0.33333334,0.5522388,0,0.0,0.0,0.0,0.0,0.32821605,0,0,0.0,0.0,0,0,66.0,0.0,244.0,4638.461538461539,3981.538461538462,4521.538461538462,4444.615384615385,4342.051282051282,4620.512820512821,4476.923076923077,4583.076923076924,4349.743589743591,4771.794871794872,4158.974358974359,4166.153846153847,4214.358974358975,3876.410256410257
111.72101,0.6951228,0.6507769,0.33333334,0.5522388,0,0.0,0.0,0.0,0.0,1.0,0,0,0.0,0.0,0,0,98.0,0.0,535.0,4642.564102564103,4003.589743589744,4506.666666666667,4445.128205128206,4314.358974358975,4626.666666666667,4455.8974358974365,4519.48717948718,4340.000000000001,4763.589743589744,4184.102564102564,4199.48717948718,4205.641025641026,4876.923076923077
111.72101,0.6951228,0.6507769,0.33333334,0.5522388,0,0.0,0.0,0.0,0.0,1.0,0,0,0.0,0.0,0,0,98.0,0.0,535.0,4642.564102564103,4003.589743589744,4506.666666666667,4445.128205128206,4314.358974358975,4626.666666666667,4455.8974358974365,4519.48717948718,4340.000000000001,4763.589743589744,4184.102564102564,4199.48717948718,4205.641025641026,4876.923076923077
112.12761,0.7002364,0.66484135,0.33333334,0.5522388,0,0.0,0.0,0.0,0.0,1.0,0,0,0.0,0.0,0,0,21.0,0.0,0.0,4676.923076923077,3971.2820512820517,4507.179487179488,4424.102564102564,4280.000000000001,4620.512820512821,4462.564102564103,4509.743589743591,4396.410256410257,4812.307692307693,4235.8974358974365,4269.74358974359,4238.974358974359,4907.179487179488
112.47166,0.7002364,0.66484135,0.33333334,0.5522388,0,0.0,0.0,0.0,0.0,1.0,0,0,0.0,0.0,0,0,65.0,0.0,460.0,4697.435897435898,4074.358974358975,4509.743589743591,4527.179487179488,4265.128205128206,4506.666666666667,4440.000000000001,4427.6923076923085,4364.615384615385,4733.846153846154,4153.846153846154,4246.666666666667,4154.358974358975,4186.153846153847
112.59676,0.70981187,0.67749935,0.33333334,0.5522388,0,0.0,0.0,0.0,0.0,1.0,0,0,0.0,0.0,0,0,81.0,0.0,451.0,4667.6923076923085,4046.1538461538466,4520.512820512821,4509.2307692307695,4275.384615384616,4504.102564102564,4444.615384615385,4432.307692307693,4347.179487179487,4731.794871794872,4153.333333333334,4268.717948717949,4138.974358974359,4006.1538461538466
112.59676,0.70981187,0.67749935,0.33333334,0.5522388,0,0.0,0.0,0.0,0.0,1.0,0,0,0.0,0.0,0,0,81.0,0.0,451.0,4667.6923076923085,4046.1538461538466,4520.512820512821,4509.2307692307695,4275.384615384616,4504.102564102564,4444.615384615385,4432.307692307693,4347.179487179487,4731.794871794872,4153.333333333334,4268.717948717949,4138.974358974359,4006.1538461538466
113.09719,0.7329677,0.68889153,0.33333334,0.5522388,0,0.0,0.0,0.0,0.0,1.0,0,0,0.0,0.0,0,0,16.0,0.0,0.0,4553.333333333334,3986.1538461538466,4553.333333333334,4481.538461538462,4265.641025641026,4426.153846153847,4436.923076923077,4415.384615384616,4295.384615384616,4648.205128205129,4287.6923076923085,4325.641025641026,4016.9230769230776,3573.8461538461543
113.50379,0.7329677,0.68889153,0.33333334,0.5522388,0,0.12215751,0.0,0.0,0.0,0.0,0,0,0.0,0.0,0,0,68.0,0.0,563.0,4535.384615384616,3897.435897435898,4521.025641025642,4401.538461538462,4262.051282051282,4458.461538461539,4443.076923076924,4462.564102564103,4367.179487179487,4707.6923076923085,4384.102564102564,4342.564102564103,4186.666666666667,5177.948717948719
113.72273,0.6578507,0.6234369,0.33333334,0.5522388,0,0.0,0.0,0.0,0.0,1.0,0,0,0.0,0.0,0,0,96.0,0.0,481.0,4535.8974358974365,3931.7948717948725,4492.820512820514,4434.358974358975,4249.74358974359,4461.025641025642,4440.512820512821,4463.076923076924,4370.256410256411,4718.974358974359,4366.666666666667,4310.769230769231,4172.820512820514,4949.743589743591
113.72273,0.6578507,0.6234369,0.33333334,0.5522388,0,0.0,0.0,0.0,0.0,1.0,0,0,0.0,0.0,0,0,96.0,0.0,481.0,4535.8974358974365,3931.7948717948725,4492.820512820514,4434.358974358975,4249.74358974359,4461.025641025642,4440.512820512821,4463.076923076924,4370.256410256411,4718.974358974359,4366.666666666667,4310.769230769231,4172.820512820514,4949.743589743591
114.09805,0.5844886,0.5832027,0.33333334,0.5522388,0,0.0,0.0,0.0,0.0,1.0,0,0,0.0,0.0,0,0,15.0,0.0,499.0,4547.179487179488,3953.8461538461543,4501.025641025642,4440.512820512821,4232.307692307693,4507.6923076923085,4486.666666666667,4462.051282051282,4377.948717948719,4728.717948717949,4424.102564102564,4310.769230769231,4199.48717948718,4557.948717948719
114.09805,0.5844886,0.5832027,0.33333334,0.5522388,0,0.0,0.0,0.0,0.0,1.0,0,0,0.0,0.0,0,0,15.0,0.0,499.0,4547.179487179488,3953.8461538461543,4501.025641025642,4440.512820512821,4232.307692307693,4507.6923076923085,4486.666666666667,4462.051282051282,4377.948717948719,4728.717948717949,4424.102564102564,4310.769230769231,4199.48717948718,4557.948717948719
114.62976,0.54244804,0.5662988,0.33333334,0.5522388,0,0.0,0.0,0.0,0.0,1.0,0,0,0.0,0.0,0,0,83.0,0.0,501.0,4699.48717948718,3998.9743589743593,4510.256410256411,4478.461538461539,4231.282051282052,4524.102564102564,4471.794871794872,4376.923076923077,4367.6923076923085,4645.641025641026,4247.179487179487,4264.615384615385,4089.23076923077,4374.358974358975
114.62976,0.54244804,0.5662988,0.33333334,0.5522388,0,0.0,0.0,0.0,0.0,1.0,0,0,0.0,0.0,0,0,83.0,0.0,501.0,4699.48717948718,3998.9743589743593,4510.256410256411,4478.461538461539,4231.282051282052,4524.102564102564,4471.794871794872,4376.923076923077,4367.6923076923085,4645.641025641026,4247.179487179487,4264.615384615385,4089.23076923077,4374.358974358975
115.098915,0.5419606,0.5578082,0.33333334,0.5522388,0,0.0,0.0,0.0,0.0,1.0,0,0,0.0,0.0,0,0,14.0,0.0,535.0,4718.974358974359,4019.48717948718,4478.461538461539,4507.6923076923085,4224.615384615385,4521.538461538462,4439.48717948718,4307.6923076923085,4304.102564102564,4582.051282051282,4331.282051282052,4139.48717948718,3993.8461538461543,4431.282051282052
115.098915,0.5419606,0.5578082,0.33333334,0.5522388,0,0.0,0.0,0.0,0.0,1.0,0,0,0.0,0.0,0,0,14.0,0.0,535.0,4718.974358974359,4019.48717948718,4478.461538461539,4507.6923076923085,4224.615384615385,4521.538461538462,4439.48717948718,4307.6923076923085,4304.102564102564,4582.051282051282,4331.282051282052,4139.48717948718,3993.8461538461543,4431.282051282052
115.72445,0.5489068,0.56638026,0.33333334,0.5522388,0,0.0,0.0,0.0,0.0,0.74496025,0,0,0.0,0.0,0,0,94.0,0.0,531.0,4748.717948717949,3987.692307692308,4475.384615384616,4488.717948717949,4205.128205128206,4553.333333333334,4458.461538461539,4342.051282051282,4342.564102564103,4688.205128205129,4391.794871794872,4214.358974358975,4093.333333333334,4167.6923076923085
115.97466,0.5489068,0.56638026,0.33333334,0.5522388,0,0.0,0.0,0.0,0.0,0.4572782,0,0,0.0,0.0,0,0,126.0,0.0,531.0,4734.358974358975,3974.358974358975,4458.974358974359,4472.820512820514,4202.564102564103,4548.717948717949,4448.205128205129,4281.025641025642,4368.717948717949,4722.051282051282,4362.564102564103,4218.461538461539,4121.025641025642,4137.435897435898
116.224884,0.49607012,0.57976526,0.33333334,0.5522388,0,0.0,0.0,0.0,0.0,0.070096225,0,0,0.0,0.0,0,0,29.0,0.0,0.0,4766.153846153847,3967.1794871794878,4475.8974358974365,4460.512820512821,4213.846153846154,4553.846153846154,4474.358974358975,4333.333333333334,4396.923076923077,4779.48717948718,4392.307692307693,4282.051282051282,4216.923076923077,4182.051282051282
116.4751,0.49607012,0.57976526,0.33333334,0.5522388,0,0.0,0.0,0.0,0.0,0.060308896,0,0,0.0,0.0,0,0,61.0,0.0,0.0,4751.794871794872,3957.435897435898,4443.076923076924,4455.384615384616,4204.615384615385,4554.871794871796,4458.461538461539,4374.358974358975,4412.307692307693,4790.256410256411,4390.256410256411,4281.538461538462,4234.871794871796,4188.205128205129
116.72531,0.48757654,0.5856145,0.33333334,0.5522388,0,0.0,0.0,0.0,0.0,1.0,0,0,0.0,0.0,0,0,93.0,0.0,455.0,4745.128205128206,3944.615384615385,4435.8974358974365,4446.666666666667,4202.051282051282,4529.2307692307695,4433.333333333334,4335.384615384616,4411.282051282052,4766.666666666667,4385.641025641026,4277.435897435898,4216.923076923077,5137.948717948719
116.72531,0.48757654,0.5856145,0.33333334,0.5522388,0,0.0,0.0,0.0,0.0,1.0,0,0,0.0,0.0,0,0,93.0,0.0,455.0,4745.128205128206,3944.615384615385,4435.8974358974365,4446.666666666667,4202.051282051282,4529.2307692307695,4433.333333333334,4335.384615384616,4411.282051282052,4766.666666666667,4385.641025641026,4277.435897435898,4216.923076923077,5137.948717948719
117.22574,0.4623409,0.5612045,0.33333334,0.5522388,0,0.0,0.0,0.0,0.0,1.0,0,0,0.0,0.0,0,0,28.0,0.0,0.0,4709.743589743591,3927.692307692308,4450.769230769231,4436.410256410257,4200.512820512821,4462.564102564103,4391.282051282052,4297.948717948719,4303.589743589744,4629.743589743591,4333.846153846154,4234.358974358975,4057.9487179487182,4311.794871794872
117.22574,0.4623409,0.5612045,0.33333334,0.5522388,0,0.0,0.0,0.0,0.0,1.0,0,0,0.0,0.0,0,0,28.0,0.0,0.0,4709.743589743591,3927.692307692308,4450.769230769231,4436.410256410257,4200.512820512821,4462.564102564103,4391.282051282052,4297.948717948719,4303.589743589744,4629.743589743591,4333.846153846154,4234.358974358975,4057.9487179487182,4311.794871794872
117.60107,0.52128166,0.52563345,0.33333334,0.5522388,0,0.0,0.0,0.0,0.0,1.0,0,0,0.0,0.0,0,0,76.0,0.0,486.0,4654.358974358975,3894.358974358975,4466.153846153847,4412.820512820514,4203.589743589744,4461.025641025642,4407.179487179487,4325.641025641026,4267.179487179487,4608.205128205129,4400.000000000001,4233.846153846154,4025.6410256410263,3956.9230769230776
117.97639,0.52128166,0.52563345,0.33333334,0.5522388,0,0.0,0.0,0.0,0.0,0.20316519,0,0,0.0,0.0,0,0,124.0,0.0,486.0,4637.948717948719,3887.1794871794878,4491.282051282052,4385.128205128206,4209.74358974359,4472.307692307693,4429.2307692307695,4403.076923076924,4281.025641025642,4668.205128205129,4473.846153846154,4290.769230769231,4119.48717948718,3977.435897435898
118.2266,0.5527104,0.49432173,0.33333334,0.5522388,0,0.0,0.0,0.0,0.0,0.25160334,0,0,0.0,0.0,0,0,27.0,0.0,0.0,4661.538461538462,3955.3846153846157,4472.820512820514,4427.6923076923085,4218.974358974359,4475.384615384616,4427.179487179487,4385.128205128206,4262.051282051282,4610.769230769231,4365.641025641026,4210.256410256411,4006.1538461538466,4152.307692307693
118.35171,0.5527104,0.49432173,0.33333334,0.5522388,0,0.0,0.0,0.0,0.0,1.0,0,0,0.0,0.0,0,0,43.0,0.0,0.0,4664.102564102564,3961.0256410256416,4476.410256410257,4429.2307692307695,4215.8974358974365,4472.307692307693,4413.333333333334,4376.923076923077,4269.74358974359,4614.358974358975,4363.589743589744,4212.820512820514,4033.8461538461543,4909.743589743591
118.6332,0.52729446,0.45905468,0.33333334,0.5522388,0,0.0,0.0,0.0,0.0,1.0,0,0,0.0,0.0,0,0,79.0,0.0,501.0,4669.743589743591,3956.9230769230776,4474.358974358975,4426.666666666667,4202.564102564103,4506.153846153847,4433.846153846154,4427.6923076923085,4340.000000000001,4695.384615384616,4370.256410256411,4239.48717948718,4099.48717948718,4726.153846153847
118.97725,0.52729446,0.45905468,0.33333334,0.5522388,0,0.0,0.0,0.0,0.0,1.0,0,0,0.0,0.0,0,0,123.0,0.0,501.0,4667.179487179488,3983.076923076924,4476.923076923077,4456.410256410257,4200.000000000001,4511.282051282052,4445.641025641026,4437.435897435898,4362.564102564103,4702.051282051282,4341.538461538462,4246.666666666667,4127.179487179487,4432.820512820514
119.16491,0.52708983,0.43665823,0.33333334,0.5522388,0,0.0,0.0,0.0,0.0,1.0,0,0,0.0,0.0,0,1,18.0,0.0,0.0,4684.102564102564,3942.0512820512827,4516.410256410257,4427.179487179487,4185.128205128206,4538.974358974359,4474.358974358975,4478.974358974359,4405.641025641026,4753.846153846154,4424.615384615385,4358.461538461539,4246.153846153847,4604.102564102564
119.50896,0.52708983,0.43665823,0.33333334,0.5522388,0,0.0,0.0,0.0,0.0,1.0,0,0,0.0,0.0,0,0,43.0,0.0,0.0,4635.8974358974365,3951.7948717948725,4494.358974358975,4428.717948717949,4200.000000000001,4551.794871794872,4488.205128205129,4507.179487179488,4433.846153846154,4770.256410256411,4396.410256410257,4346.153846153847,4232.307692307693,4346.153846153847
119.60278,0.49978888,0.42890686,0.33333334,0.5522388,0,0.0,0.0,0.0,0.0,1.0,0,0,0.0,0.0,0,0,74.0,0.0,531.0,4629.2307692307695,3958.9743589743593,4492.307692307693,4447.179487179487,4202.564102564103,4546.666666666667,4474.358974358975,4467.6923076923085,4406.153846153847,4750.256410256411,4353.333333333334,4320.512820512821,4181.538461538462,4123.589743589744
119.60278,0.49978888,0.42890686,0.33333334,0.5522388,0,0.0,0.0,0.0,0.0,1.0,0,0,0.0,0.0,0,0,74.0,0.0,531.0,4629.2307692307695,3958.9743589743593,4492.307692307693,4447.179487179487,4202.564102564103,4546.666666666667,4474.358974358975,4467.6923076923085,4406.153846153847,4750.256410256411,4353.333333333334,4320.512820512821,4181.538461538462,4123.589743589744
120.10322,0.45820528,0.41929975,0.33333334,0.5522388,0,0.0,0.0,0.0,0.0,1.0,0,0,0.0,0.0,0,1,9.0,0.0,472.0,4589.2307692307695,3956.410256410257,4460.512820512821,4442.564102564103,4219.48717948718,4540.000000000001,4456.923076923077,4412.307692307693,4384.615384615385,4728.717948717949,4356.923076923077,4288.205128205129,4145.641025641026,4657.435897435898
120.392525,0.45820528,0.41929975,0.33333334,0.5522388,0,0.0,0.0,0.0,0.0,1.0,0,0,0.0,0.0,0,0,45.0,0.0,0.0,4598.461538461539,3981.0256410256416,4478.461538461539,4469.2307692307695,4232.820512820514,4553.333333333334,4474.358974358975,4413.846153846154,4369.743589743591,4731.282051282052,4362.564102564103,4280.512820512821,4135.8974358974365,4501.025641025642
120.611465,0.4054084,0.40354022,0.33333334,0.5522388,0,0.0,0.0,0.0,0.0,1.0,0,0,0.0,0.0,0,0,73.0,0.0,472.0,4647.6923076923085,4048.717948717949,4522.564102564103,4525.128205128206,4247.6923076923085,4573.333333333334,4496.923076923077,4440.000000000001,4382.564102564103,4747.179487179488,4358.461538461539,4283.589743589744,4130.256410256411,4306.666666666667
120.611465,0.4054084,0.40354022,0.33333334,0.5522388,0,0.0,0.0,0.0,0.0,1.0,0,0,0.0,0.0,0,0,73.0,0.0,472.0,4647.6923076923085,4048.717948717949,4522.564102564103,4525.128205128206,4247.6923076923085,4573.333333333334,4496.923076923077,4440.000000000001,4382.564102564103,4747.179487179488,4358.461538461539,4283.589743589744,4130.256410256411,4306.666666666667
121.11189,0.38083318,0.39329213,0.33333334,0.5522388,0,0.0,0.0,0.0,0.0,1.0,0,0,0.0,0.0,0,0,8.0,0.0,420.0,4603.589743589744,4004.1025641025644,4505.641025641026,4462.051282051282,4236.410256410257,4551.282051282052,4468.205128205129,4404.615384615385,4368.717948717949,4735.8974358974365,4330.769230769231,4270.256410256411,4134.871794871796,4418.974358974359
121.11189,0.38083318,0.39329213,0.33333334,0.5522388,0,0.0,0.0,0.0,0.0,1.0,0,0,0.0,0.0,0,0,8.0,0.0,420.0,4603.589743589744,4004.1025641025644,4505.641025641026,4462.051282051282,4236.410256410257,4551.282051282052,4468.205128205129,4404.615384615385,4368.717948717949,4735.8974358974365,4330.769230769231,4270.256410256411,4134.871794871796,4418.974358974359
121.61232,0.38066664,0.38873774,0.3355349,0.5562002,0,0.0,0.0,0.0,0.0,1.0,0,0,0.0,0.0,0,0,72.0,0.0,420.0,4599.48717948718,3929.2307692307695,4473.846153846154,4411.794871794872,4214.358974358975,4537.948717948719,4452.307692307693,4429.743589743591,4382.051282051282,4738.461538461539,4324.102564102564,4291.794871794872,4152.307692307693,4556.410256410257
121.61232,0.38066664,0.38873774,0.3355349,0.5562002,0,0.0,0.0,0.0,0.0,1.0,0,0,0.0,0.0,0,0,72.0,0.0,420.0,4599.48717948718,3929.2307692307695,4473.846153846154,4411.794871794872,4214.358974358975,4537.948717948719,4452.307692307693,4429.743589743591,4382.051282051282,4738.461538461539,4324.102564102564,4291.794871794872,4152.307692307693,4556.410256410257
122.112755,0.36821625,0.39005616,0.337516,0.5638974,0,0.0,0.0,0.0,0.0,1.0,0,0,0.0,0.0,0,0,7.0,0.0,428.0,4585.128205128206,3981.538461538462,4475.8974358974365,4476.410256410257,4219.48717948718,4520.000000000001,4440.000000000001,4415.8974358974365,4375.8974358974365,4718.461538461539,4282.564102564103,4264.615384615385,4110.256410256411,4267.179487179487
122.112755,0.36821625,0.39005616,0.337516,0.5638974,0,0.0,0.0,0.0,0.0,1.0,0,0,0.0,0.0,0,0,7.0,0.0,428.0,4585.128205128206,3981.538461538462,4475.8974358974365,4476.410256410257,4219.48717948718,4520.000000000001,4440.000000000001,4415.8974358974365,4375.8974358974365,4718.461538461539,4282.564102564103,4264.615384615385,4110.256410256411,4267.179487179487
122.73829,0.4100591,0.3940254,0.3415458,0.57082367,0,0.0,0.0,0.0,0.0,0.6989251,0,0,0.0,0.0,0,0,87.0,0.0,515.0,4568.205128205129,3960.5128205128212,4453.333333333334,4466.153846153847,4215.8974358974365,4508.717948717949,4433.333333333334,4379.48717948718,4355.384615384616,4682.051282051282,4231.282051282052,4256.410256410257,4065.1282051282055,4004.615384615385
122.98851,0.4100591,0.3940254,0.3415458,0.57082367,0,0.0,0.0,0.0,0.0,0.84650123,0,0,0.0,0.0,0,0,119.0,0.0,515.0,4537.948717948719,3925.1282051282055,4444.615384615385,4440.000000000001,4231.794871794872,4526.153846153847,4442.564102564103,4378.974358974359,4366.666666666667,4693.333333333334,4231.794871794872,4260.512820512821,4070.7692307692314,3929.2307692307695
123.11362,0.33941263,0.402067,0.34569454,0.57705545,0,0.0,0.0,0.0,0.0,1.0,0,0,0.0,0.0,0,0,6.0,0.0,549.0,4588.717948717949,3909.7435897435903,4525.128205128206,4429.743589743591,4233.333333333334,4540.512820512821,4486.666666666667,4462.564102564103,4455.8974358974365,4822.051282051282,4420.000000000001,4449.743589743591,4277.435897435898,4380.000000000001
123.11362,0.33941263,0.402067,0.34569454,0.57705545,0,0.0,0.0,0.0,0.0,1.0,0,0,0.0,0.0,0,0,6.0,0.0,549.0,4588.717948717949,3909.7435897435903,4525.128205128206,4429.743589743591,4233.333333333334,4540.512820512821,4486.666666666667,4462.564102564103,4455.8974358974365,4822.051282051282,4420.000000000001,4449.743589743591,4277.435897435898,4380.000000000001
123.614044,0.33513254,0.40174007,0.34983513,0.5832933,0,0.0,0.0,0.0,0.0,1.0,0,0,0.0,0.0,0,0,70.0,0.0,549.0,4467.179487179487,3829.2307692307695,4517.948717948719,4365.128205128206,4250.256410256411,4476.410256410257,4441.025641025642,4395.8974358974365,4372.307692307693,4701.025641025642,4426.153846153847,4360.000000000001,4110.256410256411,4529.743589743591
123.614044,0.33513254,0.40174007,0.34983513,0.5832933,0,0.0,0.0,0.0,0.0,1.0,0,0,0.0,0.0,0,0,70.0,0.0,549.0,4467.179487179487,3829.2307692307695,4517.948717948719,4365.128205128206,4250.256410256411,4476.410256410257,4441.025641025642,4395.8974358974365,4372.307692307693,4701.025641025642,4426.153846153847,4360.000000000001,4110.256410256411,4529.743589743591
124.23958,0.3542982,0.39238405,0.35320333,0.59491163,0,0.0,0.0,0.0,0.0,0.44109342,0,0,0.0,0.0,0,0,21.0,0.0,0.0,4472.820512820514,3851.2820512820517,4519.48717948718,4390.769230769231,4250.256410256411,4400.512820512821,4394.358974358975,4253.333333333334,4280.000000000001,4557.948717948719,4509.743589743591,4309.2307692307695,4005.6410256410263,4033.333333333334
124.4898,0.3542982,0.39238405,0.35320333,0.59491163,0,0.0,0.0,0.0,0.0,0.37433168,0,0,0.0,0.0,0,0,53.0,0.0,0.0,4497.948717948719,3883.589743589744,4507.179487179488,4422.564102564103,4247.179487179487,4444.615384615385,4422.564102564103,4281.025641025642,4305.128205128206,4570.769230769231,4520.512820512821,4297.435897435898,4062.564102564103,4031.7948717948725
124.74001,0.43042487,0.39142373,0.35679367,0.61419386,0,0.0,0.0,0.0,0.0,1.0,0,0,0.0,0.0,0,0,85.0,0.0,455.0,4533.846153846154,3862.0512820512827,4517.948717948719,4402.564102564103,4231.794871794872,4480.512820512821,4466.153846153847,4376.410256410257,4373.333333333334,4678.461538461539,4549.743589743591,4356.923076923077,4201.025641025642,4117.948717948719
124.74001,0.43042487,0.39142373,0.35679367,0.61419386,0,0.0,0.0,0.0,0.0,1.0,0,0,0.0,0.0,0,0,85.0,0.0,455.0,4533.846153846154,3862.0512820512827,4517.948717948719,4402.564102564103,4231.794871794872,4480.512820512821,4466.153846153847,4376.410256410257,4373.333333333334,4678.461538461539,4549.743589743591,4356.923076923077,4201.025641025642,4117.948717948719
125.24044,0.44461447,0.38748804,0.36006525,0.61260283,0,0.0,0.0,0.0,0.0,1.0,0,0,0.0,0.0,0,0,20.0,0.0,0.0,4553.846153846154,3924.1025641025644,4503.589743589744,4440.000000000001,4207.6923076923085,4567.6923076923085,4507.6923076923085,4430.256410256411,4458.461538461539,4782.051282051282,4422.564102564103,4298.974358974359,4245.641025641026,4851.794871794872
125.490654,0.44461447,0.38748804,0.36006525,0.61260283,0,0.0,0.0,0.0,0.0,1.0,0,0,0.0,0.0,0,0,52.0,0.0,0.0,4587.6923076923085,3991.2820512820517,4489.2307692307695,4491.794871794872,4218.461538461539,4570.769230769231,4486.153846153847,4396.410256410257,4419.48717948718,4732.820512820514,4310.769230769231,4266.153846153847,4204.102564102564,4578.974358974359
125.64704,0.38911647,0.40337905,0.36244565,0.6111709,0,0.0,0.0,0.0,0.0,1.0,0,0,0.0,0.0,0,0,72.0,0.0,420.0,4583.589743589744,4004.615384615385,4494.871794871796,4505.641025641026,4214.358974358975,4591.282051282052,4504.615384615385,4426.666666666667,4450.256410256411,4756.923076923077,4302.564102564103,4269.74358974359,4222.051282051282,4443.589743589744
125.64704,0.38911647,0.40337905,0.36244565,0.6111709,0,0.0,0.0,0.0,0.0,1.0,0,0,0.0,0.0,0,0,72.0,0.0,420.0,4583.589743589744,4004.615384615385,4494.871794871796,4505.641025641026,4214.358974358975,4591.282051282052,4504.615384615385,4426.666666666667,4450.256410256411,4756.923076923077,4302.564102564103,4269.74358974359,4222.051282051282,4443.589743589744
126.116196,0.34923723,0.42120576,0.3618741,0.60982746,0,0.0,0.0,0.0,0.0,1.0,0,0,0.0,0.0,0,0,3.0,0.0,546.0,4584.102564102564,4035.8974358974365,4488.717948717949,4526.666666666667,4217.948717948719,4620.000000000001,4521.538461538462,4441.025641025642,4457.435897435898,4766.666666666667,4185.641025641026,4266.666666666667,4182.051282051282,4096.923076923077
126.116196,0.34923723,0.42120576,0.3618741,0.60982746,0,0.0,0.0,0.0,0.0,1.0,0,0,0.0,0.0,0,0,3.0,0.0,546.0,4584.102564102564,4035.8974358974365,4488.717948717949,4526.666666666667,4217.948717948719,4620.000000000001,4521.538461538462,4441.025641025642,4457.435897435898,4766.666666666667,4185.641025641026,4266.666666666667,4182.051282051282,4096.923076923077
126.61662,0.34766367,0.4136064,0.35897323,0.60401595,0,0.0,0.0,0.0,0.0,1.0,0,0,0.0,0.0,0,0,67.0,0.0,546.0,4557.948717948719,3998.461538461539,4481.538461538462,4500.000000000001,4223.076923076924,4606.153846153847,4519.48717948718,4428.717948717949,4455.384615384616,4795.8974358974365,4232.307692307693,4278.461538461539,4175.384615384616,4796.410256410257
126.61662,0.34766367,0.4136064,0.35897323,0.60401595,0,0.0,0.0,0.0,0.0,1.0,0,0,0.0,0.0,0,0,67.0,0.0,546.0,4557.948717948719,3998.461538461539,4481.538461538462,4500.000000000001,4223.076923076924,4606.153846153847,4519.48717948718,4428.717948717949,4455.384615384616,4795.8974358974365,4232.307692307693,4278.461538461539,4175.384615384616,4796.410256410257
127.11706,0.30893457,0.3941466,0.3563585,0.59878284,0,0.0,0.0,0.0,0.0,1.0,0,0,0.0,0.0,0,0,2.0,0.0,244.0,4571.794871794872,3981.0256410256416,4490.769230769231,4488.205128205129,4234.871794871796,4604.102564102564,4525.128205128206,4463.076923076924,4443.076923076924,4782.564102564103,4303.589743589744,4292.820512820514,4195.8974358974365,4433.846153846154
127.11706,0.30893457,0.3941466,0.3563585,0.59878284,0,0.0,0.0,0.0,0.0,1.0,0,0,0.0,0.0,0,0,2.0,0.0,244.0,4571.794871794872,3981.0256410256416,4490.769230769231,4488.205128205129,4234.871794871796,4604.102564102564,4525.128205128206,4463.076923076924,4443.076923076924,4782.564102564103,4303.589743589744,4292.820512820514,4195.8974358974365,4433.846153846154
127.617485,0.27185085,0.37336186,0.35400167,0.5940703,0,0.0,0.0,0.0,0.0,1.0,0,0,0.0,0.0,0,0,66.0,0.0,244.0,4541.538461538462,3959.48717948718,4504.615384615385,4471.282051282052,4235.8974358974365,4576.410256410257,4496.410256410257,4427.179487179487,4456.923076923077,4796.923076923077,4356.923076923077,4312.307692307693,4212.820512820514,4555.384615384616
127.617485,0.27185085,0.37336186,0.35400167,0.5940703,0,0.0,0.0,0.0,0.0,1.0,0,0,0.0,0.0,0,0,66.0,0.0,244.0,4541.538461538462,3959.48717948718,4504.615384615385,4471.282051282052,4235.8974358974365,4576.410256410257,4496.410256410257,4427.179487179487,4456.923076923077,4796.923076923077,4356.923076923077,4312.307692307693,4212.820512820514,4555.384615384616
128.11792,0.24505983,0.36483586,0.35187733,0.58983546,0,0.0,0.0,0.0,0.0,1.0,0,0,0.0,0.0,0,0,1.0,0.0,460.0,4538.461538461539,3971.7948717948725,4520.512820512821,4475.8974358974365,4243.589743589744,4534.871794871796,4492.820512820514,4426.666666666667,4381.025641025642,4750.256410256411,4395.8974358974365,4277.435897435898,4137.435897435898,4219.48717948718
128.11792,0.24505983,0.36483586,0.35187733,0.58983546,0,0.0,0.0,0.0,0.0,1.0,0,0,0.0,0.0,0,0,1.0,0.0,460.0,4538.461538461539,3971.7948717948725,4520.512820512821,4475.8974358974365,4243.589743589744,4534.871794871796,4492.820512820514,4426.666666666667,4381.025641025642,4750.256410256411,4395.8974358974365,4277.435897435898,4137.435897435898,4219.48717948718
128.61835,0.22141002,0.3687083,0.3499626,0.5904293,0,0.0,0.0,0.0,0.0,1.0,0,0,0.0,0.0,0,0,65.0,0.0,460.0,4559.48717948718,4005.1282051282055,4522.051282051282,4504.615384615385,4241.025641025642,4534.358974358975,4474.871794871796,4384.615384615385,4335.8974358974365,4711.282051282052,4372.307692307693,4210.256410256411,4098.974358974359,4406.666666666667
128.61835,0.22141002,0.3687083,0.3499626,0.5904293,0,0.0,0.0,0.0,0.0,1.0,0,0,0.0,0.0,0,0,65.0,0.0,460.0,4559.48717948718,4005.1282051282055,4522.051282051282,4504.615384615385,4241.025641025642,4534.358974358975,4474.871794871796,4384.615384615385,4335.8974358974365,4711.282051282052,4372.307692307693,4210.256410256411,4098.974358974359,4406.666666666667
129.11877,0.19872679,0.37667063,0.34819204,0.5917149,0,0.0,0.0,0.0,0.0,1.0,0,0,0.0,0.0,0,0,0.0,0.0,515.0,4557.435897435898,3980.0000000000005,4489.2307692307695,4485.641025641026,4232.820512820514,4540.512820512821,4476.923076923077,4390.256410256411,4351.282051282052,4749.2307692307695,4343.589743589744,4233.333333333334,4155.384615384616,4601.025641025642
129.11877,0.19872679,0.37667063,0.34819204,0.5917149,0,0.0,0.0,0.0,0.0,1.0,0,0,0.0,0.0,0,0,0.0,0.0,515.0,4557.435897435898,3980.0000000000005,4489.2307692307695,4485.641025641026,4232.820512820514,4540.512820512821,4476.923076923077,4390.256410256411,4351.282051282052,4749.2307692307695,4343.589743589744,4233.333333333334,4155.384615384616,4601.025641025642
129.6192,0.1496023,0.40124655,0.3466005,0.6007857,0,0.0,0.0,0.0,0.0,1.0,0,0,0.0,0.0,0,0,64.0,0.0,515.0,4607.6923076923085,3974.8717948717954,4508.205128205129,4477.435897435898,4231.794871794872,4538.974358974359,4475.8974358974365,4414.358974358975,4393.846153846154,4747.6923076923085,4305.128205128206,4278.974358974359,4168.205128205129,4430.769230769231
129.6192,0.1496023,0.40124655,0.3466005,0.6007857,0,0.0,0.0,0.0,0.0,1.0,0,0,0.0,0.0,0,0,64.0,0.0,515.0,4607.6923076923085,3974.8717948717954,4508.205128205129,4477.435897435898,4231.794871794872,4538.974358974359,4475.8974358974365,4414.358974358975,4393.846153846154,4747.6923076923085,4305.128205128206,4278.974358974359,4168.205128205129,4430.769230769231
130.11963,0.11813233,0.4056909,0.3458976,0.608942,0,0.0,0.0,0.0,0.0,1.0,0,0,0.0,0.0,0,0,128.0,0.0,486.0,4583.589743589744,3941.538461538462,4486.666666666667,4445.641025641026,4216.923076923077,4523.589743589744,4458.461538461539,4440.000000000001,4421.025641025642,4765.641025641026,4300.512820512821,4311.282051282052,4169.74358974359,4509.743589743591
130.11963,0.11813233,0.4056909,0.3458976,0.608942,0,0.0,0.0,0.0,0.0,1.0,0,0,0.0,0.0,0,0,128.0,0.0,486.0,4583.589743589744,3941.538461538462,4486.666666666667,4445.641025641026,4216.923076923077,4523.589743589744,4458.461538461539,4440.000000000001,4421.025641025642,4765.641025641026,4300.512820512821,4311.282051282052,4169.74358974359,4509.743589743591
130.74518,0.10051143,0.40968612,0.34489086,0.6099251,0,0.046666857,0.0,0.0,0.0,0.0,0,0,0.0,0.0,0,0,79.0,0.0,519.0,4575.384615384616,3954.8717948717954,4493.846153846154,4445.128205128206,4248.717948717949,4530.769230769231,4429.743589743591,4457.435897435898,4427.6923076923085,4723.076923076924,4256.923076923077,4312.820512820514,4091.2820512820517,4458.974358974359
130.99539,0.10051143,0.40968612,0.34489086,0.6099251,0,0.14526375,0.0,0.0,0.0,0.0,0,0,0.0,0.0,0,0,111.0,0.0,519.0,4568.717948717949,3945.1282051282055,4485.641025641026,4446.666666666667,4243.589743589744,4524.615384615385,4427.6923076923085,4458.974358974359,4431.282051282052,4747.6923076923085,4282.051282051282,4314.871794871796,4127.179487179487,4450.769230769231
131.2456,0.10483918,0.40281218,0.34398305,0.61080426,0,0.19981804,0.0,0.0,0.0,0.0,0,0,0.0,0.0,0,0,14.0,0.0,525.0,4562.564102564103,3928.205128205129,4491.794871794872,4432.307692307693,4232.820512820514,4507.179487179488,4425.641025641026,4453.846153846154,4425.641025641026,4747.179487179488,4330.256410256411,4314.871794871796,4146.666666666667,4296.923076923077
131.37071,0.10483918,0.40281218,0.34398305,0.61080426,0,0.0,0.0,0.0,0.0,1.0,0,0,0.0,0.0,0,0,30.0,0.0,0.0,4560.512820512821,3920.5128205128212,4507.6923076923085,4426.666666666667,4245.641025641026,4505.641025641026,4440.512820512821,4448.205128205129,4396.923076923077,4733.333333333334,4372.307692307693,4329.2307692307695,4134.871794871796,4196.923076923077
131.62093,0.12065133,0.3810027,0.3436888,0.61586356,0,0.0,0.0,0.0,0.0,1.0,0,0,0.0,0.0,0,0,62.0,0.0,0.0,4477.435897435898,3802.564102564103,4492.820512820514,4325.128205128206,4246.153846153847,4430.256410256411,4375.8974358974365,4401.025641025642,4308.717948717949,4632.820512820514,4441.025641025642,4269.74358974359,4029.23076923077,4294.358974358975
131.62093,0.12065133,0.3810027,0.3436888,0.61586356,0,0.0,0.0,0.0,0.0,1.0,0,0,0.0,0.0,0,0,62.0,0.0,0.0,4477.435897435898,3802.564102564103,4492.820512820514,4325.128205128206,4246.153846153847,4430.256410256411,4375.8974358974365,4401.025641025642,4308.717948717949,4632.820512820514,4441.025641025642,4269.74358974359,4029.23076923077,4294.358974358975
132.12135,0.17573613,0.3605438,0.34342238,0.6626966,0,0.0,0.0,0.0,0.0,1.0,0,0,0.0,0.0,0,0,126.0,0.0,528.0,4445.641025641026,3750.7692307692314,4427.179487179487,4280.000000000001,4264.615384615385,4349.743589743591,4313.333333333334,4325.641025641026,4172.307692307693,4490.256410256411,4628.717948717949,4106.666666666667,4013.333333333334,4072.820512820513
132.12135,0.17573613,0.3605438,0.34342238,0.6626966,0,0.0,0.0,0.0,0.0,1.0,0,0,0.0,0.0,0,0,126.0,0.0,528.0,4445.641025641026,3750.7692307692314,4427.179487179487,4280.000000000001,4264.615384615385,4349.743589743591,4313.333333333334,4325.641025641026,4172.307692307693,4490.256410256411,4628.717948717949,4106.666666666667,4013.333333333334,4072.820512820513
132.61397,0.2536219,0.34213075,0.3429992,0.71597844,0,0.0,0.0,0.0,0.0,1.0,0,0,0.0,0.0,0,0,61.0,0.0,0.0,4540.000000000001,3836.410256410257,4458.461538461539,4356.923076923077,4247.6923076923085,4433.846153846154,4341.025641025642,4396.410256410257,4248.717948717949,4537.435897435898,4556.410256410257,4090.2564102564106,4087.1794871794878,4467.179487179487
132.61397,0.2536219,0.34213075,0.3429992,0.71597844,0,0.0,0.0,0.0,0.0,1.0,0,0,0.0,0.0,0,0,61.0,0.0,0.0,4540.000000000001,3836.410256410257,4458.461538461539,4356.923076923077,4247.6923076923085,4433.846153846154,4341.025641025642,4396.410256410257,4248.717948717949,4537.435897435898,4556.410256410257,4090.2564102564106,4087.1794871794878,4467.179487179487
133.1144,0.24063632,0.32555902,0.3426169,0.76367193,0,0.0,0.0,0.0,0.0,1.0,0,0,0.0,0.0,0,0,125.0,0.0,455.0,4520.000000000001,3925.6410256410263,4473.846153846154,4428.205128205129,4229.74358974359,4523.076923076924,4416.410256410257,4486.666666666667,4375.8974358974365,4694.358974358975,4507.179487179488,4213.333333333334,4229.74358974359,4356.923076923077
133.1144,0.24063632,0.32555902,0.3426169,0.76367193,0,0.0,0.0,0.0,0.0,1.0,0,0,0.0,0.0,0,0,125.0,0.0,455.0,4520.000000000001,3925.6410256410263,4473.846153846154,4428.205128205129,4229.74358974359,4523.076923076924,4416.410256410257,4486.666666666667,4375.8974358974365,4694.358974358975,4507.179487179488,4213.333333333334,4229.74358974359,4356.923076923077
133.61482,0.23282817,0.31064448,0.34238073,0.8062222,0,0.0,0.0,0.0,0.0,1.0,0,0,0.0,0.0,0,0,60.0,0.0,0.0,4586.153846153847,4036.9230769230776,4521.025641025642,4521.538461538462,4211.794871794872,4560.512820512821,4443.076923076924,4458.974358974359,4410.256410256411,4734.358974358975,4373.846153846154,4264.102564102564,4249.2307692307695,4658.974358974359
133.61482,0.23282817,0.31064448,0.34238073,0.8062222,0,0.0,0.0,0.0,0.0,1.0,0,0,0.0,0.0,0,0,60.0,0.0,0.0,4586.153846153847,4036.9230769230776,4521.025641025642,4521.538461538462,4211.794871794872,4560.512820512821,4443.076923076924,4458.974358974359,4410.256410256411,4734.358974358975,4373.846153846154,4264.102564102564,4249.2307692307695,4658.974358974359
134.11525,0.1994296,0.37248775,0.34262246,0.8108809,0,0.0,0.0,0.0,0.0,1.0,0,0,0.0,0.0,0,0,124.0,0.0,482.0,4618.461538461539,4111.282051282052,4541.025641025642,4584.102564102564,4201.025641025642,4615.384615384616,4491.282051282052,4472.307692307693,4423.589743589744,4765.641025641026,4284.102564102564,4282.564102564103,4230.769230769231,4299.48717948718
134.11525,0.1994296,0.37248775,0.34262246,0.8108809,0,0.0,0.0,0.0,0.0,1.0,0,0,0.0,0.0,0,0,124.0,0.0,482.0,4618.461538461539,4111.282051282052,4541.025641025642,4584.102564102564,4201.025641025642,4615.384615384616,4491.282051282052,4472.307692307693,4423.589743589744,4765.641025641026,4284.102564102564,4282.564102564103,4230.769230769231,4299.48717948718
134.61569,0.21488768,0.39709982,0.34357402,0.80245423,0,0.0,0.0,0.0,0.0,1.0,0,0,0.0,0.0,0,0,59.0,0.0,0.0,4601.025641025642,4048.205128205129,4555.8974358974365,4525.128205128206,4198.974358974359,4620.512820512821,4511.794871794872,4482.051282051282,4460.000000000001,4798.461538461539,4283.589743589744,4350.256410256411,4199.48717948718,4468.205128205129
134.61569,0.21488768,0.39709982,0.34357402,0.80245423,0,0.0,0.0,0.0,0.0,1.0,0,0,0.0,0.0,0,0,59.0,0.0,0.0,4601.025641025642,4048.205128205129,4555.8974358974365,4525.128205128206,4198.974358974359,4620.512820512821,4511.794871794872,4482.051282051282,4460.000000000001,4798.461538461539,4283.589743589744,4350.256410256411,4199.48717948718,4468.205128205129
135.11612,0.23291658,0.40693906,0.34588647,0.7899839,0,0.0,0.0,0.0,0.0,1.0,0,0,0.0,0.0,0,0,123.0,0.0,511.0,4554.358974358975,3952.820512820513,4569.2307692307695,4454.358974358975,4214.871794871796,4537.948717948719,4497.435897435898,4416.410256410257,4370.769230769231,4662.051282051282,4344.615384615385,4323.076923076924,4099.48717948718,4389.743589743591
135.49144,0.23291658,0.40693906,0.34588647,0.7899839,0,0.0,0.0,0.0,0.0,0.8567746,0,0,0.0,0.0,0,0,42.0,0.0,0.0,4528.205128205129,3896.410256410257,4552.307692307693,4417.948717948719,4244.102564102564,4490.769230769231,4474.871794871796,4366.153846153847,4297.948717948719,4590.256410256411,4461.538461538462,4184.615384615385,4017.9487179487182,4321.025641025642
135.74165,0.23693705,0.39523885,0.35360676,0.77878183,0,0.0,0.0,0.0,0.0,0.0,0,0,0.0,0.0,0,0,74.0,0.0,529.0,4533.846153846154,3861.538461538462,4511.282051282052,4383.589743589744,4251.282051282052,4505.641025641026,4474.358974358975,4385.641025641026,4281.538461538462,4553.846153846154,4473.333333333334,4119.48717948718,4006.1538461538466,4280.512820512821
135.74165,0.23693705,0.39523885,0.35360676,0.77878183,0,0.0,0.0,0.0,0.0,0.0,0,0,0.0,0.0,0,0,74.0,0.0,529.0,4533.846153846154,3861.538461538462,4511.282051282052,4383.589743589744,4251.282051282052,4505.641025641026,4474.358974358975,4385.641025641026,4281.538461538462,4553.846153846154,4473.333333333334,4119.48717948718,4006.1538461538466,4280.512820512821
136.24208,0.27209604,0.3785289,0.36055195,0.7724821,0,0.0,0.0,0.0,0.0,1.0,0,0,0.0,0.0,0,0,9.0,0.0,473.0,4624.102564102564,3996.9230769230776,4509.2307692307695,4494.358974358975,4247.6923076923085,4533.846153846154,4462.051282051282,4411.794871794872,4334.871794871796,4615.384615384616,4429.743589743591,4155.8974358974365,4056.410256410257,4539.48717948718
136.24208,0.27209604,0.3785289,0.36055195,0.7724821,0,0.0,0.0,0.0,0.0,1.0,0,0,0.0,0.0,0,0,9.0,0.0,473.0,4624.102564102564,3996.9230769230776,4509.2307692307695,4494.358974358975,4247.6923076923085,4533.846153846154,4462.051282051282,4411.794871794872,4334.871794871796,4615.384615384616,4429.743589743591,4155.8974358974365,4056.410256410257,4539.48717948718
136.6174,0.24753168,0.38181344,0.36844188,0.76093996,0,0.0,0.0,0.0,0.0,1.0,0,0,0.0,0.0,0,0,57.0,0.0,0.0,4618.461538461539,4023.589743589744,4469.743589743591,4517.948717948719,4225.641025641026,4571.794871794872,4470.769230769231,4393.333333333334,4347.6923076923085,4629.743589743591,4263.589743589744,4189.2307692307695,4052.307692307693,4239.48717948718
136.99272,0.24753168,0.38181344,0.36844188,0.76093996,0,0.0,0.0,0.0,0.0,1.0,0,0,0.0,0.0,0,1,105.0,0.0,455.0,4627.179487179488,4011.2820512820517,4536.410256410257,4507.179487179488,4217.435897435898,4594.871794871796,4524.102564102564,4491.794871794872,4442.564102564103,4780.000000000001,4336.923076923077,4391.794871794872,4294.871794871796,4729.2307692307695
137.11784,0.26192522,0.40111986,0.37766364,0.7422747,0,0.0,0.0,0.0,0.0,1.0,0,0,0.0,0.0,0,1,121.0,0.0,455.0,4613.333333333334,3998.9743589743593,4524.615384615385,4492.307692307693,4204.615384615385,4602.051282051282,4526.666666666667,4491.794871794872,4443.589743589744,4782.051282051282,4284.102564102564,4378.461538461539,4270.769230769231,4586.153846153847
137.33678,0.26192522,0.40111986,0.37766364,0.7422747,0,0.0,0.0,0.0,0.0,1.0,0,0,0.0,0.0,0,0,20.0,0.0,0.0,4615.8974358974365,4032.820512820513,4537.435897435898,4521.025641025642,4217.948717948719,4612.307692307693,4521.538461538462,4478.461538461539,4449.2307692307695,4776.923076923077,4229.74358974359,4378.461538461539,4247.6923076923085,4427.179487179487
137.61827,0.2853805,0.41457158,0.38320142,0.70956403,0,0.0,0.0,0.0,0.0,1.0,0,0,0.0,0.0,0,0,56.0,0.0,0.0,4600.512820512821,4013.333333333334,4562.051282051282,4507.179487179488,4214.358974358975,4620.000000000001,4539.48717948718,4481.538461538462,4467.179487179487,4785.128205128206,4220.512820512821,4407.6923076923085,4244.615384615385,4249.74358974359
137.61827,0.2853805,0.41457158,0.38320142,0.70956403,0,0.0,0.0,0.0,0.0,1.0,0,0,0.0,0.0,0,0,56.0,0.0,0.0,4600.512820512821,4013.333333333334,4562.051282051282,4507.179487179488,4214.358974358975,4620.000000000001,4539.48717948718,4481.538461538462,4467.179487179487,4785.128205128206,4220.512820512821,4407.6923076923085,4244.615384615385,4249.74358974359
138.2438,0.27387476,0.42256975,0.38604453,0.6640362,0,0.0,0.0,0.0,0.0,0.7304594,0,0,0.0,0.0,0,0,7.0,0.0,427.0,4645.128205128206,3988.717948717949,4598.461538461539,4252.820512820514,4216.923076923077,4595.8974358974365,4510.256410256411,4394.358974358975,4383.076923076924,4701.538461538462,4276.410256410257,4404.102564102564,4185.128205128206,4373.333333333334
138.49402,0.27387476,0.42256975,0.38604453,0.6640362,0,0.0,0.0,0.0,0.0,0.10857073,0,0,0.0,0.0,0,0,39.0,0.0,0.0,4647.6923076923085,3972.820512820513,4581.538461538462,4235.384615384616,4217.435897435898,4600.512820512821,4524.102564102564,4280.000000000001,4371.794871794872,4680.000000000001,4249.74358974359,4353.333333333334,4121.538461538462,4113.333333333334
138.74423,0.26893866,0.43096954,0.3868767,0.6231719,0,0.0,0.0,0.0,0.0,0.3079321,0,0,0.0,0.0,0,0,71.0,0.0,427.0,4626.153846153847,3973.333333333334,4563.076923076924,4261.538461538462,4215.8974358974365,4570.256410256411,4493.333333333334,4294.871794871796,4357.948717948719,4655.8974358974365,4237.948717948719,4336.923076923077,4091.7948717948725,4475.8974358974365
138.86934,0.26893866,0.43096954,0.3868767,0.6231719,0,0.0,0.0,0.0,0.0,1.0,0,0,0.0,0.0,0,0,87.0,0.0,514.0,4627.6923076923085,3996.9230769230776,4563.076923076924,4287.6923076923085,4231.282051282052,4572.820512820514,4494.358974358975,4323.589743589744,4374.358974358975,4677.435897435898,4249.74358974359,4335.8974358974365,4125.128205128206,4403.589743589744
139.24466,0.24956542,0.42859775,0.38754138,0.5863656,0,0.0,0.0,0.0,0.0,0.53457,0,0,0.0,0.0,0,0,6.0,0.0,551.0,4644.615384615385,3970.7692307692314,4556.923076923077,4306.666666666667,4244.615384615385,4524.615384615385,4473.846153846154,4379.48717948718,4365.641025641026,4691.794871794872,4205.128205128206,4351.282051282052,4117.948717948719,4216.923076923077
139.49487,0.24956542,0.42859775,0.38754138,0.5863656,0,0.0,0.0,0.0,0.0,0.8472608,0,0,0.0,0.0,0,0,38.0,0.0,0.0,4643.589743589744,4020.5128205128212,4538.461538461539,4383.076923076924,4248.205128205129,4479.48717948718,4426.666666666667,4390.769230769231,4368.717948717949,4704.615384615386,4297.948717948719,4327.6923076923085,4106.666666666667,4246.153846153847
139.74509,0.182425,0.43258882,0.38440087,0.57266915,0,0.0,0.0,0.0,0.0,1.0,0,0,0.0,0.0,0,0,70.0,0.0,551.0,4667.6923076923085,4021.538461538462,4507.6923076923085,4397.948717948719,4252.820512820514,4474.358974358975,4392.307692307693,4378.974358974359,4369.2307692307695,4723.589743589744,4327.179487179487,4258.974358974359,4112.820512820514,4420.512820512821
139.99532,0.182425,0.43258882,0.38440087,0.57266915,0,0.0,0.0,0.0,0.0,0.7797854,0,0,0.0,0.0,0,0,102.0,0.0,530.0,4677.948717948719,4021.0256410256416,4490.256410256411,4426.153846153847,4251.282051282052,4488.205128205129,4400.000000000001,4368.205128205129,4356.410256410257,4703.589743589744,4303.076923076924,4215.8974358974365,4096.410256410257,4340.512820512821
140.24553,0.16969003,0.43535006,0.37922353,0.57060593,0,0.0,0.0,0.0,0.0,0.8007219,0,0,0.0,0.0,0,0,5.0,0.0,555.0,4666.153846153847,3994.8717948717954,4486.153846153847,4413.333333333334,4248.717948717949,4509.743589743591,4427.6923076923085,4393.333333333334,4381.025641025642,4719.48717948718,4306.666666666667,4246.666666666667,4136.410256410257,4273.846153846154
140.37064,0.16969003,0.43535006,0.37922353,0.57060593,0,0.0,0.0,0.0,0.0,1.0,0,0,0.0,0.0,0,0,21.0,0.0,0.0,4650.256410256411,3986.1538461538466,4491.282051282052,4400.000000000001,4243.589743589744,4507.179487179488,4433.333333333334,4398.461538461539,4387.179487179487,4724.102564102564,4309.743589743591,4262.051282051282,4148.717948717949,4516.923076923077
140.62085,0.14173304,0.41705602,0.37455758,0.5687503,0,0.0,0.0,0.0,0.0,1.0,0,0,0.0,0.0,0,0,53.0,0.0,0.0,4647.179487179488,3961.0256410256416,4474.358974358975,4390.256410256411,4244.615384615385,4516.410256410257,4427.179487179487,4391.794871794872,4381.538461538462,4717.948717948719,4310.769230769231,4260.000000000001,4142.051282051282,4473.846153846154
140.99617,0.14173304,0.41705602,0.37455758,0.5687503,0,0.0,0.0,0.0,0.0,0.8786761,0,0,0.0,0.0,0,0,101.0,0.0,455.0,4591.794871794872,3865.6410256410263,4488.717948717949,4278.461538461539,4245.128205128206,4505.641025641026,4429.743589743591,4410.256410256411,4352.820512820514,4652.820512820514,4364.102564102564,4302.564102564103,4073.8461538461543,4237.435897435898
141.24638,0.12351308,0.39711934,0.37035257,0.5670818,0,0.0,0.0,0.0,0.0,0.74225307,0,0,0.0,0.0,0,0,4.0,0.0,563.0,4616.410256410257,3876.9230769230776,4491.794871794872,4251.282051282052,4232.820512820514,4474.358974358975,4388.205128205129,4355.8974358974365,4308.717948717949,4609.2307692307695,4369.2307692307695,4292.307692307693,4058.461538461539,4435.384615384616
141.37149,0.12351308,0.39711934,0.37035257,0.5670818,0,0.0,0.0,0.0,0.0,1.0,0,0,0.0,0.0,0,0,20.0,0.0,0.0,4618.461538461539,3891.7948717948725,4475.8974358974365,4255.384615384616,4248.717948717949,4491.794871794872,4364.615384615385,4362.564102564103,4328.205128205129,4602.564102564103,4358.974358974359,4280.512820512821,4063.589743589744,4493.333333333334
141.74681,0.100819305,0.3876966,0.36656287,0.56557906,0,0.0,0.0,0.0,0.0,0.8584955,0,0,0.0,0.0,0,0,68.0,0.0,563.0,4654.871794871796,3943.589743589744,4485.641025641026,4306.153846153847,4230.256410256411,4522.051282051282,4410.256410256411,4382.564102564103,4349.743589743591,4616.410256410257,4329.743589743591,4300.000000000001,4117.948717948719,4408.717948717949
141.99702,0.100819305,0.3876966,0.36656287,0.56557906,0,0.0,0.0,0.0,0.0,0.5893682,0,0,0.0,0.0,0,0,100.0,0.0,489.0,4664.615384615386,3963.589743589744,4497.948717948719,4332.307692307693,4217.435897435898,4554.358974358975,4441.538461538462,4412.307692307693,4382.564102564103,4647.179487179488,4293.846153846154,4297.948717948719,4140.512820512821,4382.051282051282
142.12213,0.09631006,0.38580173,0.36315444,0.5642255,0,0.0,0.0,0.0,0.0,1.0,0,0,0.0,0.0,0,0,116.0,0.0,489.0,4664.102564102564,3972.820512820513,4495.8974358974365,4339.48717948718,4217.435897435898,4568.717948717949,4459.48717948718,4415.8974358974365,4387.6923076923085,4666.153846153847,4273.846153846154,4307.6923076923085,4167.179487179487,4691.282051282052
142.12213,0.09631006,0.38580173,0.36315444,0.5642255,0,0.0,0.0,0.0,0.0,1.0,0,0,0.0,0.0,0,0,116.0,0.0,489.0,4664.102564102564,3972.820512820513,4495.8974358974365,4339.48717948718,4217.435897435898,4568.717948717949,4459.48717948718,4415.8974358974365,4387.6923076923085,4666.153846153847,4273.846153846154,4307.6923076923085,4167.179487179487,4691.282051282052
142.74768,0.15579341,0.384449,0.36013597,0.5630164,0,0.0,0.0,0.0,0.0,1.0,0,0,0.0,0.0,0,0,67.0,0.0,546.0,4684.102564102564,4021.0256410256416,4519.48717948718,4389.743589743591,4198.974358974359,4615.384615384616,4504.102564102564,4438.974358974359,4421.025641025642,4731.282051282052,3942.564102564103,4306.153846153847,4181.538461538462,4592.307692307693
142.74768,0.15579341,0.384449,0.36013597,0.5630164,0,0.0,0.0,0.0,0.0,1.0,0,0,0.0,0.0,0,0,67.0,0.0,546.0,4684.102564102564,4021.0256410256416,4519.48717948718,4389.743589743591,4198.974358974359,4615.384615384616,4504.102564102564,4438.974358974359,4421.025641025642,4731.282051282052,3942.564102564103,4306.153846153847,4181.538461538462,4592.307692307693
143.24811,0.12857236,0.3850916,0.35740468,0.5619233,0,0.0,0.0,0.0,0.0,0.92873675,0,0,0.0,0.0,0,0,2.0,0.0,247.0,4685.128205128206,4038.461538461539,4533.333333333334,4431.794871794872,4203.076923076924,4600.512820512821,4477.435897435898,4475.8974358974365,4409.2307692307695,4746.153846153847,4094.8717948717954,4313.846153846154,4181.025641025642,4639.48717948718
143.49832,0.12857236,0.3850916,0.35740468,0.5619233,0,0.0,0.0,0.0,0.0,0.7617232,0,0,0.0,0.0,0,0,34.0,0.0,0.0,4660.000000000001,4028.205128205129,4522.051282051282,4427.179487179487,4213.846153846154,4606.666666666667,4489.2307692307695,4506.153846153847,4407.6923076923085,4732.820512820514,4136.923076923077,4309.2307692307695,4164.102564102564,4466.153846153847
143.62343,0.116267905,0.37286893,0.35495818,0.5609433,0,0.0,0.0,0.0,0.0,1.0,0,0,0.0,0.0,0,0,50.0,0.0,0.0,4662.564102564103,4025.1282051282055,4520.000000000001,4428.717948717949,4213.846153846154,4603.589743589744,4490.256410256411,4521.025641025642,4427.6923076923085,4760.512820512821,4170.256410256411,4320.512820512821,4181.025641025642,4411.282051282052
143.62343,0.116267905,0.37286893,0.35495818,0.5609433,0,0.0,0.0,0.0,0.0,1.0,0,0,0.0,0.0,0,0,50.0,0.0,0.0,4662.564102564103,4025.1282051282055,4520.000000000001,4428.717948717949,4213.846153846154,4603.589743589744,4490.256410256411,4521.025641025642,4427.6923076923085,4760.512820512821,4170.256410256411,4320.512820512821,4181.025641025642,4411.282051282052
144.24896,0.1296457,0.35498267,0.35275683,0.56006384,0,0.0,0.0,0.0,0.0,0.2812522,0,0,0.0,0.0,0,0,1.0,0.0,462.0,4617.948717948719,4004.615384615385,4513.333333333334,4436.923076923077,4232.820512820514,4583.589743589744,4473.846153846154,4524.102564102564,4431.282051282052,4767.179487179488,3947.1794871794878,4317.435897435898,4167.179487179487,4491.282051282052
144.49918,0.1296457,0.35498267,0.35275683,0.56006384,0,0.0,0.0,0.0,0.0,0.0,0,0,0.0,0.3051468,0,0,33.0,0.0,0.0,4616.923076923077,4003.589743589744,4523.589743589744,4427.179487179487,4233.333333333334,4571.282051282052,4472.307692307693,4509.743589743591,4426.153846153847,4763.076923076924,4075.3846153846157,4328.205128205129,4171.794871794872,4422.051282051282
144.74939,0.14264646,0.34586236,0.3508055,0.55927795,0,0.0,0.0,0.0,0.0,1.0,0,0,0.0,0.0,0,1,65.0,0.0,462.0,4604.102564102564,3993.8461538461543,4541.538461538462,4429.743589743591,4243.589743589744,4571.282051282052,4475.8974358974365,4519.48717948718,4429.743589743591,4778.974358974359,4185.128205128206,4337.435897435898,4170.769230769231,4703.589743589744
144.74939,0.14264646,0.34586236,0.3508055,0.55927795,0,0.0,0.0,0.0,0.0,1.0,0,0,0.0,0.0,0,1,65.0,0.0,462.0,4604.102564102564,3993.8461538461543,4541.538461538462,4429.743589743591,4243.589743589744,4571.282051282052,4475.8974358974365,4519.48717948718,4429.743589743591,4778.974358974359,4185.128205128206,4337.435897435898,4170.769230769231,4703.589743589744
145.12471,0.15121642,0.33487135,0.3490261,0.55856717,0,0.0,0.0,0.0,0.0,1.0,0,0,0.0,0.0,0,0,113.0,0.0,455.0,4591.282051282052,3990.7692307692314,4518.974358974359,4444.615384615385,4239.48717948718,4562.564102564103,4465.128205128206,4487.179487179488,4415.8974358974365,4762.564102564103,4248.205128205129,4312.307692307693,4162.051282051282,4507.179487179488
145.12471,0.15121642,0.33487135,0.3490261,0.55856717,0,0.0,0.0,0.0,0.0,1.0,0,0,0.0,0.0,0,0,113.0,0.0,455.0,4591.282051282052,3990.7692307692314,4518.974358974359,4444.615384615385,4239.48717948718,4562.564102564103,4465.128205128206,4487.179487179488,4415.8974358974365,4762.564102564103,4248.205128205129,4312.307692307693,4162.051282051282,4507.179487179488
145.62515,0.14306504,0.32600543,0.34742856,0.55792826,0,0.0,0.0,0.0,0.0,1.0,0,0,0.0,0.0,0,0,48.0,0.0,0.0,4600.000000000001,4014.8717948717954,4542.564102564103,4452.820512820514,4256.923076923077,4582.051282051282,4493.333333333334,4506.153846153847,4432.307692307693,4798.461538461539,4353.333333333334,4343.076923076924,4213.846153846154,4736.923076923077
145.62515,0.14306504,0.32600543,0.34742856,0.55792826,0,0.0,0.0,0.0,0.0,1.0,0,0,0.0,0.0,0,0,48.0,0.0,0.0,4600.000000000001,4014.8717948717954,4542.564102564103,4452.820512820514,4256.923076923077,4582.051282051282,4493.333333333334,4506.153846153847,4432.307692307693,4798.461538461539,4353.333333333334,4343.076923076924,4213.846153846154,4736.923076923077
146.12558,0.18366024,0.32228014,0.34599164,0.55735344,0,0.0,0.0,0.0,0.0,1.0,0,0,0.0,0.0,0,0,112.0,0.0,493.0,4599.48717948718,3998.9743589743593,4537.435897435898,4457.948717948719,4232.307692307693,4554.358974358975,4479.48717948718,4464.615384615385,4425.128205128206,4771.794871794872,4358.461538461539,4332.820512820514,4184.615384615385,4476.923076923077
146.12558,0.18366024,0.32228014,0.34599164,0.55735344,0,0.0,0.0,0.0,0.0,1.0,0,0,0.0,0.0,0,0,112.0,0.0,493.0,4599.48717948718,3998.9743589743593,4537.435897435898,4457.948717948719,4232.307692307693,4554.358974358975,4479.48717948718,4464.615384615385,4425.128205128206,4771.794871794872,4358.461538461539,4332.820512820514,4184.615384615385,4476.923076923077
146.626,0.17585674,0.31403762,0.34469667,0.55683625,0,0.0,0.0,0.0,0.0,1.0,0,0,0.0,0.0,0,0,47.0,0.0,0.0,4570.256410256411,3972.820512820513,4507.6923076923085,4441.025641025642,4239.48717948718,4534.871794871796,4455.384615384616,4435.384615384616,4397.435897435898,4753.333333333334,4364.615384615385,4310.256410256411,4151.282051282052,4564.615384615385
146.626,0.17585674,0.31403762,0.34469667,0.55683625,0,0.0,0.0,0.0,0.0,1.0,0,0,0.0,0.0,0,0,47.0,0.0,0.0,4570.256410256411,3972.820512820513,4507.6923076923085,4441.025641025642,4239.48717948718,4534.871794871796,4455.384615384616,4435.384615384616,4397.435897435898,4753.333333333334,4364.615384615385,4310.256410256411,4151.282051282052,4564.615384615385
147.12643,0.16416949,0.3044016,0.34352955,0.55637133,0,0.0,0.0,0.0,0.0,1.0,0,0,0.0,0.0,0,0,111.0,0.0,507.0,4504.102564102564,3925.1282051282055,4531.282051282052,4402.051282051282,4249.74358974359,4474.871794871796,4444.102564102564,4449.743589743591,4348.717948717949,4691.282051282052,4468.717948717949,4345.128205128206,4084.615384615385,4422.564102564103
147.12643,0.16416949,0.3044016,0.34352955,0.55637133,0,0.0,0.0,0.0,0.0,1.0,0,0,0.0,0.0,0,0,111.0,0.0,507.0,4504.102564102564,3925.1282051282055,4531.282051282052,4402.051282051282,4249.74358974359,4474.871794871796,4444.102564102564,4449.743589743591,4348.717948717949,4691.282051282052,4468.717948717949,4345.128205128206,4084.615384615385,4422.564102564103
147.62686,0.1158875,0.30134934,0.34221277,0.55595255,0,0.0,0.0,0.0,0.0,1.0,0,0,0.0,0.0,0,0,46.0,0.0,0.0,4618.461538461539,3944.1025641025644,4496.410256410257,4437.948717948719,4266.666666666667,4471.794871794872,4426.153846153847,4429.2307692307695,4316.923076923077,4645.641025641026,4504.615384615385,4293.333333333334,4064.615384615385,4517.948717948719
147.62686,0.1158875,0.30134934,0.34221277,0.55595255,0,0.0,0.0,0.0,0.0,1.0,0,0,0.0,0.0,0,0,46.0,0.0,0.0,4618.461538461539,3944.1025641025644,4496.410256410257,4437.948717948719,4266.666666666667,4471.794871794872,4426.153846153847,4429.2307692307695,4316.923076923077,4645.641025641026,4504.615384615385,4293.333333333334,4064.615384615385,4517.948717948719
148.1273,0.13843428,0.30959153,0.34102872,0.55557543,0,0.0,0.0,0.0,0.0,1.0,0,0,0.0,0.0,0,0,110.0,0.0,530.0,4637.435897435898,3954.8717948717954,4487.179487179488,4456.923076923077,4245.641025641026,4483.589743589744,4432.307692307693,4428.205128205129,4312.820512820514,4640.000000000001,4434.358974358975,4226.153846153847,4122.051282051282,4825.641025641026
148.1273,0.13843428,0.30959153,0.34102872,0.55557543,0,0.0,0.0,0.0,0.0,1.0,0,0,0.0,0.0,0,0,110.0,0.0,530.0,4637.435897435898,3954.8717948717954,4487.179487179488,4456.923076923077,4245.641025641026,4483.589743589744,4432.307692307693,4428.205128205129,4312.820512820514,4640.000000000001,4434.358974358975,4226.153846153847,4122.051282051282,4825.641025641026
148.62773,0.18904114,0.3227647,0.33996412,0.5585349,0,0.0,0.0,0.0,0.0,1.0,0,0,0.0,0.0,0,0,45.0,0.0,0.0,4582.564102564103,3835.8974358974365,4456.923076923077,4349.2307692307695,4236.410256410257,4454.358974358975,4412.307692307693,4371.282051282052,4286.666666666667,4613.846153846154,4457.948717948719,4091.7948717948725,4027.692307692308,4335.8974358974365
148.62773,0.18904114,0.3227647,0.33996412,0.5585349,0,0.0,0.0,0.0,0.0,1.0,0,0,0.0,0.0,0,0,45.0,0.0,0.0,4582.564102564103,3835.8974358974365,4456.923076923077,4349.2307692307695,4236.410256410257,4454.358974358975,4412.307692307693,4371.282051282052,4286.666666666667,4613.846153846154,4457.948717948719,4091.7948717948725,4027.692307692308,4335.8974358974365
149.25327,0.23717807,0.33362952,0.33909833,0.5605887,0,0.0,0.0,0.0,0.0,0.966483,0,0,0.0,0.0,0,0,125.0,0.0,455.0,4554.358974358975,3784.615384615385,4397.948717948719,4342.564102564103,4263.589743589744,4394.358974358975,4347.6923076923085,4322.564102564103,4256.410256410257,4556.923076923077,4554.358974358975,3894.358974358975,3986.666666666667,4430.769230769231
149.50348,0.23717807,0.33362952,0.33909833,0.5605887,0,0.0,0.0,0.0,0.0,0.21138315,0,0,0.0,0.0,0,0,28.0,0.0,0.0,4585.128205128206,3835.3846153846157,4430.769230769231,4384.615384615385,4247.6923076923085,4428.717948717949,4374.358974358975,4346.153846153847,4286.666666666667,4602.051282051282,4542.051282051282,3993.333333333334,4070.2564102564106,4402.051282051282
149.62859,0.27998483,0.34340787,0.33908135,0.550101,0,0.0,0.0,0.0,0.0,0.0,0,0,0.0,0.0,0,0,44.0,0.0,0.0,4605.641025641026,3852.307692307693,4445.128205128206,4396.410256410257,4237.435897435898,4476.923076923077,4412.820512820514,4400.000000000001,4324.615384615385,4630.256410256411,4527.6923076923085,4053.333333333334,4091.2820512820517,4369.743589743591
150.0039,0.27998483,0.34340787,0.33908135,0.550101,0,0.0,0.0,0.0,0.0,1.0,0,0,0.0,0.0,0,0,92.0,0.0,485.0,4656.410256410257,3925.1282051282055,4472.307692307693,4441.025641025642,4218.974358974359,4524.615384615385,4444.615384615385,4439.48717948718,4332.307692307693,4655.384615384616,4443.076923076924,4151.282051282052,4165.128205128206,4632.820512820514
150.12901,0.2929743,0.35220838,0.3439651,0.5287596,0,0.0,0.0,0.0,0.0,1.0,0,0,0.0,0.0,0,0,108.0,0.0,485.0,4669.2307692307695,3959.48717948718,4508.717948717949,4463.076923076924,4214.358974358975,4542.564102564103,4463.589743589744,4443.076923076924,4357.435897435898,4681.538461538462,4411.794871794872,4201.025641025642,4200.000000000001,4605.128205128206
150.12901,0.2929743,0.35220838,0.3439651,0.5287596,0,0.0,0.0,0.0,0.0,1.0,0,0,0.0,0.0,0,0,108.0,0.0,485.0,4669.2307692307695,3959.48717948718,4508.717948717949,4463.076923076924,4214.358974358975,4542.564102564103,4463.589743589744,4443.076923076924,4357.435897435898,4681.538461538462,4411.794871794872,4201.025641025642,4200.000000000001,4605.128205128206
150.62944,0.30384418,0.36012882,0.3568021,0.50426143,0,0.0,0.0,0.0,0.0,1.0,0,0,0.0,0.0,0,0,43.0,0.0,0.0,4718.461538461539,4027.1794871794878,4551.794871794872,4506.153846153847,4203.076923076924,4602.051282051282,4489.2307692307695,4461.025641025642,4435.8974358974365,4763.589743589744,4289.74358974359,4328.717948717949,4232.820512820514,4727.179487179488
150.62944,0.30384418,0.36012882,0.3568021,0.50426143,0,0.0,0.0,0.0,0.0,1.0,0,0,0.0,0.0,0,0,43.0,0.0,0.0,4718.461538461539,4027.1794871794878,4551.794871794872,4506.153846153847,4203.076923076924,4602.051282051282,4489.2307692307695,4461.025641025642,4435.8974358974365,4763.589743589744,4289.74358974359,4328.717948717949,4232.820512820514,4727.179487179488
151.12988,0.34881416,0.3859189,0.36835182,0.49414185,0,0.0,0.0,0.0,0.0,1.0,0,0,0.0,0.0,0,0,107.0,0.0,508.0,4692.307692307693,4036.410256410257,4599.48717948718,4510.256410256411,4200.000000000001,4576.923076923077,4477.948717948719,4472.820512820514,4427.179487179487,4746.153846153847,4286.153846153847,4379.48717948718,4181.025641025642,4398.461538461539
151.12988,0.34881416,0.3859189,0.36835182,0.49414185,0,0.0,0.0,0.0,0.0,1.0,0,0,0.0,0.0,0,0,107.0,0.0,508.0,4692.307692307693,4036.410256410257,4599.48717948718,4510.256410256411,4200.000000000001,4576.923076923077,4477.948717948719,4472.820512820514,4427.179487179487,4746.153846153847,4286.153846153847,4379.48717948718,4181.025641025642,4398.461538461539
151.63031,0.31994075,0.4011011,0.37874106,0.48504403,0,0.0,0.0,0.0,0.0,1.0,0,0,0.0,0.0,0,0,42.0,0.0,0.0,4658.461538461539,4050.2564102564106,4594.871794871796,4524.615384615385,4213.846153846154,4555.384615384616,4456.923076923077,4473.846153846154,4428.205128205129,4735.8974358974365,4300.000000000001,4370.769230769231,4186.153846153847,4600.512820512821
151.63031,0.31994075,0.4011011,0.37874106,0.48504403,0,0.0,0.0,0.0,0.0,1.0,0,0,0.0,0.0,0,0,42.0,0.0,0.0,4658.461538461539,4050.2564102564106,4594.871794871796,4524.615384615385,4213.846153846154,4555.384615384616,4456.923076923077,4473.846153846154,4428.205128205129,4735.8974358974365,4300.000000000001,4370.769230769231,4186.153846153847,4600.512820512821
152.13074,0.2982077,0.41686004,0.3880462,0.47233,0,0.0,0.0,0.0,0.0,1.0,0,0,0.0,0.0,0,0,106.0,0.0,530.0,4718.461538461539,4053.8461538461543,4590.769230769231,4530.769230769231,4218.461538461539,4573.333333333334,4474.871794871796,4486.666666666667,4456.923076923077,4765.128205128206,4292.820512820514,4375.8974358974365,4204.615384615385,4447.6923076923085
152.41223,0.2982077,0.41686004,0.3880462,0.47233,0,0.0,0.0,0.0,0.0,1.0,0,0,0.0,0.0,0,1,13.0,0.0,455.0,4733.333333333334,4021.0256410256416,4551.282051282052,4505.641025641026,4215.384615384616,4570.256410256411,4473.846153846154,4468.717948717949,4428.205128205129,4744.615384615386,4252.820512820514,4341.025641025642,4183.076923076924,4657.435897435898
152.75627,0.27245417,0.42598212,0.39237553,0.47457376,0,0.0,0.0,0.0,0.0,1.0,0,0,0.0,0.0,0,0,57.0,0.0,0.0,4734.358974358975,3971.2820512820517,4554.871794871796,4461.538461538462,4230.769230769231,4557.435897435898,4475.384615384616,4476.923076923077,4430.256410256411,4738.974358974359,4294.358974358975,4343.076923076924,4158.974358974359,4399.48717948718
152.75627,0.27245417,0.42598212,0.39237553,0.47457376,0,0.0,0.0,0.0,0.0,1.0,0,0,0.0,0.0,0,0,57.0,0.0,0.0,4734.358974358975,3971.2820512820517,4554.871794871796,4461.538461538462,4230.769230769231,4557.435897435898,4475.384615384616,4476.923076923077,4430.256410256411,4738.974358974359,4294.358974358975,4343.076923076924,4158.974358974359,4399.48717948718
153.13159,0.28198197,0.43538305,0.3960447,0.48028728,0,0.0,0.0,0.0,0.0,1.0,0,0,0.0,0.0,0,0,105.0,0.0,455.0,4646.153846153847,3853.333333333334,4512.307692307693,4377.435897435898,4247.179487179487,4444.102564102564,4403.589743589744,4378.461538461539,4305.641025641026,4616.923076923077,4412.307692307693,4218.974358974359,4040.0000000000005,4250.256410256411
153.13159,0.28198197,0.43538305,0.3960447,0.48028728,0,0.0,0.0,0.0,0.0,1.0,0,0,0.0,0.0,0,0,105.0,0.0,455.0,4646.153846153847,3853.333333333334,4512.307692307693,4377.435897435898,4247.179487179487,4444.102564102564,4403.589743589744,4378.461538461539,4305.641025641026,4616.923076923077,4412.307692307693,4218.974358974359,4040.0000000000005,4250.256410256411
153.75714,0.3182394,0.44336605,0.3974296,0.48577523,0,0.0,0.0,0.0,0.0,0.48708692,0,0,0.0,0.0,0,0,56.0,0.0,0.0,4648.717948717949,3844.1025641025644,4404.615384615385,4380.000000000001,4244.102564102564,4431.282051282052,4350.256410256411,4324.102564102564,4244.102564102564,4557.948717948719,4429.2307692307695,4116.923076923077,4022.564102564103,4290.256410256411
154.00735,0.3182394,0.44336605,0.3974296,0.48577523,0,0.0,0.0,0.0,0.0,0.22940683,0,0,0.0,0.0,0,0,88.0,0.0,485.0,4658.461538461539,3895.3846153846157,4443.076923076924,4415.384615384616,4228.717948717949,4460.512820512821,4384.102564102564,4381.025641025642,4262.051282051282,4591.282051282052,4407.6923076923085,4199.48717948718,4081.0256410256416,4453.333333333334
154.13246,0.3571673,0.45058325,0.39669073,0.4899499,1,0.0,0.0,0.0,0.0,1.0,0,0,0.0,0.0,0,0,104.0,0.0,485.0,4660.000000000001,3927.692307692308,4460.000000000001,4438.461538461539,4214.871794871796,4458.974358974359,4395.384615384616,4411.794871794872,4294.358974358975,4623.589743589744,4401.025641025642,4234.358974358975,4112.307692307693,4555.384615384616
154.50778,0.3571673,0.45058325,0.39669073,0.4899499,0,0.0,0.0,0.0,0.0,0.52826405,0,0,0.0,0.0,0,0,22.0,0.0,0.0,4673.333333333334,3974.358974358975,4504.102564102564,4473.333333333334,4200.000000000001,4521.025641025642,4450.256410256411,4423.076923076924,4355.8974358974365,4675.384615384616,4294.871794871796,4322.564102564103,4182.564102564103,4466.153846153847
154.758,0.31753597,0.4476198,0.39577362,0.49179238,0,0.0,0.0,0.0,0.0,1.0,0,0,0.0,0.0,0,0,55.0,0.0,0.0,4674.871794871796,4008.717948717949,4537.948717948719,4491.794871794872,4195.384615384616,4568.717948717949,4490.256410256411,4454.358974358975,4410.769230769231,4728.717948717949,4247.179487179487,4374.358974358975,4208.205128205129,4378.974358974359
155.00821,0.31753597,0.4476198,0.39577362,0.49179238,1,0.0,0.0,0.0,0.0,0.0,0,0,0.0,0.0,0,0,87.0,0.0,510.0,4656.923076923077,4021.0256410256416,4552.820512820514,4506.153846153847,4188.205128205129,4600.512820512821,4490.769230769231,4444.102564102564,4427.6923076923085,4775.8974358974365,4211.282051282052,4368.205128205129,4228.205128205129,4606.666666666667
155.1646,0.32980657,0.4511354,0.39493972,0.4953746,0,0.0,0.0,0.0,0.0,1.0,0,0,0.0,0.0,0,0,107.0,0.0,510.0,4645.128205128206,4025.1282051282055,4572.820512820514,4506.666666666667,4186.666666666667,4628.205128205129,4522.051282051282,4457.948717948719,4426.153846153847,4762.564102564103,4185.128205128206,4370.256410256411,4215.384615384616,4569.743589743591
155.38353,0.32980657,0.4511354,0.39493972,0.4953746,0,0.0,0.0,0.0,0.0,0.0,0,0,0.0,0.0,0,0,6.0,0.0,551.0,4632.307692307693,4020.0000000000005,4583.076923076924,4495.8974358974365,4192.820512820514,4645.641025641026,4518.974358974359,4443.076923076924,4431.282051282052,4793.333333333334,4166.666666666667,4365.128205128206,4200.512820512821,4462.051282051282
155.63374,0.32843742,0.4632786,0.39442512,0.49860206,0,0.0,0.0,0.0,0.0,0.0,0,0,0.0,0.0,0,0,38.0,0.0,0.0,4617.435897435898,4030.7692307692314,4600.512820512821,4506.153846153847,4192.307692307693,4635.384615384616,4493.333333333334,4412.307692307693,4431.282051282052,4797.948717948719,4174.871794871796,4382.051282051282,4202.051282051282,4371.282051282052
155.63374,0.32843742,0.4632786,0.39442512,0.49860206,0,0.0,0.0,0.0,0.0,0.0,0,0,0.0,0.0,0,0,38.0,0.0,0.0,4617.435897435898,4030.7692307692314,4600.512820512821,4506.153846153847,4192.307692307693,4635.384615384616,4493.333333333334,4412.307692307693,4431.282051282052,4797.948717948719,4174.871794871796,4382.051282051282,4202.051282051282,4371.282051282052
156.13419,0.33274654,0.46550885,0.39660308,0.5031175,0,0.0,0.0,0.0,0.0,0.0,0,0,0.0,0.0,0,0,102.0,0.0,530.0,4566.153846153847,3987.692307692308,4585.641025641026,4474.358974358975,4207.179487179487,4628.205128205129,4466.666666666667,4442.564102564103,4443.589743589744,4798.974358974359,4205.641025641026,4362.051282051282,4187.6923076923085,4237.948717948719
156.5095,0.33274654,0.46550885,0.39660308,0.5031175,0,0.0,0.0,0.0,0.0,0.6612301,0,0,0.0,0.0,0,0,16.0,0.0,0.0,4566.153846153847,3994.358974358975,4576.410256410257,4489.743589743591,4213.333333333334,4592.820512820514,4474.871794871796,4457.948717948719,4445.641025641026,4778.461538461539,4215.8974358974365,4357.948717948719,4170.769230769231,4176.923076923077
156.63461,0.2754864,0.47357672,0.40503532,0.5134413,0,0.0,0.0,0.0,0.0,1.0,0,0,0.0,0.0,0,0,37.0,0.0,0.0,4547.179487179488,3988.205128205129,4543.076923076924,4490.769230769231,4216.923076923077,4573.846153846154,4458.974358974359,4458.974358974359,4447.179487179487,4773.333333333334,4217.435897435898,4334.871794871796,4168.717948717949,4883.076923076924
156.63461,0.2754864,0.47357672,0.40503532,0.5134413,0,0.0,0.0,0.0,0.0,1.0,0,0,0.0,0.0,0,0,37.0,0.0,0.0,4547.179487179488,3988.205128205129,4543.076923076924,4490.769230769231,4216.923076923077,4573.846153846154,4458.974358974359,4458.974358974359,4447.179487179487,4773.333333333334,4217.435897435898,4334.871794871796,4168.717948717949,4883.076923076924
157.13504,0.28023452,0.48616645,0.4147545,0.5227343,0,0.0,0.0,0.0,0.0,1.0,0,0,0.0,0.0,0,0,101.0,0.0,455.0,4584.102564102564,3981.538461538462,4507.179487179488,4487.6923076923085,4216.923076923077,4549.743589743591,4425.128205128206,4418.974358974359,4411.794871794872,4736.410256410257,4222.051282051282,4294.358974358975,4149.2307692307695,4532.820512820514
157.13504,0.28023452,0.48616645,0.4147545,0.5227343,0,0.0,0.0,0.0,0.0,1.0,0,0,0.0,0.0,0,0,101.0,0.0,455.0,4584.102564102564,3981.538461538462,4507.179487179488,4487.6923076923085,4216.923076923077,4549.743589743591,4425.128205128206,4418.974358974359,4411.794871794872,4736.410256410257,4222.051282051282,4294.358974358975,4149.2307692307695,4532.820512820514
157.76057,0.23722316,0.4997669,0.42392915,0.5310995,0,0.0,0.0,0.0,0.0,0.8556423,0,0,0.0,0.0,0,0,46.0,0.0,0.0,4571.794871794872,3902.0512820512827,4504.615384615385,4427.179487179487,4219.48717948718,4538.974358974359,4441.538461538462,4442.564102564103,4416.923076923077,4752.307692307693,4283.076923076924,4317.948717948719,4147.179487179487,4283.589743589744
157.88568,0.23722316,0.4997669,0.42392915,0.5310995,0,0.0,0.0,0.0,0.0,0.4565583,0,0,0.0,0.0,0,0,68.0,0.0,563.0,4551.282051282052,3888.205128205129,4546.153846153847,4416.410256410257,4235.384615384616,4502.564102564103,4427.6923076923085,4460.000000000001,4412.307692307693,4746.153846153847,4353.333333333334,4355.8974358974365,4154.358974358975,4246.666666666667
158.261,0.23684746,0.506935,0.43217,0.5371546,0,0.0,0.0,0.0,0.0,1.0,0,0,0.0,0.0,0,0,111.0,0.0,513.0,4506.666666666667,3605.6410256410263,4503.589743589744,4188.205128205129,4252.820512820514,4414.871794871796,4399.48717948718,4491.282051282052,4390.256410256411,4696.410256410257,4471.794871794872,4356.923076923077,4121.538461538462,4465.641025641026
158.261,0.23684746,0.506935,0.43217,0.5371546,0,0.0,0.0,0.0,0.0,1.0,0,0,0.0,0.0,0,0,116.0,0.0,489.0,4506.666666666667,3606.1538461538466,4501.025641025642,4190.256410256411,4253.333333333334,4401.538461538462,4396.410256410257,4474.358974358975,4378.974358974359,4677.948717948719,4471.794871794872,4332.307692307693,4105.128205128206,4732.307692307693
158.76143,0.25726792,0.51343405,0.43778214,0.53738606,0,0.0,0.0,0.0,0.0,0.540893,0,0,0.0,0.0,0,0,51.0,0.0,0.0,4615.8974358974365,3745.1282051282055,4451.282051282052,4303.589743589744,4265.641025641026,4405.641025641026,4371.794871794872,4404.615384615385,4306.666666666667,4613.333333333334,4510.256410256411,4219.48717948718,4128.717948717949,4747.6923076923085
158.98038,0.25726792,0.51343405,0.43778214,0.53738606,0,0.0,0.0,0.0,0.0,0.42268354,0,0,0.0,0.0,0,0,79.0,0.0,508.0,4589.743589743591,3783.589743589744,4429.743589743591,4326.153846153847,4250.256410256411,4443.589743589744,4391.794871794872,4380.000000000001,4301.538461538462,4601.538461538462,4427.6923076923085,4117.435897435898,4077.9487179487187,4461.025641025642
159.13676,0.2524829,0.5192832,0.43967408,0.5376054,0,0.0,0.0,0.0,0.0,1.0,0,0,0.0,0.0,0,0,99.0,0.0,508.0,4606.153846153847,3817.9487179487182,4427.179487179487,4353.333333333334,4237.435897435898,4465.128205128206,4413.846153846154,4381.538461538462,4297.435897435898,4600.512820512821,4387.179487179487,4118.461538461539,4080.5128205128212,4409.2307692307695
159.38698,0.2524829,0.5192832,0.43967408,0.5376054,0,0.0,0.0,0.0,0.0,0.8169952,0,0,0.0,0.0,0,0,2.0,0.0,248.0,4598.974358974359,3850.2564102564106,4445.641025641026,4382.051282051282,4231.794871794872,4508.717948717949,4431.794871794872,4381.025641025642,4304.615384615385,4626.666666666667,4325.641025641026,4138.461538461539,4119.48717948718,4360.000000000001
159.63719,0.24335648,0.5245474,0.433853,0.5378028,0,0.0,0.0,0.0,0.0,0.0,0,0,0.0,0.0,0,0,34.0,0.0,0.0,4611.794871794872,3870.2564102564106,4462.051282051282,4392.307692307693,4218.974358974359,4547.6923076923085,4460.000000000001,4409.2307692307695,4367.6923076923085,4717.948717948719,4328.205128205129,4230.256410256411,4213.333333333334,4379.48717948718
159.63719,0.24335648,0.5245474,0.433853,0.5378028,0,0.0,0.0,0.0,0.0,0.0,0,0,0.0,0.0,0,0,34.0,0.0,0.0,4611.794871794872,3870.2564102564106,4462.051282051282,4392.307692307693,4218.974358974359,4547.6923076923085,4460.000000000001,4409.2307692307695,4367.6923076923085,4717.948717948719,4328.205128205129,4230.256410256411,4213.333333333334,4379.48717948718
160.13762,0.25729832,0.5292852,0.4236556,0.5392573,0,0.0,0.0,0.0,0.0,1.0,0,0,0.0,0.0,0,1,98.0,0.0,530.0,4644.102564102564,3941.0256410256416,4534.871794871796,4454.871794871796,4212.307692307693,4583.076923076924,4473.333333333334,4403.589743589744,4378.461538461539,4678.974358974359,4232.307692307693,4297.948717948719,4185.641025641026,4779.48717948718
160.38783,0.25729832,0.5292852,0.4236556,0.5392573,0,0.0,0.0,0.0,0.0,1.0,0,0,0.0,0.0,0,0,1.0,0.0,462.0,4629.743589743591,3910.2564102564106,4524.615384615385,4418.974358974359,4217.435897435898,4584.102564102564,4473.333333333334,4421.025641025642,4410.769230769231,4724.102564102564,4240.000000000001,4326.666666666667,4198.974358974359,4655.384615384616
160.63805,0.24089667,0.55631006,0.4144686,0.5405672,0,0.0,0.0,0.0,0.0,1.0,0,0,0.0,0.0,0,0,33.0,0.0,0.0,4644.102564102564,3954.8717948717954,4551.282051282052,4456.410256410257,4203.589743589744,4588.717948717949,4490.769230769231,4427.179487179487,4405.641025641026,4715.8974358974365,4231.794871794872,4342.051282051282,4178.974358974359,4507.6923076923085
160.63805,0.24089667,0.55631006,0.4144686,0.5405672,0,0.0,0.0,0.0,0.0,1.0,0,0,0.0,0.0,0,0,33.0,0.0,0.0,4644.102564102564,3954.8717948717954,4551.282051282052,4456.410256410257,4203.589743589744,4588.717948717949,4490.769230769231,4427.179487179487,4405.641025641026,4715.8974358974365,4231.794871794872,4342.051282051282,4178.974358974359,4507.6923076923085
161.13847,0.22026202,0.56868577,0.40619147,0.54174703,0,0.0,0.0,0.0,0.0,1.0,0,0,0.0,0.0,0,0,97.0,0.0,455.0,4600.000000000001,3972.820512820513,4532.820512820514,4472.307692307693,4210.769230769231,4569.743589743591,4474.871794871796,4427.179487179487,4385.128205128206,4696.923076923077,4225.641025641026,4338.974358974359,4154.871794871796,4493.333333333334
161.38869,0.22026202,0.56868577,0.40619147,0.54174703,0,0.0,0.0,0.0,0.0,0.0,0,0,0.0,0.0,0,0,0.0,0.0,513.0,4630.256410256411,3977.435897435898,4569.2307692307695,4478.974358974359,4217.435897435898,4557.948717948719,4475.8974358974365,4448.205128205129,4402.564102564103,4734.871794871796,4274.358974358975,4397.435897435898,4215.384615384616,4507.179487179488
161.63892,0.21399328,0.5798118,0.40825337,0.5428096,0,0.0,0.0,0.0,0.0,0.0,0,0,0.0,0.0,0,0,32.0,0.0,0.0,4585.641025641026,3958.9743589743593,4541.538461538462,4464.102564102564,4229.2307692307695,4542.564102564103,4466.666666666667,4467.6923076923085,4402.051282051282,4746.153846153847,4277.948717948719,4368.717948717949,4196.410256410257,4696.410256410257
161.88913,0.21399328,0.5798118,0.40825337,0.5428096,0,0.0,0.0,0.0,0.0,1.0,0,0,0.0,0.0,0,0,64.0,0.0,513.0,4570.769230769231,3962.564102564103,4521.025641025642,4404.102564102564,4217.948717948719,4523.589743589744,4456.923076923077,4433.333333333334,4364.102564102564,4710.256410256411,4278.461538461539,4325.128205128206,4146.153846153847,4518.461538461539
162.26445,0.22778292,0.57959956,0.41641924,0.5437666,0,0.0,0.0,0.0,0.0,0.27919567,0,0,0.0,0.0,0,0,105.0,0.0,455.0,4580.512820512821,3939.48717948718,4531.282051282052,4382.051282051282,4229.2307692307695,4493.846153846154,4533.846153846154,4388.205128205129,4343.076923076924,4669.2307692307695,4311.794871794872,4296.410256410257,4077.9487179487187,4363.076923076924
162.38956,0.22778292,0.57959956,0.41641924,0.5437666,0,0.0,0.0,0.0,0.0,0.13985315,0,0,0.0,0.0,0,0,128.0,0.0,489.0,4572.820512820514,3911.7948717948725,4522.564102564103,4365.641025641026,4244.615384615385,4457.948717948719,4561.538461538462,4373.846153846154,4314.871794871796,4632.307692307693,4382.564102564103,4251.282051282052,4055.3846153846157,4573.846153846154
162.76488,0.19895117,0.5710807,0.42450756,0.5429003,0,0.0,0.0,0.0,0.0,0.5676184,0,0,0.0,0.0,0,0,43.0,0.0,0.0,4538.461538461539,3863.076923076924,4456.923076923077,4343.589743589744,4260.000000000001,4405.128205128206,4522.564102564103,4314.871794871796,4264.615384615385,4554.871794871796,4429.743589743591,4107.179487179487,4004.1025641025644,4501.538461538462
163.01509,0.19895117,0.5710807,0.42450756,0.5429003,0,0.0,0.0,0.0,0.0,0.08813947,0,0,0.0,0.0,0,0,77.0,0.0,455.0,4524.615384615385,3864.1025641025644,4433.333333333334,4350.256410256411,4266.153846153847,4392.820512820514,4503.589743589744,4340.512820512821,4312.820512820514,4613.846153846154,4468.205128205129,4089.23076923077,4077.9487179487187,4507.6923076923085
163.2653,0.18443497,0.564306,0.43177143,0.53756773,0,0.0,0.0,0.0,0.0,1.0,0,0,0.0,0.0,0,0,103.0,0.0,508.0,4524.102564102564,3864.615384615385,4400.512820512821,4362.564102564103,4265.128205128206,4404.102564102564,4486.666666666667,4348.717948717949,4325.641025641026,4645.641025641026,4470.256410256411,4120.000000000001,4123.589743589744,4706.153846153847
163.39041,0.18443497,0.564306,0.43177143,0.53756773,0,0.0,0.0,0.0,0.0,0.9179778,0,0,0.0,0.0,0,0,127.0,0.0,508.0,4550.256410256411,3878.9743589743593,4399.48717948718,4374.358974358975,4253.846153846154,4431.282051282052,4477.435897435898,4360.512820512821,4342.564102564103,4681.025641025642,4443.589743589744,4171.282051282052,4161.025641025642,4674.358974358975
163.76573,0.17925246,0.5536456,0.43508387,0.5360803,0,0.0,0.0,0.0,0.0,0.91026074,0,0,0.0,0.0,0,0,44.0,0.0,0.0,4569.743589743591,3923.589743589744,4469.2307692307695,4405.641025641026,4245.641025641026,4523.589743589744,4529.743589743591,4412.307692307693,4410.769230769231,4735.8974358974365,4391.794871794872,4281.538461538462,4220.512820512821,4641.538461538462
164.01595,0.17925246,0.5536456,0.43508387,0.5360803,0,0.0,0.0,0.0,0.0,0.0,0,0,0.0,0.0,0,0,71.0,0.0,429.0,4585.128205128206,3944.1025641025644,4492.307692307693,4420.000000000001,4228.205128205129,4554.871794871796,4538.974358974359,4405.641025641026,4427.179487179487,4764.615384615386,4362.051282051282,4358.974358974359,4246.666666666667,4630.256410256411
164.14105,0.1919367,0.55017066,0.43660972,0.54457074,0,0.0,0.0,0.0,0.0,0.0,0,0,0.0,0.0,0,0,94.0,0.0,530.0,4585.128205128206,3961.538461538462,4505.641025641026,4433.846153846154,4229.74358974359,4569.2307692307695,4532.307692307693,4411.794871794872,4441.025641025642,4781.025641025642,4324.615384615385,4362.051282051282,4239.48717948718,4796.923076923077
164.14105,0.1919367,0.55017066,0.43660972,0.54457074,0,0.0,0.0,0.0,0.0,0.0,0,0,0.0,0.0,0,0,94.0,0.0,530.0,4585.128205128206,3961.538461538462,4505.641025641026,4433.846153846154,4229.74358974359,4569.2307692307695,4532.307692307693,4411.794871794872,4441.025641025642,4781.025641025642,4324.615384615385,4362.051282051282,4239.48717948718,4796.923076923077
164.6415,0.20768838,0.53627723,0.43207946,0.55235404,0,0.0,0.0,0.0,0.0,1.0,0,0,0.0,0.0,0,0,29.0,0.0,0.0,4578.974358974359,3957.435897435898,4538.461538461539,4428.717948717949,4215.8974358974365,4633.333333333334,4552.307692307693,4388.717948717949,4445.128205128206,4791.794871794872,4248.205128205129,4412.307692307693,4231.282051282052,4634.871794871796
164.6415,0.20768838,0.53627723,0.43207946,0.55235404,0,0.0,0.0,0.0,0.0,1.0,0,0,0.0,0.0,0,0,29.0,0.0,0.0,4578.974358974359,3957.435897435898,4538.461538461539,4428.717948717949,4215.8974358974365,4633.333333333334,4552.307692307693,4388.717948717949,4445.128205128206,4791.794871794872,4248.205128205129,4412.307692307693,4231.282051282052,4634.871794871796
165.26703,0.18055792,0.51314086,0.42228013,0.5738333,0,0.0,0.0,0.0,0.0,0.956287,0,0,0.0,0.0,0,0,102.0,0.0,530.0,4581.025641025642,3989.7435897435903,4574.358974358975,4471.282051282052,4228.717948717949,4630.769230769231,4532.307692307693,4410.769230769231,4456.410256410257,4813.846153846154,4275.384615384616,4410.769230769231,4219.48717948718,4672.307692307693
165.39214,0.18055792,0.51314086,0.42228013,0.5738333,0,0.0,0.0,0.0,0.0,0.93574303,0,0,0.0,0.0,0,0,125.0,0.0,454.0,4580.000000000001,3994.358974358975,4581.025641025642,4472.307692307693,4233.333333333334,4622.564102564103,4526.153846153847,4434.358974358975,4446.153846153847,4781.025641025642,4253.846153846154,4383.589743589744,4174.358974358975,4562.051282051282
165.64235,0.15007529,0.4907432,0.41345164,0.5931608,0,0.0,0.0,0.0,0.0,0.58098847,0,0,0.0,0.0,0,0,28.0,0.0,0.0,4553.333333333334,3985.1282051282055,4554.358974358975,4462.564102564103,4232.307692307693,4602.564102564103,4508.717948717949,4439.48717948718,4440.000000000001,4779.48717948718,4266.153846153847,4357.948717948719,4170.256410256411,4457.435897435898
165.89256,0.15007529,0.4907432,0.41345164,0.5931608,0,0.0,0.0,0.0,0.0,1.0,0,0,0.0,0.0,0,0,60.0,0.0,0.0,4531.794871794872,3945.6410256410263,4541.538461538462,4419.48717948718,4229.74358974359,4557.948717948719,4472.307692307693,4394.358974358975,4391.794871794872,4723.076923076924,4280.000000000001,4316.923076923077,4123.076923076924,4553.333333333334
166.14278,0.14797229,0.45943454,0.40549743,0.6105472,0,0.0,0.0,0.0,0.0,1.0,0,0,0.0,0.0,0,0,92.0,0.0,489.0,4508.717948717949,3908.717948717949,4556.923076923077,4328.205128205129,4232.307692307693,4517.435897435898,4472.820512820514,4369.743589743591,4350.256410256411,4655.384615384616,4255.384615384616,4249.2307692307695,4053.333333333334,4321.025641025642
166.14278,0.14797229,0.45943454,0.40549743,0.6105472,0,0.0,0.0,0.0,0.0,1.0,0,0,0.0,0.0,0,0,92.0,0.0,489.0,4508.717948717949,3908.717948717949,4556.923076923077,4328.205128205129,4232.307692307693,4517.435897435898,4472.820512820514,4369.743589743591,4350.256410256411,4655.384615384616,4255.384615384616,4249.2307692307695,4053.333333333334,4321.025641025642
166.6432,0.2330778,0.43741587,0.40000632,0.6210659,0,0.0,0.0,0.0,0.0,0.75697404,0,0,0.0,0.0,0,0,27.0,0.0,0.0,4505.641025641026,3912.307692307693,4541.025641025642,4370.769230769231,4264.102564102564,4492.307692307693,4477.435897435898,4391.794871794872,4299.48717948718,4605.641025641026,4342.564102564103,4138.461538461539,4035.8974358974365,4335.8974358974365
166.76831,0.2330778,0.43741587,0.40000632,0.6210659,0,0.0,0.0,0.0,0.0,1.0,0,0,0.0,0.0,0,0,43.0,0.0,0.0,4506.153846153847,3911.2820512820517,4523.076923076924,4376.923076923077,4263.076923076924,4480.000000000001,4444.615384615385,4361.025641025642,4267.179487179487,4585.641025641026,4333.333333333334,4116.923076923077,4040.0000000000005,4430.256410256411
167.14365,0.21786892,0.41874546,0.39544782,0.6106679,0,0.0,0.0,0.0,0.0,1.0,0,0,0.0,0.0,0,0,91.0,0.0,513.0,4526.666666666667,3931.2820512820517,4520.000000000001,4409.2307692307695,4247.6923076923085,4506.666666666667,4443.076923076924,4362.051282051282,4312.307692307693,4638.461538461539,4335.8974358974365,4182.564102564103,4108.717948717949,4280.512820512821
167.14365,0.21786892,0.41874546,0.39544782,0.6106679,0,0.0,0.0,0.0,0.0,1.0,0,0,0.0,0.0,0,0,91.0,0.0,513.0,4526.666666666667,3931.2820512820517,4520.000000000001,4409.2307692307695,4247.6923076923085,4506.666666666667,4443.076923076924,4362.051282051282,4312.307692307693,4638.461538461539,4335.8974358974365,4182.564102564103,4108.717948717949,4280.512820512821
167.76918,0.19845523,0.4017928,0.3915535,0.6013085,0,0.0,0.0,0.0,0.0,0.9837707,0,0,0.0,0.0,0,0,35.0,0.0,0.0,4562.564102564103,3942.564102564103,4473.333333333334,4425.128205128206,4247.179487179487,4525.641025641026,4417.435897435898,4400.512820512821,4401.025641025642,4703.076923076924,4341.538461538462,4280.000000000001,4171.794871794872,4439.48717948718
167.89429,0.19845523,0.4017928,0.3915535,0.6013085,0,0.0,0.0,0.0,0.0,0.9108541,0,0,0.0,0.0,0,0,58.0,0.0,0.0,4565.128205128206,3938.9743589743593,4459.48717948718,4428.717948717949,4244.102564102564,4542.051282051282,4428.717948717949,4434.358974358975,4430.769230769231,4726.153846153847,4335.8974358974365,4302.051282051282,4172.307692307693,4410.769230769231
168.2696,0.16500583,0.3975464,0.38804156,0.5878708,0,0.0,0.0,0.0,0.0,0.70603496,0,0,0.0,0.0,0,0,103.0,0.0,513.0,4607.179487179488,3962.564102564103,4470.769230769231,4457.435897435898,4231.282051282052,4536.923076923077,4420.512820512821,4427.6923076923085,4411.794871794872,4725.641025641026,4323.076923076924,4340.000000000001,4182.051282051282,4316.410256410257
168.51982,0.16500583,0.3975464,0.38804156,0.5878708,0,0.0,0.0,0.0,0.0,1.0,0,0,0.0,0.0,0,0,3.0,0.0,546.0,4584.102564102564,3954.358974358975,4464.615384615385,4450.256410256411,4234.871794871796,4529.743589743591,4430.256410256411,4431.282051282052,4413.333333333334,4728.205128205129,4328.205128205129,4342.564102564103,4155.8974358974365,4522.564102564103
168.64493,0.13990793,0.3920513,0.38417926,0.57366097,0,0.0,0.0,0.0,0.0,1.0,0,0,0.0,0.0,0,0,25.0,0.0,0.0,4582.564102564103,3941.538461538462,4471.794871794872,4443.589743589744,4244.615384615385,4520.000000000001,4412.820512820514,4405.128205128206,4395.8974358974365,4688.205128205129,4329.2307692307695,4324.615384615385,4131.794871794872,4462.051282051282
168.89514,0.13990793,0.3920513,0.38417926,0.57366097,0,0.0,0.0,0.0,0.0,0.8972048,0,0,0.0,0.0,0,0,57.0,0.0,0.0,4576.923076923077,3926.1538461538466,4473.846153846154,4436.923076923077,4248.717948717949,4523.589743589744,4419.48717948718,4385.128205128206,4354.871794871796,4655.8974358974365,4355.8974358974365,4307.179487179487,4111.794871794872,4368.717948717949
169.14536,0.12480723,0.38527665,0.3798651,0.5629873,0,0.0,0.0,0.0,0.0,1.0,0,0,0.0,0.0,0,0,89.0,0.0,454.0,4600.000000000001,3942.0512820512827,4506.666666666667,4456.923076923077,4250.769230769231,4529.2307692307695,4427.179487179487,4378.974358974359,4347.179487179487,4671.282051282052,4388.205128205129,4300.000000000001,4138.974358974359,4260.000000000001
169.14536,0.12480723,0.38527665,0.3798651,0.5629873,0,0.0,0.0,0.0,0.0,1.0,0,0,0.0,0.0,0,0,89.0,0.0,454.0,4600.000000000001,3942.0512820512827,4506.666666666667,4456.923076923077,4250.769230769231,4529.2307692307695,4427.179487179487,4378.974358974359,4347.179487179487,4671.282051282052,4388.205128205129,4300.000000000001,4138.974358974359,4260.000000000001
169.6458,0.09920733,0.37707245,0.37597677,0.5589224,0,0.0,0.0,0.0,0.0,1.0,0,0,0.0,0.0,0,0,24.0,0.0,0.0,4583.076923076924,3939.48717948718,4485.128205128206,4456.410256410257,4252.820512820514,4521.025641025642,4413.846153846154,4379.48717948718,4353.333333333334,4661.025641025642,4356.923076923077,4200.512820512821,4121.538461538462,4432.307692307693
170.02112,0.09920733,0.37707245,0.37597677,0.5589224,0,0.0,0.0,0.0,0.0,0.3601399,0,0,0.0,0.0,0,0,72.0,0.0,425.0,4621.538461538462,3971.7948717948725,4514.871794871796,4477.435897435898,4248.205128205129,4540.000000000001,4452.307692307693,4428.717948717949,4380.000000000001,4706.666666666667,4366.666666666667,4248.717948717949,4156.410256410257,4427.6923076923085
170.27133,0.08017582,0.36628246,0.37247214,0.55432296,0,0.0,0.0,0.0,0.0,1.0,0,0,0.0,0.0,0,0,99.0,0.0,513.0,4622.564102564103,3927.1794871794878,4484.102564102564,4445.128205128206,4243.076923076924,4543.589743589744,4456.410256410257,4429.2307692307695,4389.2307692307695,4711.282051282052,4326.153846153847,4229.2307692307695,4142.051282051282,4715.384615384616
170.27133,0.08017582,0.36628246,0.37247214,0.55432296,0,0.0,0.0,0.0,0.0,1.0,0,0,0.0,0.0,0,0,104.0,0.0,489.0,4620.512820512821,3935.8974358974365,4488.717948717949,4441.025641025642,4245.128205128206,4541.538461538462,4455.8974358974365,4428.717948717949,4396.410256410257,4717.435897435898,4326.666666666667,4231.794871794872,4150.769230769231,4746.666666666667
170.64665,0.11723993,0.35524216,0.3687598,0.55018336,0,0.0,0.0,0.0,0.0,1.0,0,0,0.0,0.0,0,0,23.0,0.0,0.0,4557.435897435898,3912.820512820513,4523.589743589744,4428.205128205129,4245.641025641026,4530.769230769231,4464.102564102564,4478.461538461539,4404.102564102564,4727.179487179488,4357.948717948719,4252.307692307693,4169.2307692307695,4563.076923076924
170.64665,0.11723993,0.35524216,0.3687598,0.55018336,0,0.0,0.0,0.0,0.0,1.0,0,0,0.0,0.0,0,0,23.0,0.0,0.0,4557.435897435898,3912.820512820513,4523.589743589744,4428.205128205129,4245.641025641026,4530.769230769231,4464.102564102564,4478.461538461539,4404.102564102564,4727.179487179488,4357.948717948719,4252.307692307693,4169.2307692307695,4563.076923076924
171.14708,0.10946249,0.3511596,0.3656559,0.5452772,0,0.0,0.0,0.0,0.0,1.0,0,0,0.0,0.0,0,0,87.0,0.0,511.0,4555.384615384616,3928.717948717949,4539.48717948718,4436.410256410257,4248.205128205129,4540.512820512821,4459.48717948718,4490.769230769231,4395.8974358974365,4703.076923076924,4340.000000000001,4286.666666666667,4133.846153846154,4705.128205128206
171.14708,0.10946249,0.3511596,0.3656559,0.5452772,0,0.0,0.0,0.0,0.0,1.0,0,0,0.0,0.0,0,0,87.0,0.0,511.0,4555.384615384616,3928.717948717949,4539.48717948718,4436.410256410257,4248.205128205129,4540.512820512821,4459.48717948718,4490.769230769231,4395.8974358974365,4703.076923076924,4340.000000000001,4286.666666666667,4133.846153846154,4705.128205128206
171.6475,0.0853653,0.36264786,0.3627667,0.5408651,0,0.0,0.0,0.0,0.0,1.0,0,0,0.0,0.0,0,0,22.0,0.0,0.0,4623.589743589744,3988.205128205129,4576.410256410257,4469.2307692307695,4235.8974358974365,4589.743589743591,4478.461538461539,4485.641025641026,4442.051282051282,4737.948717948719,4288.717948717949,4352.307692307693,4155.384615384616,4472.307692307693
171.6475,0.0853653,0.36264786,0.3627667,0.5408651,0,0.0,0.0,0.0,0.0,1.0,0,0,0.0,0.0,0,0,22.0,0.0,0.0,4623.589743589744,3988.205128205129,4576.410256410257,4469.2307692307695,4235.8974358974365,4589.743589743591,4478.461538461539,4485.641025641026,4442.051282051282,4737.948717948719,4288.717948717949,4352.307692307693,4155.384615384616,4472.307692307693
172.14793,0.055788405,0.37649307,0.36016288,0.53112376,0,0.0,0.0,0.0,0.0,1.0,0,0,0.0,0.0,0,0,86.0,0.0,530.0,4637.948717948719,3972.820512820513,4563.589743589744,4456.410256410257,4229.2307692307695,4585.128205128206,4475.384615384616,4477.435897435898,4457.435897435898,4801.025641025642,4275.384615384616,4391.794871794872,4246.666666666667,4592.820512820514
172.14793,0.055788405,0.37649307,0.36016288,0.53112376,0,0.0,0.0,0.0,0.0,1.0,0,0,0.0,0.0,0,0,86.0,0.0,530.0,4637.948717948719,3972.820512820513,4563.589743589744,4456.410256410257,4229.2307692307695,4585.128205128206,4475.384615384616,4477.435897435898,4457.435897435898,4801.025641025642,4275.384615384616,4391.794871794872,4246.666666666667,4592.820512820514
172.64838,0.06116937,0.4100425,0.35781616,0.5197175,0,0.0,0.0,0.0,0.0,1.0,0,0,0.0,0.0,0,0,21.0,0.0,0.0,4650.769230769231,3987.1794871794878,4572.307692307693,4465.128205128206,4213.846153846154,4594.358974358975,4489.2307692307695,4520.512820512821,4444.102564102564,4781.538461538462,4244.615384615385,4390.256410256411,4205.641025641026,4272.307692307693
172.64838,0.06116937,0.4100425,0.35781616,0.5197175,0,0.0,0.0,0.0,0.0,1.0,0,0,0.0,0.0,0,0,21.0,0.0,0.0,4650.769230769231,3987.1794871794878,4572.307692307693,4465.128205128206,4213.846153846154,4594.358974358975,4489.2307692307695,4520.512820512821,4444.102564102564,4781.538461538462,4244.615384615385,4390.256410256411,4205.641025641026,4272.307692307693
173.1488,0.079511255,0.4337757,0.357541,0.509456,0,0.0,0.0,0.0,0.0,1.0,0,0,0.0,0.0,0,0,85.0,0.0,454.0,4632.820512820514,3960.5128205128212,4550.256410256411,4459.48717948718,4215.8974358974365,4570.769230769231,4451.794871794872,4457.435897435898,4395.8974358974365,4730.256410256411,4228.717948717949,4339.48717948718,4168.205128205129,4429.2307692307695
173.39902,0.079511255,0.4337757,0.357541,0.509456,0,0.0,0.0,0.0,0.0,0.2874464,0,0,0.0,0.0,0,0,117.0,0.0,454.0,4626.666666666667,3954.8717948717954,4552.820512820514,4456.410256410257,4213.846153846154,4566.666666666667,4471.794871794872,4443.589743589744,4389.743589743591,4716.923076923077,4232.307692307693,4318.974358974359,4152.307692307693,4411.282051282052
173.77434,0.058126297,0.45505628,0.3575246,0.50022644,0,0.0,0.0,0.0,0.0,1.0,0,0,0.0,0.0,0,0,30.0,0.0,0.0,4617.948717948719,3953.333333333334,4553.333333333334,4461.538461538462,4219.48717948718,4557.948717948719,4475.384615384616,4457.435897435898,4412.820512820514,4722.051282051282,4245.128205128206,4313.333333333334,4141.025641025642,4421.538461538462
173.77434,0.058126297,0.45505628,0.3575246,0.50022644,0,0.0,0.0,0.0,0.0,1.0,0,0,0.0,0.0,0,0,36.0,0.0,0.0,4603.076923076924,3927.1794871794878,4525.641025641026,4440.000000000001,4212.307692307693,4541.538461538462,4456.923076923077,4429.2307692307695,4389.2307692307695,4687.6923076923085,4216.410256410257,4283.076923076924,4111.794871794872,4522.051282051282
174.27477,0.06784757,0.4579311,0.35906604,0.49144593,0,0.0,0.0,0.0,0.0,0.24678344,0,0,0.0,0.0,0,0,95.0,0.0,531.0,4576.923076923077,3908.205128205129,4505.128205128206,4428.717948717949,4233.846153846154,4522.051282051282,4421.538461538462,4395.8974358974365,4386.153846153847,4712.820512820514,4183.076923076924,4306.153846153847,4156.410256410257,4533.846153846154
174.39987,0.06784757,0.4579311,0.35906604,0.49144593,0,0.0,0.0,0.0,0.0,0.47841507,0,0,0.0,0.0,0,0,116.0,0.0,489.0,4586.153846153847,3925.6410256410263,4518.461538461539,4444.615384615385,4232.820512820514,4503.589743589744,4417.435897435898,4394.358974358975,4381.538461538462,4715.8974358974365,4250.769230769231,4333.333333333334,4190.256410256411,4542.564102564103
174.77519,0.066973686,0.45135537,0.36151338,0.48067975,0,0.0,0.0,0.0,0.0,1.0,0,0,0.0,0.0,0,0,29.0,0.0,0.0,4586.153846153847,3929.7435897435903,4476.410256410257,4453.333333333334,4243.589743589744,4476.410256410257,4378.461538461539,4410.256410256411,4379.48717948718,4716.923076923077,4261.538461538462,4309.2307692307695,4182.051282051282,4741.538461538462
174.77519,0.066973686,0.45135537,0.36151338,0.48067975,0,0.0,0.0,0.0,0.0,1.0,0,0,0.0,0.0,0,0,35.0,0.0,0.0,4578.974358974359,3927.692307692308,4466.666666666667,4449.2307692307695,4242.051282051282,4476.923076923077,4378.974358974359,4412.307692307693,4374.358974358975,4700.512820512821,4267.179487179487,4303.589743589744,4169.2307692307695,4673.333333333334
175.15053,0.049974512,0.44175687,0.36371246,0.46364105,0,0.0,0.0,0.0,0.0,1.0,0,0,0.0,0.0,0,0,83.0,0.0,510.0,4590.256410256411,3946.666666666667,4472.820512820514,4463.076923076924,4233.333333333334,4507.179487179488,4407.6923076923085,4413.333333333334,4383.076923076924,4718.461538461539,4254.358974358975,4295.8974358974365,4205.128205128206,4571.282051282052
175.15053,0.049974512,0.44175687,0.36371246,0.46364105,0,0.0,0.0,0.0,0.0,1.0,0,0,0.0,0.0,0,0,83.0,0.0,510.0,4590.256410256411,3946.666666666667,4472.820512820514,4463.076923076924,4233.333333333334,4507.179487179488,4407.6923076923085,4413.333333333334,4383.076923076924,4718.461538461539,4254.358974358975,4295.8974358974365,4205.128205128206,4571.282051282052
175.65096,0.03592631,0.42955613,0.36328447,0.44083247,0,0.0,0.0,0.0,0.0,1.0,0,0,0.0,0.0,0,0,18.0,0.0,0.0,4569.743589743591,3944.615384615385,4489.2307692307695,4458.461538461539,4230.769230769231,4523.589743589744,4417.435897435898,4434.871794871796,4397.948717948719,4733.333333333334,4235.8974358974365,4294.358974358975,4201.025641025642,4705.128205128206
175.65096,0.03592631,0.42955613,0.36328447,0.44083247,0,0.0,0.0,0.0,0.0,1.0,0,0,0.0,0.0,0,0,18.0,0.0,0.0,4569.743589743591,3944.615384615385,4489.2307692307695,4458.461538461539,4230.769230769231,4523.589743589744,4417.435897435898,4434.871794871796,4397.948717948719,4733.333333333334,4235.8974358974365,4294.358974358975,4201.025641025642,4705.128205128206
176.27649,0.07420622,0.4179769,0.36289567,0.41879717,0,0.0,0.0,0.0,0.0,0.8577396,0,0,0.0,0.0,0,0,91.0,0.0,505.0,4471.282051282052,3800.0000000000005,4522.051282051282,4279.48717948718,4246.666666666667,4428.205128205129,4387.6923076923085,4409.743589743591,4291.794871794872,4602.051282051282,4351.794871794872,4317.948717948719,4105.128205128206,4471.282051282052
176.4016,0.07420622,0.4179769,0.36289567,0.41879717,0,0.0,0.0,0.0,0.0,0.88723606,0,0,0.0,0.0,0,0,114.0,0.0,531.0,4437.948717948719,3748.717948717949,4461.538461538462,4240.000000000001,4264.102564102564,4363.589743589744,4322.051282051282,4366.666666666667,4218.974358974359,4538.461538461539,4398.461538461539,4238.461538461539,4020.0000000000005,4572.820512820514
176.77692,0.15234423,0.40728027,0.36432427,0.39297175,0,0.0,0.0,0.0,0.0,1.0,0,0,0.0,0.0,0,0,28.0,0.0,0.0,4461.538461538462,3722.564102564103,4357.435897435898,4228.717948717949,4264.102564102564,4344.102564102564,4281.025641025642,4310.769230769231,4193.846153846154,4506.666666666667,4397.948717948719,4062.0512820512827,3930.7692307692314,4412.307692307693
176.77692,0.15234423,0.40728027,0.36432427,0.39297175,0,0.0,0.0,0.0,0.0,1.0,0,0,0.0,0.0,0,0,33.0,0.0,0.0,4476.923076923077,3741.0256410256416,4357.435897435898,4236.410256410257,4263.589743589744,4351.282051282052,4270.256410256411,4296.410256410257,4198.974358974359,4510.256410256411,4409.2307692307695,4047.692307692308,3944.1025641025644,4412.820512820514
177.27734,0.21870328,0.3976533,0.36582142,0.36382663,0,0.0,0.0,0.0,0.0,0.0,0,0,0.0,0.0,0,0,91.0,0.0,511.0,4569.2307692307695,3809.7435897435903,4356.923076923077,4306.153846153847,4247.179487179487,4445.641025641026,4284.615384615385,4334.358974358975,4268.717948717949,4611.282051282052,4377.435897435898,3993.8461538461543,4023.589743589744,4342.564102564103
177.40245,0.21870328,0.3976533,0.36582142,0.36382663,0,0.0,0.0,0.0,0.0,0.6867695,0,0,0.0,0.0,0,0,113.0,0.0,454.0,4583.076923076924,3848.717948717949,4400.512820512821,4338.974358974359,4231.794871794872,4459.48717948718,4320.512820512821,4363.589743589744,4326.666666666667,4670.256410256411,4391.282051282052,4036.410256410257,4101.538461538462,4328.205128205129
177.77779,0.2398334,0.38898906,0.3671649,0.33817688,0,0.0,0.0,0.0,0.0,0.25466067,0,0,0.0,0.0,0,0,26.0,0.0,0.0,4592.820512820514,3924.1025641025644,4458.974358974359,4393.846153846154,4203.589743589744,4537.948717948719,4407.6923076923085,4369.2307692307695,4367.179487179487,4737.435897435898,4366.666666666667,4152.307692307693,4192.820512820514,4295.8974358974365
177.9029,0.2398334,0.38898906,0.3671649,0.33817688,0,0.0,0.0,0.0,0.0,0.20442438,0,0,0.0,0.0,0,0,48.0,0.0,0.0,4616.410256410257,3958.9743589743593,4488.205128205129,4422.564102564103,4202.051282051282,4570.769230769231,4441.538461538462,4394.871794871796,4395.384615384616,4737.948717948719,4316.923076923077,4185.128205128206,4214.871794871796,4305.641025641026
178.1531,0.2901932,0.38119125,0.36836988,0.31247675,0,0.0,0.0,0.0,0.0,1.0,0,0,0.0,0.0,0,0,80.0,0.0,489.0,4632.820512820514,4008.717948717949,4494.871794871796,4459.48717948718,4201.538461538462,4586.153846153847,4442.051282051282,4400.000000000001,4454.871794871796,4784.102564102564,4289.74358974359,4216.410256410257,4248.717948717949,4907.179487179488
178.1531,0.2901932,0.38119125,0.36836988,0.31247675,0,0.0,0.0,0.0,0.0,1.0,0,0,0.0,0.0,0,0,80.0,0.0,489.0,4632.820512820514,4008.717948717949,4494.871794871796,4459.48717948718,4201.538461538462,4586.153846153847,4442.051282051282,4400.000000000001,4454.871794871796,4784.102564102564,4289.74358974359,4216.410256410257,4248.717948717949,4907.179487179488
178.68481,0.2603383,0.3741732,0.3694952,0.2888222,0,0.0,0.0,0.0,0.0,1.0,0,0,0.0,0.0,0,0,19.0,0.0,0.0,4636.923076923077,4067.1794871794878,4569.743589743591,4506.153846153847,4192.307692307693,4641.025641025642,4505.641025641026,4446.666666666667,4494.358974358975,4815.8974358974365,4233.846153846154,4311.794871794872,4262.051282051282,4575.384615384616
178.68481,0.2603383,0.3741732,0.3694952,0.2888222,0,0.0,0.0,0.0,0.0,1.0,0,0,0.0,0.0,0,0,19.0,0.0,0.0,4636.923076923077,4067.1794871794878,4569.743589743591,4506.153846153847,4192.307692307693,4641.025641025642,4505.641025641026,4446.666666666667,4494.358974358975,4815.8974358974365,4233.846153846154,4311.794871794872,4262.051282051282,4575.384615384616
179.15396,0.24493256,0.39387414,0.3703098,0.26953286,0,0.0,0.0,0.0,0.0,1.0,0,0,0.0,0.0,0,0,79.0,0.0,509.0,4642.051282051282,4090.2564102564106,4617.435897435898,4533.846153846154,4200.512820512821,4634.358974358975,4518.974358974359,4470.769230769231,4448.717948717949,4783.589743589744,4215.384615384616,4343.076923076924,4224.615384615385,4331.282051282052
179.52928,0.24493256,0.39387414,0.3703098,0.26953286,0,0.0,0.0,0.0,0.0,0.67239904,0,0,0.0,0.0,0,0,88.0,0.0,489.0,4664.102564102564,4092.820512820513,4616.410256410257,4537.948717948719,4212.820512820514,4632.307692307693,4526.153846153847,4482.564102564103,4463.076923076924,4798.974358974359,4220.000000000001,4338.461538461539,4233.333333333334,4308.717948717949
179.65439,0.29221886,0.43153057,0.36872962,0.27686042,0,0.0,0.0,0.0,0.0,1.0,0,0,0.0,0.0,0,0,14.0,0.0,531.0,4684.615384615386,4046.666666666667,4597.948717948719,4508.717948717949,4206.666666666667,4607.6923076923085,4506.666666666667,4488.717948717949,4460.512820512821,4785.641025641026,4245.128205128206,4344.102564102564,4215.384615384616,4802.051282051282
179.65439,0.29221886,0.43153057,0.36872962,0.27686042,0,0.0,0.0,0.0,0.0,1.0,0,0,0.0,0.0,0,0,14.0,0.0,531.0,4684.615384615386,4046.666666666667,4597.948717948719,4508.717948717949,4206.666666666667,4607.6923076923085,4506.666666666667,4488.717948717949,4460.512820512821,4785.641025641026,4245.128205128206,4344.102564102564,4215.384615384616,4802.051282051282
180.27992,0.3218294,0.4402401,0.36518562,0.3044178,0,0.0,0.0,0.0,0.0,0.72323734,0,0,0.0,0.0,0,0,90.0,0.0,531.0,4688.205128205129,3953.8461538461543,4568.717948717949,4443.589743589744,4220.000000000001,4584.102564102564,4490.769230769231,4446.666666666667,4425.128205128206,4752.820512820514,4250.769230769231,4316.410256410257,4189.74358974359,4754.358974358975
180.40503,0.3218294,0.4402401,0.36518562,0.3044178,0,0.0,0.0,0.0,0.0,1.0,0,0,0.0,0.0,0,0,110.0,0.0,531.0,4669.743589743591,3942.564102564103,4540.000000000001,4432.307692307693,4217.948717948719,4583.076923076924,4489.2307692307695,4443.076923076924,4440.512820512821,4764.615384615386,4249.2307692307695,4295.8974358974365,4186.153846153847,4603.076923076924
180.65526,0.27666613,0.45188072,0.36196062,0.32972854,0,0.0,0.0,0.0,0.0,1.0,0,0,0.0,0.0,0,0,13.0,0.0,454.0,4648.205128205129,3947.1794871794878,4556.410256410257,4448.205128205129,4231.794871794872,4581.538461538462,4489.743589743591,4445.641025641026,4416.410256410257,4742.564102564103,4233.846153846154,4280.512820512821,4155.8974358974365,4457.435897435898
180.65526,0.27666613,0.45188072,0.36196062,0.32972854,0,0.0,0.0,0.0,0.0,1.0,0,0,0.0,0.0,0,0,13.0,0.0,454.0,4648.205128205129,3947.1794871794878,4556.410256410257,4448.205128205129,4231.794871794872,4581.538461538462,4489.743589743591,4445.641025641026,4416.410256410257,4742.564102564103,4233.846153846154,4280.512820512821,4155.8974358974365,4457.435897435898
181.28079,0.21766157,0.46083757,0.35905477,0.35242593,0,0.0,0.0,0.0,0.0,0.48589715,0,0,0.0,0.0,0,0,85.0,0.0,454.0,4614.358974358975,3952.307692307693,4542.051282051282,4462.051282051282,4231.794871794872,4556.410256410257,4491.794871794872,4460.512820512821,4431.282051282052,4761.025641025642,4229.2307692307695,4310.769230769231,4198.974358974359,4370.769230769231
181.4059,0.21766157,0.46083757,0.35905477,0.35242593,0,0.0,0.0,0.0,0.0,1.0,0,0,0.0,0.0,0,0,109.0,0.0,454.0,4586.666666666667,3941.538461538462,4508.717948717949,4451.794871794872,4247.179487179487,4554.871794871796,4458.974358974359,4442.564102564103,4422.051282051282,4745.641025641026,4242.564102564103,4277.948717948719,4167.179487179487,4924.615384615386
181.65611,0.2106177,0.43257582,0.35644087,0.3727774,0,0.0,0.0,0.0,0.0,1.0,0,0,0.0,0.0,0,0,12.0,0.0,489.0,4582.051282051282,3954.358974358975,4524.102564102564,4467.6923076923085,4242.564102564103,4536.923076923077,4436.410256410257,4454.358974358975,4414.358974358975,4722.564102564103,4264.615384615385,4278.974358974359,4142.051282051282,4828.205128205129
181.65611,0.2106177,0.43257582,0.35644087,0.3727774,0,0.0,0.0,0.0,0.0,1.0,0,0,0.0,0.0,0,0,12.0,0.0,489.0,4582.051282051282,3954.358974358975,4524.102564102564,4467.6923076923085,4242.564102564103,4536.923076923077,4436.410256410257,4454.358974358975,4414.358974358975,4722.564102564103,4264.615384615385,4278.974358974359,4142.051282051282,4828.205128205129
182.15654,0.22954832,0.41182405,0.3540892,0.39103943,0,0.0,0.0,0.0,0.0,1.0,0,0,0.0,0.0,0,0,76.0,0.0,489.0,4550.256410256411,3941.0256410256416,4504.615384615385,4447.6923076923085,4234.358974358975,4523.589743589744,4437.948717948719,4426.666666666667,4344.102564102564,4699.48717948718,4308.205128205129,4264.615384615385,4153.333333333334,4757.948717948719
182.31293,0.22954832,0.41182405,0.3540892,0.39103943,0,0.0,0.0,0.0,0.0,1.0,0,0,0.0,0.0,0,1,96.0,0.0,489.0,4575.8974358974365,3972.307692307693,4508.205128205129,4477.435897435898,4240.000000000001,4521.538461538462,4425.641025641026,4414.358974358975,4332.307692307693,4686.666666666667,4264.615384615385,4248.717948717949,4143.589743589744,4843.076923076924
182.65697,0.17752832,0.40410092,0.35197645,0.40741968,0,0.0,0.0,0.0,0.0,1.0,0,0,0.0,0.0,0,0,11.0,0.0,504.0,4608.717948717949,3974.358974358975,4505.641025641026,4475.8974358974365,4243.076923076924,4525.128205128206,4430.769230769231,4401.025641025642,4330.769230769231,4687.179487179488,4291.794871794872,4231.282051282052,4149.2307692307695,4662.564102564103
182.65697,0.17752832,0.40410092,0.35197645,0.40741968,0,0.0,0.0,0.0,0.0,1.0,0,0,0.0,0.0,0,0,11.0,0.0,504.0,4608.717948717949,3974.358974358975,4505.641025641026,4475.8974358974365,4243.076923076924,4525.128205128206,4430.769230769231,4401.025641025642,4330.769230769231,4687.179487179488,4291.794871794872,4231.282051282052,4149.2307692307695,4662.564102564103
183.1574,0.13985054,0.41439512,0.35007596,0.42214525,0,0.0,0.0,0.0,0.0,1.0,0,0,0.0,0.0,0,0,75.0,0.0,504.0,4592.307692307693,3942.0512820512827,4474.871794871796,4444.102564102564,4230.769230769231,4519.48717948718,4422.564102564103,4395.8974358974365,4358.974358974359,4716.410256410257,4313.333333333334,4232.307692307693,4170.769230769231,4703.076923076924
183.1574,0.13985054,0.41439512,0.35007596,0.42214525,0,0.0,0.0,0.0,0.0,1.0,0,0,0.0,0.0,0,0,75.0,0.0,504.0,4592.307692307693,3942.0512820512827,4474.871794871796,4444.102564102564,4230.769230769231,4519.48717948718,4422.564102564103,4395.8974358974365,4358.974358974359,4716.410256410257,4313.333333333334,4232.307692307693,4170.769230769231,4703.076923076924
183.78294,0.09181962,0.4545248,0.34903315,0.43538785,0,0.0,0.0,0.0,0.0,0.6421534,0,0,0.0,0.0,0,0,18.0,0.0,0.0,4598.974358974359,3958.9743589743593,4479.48717948718,4461.538461538462,4233.333333333334,4524.102564102564,4443.589743589744,4429.743589743591,4397.435897435898,4746.153846153847,4337.435897435898,4140.000000000001,4198.974358974359,4542.564102564103
183.90805,0.09181962,0.4545248,0.34903315,0.43538785,0,0.0,0.0,0.0,0.0,1.0,0,0,0.0,0.0,0,0,42.0,0.0,0.0,4591.794871794872,3956.9230769230776,4459.48717948718,4453.333333333334,4238.461538461539,4523.589743589744,4429.2307692307695,4425.641025641026,4389.2307692307695,4736.923076923077,4325.641025641026,4143.589743589744,4179.48717948718,4784.102564102564
184.15826,0.060917057,0.49801415,0.35101017,0.4487257,0,0.0,0.0,0.0,0.0,1.0,0,0,0.0,0.0,0,0,74.0,0.0,531.0,4615.8974358974365,3952.307692307693,4457.948717948719,4445.128205128206,4235.8974358974365,4523.076923076924,4430.769230769231,4430.256410256411,4384.615384615385,4735.384615384616,4337.435897435898,4182.564102564103,4174.358974358975,4860.512820512821
184.15826,0.060917057,0.49801415,0.35101017,0.4487257,0,0.0,0.0,0.0,0.0,1.0,0,0,0.0,0.0,0,0,74.0,0.0,531.0,4615.8974358974365,3952.307692307693,4457.948717948719,4445.128205128206,4235.8974358974365,4523.076923076924,4430.769230769231,4430.256410256411,4384.615384615385,4735.384615384616,4337.435897435898,4182.564102564103,4174.358974358975,4860.512820512821
184.65869,0.023066351,0.5161324,0.35534963,0.46337917,0,0.0,0.0,0.0,0.0,1.0,0,0,0.0,0.0,0,0,9.0,0.0,473.0,4598.461538461539,3913.333333333334,4462.564102564103,4409.2307692307695,4218.461538461539,4523.076923076924,4448.717948717949,4450.256410256411,4401.538461538462,4767.6923076923085,4382.564102564103,4298.461538461539,4205.641025641026,4695.8974358974365
184.65869,0.023066351,0.5161324,0.35534963,0.46337917,0,0.0,0.0,0.0,0.0,1.0,0,0,0.0,0.0,0,0,9.0,0.0,473.0,4598.461538461539,3913.333333333334,4462.564102564103,4409.2307692307695,4218.461538461539,4523.076923076924,4448.717948717949,4450.256410256411,4401.538461538462,4767.6923076923085,4382.564102564103,4298.461538461539,4205.641025641026,4695.8974358974365
185.15912,0.032679014,0.5097086,0.3599396,0.47824398,0,0.0,0.0,0.0,0.0,1.0,0,0,0.0,0.0,0,0,73.0,0.0,473.0,4537.948717948719,3893.333333333334,4461.538461538462,4396.410256410257,4251.282051282052,4475.384615384616,4411.282051282052,4390.256410256411,4382.564102564103,4710.769230769231,4442.051282051282,4333.333333333334,4157.435897435898,4515.384615384616
185.53444,0.032679014,0.5097086,0.3599396,0.47824398,0,0.0,0.0,0.0,0.0,0.5043206,0,0,0.0,0.0,0,0,88.0,0.0,489.0,4553.846153846154,3912.820512820513,4477.948717948719,4414.871794871796,4261.025641025642,4460.000000000001,4405.641025641026,4385.128205128206,4369.743589743591,4693.333333333334,4463.589743589744,4350.256410256411,4158.461538461539,4481.025641025642
185.65955,0.03410222,0.50723857,0.3640674,0.49874255,0,0.0,0.0,0.0,0.0,1.0,0,0,0.0,0.0,0,0,8.0,0.0,426.0,4563.589743589744,3923.076923076924,4442.051282051282,4431.794871794872,4255.8974358974365,4452.307692307693,4366.666666666667,4338.974358974359,4335.8974358974365,4645.641025641026,4463.076923076924,4304.615384615385,4142.051282051282,4796.923076923077
186.03488,0.03410222,0.50723857,0.3640674,0.49874255,0,0.0,0.0,0.0,0.0,0.4419762,0,0,0.0,0.0,0,0,56.0,0.0,0.0,4608.205128205129,3942.564102564103,4451.794871794872,4456.410256410257,4246.153846153847,4475.8974358974365,4405.641025641026,4334.358974358975,4333.846153846154,4657.948717948719,4437.948717948719,4284.102564102564,4156.410256410257,4697.435897435898
186.1678,0.052776642,0.5112491,0.36746562,0.5167235,0,0.0,0.0,0.0,0.0,0.46064192,0,0,0.0,0.0,0,0,72.0,0.0,426.0,4597.948717948719,3941.0256410256416,4446.153846153847,4442.564102564103,4234.358974358975,4492.820512820514,4408.205128205129,4330.769230769231,4335.384615384616,4659.48717948718,4404.615384615385,4254.358974358975,4151.794871794872,4653.846153846154
186.41801,0.052776642,0.5112491,0.36746562,0.5167235,0,0.0,0.0,0.0,0.0,0.0,0,0,0.0,0.0,0,0,104.0,0.0,489.0,4618.461538461539,3961.0256410256416,4447.6923076923085,4470.256410256411,4236.410256410257,4530.769230769231,4442.564102564103,4353.846153846154,4362.051282051282,4678.461538461539,4355.384615384616,4226.153846153847,4140.000000000001,4627.6923076923085
186.66823,0.04449091,0.52333856,0.36940813,0.5316904,0,0.0,0.0,0.0,0.0,0.0,0,0,0.0,0.0,0,0,7.0,0.0,430.0,4585.641025641026,3945.6410256410263,4425.641025641026,4445.641025641026,4216.410256410257,4521.538461538462,4399.48717948718,4265.641025641026,4360.000000000001,4668.205128205129,4303.076923076924,4163.076923076924,4140.000000000001,4652.820512820514
186.91844,0.04449091,0.52333856,0.36940813,0.5316904,0,0.0,0.0,0.0,0.0,0.12473304,0,0,0.0,0.0,0,0,39.0,0.0,0.0,4570.256410256411,3919.48717948718,4445.641025641026,4425.128205128206,4214.358974358975,4538.974358974359,4431.282051282052,4297.948717948719,4387.179487179487,4700.512820512821,4297.435897435898,4163.076923076924,4168.205128205129,4618.461538461539
187.16866,0.027182812,0.54277277,0.36923578,0.5416324,0,0.0,0.0,0.0,0.0,0.58339083,0,0,0.0,0.0,0,0,71.0,0.0,431.0,4540.512820512821,3883.589743589744,4459.48717948718,4401.025641025642,4214.871794871796,4534.871794871796,4455.8974358974365,4327.6923076923085,4384.102564102564,4722.051282051282,4337.948717948719,4166.666666666667,4183.589743589744,4472.820512820514
187.29376,0.027182812,0.54277277,0.36923578,0.5416324,0,0.0,0.0,0.0,0.0,1.0,0,0,0.0,0.0,0,0,87.0,0.0,505.0,4504.615384615385,3846.1538461538466,4451.282051282052,4364.615384615385,4219.48717948718,4519.48717948718,4441.025641025642,4302.051282051282,4325.641025641026,4663.589743589744,4345.641025641026,4125.641025641026,4112.307692307693,4290.769230769231
187.6691,0.12488542,0.5604189,0.36907652,0.54005206,0,0.0,0.0,0.0,0.0,1.0,0,0,0.0,0.0,0,0,6.0,0.0,553.0,4423.589743589744,3736.9230769230776,4391.794871794872,4286.153846153847,4263.076923076924,4389.2307692307695,4323.589743589744,4194.358974358975,4168.205128205129,4489.743589743591,4451.794871794872,3909.2307692307695,3907.1794871794878,4138.461538461539
187.91931,0.12488542,0.5604189,0.36907652,0.54005206,0,0.0,0.0,0.0,0.0,0.0,0,0,0.0,0.0,0,0,38.0,0.0,0.0,4432.820512820514,3708.205128205129,4302.564102564103,4276.410256410257,4265.641025641026,4360.000000000001,4269.2307692307695,4168.205128205129,4120.000000000001,4487.179487179488,4507.6923076923085,3781.538461538462,3900.0000000000005,4076.410256410257
188.16953,0.25060225,0.5763004,0.36892906,0.5386306,0,0.0,0.0,0.0,0.0,0.0,0,0,0.0,0.0,0,0,70.0,0.0,554.0,4485.641025641026,3735.3846153846157,4331.282051282052,4295.384615384616,4261.538461538462,4423.589743589744,4318.461538461539,4252.307692307693,4190.769230769231,4572.307692307693,4538.461538461539,3866.666666666667,3958.9743589743593,4207.179487179487
188.41974,0.25060225,0.5763004,0.36892906,0.5386306,0,0.0,0.0,0.0,0.0,1.0,0,0,0.0,0.0,0,0,102.0,0.0,531.0,4509.2307692307695,3776.9230769230776,4371.282051282052,4327.6923076923085,4250.769230769231,4476.923076923077,4332.820512820514,4280.512820512821,4281.538461538462,4671.282051282052,4584.615384615385,3999.48717948718,4089.7435897435903,4708.205128205129
188.66995,0.31886807,0.59059376,0.36813694,0.53735226,0,0.0,0.0,0.0,0.0,1.0,0,0,0.0,0.0,0,0,5.0,0.0,556.0,4568.717948717949,3845.1282051282055,4451.794871794872,4374.358974358975,4233.846153846154,4521.538461538462,4404.615384615385,4322.051282051282,4335.8974358974365,4732.820512820514,4583.589743589744,4133.333333333334,4185.641025641026,4665.128205128206
188.66995,0.31886807,0.59059376,0.36813694,0.53735226,0,0.0,0.0,0.0,0.0,1.0,0,0,0.0,0.0,0,0,5.0,0.0,556.0,4568.717948717949,3845.1282051282055,4451.794871794872,4374.358974358975,4233.846153846154,4521.538461538462,4404.615384615385,4322.051282051282,4335.8974358974365,4732.820512820514,4583.589743589744,4133.333333333334,4185.641025641026,4665.128205128206
189.17038,0.32321662,0.60345775,0.36742002,0.5417007,0,0.0,0.0,0.0,0.0,0.844745,0,0,0.0,0.0,0,0,69.0,0.0,556.0,4641.025641025642,3975.3846153846157,4573.846153846154,4477.435897435898,4224.102564102564,4613.846153846154,4542.051282051282,4427.179487179487,4472.307692307693,4823.589743589744,4493.333333333334,4335.8974358974365,4288.717948717949,4427.179487179487
189.29549,0.32321662,0.60345775,0.36742002,0.5417007,0,0.0,0.0,0.0,0.0,1.0,0,0,0.0,0.0,0,0,85.0,0.0,454.0,4649.743589743591,3975.3846153846157,4585.128205128206,4474.358974358975,4213.846153846154,4622.051282051282,4557.435897435898,4433.333333333334,4485.641025641026,4826.153846153847,4455.384615384616,4371.794871794872,4289.74358974359,4356.923076923077
189.6708,0.40563306,0.61503536,0.36606723,0.5491544,0,0.0,0.0,0.0,0.0,1.0,0,0,0.0,0.0,0,0,4.0,0.0,563.0,4628.717948717949,4005.6410256410263,4629.743589743591,4490.769230769231,4219.48717948718,4648.205128205129,4570.769230769231,4449.2307692307695,4507.179487179488,4845.641025641026,4405.128205128206,4441.538461538462,4306.153846153847,4122.051282051282
189.6708,0.40563306,0.61503536,0.36606723,0.5491544,0,0.0,0.0,0.0,0.0,1.0,0,0,0.0,0.0,0,0,4.0,0.0,563.0,4628.717948717949,4005.6410256410263,4629.743589743591,4490.769230769231,4219.48717948718,4648.205128205129,4570.769230769231,4449.2307692307695,4507.179487179488,4845.641025641026,4405.128205128206,4441.538461538462,4306.153846153847,4122.051282051282
190.17125,0.4044027,0.6254552,0.365983,0.56000304,0,0.0,0.0,0.0,0.0,1.0,0,0,0.0,0.0,0,0,68.0,0.0,563.0,4596.410256410257,4040.5128205128212,4648.205128205129,4521.538461538462,4230.769230769231,4622.051282051282,4536.410256410257,4428.205128205129,4523.076923076924,4829.2307692307695,4390.256410256411,4472.307692307693,4310.769230769231,4974.358974358975
190.17125,0.4044027,0.6254552,0.365983,0.56000304,0,0.0,0.0,0.0,0.0,1.0,0,0,0.0,0.0,0,0,68.0,0.0,563.0,4596.410256410257,4040.5128205128212,4648.205128205129,4521.538461538462,4230.769230769231,4622.051282051282,4536.410256410257,4428.205128205129,4523.076923076924,4829.2307692307695,4390.256410256411,4472.307692307693,4310.769230769231,4974.358974358975
190.67168,0.47787648,0.6348331,0.3659035,0.56976616,0,0.0,0.0,0.0,0.0,1.0,0,0,0.0,0.0,0,0,3.0,0.0,546.0,4598.974358974359,4050.7692307692314,4631.794871794872,4530.769230769231,4216.923076923077,4614.871794871796,4534.871794871796,4410.769230769231,4488.717948717949,4796.410256410257,4329.743589743591,4441.538461538462,4291.794871794872,4647.179487179488
190.92189,0.47787648,0.6348331,0.3659035,0.56976616,0,0.0,0.0,0.0,0.0,0.68523616,0,0,0.0,0.0,0,0,35.0,0.0,0.0,4601.025641025642,4036.9230769230776,4615.8974358974365,4521.025641025642,4225.128205128206,4623.589743589744,4557.948717948719,4461.025641025642,4503.589743589744,4804.102564102564,4326.666666666667,4431.282051282052,4294.871794871796,4504.615384615385
191.1721,0.42436358,0.6432732,0.36624676,0.5744057,0,0.0,0.0,0.0,0.0,0.9952908,0,0,0.0,0.0,0,0,67.0,0.0,546.0,4689.743589743591,4081.538461538462,4661.025641025642,4568.205128205129,4213.333333333334,4619.48717948718,4552.307692307693,4474.871794871796,4486.666666666667,4798.974358974359,4314.871794871796,4444.102564102564,4264.615384615385,4433.333333333334
191.29721,0.42436358,0.6432732,0.36624676,0.5744057,0,0.0,0.0,0.0,0.0,1.0,0,0,0.0,0.0,0,0,83.0,0.0,508.0,4647.179487179488,4057.435897435898,4620.000000000001,4546.666666666667,4217.435897435898,4628.717948717949,4556.410256410257,4473.333333333334,4469.2307692307695,4782.564102564103,4278.974358974359,4405.641025641026,4217.435897435898,4289.2307692307695
191.67253,0.44228163,0.65086925,0.3675053,0.5766972,0,0.0,0.0,0.0,0.0,0.5554445,0,0,0.0,0.0,0,0,2.0,0.0,257.0,4617.948717948719,4037.435897435898,4601.025641025642,4531.794871794872,4251.282051282052,4663.076923076924,4600.000000000001,4520.512820512821,4498.461538461539,4845.641025641026,4300.512820512821,4394.358974358975,4249.74358974359,4175.384615384616
191.92274,0.44228163,0.65086925,0.3675053,0.5766972,0,0.0,0.0,0.0,0.0,0.0,0,0,0.0,0.0,0,0,34.0,0.0,0.0,4618.461538461539,4037.435897435898,4594.358974358975,4534.358974358975,4257.948717948719,4632.820512820514,4570.256410256411,4514.871794871796,4483.589743589744,4826.666666666667,4294.358974358975,4368.205128205129,4216.923076923077,4927.6923076923085
192.17296,0.48366594,0.68044424,0.37017277,0.5672251,0,0.0,0.0,0.0,0.0,1.0,0,0,0.0,0.0,0,0,66.0,0.0,257.0,4584.615384615385,4027.692307692308,4558.974358974359,4523.076923076924,4247.179487179487,4604.615384615385,4522.051282051282,4513.846153846154,4453.846153846154,4795.384615384616,4274.358974358975,4325.128205128206,4188.717948717949,4844.102564102564
192.17296,0.48366594,0.68044424,0.37017277,0.5672251,0,0.0,0.0,0.0,0.0,1.0,0,0,0.0,0.0,0,0,66.0,0.0,257.0,4584.615384615385,4027.692307692308,4558.974358974359,4523.076923076924,4247.179487179487,4604.615384615385,4522.051282051282,4513.846153846154,4453.846153846154,4795.384615384616,4274.358974358975,4325.128205128206,4188.717948717949,4844.102564102564
192.67339,0.5055108,0.6914567,0.37365198,0.5376885,0,0.0,0.0,0.0,0.0,1.0,0,0,0.0,0.0,0,0,1.0,0.0,463.0,4606.666666666667,4021.0256410256416,4538.974358974359,4506.666666666667,4233.846153846154,4583.076923076924,4534.871794871796,4485.641025641026,4406.666666666667,4764.102564102564,4215.8974358974365,4293.333333333334,4168.717948717949,4520.512820512821
