timestamp,excitement,frustration,meditation,engagementBoredom,blink,clench,laugh,smile,eyebrow,furrowBrow,lookLeft,lookRight,smirkLeft,smirkRight,winkLeft,winkRight,eeg0,eeg1,eeg2,eeg3,eeg4,eeg5,eeg6,eeg7,eeg8,eeg9,eeg10,eeg11,eeg12,eeg13,eeg14,eeg15,eeg16
1866.1194,0.40376604,0.46802974,0.27652332,0.46588,0,0.0,0.0,0.0,0.0,0.0,0,0,0.0,0.0,0,0,6.0,0.0,555.0,4601.538461538462,3972.820512820513,4535.384615384616,4403.076923076924,4216.410256410257,4522.564102564103,4443.589743589744,4355.8974358974365,4385.128205128206,4704.615384615386,4249.2307692307695,4272.307692307693,4173.846153846154,4441.538461538462
1866.7449,0.39199033,0.48688245,0.27080125,0.4702699,0,0.0,0.0,0.0,0.0,0.1790643,0,0,0.0,0.0,0,0,86.0,0.0,534.0,4751.794871794872,3242.0512820512827,4580.512820512821,3818.461538461539,4513.846153846154,4668.717948717949,4564.615384615385,4481.538461538462,4469.2307692307695,4863.076923076924,4394.871794871796,4395.8974358974365,4207.179487179487,4378.461538461539
1866.9951,0.39199033,0.48688245,0.27080125,0.4702699,0,0.0,0.0,0.0,0.0,0.0,0,0,0.49111083,0.0,0,0,118.0,0.0,534.0,4750.256410256411,3503.0769230769233,4582.051282051282,3977.9487179487182,4365.641025641026,4586.153846153847,4482.564102564103,4375.8974358974365,4400.000000000001,4763.076923076924,4325.128205128206,4406.666666666667,4060.0000000000005,4440.512820512821
1867.2452,0.55495155,0.5038508,0.27013284,0.47304624,0,0.0,0.0,0.12854211,0.0,0.0,0,0,0.0,0.0,0,0,21.0,0.0,0.0,4664.615384615386,4116.923076923077,4445.128205128206,4548.205128205129,4183.589743589744,4473.333333333334,4351.282051282052,4268.205128205129,4281.538461538462,4751.282051282052,4293.333333333334,4227.6923076923085,4384.615384615385,4336.410256410257
1867.5267,0.55495155,0.5038508,0.27013284,0.47304624,0,0.0,0.0,0.10324747,0.0,0.0,0,0,0.0,0.0,0,0,57.0,0.0,0.0,4610.769230769231,4084.615384615385,4489.743589743591,4595.8974358974365,4245.128205128206,4508.717948717949,4463.589743589744,4220.000000000001,4227.6923076923085,4711.794871794872,4304.615384615385,4176.923076923077,4221.538461538462,4235.8974358974365
1867.7457,0.53738946,0.51912236,0.27505982,0.47670886,0,0.0,0.0,0.09481615,0.0,0.0,0,0,0.0,0.0,0,0,85.0,0.0,461.0,4609.743589743591,4086.666666666667,4538.974358974359,4604.615384615385,4306.666666666667,4557.435897435898,4525.128205128206,4276.410256410257,4251.282051282052,4818.461538461539,4398.974358974359,4138.974358974359,4159.48717948718,4343.589743589744
1867.996,0.53738946,0.51912236,0.27505982,0.47670886,0,0.0,0.0,0.0,0.0,1.0,0,0,0.0,0.0,0,0,117.0,0.0,461.0,4659.48717948718,4096.923076923077,4538.461538461539,4648.717948717949,4324.102564102564,4597.948717948719,4523.589743589744,4356.410256410257,4326.153846153847,4903.076923076924,4474.358974358975,4105.641025641026,4198.974358974359,4611.794871794872
1868.2305,0.62037766,0.5328668,0.27950218,0.482567,0,0.0,0.0,0.0,0.0,0.63640404,0,0,0.0,0.0,0,0,20.0,0.0,0.0,4739.48717948718,4083.076923076924,4507.6923076923085,4625.128205128206,4342.051282051282,4611.794871794872,4507.179487179488,4409.743589743591,4383.589743589744,4843.589743589744,4474.358974358975,4098.974358974359,4233.333333333334,4689.2307692307695
1868.4807,0.62037766,0.5328668,0.27950218,0.482567,0,0.0,0.0,0.0,0.0,0.11001148,0,0,0.0,0.0,0,0,52.0,0.0,0.0,4725.128205128206,4078.461538461539,4533.846153846154,4666.666666666667,4363.076923076924,4661.538461538462,4551.282051282052,4504.615384615385,4489.2307692307695,4844.615384615386,4541.025641025642,4183.076923076924,4317.948717948719,4780.000000000001
1868.731,0.63755435,0.5452367,0.2848933,0.48954487,0,0.0,0.0,0.0,0.0,0.29749805,0,0,0.0,0.0,0,0,84.0,0.0,510.0,4699.48717948718,4072.820512820513,4522.051282051282,4653.846153846154,4314.871794871796,4649.2307692307695,4541.025641025642,4506.153846153847,4508.717948717949,4797.948717948719,4509.743589743591,4200.512820512821,4326.666666666667,4801.538461538462
1868.9812,0.63755435,0.5452367,0.2848933,0.48954487,0,0.0,0.0,0.0,0.0,0.3768019,0,0,0.0,0.0,0,0,116.0,0.0,510.0,4637.435897435898,4116.410256410257,4464.102564102564,4647.6923076923085,4250.256410256411,4600.512820512821,4487.6923076923085,4459.48717948718,4505.128205128206,4767.6923076923085,4428.205128205129,4198.974358974359,4326.666666666667,4746.153846153847
1869.2313,0.7236182,0.55636966,0.289746,0.4958236,0,0.0,0.0,0.0,0.0,0.047684114,0,0,0.0,0.0,0,0,19.0,0.0,0.0,4598.461538461539,4061.0256410256416,4458.974358974359,4560.000000000001,4214.871794871796,4569.2307692307695,4431.282051282052,4421.025641025642,4487.179487179488,4732.307692307693,4370.769230769231,4232.307692307693,4311.282051282052,4705.128205128206
1869.4816,0.7236182,0.55636966,0.289746,0.4958236,0,0.0,0.0,0.0,0.0,1.0,0,0,0.0,0.0,0,0,51.0,0.0,0.0,4615.384615384616,3785.1282051282055,4571.794871794872,4299.48717948718,4187.6923076923085,4544.615384615385,4458.461538461539,4416.410256410257,4521.025641025642,4762.051282051282,4395.8974358974365,4341.538461538462,4342.564102564103,4855.384615384616
1869.7318,0.72165304,0.5663893,0.29411477,0.5014749,0,0.0,0.0,0.0,0.0,0.3858856,0,0,0.0,0.0,0,0,83.0,0.0,498.0,4608.717948717949,3694.8717948717954,4549.743589743591,4126.666666666667,4180.000000000001,4533.333333333334,4458.974358974359,4408.717948717949,4521.538461538462,4763.589743589744,4366.153846153847,4362.051282051282,4322.564102564103,4772.820512820514
1869.982,0.72165304,0.5663893,0.29411477,0.5014749,0,0.0,0.0,0.0,0.0,0.0,0,0,0.23751372,0.0,0,0,115.0,0.0,498.0,4573.333333333334,3782.0512820512827,4521.025641025642,4104.615384615385,4153.846153846154,4491.794871794872,4443.589743589744,4409.2307692307695,4488.205128205129,4736.923076923077,4318.974358974359,4320.512820512821,4277.948717948719,4598.974358974359
1870.2323,0.7719006,0.5909767,0.29804724,0.50656337,0,0.0,0.0,0.0,0.0,0.0,0,0,0.5014384,0.0,0,0,18.0,0.0,0.0,4600.000000000001,4005.1282051282055,4540.000000000001,4251.282051282052,4135.8974358974365,4468.205128205129,4401.538461538462,4359.48717948718,4424.615384615385,4669.743589743591,4283.076923076924,4297.435897435898,4180.000000000001,4507.179487179488
1870.4824,0.7719006,0.5909767,0.29804724,0.50656337,0,0.0,0.0,0.0,0.0,0.6687351,0,0,0.0,0.0,0,0,50.0,0.0,0.0,4557.948717948719,4014.358974358975,4523.589743589744,4400.000000000001,4184.615384615385,4505.128205128206,4432.820512820514,4364.615384615385,4311.794871794872,4588.717948717949,4282.051282051282,4248.205128205129,4020.0000000000005,4353.846153846154
1870.7327,0.72618234,0.6069676,0.3119061,0.5111416,0,0.0,0.0,0.0,0.0,0.28204456,0,0,0.0,0.0,0,0,82.0,0.0,534.0,4534.358974358975,3941.0256410256416,4461.025641025642,4506.666666666667,4283.076923076924,4571.794871794872,4478.461538461539,4422.564102564103,4273.846153846154,4622.051282051282,4406.153846153847,4162.051282051282,3988.717948717949,4334.358974358975
1870.9829,0.72618234,0.6069676,0.3119061,0.5111416,0,0.0,0.0,0.0,0.0,0.318686,0,0,0.0,0.0,0,1,114.0,0.0,534.0,4588.717948717949,3911.2820512820517,4410.769230769231,4597.948717948719,4328.205128205129,4620.000000000001,4489.743589743591,4459.48717948718,4294.358974358975,4676.923076923077,4475.384615384616,4033.8461538461543,4000.5128205128212,4414.871794871796
1871.2332,0.7909323,0.89732105,0.34073082,0.5098827,0,0.0,0.0,0.0,0.0,0.14020841,0,0,0.0,0.0,0,1,17.0,0.0,0.0,4551.282051282052,3830.2564102564106,4398.974358974359,4526.666666666667,4311.282051282052,4617.435897435898,4476.923076923077,4525.641025641026,4340.512820512821,4722.564102564103,4495.384615384616,3980.0000000000005,4056.9230769230776,4446.666666666667
1871.4833,0.7909323,0.89732105,0.34073082,0.5098827,0,0.0,0.0,0.0,0.0,0.08675751,0,0,0.0,0.0,0,0,49.0,0.0,0.0,4567.179487179488,3844.615384615385,4413.846153846154,4503.589743589744,4245.641025641026,4569.743589743591,4465.128205128206,4456.410256410257,4340.512820512821,4713.333333333334,4457.435897435898,4011.2820512820517,4103.589743589744,4461.538461538462
1871.7335,0.6895716,1.0,0.36667287,0.5013219,0,0.0,0.0,0.0,0.0,0.0,0,0,0.27339604,0.0,0,0,81.0,0.0,461.0,4562.051282051282,3908.717948717949,4417.948717948719,4474.871794871796,4200.000000000001,4538.461538461539,4427.6923076923085,4395.8974358974365,4348.717948717949,4703.589743589744,4402.564102564103,4061.538461538462,4141.025641025642,4476.410256410257
1871.9838,0.6895716,1.0,0.36667287,0.5013219,1,0.0,0.0,0.0,0.0,0.19936639,0,0,0.0,0.0,0,0,113.0,0.0,461.0,4613.333333333334,3958.461538461539,4472.820512820514,4465.128205128206,4123.076923076924,4466.666666666667,4402.051282051282,4353.333333333334,4349.743589743591,4691.282051282052,4325.128205128206,4136.923076923077,4168.717948717949,4535.384615384616
1872.234,0.5802582,1.0,0.39002004,0.489712,0,0.0,0.0,0.0,0.0,0.5460854,0,0,0.0,0.0,0,0,16.0,0.0,0.0,4620.512820512821,3958.9743589743593,4483.076923076924,4418.461538461539,4075.8974358974365,4427.6923076923085,4400.000000000001,4352.307692307693,4382.564102564103,4684.102564102564,4152.307692307693,4230.256410256411,4182.564102564103,4467.6923076923085
1872.4841,0.5802582,1.0,0.39002004,0.489712,0,0.0,0.0,0.0,0.0,0.646566,0,0,0.0,0.0,0,0,48.0,0.0,0.0,4610.256410256411,3989.7435897435903,4509.743589743591,4398.461538461539,4061.0256410256416,4421.538461538462,4378.461538461539,4321.538461538462,4394.871794871796,4661.538461538462,4071.7948717948725,4327.179487179487,4194.358974358975,4434.871794871796
1872.7344,0.5778864,1.0,0.41380808,0.47334167,0,0.0,0.0,0.0,0.0,0.10916524,0,0,0.0,0.0,0,0,80.0,0.0,510.0,4593.333333333334,3971.7948717948725,4537.435897435898,4366.153846153847,4056.9230769230776,4409.743589743591,4393.333333333334,4305.128205128206,4397.948717948719,4630.256410256411,4050.2564102564106,4381.025641025642,4189.2307692307695,4380.512820512821
1872.9846,0.5778864,1.0,0.41380808,0.47334167,0,0.0,0.0,0.0,0.0,0.27040416,0,0,0.0,0.0,0,0,112.0,0.0,510.0,4585.128205128206,3956.410256410257,4573.333333333334,4344.102564102564,4062.0512820512827,4408.717948717949,4403.589743589744,4317.435897435898,4414.871794871796,4641.538461538462,4090.2564102564106,4428.717948717949,4199.48717948718,4397.948717948719
1873.2349,0.5567743,1.0,0.42944863,0.45245007,0,0.0,0.0,0.0,0.0,0.16162816,0,0,0.0,0.0,0,0,15.0,0.0,506.0,4585.641025641026,3927.692307692308,4566.153846153847,4311.794871794872,4089.23076923077,4415.384615384616,4388.717948717949,4321.538461538462,4399.48717948718,4641.025641025642,4107.179487179487,4412.820512820514,4169.2307692307695,4370.256410256411
1873.485,0.5567743,1.0,0.42944863,0.45245007,0,0.0,0.0,0.0,0.0,0.0,0,0,0.0,0.0,0,0,47.0,0.0,0.0,4595.8974358974365,3925.6410256410263,4586.666666666667,4297.435897435898,4118.974358974359,4443.076923076924,4400.512820512821,4326.666666666667,4389.743589743591,4642.051282051282,4122.564102564103,4396.410256410257,4154.358974358975,4383.589743589744
1873.6101,0.5106676,1.0,0.43964157,0.4336546,0,0.0,0.0,0.0,0.0,0.0,0,0,0.0,0.0,0,0,63.0,0.0,0.0,4602.564102564103,3934.358974358975,4578.461538461539,4310.256410256411,4125.641025641026,4449.743589743591,4411.794871794872,4338.461538461539,4400.000000000001,4648.717948717949,4154.871794871796,4401.538461538462,4171.794871794872,4419.48717948718
1873.6101,0.5106676,1.0,0.43964157,0.4336546,0,0.0,0.0,0.0,0.0,0.0,0,0,0.0,0.0,0,0,63.0,0.0,0.0,4602.564102564103,3934.358974358975,4578.461538461539,4310.256410256411,4125.641025641026,4449.743589743591,4411.794871794872,4338.461538461539,4400.000000000001,4648.717948717949,4154.871794871796,4401.538461538462,4171.794871794872,4419.48717948718
1874.1106,0.5170302,1.0,0.44401702,0.4167475,0,0.0,0.0,0.0,0.0,0.0,0,0,0.0,0.0,0,0,127.0,0.0,510.0,4592.820512820514,3945.1282051282055,4572.820512820514,4341.538461538462,4172.820512820514,4493.333333333334,4436.923076923077,4330.769230769231,4404.102564102564,4678.461538461539,4215.384615384616,4364.615384615385,4168.717948717949,4601.025641025642
1874.4858,0.5170302,1.0,0.44401702,0.4167475,0,0.0,0.0,0.0,0.0,0.673787,0,0,0.0,0.0,0,0,46.0,0.0,0.0,4592.820512820514,3955.3846153846157,4551.794871794872,4369.743589743591,4186.153846153847,4504.102564102564,4427.6923076923085,4340.512820512821,4396.923076923077,4678.461538461539,4219.48717948718,4307.6923076923085,4134.358974358975,4564.615384615385
1874.7361,0.4794578,1.0,0.44132122,0.4044409,0,0.0,0.0,0.0,0.0,0.5657121,0,0,0.0,0.0,0,0,78.0,0.0,535.0,4589.743589743591,3955.8974358974365,4552.820512820514,4383.589743589744,4213.846153846154,4522.051282051282,4432.307692307693,4342.564102564103,4387.179487179487,4677.948717948719,4201.538461538462,4290.769230769231,4128.717948717949,4539.48717948718
1874.8612,0.4794578,1.0,0.44132122,0.4044409,0,0.0,0.0,0.0,0.0,0.0,0,0,0.0,0.0,0,0,94.0,0.0,535.0,4590.256410256411,3959.48717948718,4535.384615384616,4390.256410256411,4218.461538461539,4521.538461538462,4434.871794871796,4367.6923076923085,4401.538461538462,4693.846153846154,4228.205128205129,4301.538461538462,4151.794871794872,4541.538461538462
1875.1115,0.42218888,1.0,0.4391313,0.40017018,0,0.0,0.0,0.0,0.0,0.0,0,0,0.0,0.0,0,0,126.0,0.0,535.0,4578.974358974359,3924.1025641025644,4535.8974358974365,4364.615384615385,4217.948717948719,4523.076923076924,4433.333333333334,4359.48717948718,4391.794871794872,4687.6923076923085,4246.153846153847,4301.538461538462,4153.846153846154,4544.615384615385
1875.1115,0.42218888,1.0,0.4391313,0.40017018,0,0.0,0.0,0.0,0.0,0.0,0,0,0.0,0.0,0,0,126.0,0.0,535.0,4578.974358974359,3924.1025641025644,4535.8974358974365,4364.615384615385,4217.948717948719,4523.076923076924,4433.333333333334,4359.48717948718,4391.794871794872,4687.6923076923085,4246.153846153847,4301.538461538462,4153.846153846154,4544.615384615385
1875.6118,0.36697626,1.0,0.4336691,0.39830825,0,0.0,0.0,0.0,0.0,0.0,0,0,0.0,0.0,0,0,61.0,0.0,0.0,4597.435897435898,3953.8461538461543,4524.102564102564,4403.076923076924,4230.769230769231,4530.256410256411,4442.051282051282,4358.974358974359,4391.282051282052,4685.128205128206,4282.564102564103,4287.179487179487,4154.871794871796,4503.589743589744
1875.6118,0.36697626,1.0,0.4336691,0.39830825,0,0.0,0.0,0.0,0.0,0.0,0,0,0.0,0.0,0,0,61.0,0.0,0.0,4597.435897435898,3953.8461538461543,4524.102564102564,4403.076923076924,4230.769230769231,4530.256410256411,4442.051282051282,4358.974358974359,4391.282051282052,4685.128205128206,4282.564102564103,4287.179487179487,4154.871794871796,4503.589743589744
1876.2374,0.29879248,0.96107084,0.42539054,0.40305302,0,0.0,0.0,0.0,0.0,0.06575112,0,0,0.0,0.0,0,0,12.0,0.0,510.0,4590.769230769231,3941.538461538462,4521.025641025642,4427.179487179487,4232.307692307693,4531.282051282052,4449.2307692307695,4408.205128205129,4383.076923076924,4687.6923076923085,4277.948717948719,4265.641025641026,4170.769230769231,4457.948717948719
1876.4877,0.29879248,0.96107084,0.42539054,0.40305302,0,0.0,0.0,0.0,0.0,0.0,0,0,0.0,0.0,0,0,44.0,0.0,0.0,4575.384615384616,3912.820512820513,4521.025641025642,4406.153846153847,4252.307692307693,4541.538461538462,4446.666666666667,4404.615384615385,4391.794871794872,4678.461538461539,4293.846153846154,4247.6923076923085,4154.358974358975,4413.333333333334
1876.6127,0.29664087,0.8992707,0.41428936,0.40732503,0,0.0,0.0,0.0,0.0,0.0,0,0,0.0,0.0,0,0,60.0,0.0,0.0,4564.615384615385,3913.8461538461543,4535.8974358974365,4415.384615384616,4259.48717948718,4541.538461538462,4445.641025641026,4405.641025641026,4388.717948717949,4678.974358974359,4323.076923076924,4265.128205128206,4149.74358974359,4396.923076923077
1876.6127,0.29664087,0.8992707,0.41428936,0.40732503,0,0.0,0.0,0.0,0.0,0.0,0,0,0.0,0.0,0,0,60.0,0.0,0.0,4564.615384615385,3913.8461538461543,4535.8974358974365,4415.384615384616,4259.48717948718,4541.538461538462,4445.641025641026,4405.641025641026,4388.717948717949,4678.974358974359,4323.076923076924,4265.128205128206,4149.74358974359,4396.923076923077
1877.1132,0.27789503,0.8336132,0.40106422,0.41289943,0,0.0,0.0,0.0,0.0,0.0,0,0,0.0,0.0,0,0,124.0,0.0,510.0,4561.025641025642,3942.0512820512827,4540.000000000001,4460.000000000001,4280.000000000001,4570.769230769231,4474.358974358975,4309.743589743591,4171.794871794872,4493.846153846154,4256.923076923077,4087.1794871794878,3877.435897435898,4260.512820512821
1877.1132,0.27789503,0.8336132,0.40106422,0.41289943,0,0.0,0.0,0.0,0.0,0.0,0,0,0.0,0.0,0,0,124.0,0.0,510.0,4561.025641025642,3942.0512820512827,4540.000000000001,4460.000000000001,4280.000000000001,4570.769230769231,4474.358974358975,4309.743589743591,4171.794871794872,4493.846153846154,4256.923076923077,4087.1794871794878,3877.435897435898,4260.512820512821
1877.6135,0.39509746,0.7551285,0.3831239,0.43126836,0,0.0,0.0,0.0,0.0,1.0,0,0,0.0,0.0,0,0,59.0,0.0,0.0,4574.871794871796,3976.9230769230776,4551.794871794872,4508.205128205129,4295.384615384616,4586.153846153847,4475.8974358974365,4337.948717948719,4211.282051282052,4555.384615384616,4282.564102564103,4010.2564102564106,4004.1025641025644,4529.743589743591
1877.9889,0.39509746,0.7551285,0.3831239,0.43126836,0,0.0,0.0,0.0,0.0,0.7197785,0,0,0.0,0.0,0,0,107.0,0.0,510.0,4643.589743589744,3961.0256410256416,4555.384615384616,4494.871794871796,4273.846153846154,4569.2307692307695,4457.948717948719,4360.512820512821,4307.6923076923085,4661.538461538462,4357.948717948719,4084.615384615385,4135.8974358974365,4763.589743589744
1878.2391,0.36843118,0.6995311,0.3635567,0.45462382,0,0.0,0.0,0.0,0.0,0.0,0,0,0.0,0.0,0,0,10.0,0.0,535.0,4580.000000000001,4060.5128205128212,4491.794871794872,4507.179487179488,4264.102564102564,4554.358974358975,4427.179487179487,4335.384615384616,4337.948717948719,4869.2307692307695,4364.615384615385,4120.000000000001,4214.358974358975,4696.923076923077
1878.3955,0.36843118,0.6995311,0.3635567,0.45462382,1,0.0,0.0,0.0,0.0,0.0,0,0,0.0,0.0,0,0,30.0,0.0,0.0,4630.256410256411,4122.564102564103,4505.128205128206,4551.794871794872,4273.846153846154,4541.538461538462,4448.205128205129,4357.435897435898,4389.2307692307695,5063.076923076924,4397.948717948719,4193.333333333334,4300.512820512821,4772.307692307693
1878.7709,0.46432385,0.70758724,0.34594584,0.47573552,0,0.0,0.0,0.0,0.0,1.0,0,0,0.0,0.0,0,1,78.0,0.0,535.0,4594.871794871796,4065.1282051282055,4508.205128205129,4505.641025641026,4288.717948717949,4555.8974358974365,4467.6923076923085,4406.153846153847,4486.666666666667,5165.641025641026,4400.512820512821,4275.8974358974365,4347.179487179487,4776.410256410257
1878.9897,0.46432385,0.70758724,0.34594584,0.47573552,0,0.0,0.0,0.0,0.0,0.2994721,0,0,0.0,0.0,0,1,106.0,0.0,535.0,4542.564102564103,3982.0512820512827,4495.384615384616,4446.666666666667,4295.384615384616,4556.923076923077,4468.205128205129,4432.307692307693,4506.153846153847,5126.666666666667,4408.717948717949,4281.025641025642,4351.794871794872,4732.820512820514
1879.24,0.47410724,0.77270985,0.3300959,0.49473512,0,0.0,0.0,0.0,0.0,0.06766413,0,0,0.0,0.0,0,0,9.0,0.0,462.0,4509.743589743591,3957.9487179487182,4508.205128205129,4461.538461538462,4309.2307692307695,4575.384615384616,4475.384615384616,4472.820512820514,4428.717948717949,5028.717948717949,4430.256410256411,4325.128205128206,4316.410256410257,4686.666666666667
1879.4902,0.47410724,0.77270985,0.3300959,0.49473512,0,0.0,0.0,0.0,0.0,0.15345597,0,0,0.0,0.0,0,0,41.0,0.0,0.0,4495.8974358974365,3975.3846153846157,4554.871794871796,4540.000000000001,4407.179487179487,4661.538461538462,4519.48717948718,4539.48717948718,4429.2307692307695,5016.410256410257,4540.512820512821,4339.48717948718,4328.717948717949,4702.564102564103
1879.7404,0.5127423,0.84777516,0.31668815,0.51183456,0,0.0,0.0,0.0,0.0,0.108069316,0,0,0.0,0.0,0,0,73.0,0.0,462.0,4485.641025641026,3989.23076923077,4503.589743589744,4618.974358974359,4442.564102564103,4687.179487179488,4490.769230769231,4583.589743589744,4386.666666666667,4977.948717948719,4584.102564102564,4274.871794871796,4273.846153846154,4646.666666666667
1879.9906,0.5127423,0.84777516,0.31668815,0.51183456,0,0.0,0.0,0.0,0.0,0.080307655,0,0,0.0,0.0,0,0,105.0,0.0,461.0,4508.205128205129,3993.8461538461543,4436.923076923077,4670.256410256411,4413.846153846154,4684.615384615386,4480.000000000001,4620.000000000001,4414.358974358975,5004.615384615386,4646.153846153847,4264.102564102564,4325.128205128206,4723.589743589744
1880.2408,0.5112968,0.9154915,0.30520833,0.52400255,0,0.0,0.0,0.0,0.0,0.9791514,0,0,0.0,0.0,0,0,8.0,0.0,465.0,4510.256410256411,3978.461538461539,4390.256410256411,4642.564102564103,4351.282051282052,4648.717948717949,4460.512820512821,4572.307692307693,4427.6923076923085,4951.282051282052,4596.410256410257,4233.846153846154,4327.179487179487,4706.153846153847
1880.4911,0.5112968,0.9154915,0.30520833,0.52400255,0,0.0,0.0,0.0,0.0,0.3916212,0,0,0.0,0.0,0,0,40.0,0.0,0.0,4550.769230769231,3987.692307692308,4409.743589743591,4616.410256410257,4283.589743589744,4604.102564102564,4449.2307692307695,4585.641025641026,4442.564102564103,4871.282051282052,4525.128205128206,4242.564102564103,4308.205128205129,4703.589743589744
1880.7412,0.5967197,0.97643626,0.29556084,0.5260898,0,0.0,0.0,0.0,0.0,0.0,0,0,0.0,0.0,0,0,72.0,0.0,465.0,4539.48717948718,3875.8974358974365,4428.717948717949,4504.615384615385,4252.820512820514,4584.102564102564,4460.512820512821,4556.923076923077,4469.743589743591,4774.358974358975,4475.8974358974365,4264.615384615385,4330.769230769231,4745.641025641026
1880.9915,0.5967197,0.97643626,0.29556084,0.5260898,0,0.0,0.0,0.0,0.0,0.7543318,0,0,0.0,0.0,0,0,104.0,0.0,503.0,4549.743589743591,3892.820512820513,4490.769230769231,4459.48717948718,4217.435897435898,4553.846153846154,4475.384615384616,4524.615384615385,4493.333333333334,4766.153846153847,4445.641025641026,4328.205128205129,4353.846153846154,4853.333333333334
1881.2417,0.5424692,1.0,0.28928,0.5279686,0,0.0,0.0,0.0,0.0,0.27960086,0,0,0.0,0.0,0,0,7.0,0.0,455.0,4532.820512820514,3909.7435897435903,4503.589743589744,4433.333333333334,4185.641025641026,4523.076923076924,4471.282051282052,4501.025641025642,4526.153846153847,4762.051282051282,4427.6923076923085,4367.6923076923085,4388.205128205129,4860.000000000001
1881.492,0.5424692,1.0,0.28928,0.5279686,0,0.0,0.0,0.0,0.0,0.72137755,0,0,0.0,0.0,0,0,39.0,0.0,0.0,4533.333333333334,3911.7948717948725,4505.641025641026,4402.051282051282,4168.717948717949,4511.282051282052,4474.871794871796,4462.051282051282,4499.48717948718,4703.076923076924,4350.256410256411,4366.153846153847,4326.666666666667,4703.076923076924
1881.6171,0.5935736,1.0,0.28750384,0.5247043,0,0.0,0.0,0.0,0.0,1.0,0,0,0.0,0.0,0,0,55.0,0.0,0.0,4543.076923076924,3918.9743589743593,4521.538461538462,4388.205128205129,4160.512820512821,4507.179487179488,4465.128205128206,4443.589743589744,4496.410256410257,4690.256410256411,4328.717948717949,4374.871794871796,4304.102564102564,4676.410256410257
1881.6171,0.5935736,1.0,0.28750384,0.5247043,0,0.0,0.0,0.0,0.0,1.0,0,0,0.0,0.0,0,0,55.0,0.0,0.0,4543.076923076924,3918.9743589743593,4521.538461538462,4388.205128205129,4160.512820512821,4507.179487179488,4465.128205128206,4443.589743589744,4496.410256410257,4690.256410256411,4328.717948717949,4374.871794871796,4304.102564102564,4676.410256410257
1882.1174,0.5747489,1.0,0.29135835,0.52176684,0,0.0,0.0,0.0,0.0,1.0,0,0,0.0,0.0,0,0,119.0,0.0,496.0,4566.666666666667,3921.538461538462,4528.717948717949,4381.538461538462,4166.666666666667,4489.2307692307695,4436.923076923077,4405.641025641026,4462.051282051282,4700.000000000001,4283.076923076924,4356.923076923077,4243.589743589744,4458.974358974359
1882.4928,0.5747489,1.0,0.29135835,0.52176684,0,0.0,0.0,0.0,0.0,0.7543014,0,0,0.0,0.0,0,0,38.0,0.0,0.0,4646.153846153847,3944.1025641025644,4570.769230769231,4411.794871794872,4173.333333333334,4491.282051282052,4435.8974358974365,4401.025641025642,4430.769230769231,4685.641025641026,4278.461538461539,4362.051282051282,4208.717948717949,4475.8974358974365
1882.743,0.5147366,0.9829105,0.30502626,0.52482253,0,0.0,0.0,0.0,0.0,0.7417143,0,0,0.0,0.0,0,0,70.0,0.0,555.0,4611.282051282052,3894.8717948717954,4540.512820512821,4382.564102564103,4185.128205128206,4494.871794871796,4444.102564102564,4398.974358974359,4422.051282051282,4670.769230769231,4262.564102564103,4330.769230769231,4184.102564102564,4385.641025641026
1882.9932,0.5147366,0.9829105,0.30502626,0.52482253,0,0.0,0.0,0.0,0.0,0.28722453,0,0,0.0,0.0,0,0,102.0,0.0,535.0,4610.256410256411,3864.1025641025644,4536.410256410257,4368.205128205129,4200.512820512821,4505.128205128206,4455.8974358974365,4393.333333333334,4402.564102564103,4658.974358974359,4259.48717948718,4320.000000000001,4165.128205128206,4407.179487179487
1883.1183,0.5547509,0.99862206,0.31907368,0.5375857,0,0.0,0.0,0.0,0.0,0.0,0,0,0.0,0.0,0,0,118.0,0.0,535.0,4603.076923076924,3877.435897435898,4537.948717948719,4379.48717948718,4201.025641025642,4506.666666666667,4458.974358974359,4411.282051282052,4411.282051282052,4670.769230769231,4282.051282051282,4314.871794871796,4182.564102564103,4413.333333333334
1883.1183,0.5547509,0.99862206,0.31907368,0.5375857,0,0.0,0.0,0.0,0.0,0.0,0,0,0.0,0.0,0,0,118.0,0.0,535.0,4603.076923076924,3877.435897435898,4537.948717948719,4379.48717948718,4201.025641025642,4506.666666666667,4458.974358974359,4411.282051282052,4411.282051282052,4670.769230769231,4282.051282051282,4314.871794871796,4182.564102564103,4413.333333333334
1883.6188,0.49882913,1.0,0.33171654,0.5545412,0,0.0,0.0,0.0,0.0,0.0,0,0,0.0,0.0,0,0,53.0,0.0,0.0,4623.076923076924,3892.820512820513,4523.076923076924,4156.410256410257,4216.923076923077,4507.179487179488,4443.076923076924,4391.794871794872,4390.256410256411,4629.2307692307695,4280.000000000001,4299.48717948718,4155.384615384616,4472.820512820514
1883.994,0.49882913,1.0,0.33171654,0.5545412,0,0.0,0.0,0.0,0.0,0.0,0,0,0.0,0.0,0,0,101.0,0.0,464.0,4628.717948717949,3898.461538461539,4534.871794871796,4168.717948717949,4218.461538461539,4517.435897435898,4447.179487179487,4397.435897435898,4382.051282051282,4617.435897435898,4282.564102564103,4285.641025641026,4152.820512820514,4444.102564102564
1884.1504,0.5195514,1.0,0.34309655,0.56344837,0,0.0,0.0,0.0,0.0,0.0,0,0,0.0,0.0,0,0,121.0,0.0,464.0,4624.102564102564,3893.8461538461543,4526.666666666667,4187.179487179487,4228.205128205129,4522.051282051282,4453.333333333334,4396.923076923077,4385.641025641026,4618.974358974359,4283.589743589744,4285.128205128206,4148.205128205129,4440.512820512821
1884.4945,0.5195514,1.0,0.34309655,0.56344837,0,0.0,0.0,0.0,0.0,0.057912268,0,0,0.0,0.0,0,0,36.0,0.0,0.0,4586.153846153847,3867.1794871794878,4511.794871794872,4360.512820512821,4252.820512820514,4545.128205128206,4465.128205128206,4224.102564102564,4402.051282051282,4670.256410256411,4323.589743589744,4294.871794871796,4168.205128205129,4449.2307692307695
1884.7448,0.51367843,1.0,0.34515414,0.5714623,1,0.0,0.0,0.0,0.0,0.013824916,0,0,0.0,0.0,0,0,68.0,0.0,557.0,4686.153846153847,3993.8461538461543,4618.461538461539,4507.6923076923085,4342.051282051282,4635.384615384616,4555.8974358974365,4333.846153846154,4467.179487179487,4765.641025641026,4411.794871794872,4377.435897435898,4225.641025641026,4452.307692307693
1884.9949,0.51367843,1.0,0.34515414,0.5714623,0,0.0,0.0,0.0,0.0,0.42220142,0,0,0.0,0.0,0,0,100.0,0.0,514.0,4764.615384615386,4021.538461538462,4650.769230769231,4553.333333333334,4313.333333333334,4610.256410256411,4533.333333333334,4338.461538461539,4377.435897435898,4666.666666666667,4357.948717948719,4338.974358974359,4123.076923076924,4502.051282051282
1885.1514,0.5110611,1.0,0.34397188,0.57684433,0,0.0,0.0,0.0,0.0,1.0,0,0,0.0,0.0,0,0,120.0,0.0,514.0,4717.435897435898,3986.1538461538466,4603.076923076924,4529.2307692307695,4299.48717948718,4593.846153846154,4519.48717948718,4338.461538461539,4367.179487179487,4643.076923076924,4335.8974358974365,4290.769230769231,4095.3846153846157,4569.743589743591
1885.4954,0.5110611,1.0,0.34397188,0.57684433,0,0.0,0.0,0.0,0.0,0.7815786,0,0,0.0,0.0,0,0,35.0,0.0,0.0,4683.076923076924,3975.8974358974365,4572.820512820514,4526.153846153847,4292.820512820514,4586.666666666667,4509.2307692307695,4360.512820512821,4357.435897435898,4617.435897435898,4326.153846153847,4234.871794871796,4090.7692307692314,4603.076923076924
1885.7456,0.52495694,1.0,0.34290648,0.5743808,0,0.0,0.0,0.0,0.0,0.15111008,0,0,0.0,0.0,0,0,67.0,0.0,543.0,4664.102564102564,3948.717948717949,4536.410256410257,4520.000000000001,4291.794871794872,4570.256410256411,4476.923076923077,4353.846153846154,4333.846153846154,4614.358974358975,4315.8974358974365,4199.48717948718,4106.153846153847,4554.871794871796
1885.8707,0.52495694,1.0,0.34290648,0.5743808,0,0.0,0.0,0.0,0.0,0.0,0,0,0.0,0.0,0,0,83.0,0.0,506.0,4672.820512820514,3957.435897435898,4551.282051282052,4523.076923076924,4279.48717948718,4552.307692307693,4459.48717948718,4348.205128205129,4338.974358974359,4612.307692307693,4323.589743589744,4188.205128205129,4121.538461538462,4523.076923076924
1886.1208,0.46335083,1.0,0.34194747,0.57216334,0,0.0,0.0,0.0,0.0,0.0,0,0,0.0,0.0,0,0,115.0,0.0,506.0,4657.948717948719,3924.1025641025644,4520.000000000001,4504.102564102564,4278.461538461539,4556.410256410257,4460.512820512821,4364.102564102564,4371.794871794872,4652.307692307693,4342.051282051282,4184.615384615385,4177.948717948719,4501.025641025642
1886.4962,0.46335083,1.0,0.34194747,0.57216334,0,0.0,0.0,0.0,0.0,0.15318453,0,0,0.0,0.0,0,0,34.0,0.0,0.0,4707.6923076923085,3896.9230769230776,4527.179487179488,4472.820512820514,4264.615384615385,4540.000000000001,4457.948717948719,4411.282051282052,4413.846153846154,4696.923076923077,4356.923076923077,4204.615384615385,4218.974358974359,4508.717948717949
1886.7465,0.35949907,1.0,0.3410844,0.5701674,0,0.0,0.0,0.0,0.0,0.075026356,0,0,0.0,0.0,0,0,66.0,0.0,266.0,4680.512820512821,3893.8461538461543,4489.743589743591,4460.000000000001,4276.410256410257,4549.743589743591,4447.6923076923085,4420.512820512821,4418.461538461539,4708.205128205129,4352.820512820514,4172.307692307693,4238.461538461539,4496.923076923077
1886.8716,0.35949907,1.0,0.3410844,0.5701674,0,0.0,0.0,0.0,0.0,0.0,0,0,0.0,0.0,0,0,82.0,0.0,535.0,4666.153846153847,3875.8974358974365,4486.666666666667,4445.128205128206,4265.128205128206,4545.641025641026,4462.564102564103,4430.256410256411,4429.2307692307695,4711.282051282052,4347.6923076923085,4201.538461538462,4238.461538461539,4504.102564102564
1887.1217,0.3249394,1.0,0.34030768,0.5683708,0,0.0,0.0,0.0,0.0,0.0,0,0,0.0,0.0,0,0,114.0,0.0,535.0,4711.794871794872,3793.333333333334,4508.205128205129,4392.307692307693,4248.205128205129,4526.153846153847,4444.102564102564,4450.769230769231,4462.564102564103,4763.076923076924,4399.48717948718,4255.384615384616,4298.461538461539,4574.871794871796
1887.4971,0.3249394,1.0,0.34030768,0.5683708,0,0.0,0.0,0.0,0.0,0.4994839,0,0,0.0,0.0,0,0,33.0,0.0,0.0,4687.6923076923085,3832.307692307693,4504.615384615385,4404.102564102564,4246.153846153847,4525.128205128206,4440.000000000001,4446.666666666667,4400.000000000001,4783.076923076924,4385.641025641026,4268.717948717949,4277.948717948719,4607.179487179488
1887.6222,0.27244502,1.0,0.3396088,0.56675375,0,0.0,0.0,0.0,0.0,0.0,0,0,0.0,0.0,0,0,49.0,0.0,0.0,4674.358974358975,3830.7692307692314,4505.128205128206,4398.974358974359,4242.564102564103,4523.589743589744,4440.512820512821,4443.076923076924,4400.000000000001,4774.358974358975,4367.179487179487,4279.48717948718,4261.025641025642,4610.769230769231
1887.6222,0.27244502,1.0,0.3396088,0.56675375,0,0.0,0.0,0.0,0.0,0.0,0,0,0.0,0.0,0,0,49.0,0.0,0.0,4674.358974358975,3830.7692307692314,4505.128205128206,4398.974358974359,4242.564102564103,4523.589743589744,4440.512820512821,4443.076923076924,4400.000000000001,4774.358974358975,4367.179487179487,4279.48717948718,4261.025641025642,4610.769230769231
1888.2477,0.3597596,0.9803056,0.35427976,0.5628317,0,0.0,0.0,0.0,0.0,1.0,0,0,0.0,0.0,0,0,0.0,0.0,513.0,4621.538461538462,3843.076923076924,4503.076923076924,4386.153846153847,4247.6923076923085,4540.000000000001,4460.512820512821,4459.48717948718,4441.538461538462,4792.307692307693,4409.743589743591,4318.974358974359,4287.6923076923085,4567.6923076923085
1888.2477,0.3597596,0.9803056,0.35427976,0.5628317,0,0.0,0.0,0.0,0.0,1.0,0,0,0.0,0.0,0,0,0.0,0.0,513.0,4621.538461538462,3843.076923076924,4503.076923076924,4386.153846153847,4247.6923076923085,4540.000000000001,4460.512820512821,4459.48717948718,4441.538461538462,4792.307692307693,4409.743589743591,4318.974358974359,4287.6923076923085,4567.6923076923085
1888.7482,0.36095586,0.9217902,0.37723523,0.55930203,0,0.0,0.0,0.0,0.0,0.9504898,0,0,0.0,0.0,0,0,64.0,0.0,513.0,4706.153846153847,3904.615384615385,4552.307692307693,4434.871794871796,4233.333333333334,4520.512820512821,4436.923076923077,4414.871794871796,4386.153846153847,4698.974358974359,4330.769230769231,4294.358974358975,4188.205128205129,4521.025641025642
1888.9984,0.36095586,0.9217902,0.37723523,0.55930203,0,0.0,0.0,0.0,0.0,0.8014112,0,0,0.0,0.0,0,0,96.0,0.0,514.0,4655.8974358974365,3862.564102564103,4517.435897435898,4412.820512820514,4234.358974358975,4518.974358974359,4442.051282051282,4434.358974358975,4406.666666666667,4710.769230769231,4320.000000000001,4281.025641025642,4182.051282051282,4443.076923076924
1889.2485,0.3511385,0.8939098,0.39789423,0.5507222,0,0.0,0.0,0.0,0.0,0.2504749,0,0,0.0,0.0,0,0,128.0,0.0,514.0,4627.179487179488,3847.692307692308,4503.589743589744,4378.461538461539,4238.974358974359,4520.512820512821,4428.205128205129,4411.282051282052,4397.435897435898,4711.794871794872,4330.256410256411,4267.6923076923085,4197.948717948719,4454.358974358975
1889.4988,0.3511385,0.8939098,0.39789423,0.5507222,0,0.0,0.0,0.0,0.0,0.31981128,0,0,0.0,0.0,0,0,31.0,0.0,0.0,4613.333333333334,3842.0512820512827,4496.410256410257,4378.974358974359,4232.307692307693,4523.589743589744,4444.102564102564,4409.743589743591,4410.769230769231,4718.461538461539,4348.717948717949,4276.923076923077,4201.538461538462,4490.769230769231
1889.749,0.33056673,0.8448066,0.41648588,0.5430003,0,0.0,0.0,0.0,0.0,0.38651118,0,0,0.0,0.0,0,0,63.0,0.0,0.0,4630.256410256411,3860.0000000000005,4509.743589743591,4384.615384615385,4230.256410256411,4515.8974358974365,4434.358974358975,4395.8974358974365,4383.076923076924,4669.743589743591,4308.205128205129,4262.564102564103,4149.74358974359,4536.923076923077
1889.9993,0.33056673,0.8448066,0.41648588,0.5430003,0,0.0,0.0,0.0,0.0,0.91079545,0,0,0.0,0.0,0,0,95.0,0.0,506.0,4615.8974358974365,3856.9230769230776,4526.666666666667,4396.410256410257,4237.435897435898,4524.102564102564,4449.743589743591,4424.615384615385,4412.820512820514,4736.410256410257,4357.948717948719,4268.717948717949,4170.769230769231,4596.923076923077
1890.2494,0.29847336,0.8833273,0.42335644,0.54068255,0,0.0,0.0,0.0,0.0,0.36099878,0,0,0.0,0.0,0,0,127.0,0.0,506.0,4606.153846153847,3863.076923076924,4542.051282051282,4428.205128205129,4273.846153846154,4545.641025641026,4443.076923076924,4410.256410256411,4320.000000000001,4654.871794871796,4353.846153846154,4232.307692307693,4048.205128205129,4503.076923076924
1890.4996,0.29847336,0.8833273,0.42335644,0.54068255,0,0.0,0.0,0.0,0.0,0.0,0,0,0.0,0.0,0,0,30.0,0.0,0.0,4594.358974358975,3848.205128205129,4556.410256410257,4491.794871794872,4332.820512820514,4586.153846153847,4459.48717948718,4396.410256410257,4201.538461538462,4555.8974358974365,4376.410256410257,4116.923076923077,3932.307692307693,4427.6923076923085
1890.6248,0.3173883,0.9022188,0.42778918,0.53859675,0,0.0,0.0,0.0,0.0,0.0,0,0,0.0,0.0,0,0,46.0,0.0,0.0,4589.743589743591,3841.0256410256416,4523.589743589744,4527.6923076923085,4370.769230769231,4616.410256410257,4474.871794871796,4423.589743589744,4205.128205128206,4556.410256410257,4430.769230769231,4062.0512820512827,3955.8974358974365,4442.051282051282
1890.6248,0.3173883,0.9022188,0.42778918,0.53859675,0,0.0,0.0,0.0,0.0,0.0,0,0,0.0,0.0,0,0,46.0,0.0,0.0,4589.743589743591,3841.0256410256416,4523.589743589744,4527.6923076923085,4370.769230769231,4616.410256410257,4474.871794871796,4423.589743589744,4205.128205128206,4556.410256410257,4430.769230769231,4062.0512820512827,3955.8974358974365,4442.051282051282
1891.1252,0.39624947,0.87137824,0.4317266,0.5337825,0,0.0,0.0,0.0,0.0,0.0,0,0,0.0,0.0,0,0,110.0,0.0,535.0,4608.205128205129,3896.410256410257,4363.589743589744,4626.153846153847,4361.025641025642,4629.743589743591,4479.48717948718,4489.743589743591,4266.153846153847,4678.974358974359,4540.000000000001,3972.820512820513,4090.2564102564106,4542.564102564103
1891.1252,0.39624947,0.87137824,0.4317266,0.5337825,0,0.0,0.0,0.0,0.0,0.0,0,0,0.0,0.0,0,0,110.0,0.0,535.0,4608.205128205129,3896.410256410257,4363.589743589744,4626.153846153847,4361.025641025642,4629.743589743591,4479.48717948718,4489.743589743591,4266.153846153847,4678.974358974359,4540.000000000001,3972.820512820513,4090.2564102564106,4542.564102564103
1891.6256,0.38546917,0.83731306,0.43031523,0.52217287,0,0.0,0.0,0.0,0.0,0.0,0,0,0.0,0.0,0,0,45.0,0.0,0.0,4576.923076923077,3925.1282051282055,4365.128205128206,4560.512820512821,4263.076923076924,4571.794871794872,4457.948717948719,4477.435897435898,4382.564102564103,4751.794871794872,4509.2307692307695,4072.307692307693,4232.307692307693,4607.179487179488
1891.6256,0.38546917,0.83731306,0.43031523,0.52217287,0,0.0,0.0,0.0,0.0,0.0,0,0,0.0,0.0,0,0,45.0,0.0,0.0,4576.923076923077,3925.1282051282055,4365.128205128206,4560.512820512821,4263.076923076924,4571.794871794872,4457.948717948719,4477.435897435898,4382.564102564103,4751.794871794872,4509.2307692307695,4072.307692307693,4232.307692307693,4607.179487179488
1892.1261,0.33877906,0.8073821,0.42842343,0.5087145,0,0.0,0.0,0.0,0.0,0.0,0,0,0.0,0.0,0,0,109.0,0.0,464.0,4592.820512820514,3940.0000000000005,4443.589743589744,4475.8974358974365,4188.717948717949,4522.051282051282,4445.128205128206,4460.000000000001,4493.333333333334,4797.948717948719,4431.282051282052,4243.076923076924,4345.641025641026,4660.000000000001
1892.1261,0.33877906,0.8073821,0.42842343,0.5087145,0,0.0,0.0,0.0,0.0,0.0,0,0,0.0,0.0,0,0,109.0,0.0,464.0,4592.820512820514,3940.0000000000005,4443.589743589744,4475.8974358974365,4188.717948717949,4522.051282051282,4445.128205128206,4460.000000000001,4493.333333333334,4797.948717948719,4431.282051282052,4243.076923076924,4345.641025641026,4660.000000000001
1892.7203,0.35509923,0.77693164,0.42933428,0.493364,1,0.0,0.0,0.0,0.0,0.0,0,0,0.0,0.0,0,0,56.0,0.0,0.0,4672.820512820514,3997.435897435898,4610.256410256411,4443.076923076924,4203.076923076924,4530.769230769231,4463.589743589744,4463.076923076924,4573.846153846154,4831.282051282052,4369.743589743591,4462.564102564103,4368.717948717949,4661.025641025642
1893.0018,0.35509923,0.77693164,0.42933428,0.493364,0,0.0,0.0,0.0,0.0,0.5358363,0,0,0.0,0.0,0,0,92.0,0.0,508.0,4644.615384615385,3961.538461538462,4606.153846153847,4396.410256410257,4202.051282051282,4537.435897435898,4459.48717948718,4456.923076923077,4568.205128205129,4818.461538461539,4343.589743589744,4459.48717948718,4346.666666666667,4605.641025641026
1893.2521,0.410475,0.7863777,0.4301525,0.47307932,0,0.0,0.0,0.0,0.0,0.097515725,0,0,0.0,0.0,0,0,124.0,0.0,508.0,4606.666666666667,3938.9743589743593,4576.923076923077,4370.769230769231,4202.564102564103,4524.102564102564,4438.461538461539,4449.743589743591,4530.769230769231,4785.128205128206,4315.384615384616,4440.000000000001,4296.410256410257,4567.6923076923085
1893.3771,0.410475,0.7863777,0.4301525,0.47307932,0,0.0,0.0,0.0,0.0,0.0,0,0,0.0,0.0,0,0,11.0,0.0,503.0,4650.256410256411,3964.1025641025644,4601.025641025642,4397.435897435898,4191.282051282052,4508.717948717949,4422.051282051282,3463.589743589744,4497.435897435898,4749.743589743591,4298.461538461539,4447.6923076923085,4271.282051282052,4569.743589743591
1893.6586,0.4751727,0.8839442,0.42813662,0.4548095,0,0.0,0.0,0.0,0.0,0.0,0,0,0.0,0.0,0,0,47.0,0.0,0.0,4650.769230769231,3942.564102564103,4586.153846153847,4372.820512820514,4229.2307692307695,4523.076923076924,4433.846153846154,3581.538461538462,4515.384615384616,4783.076923076924,4330.256410256411,4437.948717948719,4285.128205128206,4577.435897435898
1894.0027,0.4751727,0.8839442,0.42813662,0.4548095,0,0.0,0.0,0.0,0.0,0.0032857885,0,0,0.0,0.0,0,0,91.0,0.0,503.0,4642.564102564103,3944.1025641025644,4551.794871794872,4371.282051282052,4225.641025641026,4506.666666666667,4427.6923076923085,3678.9743589743593,4447.179487179487,4714.871794871796,4292.307692307693,4382.564102564103,4216.923076923077,4486.666666666667
1894.2529,0.41553035,0.9733619,0.42167833,0.44520688,0,0.0,0.0,0.0,0.0036620633,0.0,0,0,0.0,0.0,0,0,123.0,0.0,503.0,4625.128205128206,3942.564102564103,4556.923076923077,4382.564102564103,4229.2307692307695,4519.48717948718,4457.948717948719,3814.358974358975,4444.615384615385,4720.512820512821,4293.846153846154,4376.410256410257,4216.410256410257,4462.564102564103
1894.503,0.41553035,0.9733619,0.42167833,0.44520688,0,0.0,0.0,0.0,0.0018603533,0.0,0,0,0.0,0.0,0,0,26.0,0.0,0.0,4594.871794871796,3912.307692307693,4536.410256410257,4377.435897435898,4232.820512820514,4523.589743589744,4446.666666666667,4013.333333333334,4461.025641025642,4756.923076923077,4317.948717948719,4378.974358974359,4234.871794871796,4497.948717948719
1894.7533,0.45479274,1.0,0.41300836,0.44463834,0,0.0,0.0,0.0,0.001696857,0.0,0,0,0.0,0.0,0,0,58.0,0.0,0.0,4579.48717948718,3893.8461538461543,4523.589743589744,4367.179487179487,4217.435897435898,4512.820512820514,4447.179487179487,4134.871794871796,4424.615384615385,4748.717948717949,4304.615384615385,4354.358974358975,4196.923076923077,4490.256410256411
1895.0035,0.45479274,1.0,0.41300836,0.44463834,0,0.0,0.0,0.0,0.0020272294,0.0,0,0,0.0,0.0,0,0,90.0,0.0,536.0,4587.179487179488,3901.538461538462,4537.435897435898,4380.512820512821,4216.923076923077,4507.6923076923085,4447.6923076923085,4278.974358974359,4429.743589743591,4768.205128205129,4313.846153846154,4351.794871794872,4198.974358974359,4461.025641025642
1895.2538,0.3999345,0.98769873,0.4050289,0.45541775,0,0.0,0.0,0.0,0.010842198,0.0,0,0,0.0,0.0,0,0,122.0,0.0,536.0,4566.666666666667,3874.8717948717954,4523.589743589744,4378.974358974359,4248.205128205129,4523.076923076924,4458.461538461539,4411.282051282052,4444.615384615385,4766.666666666667,4344.615384615385,4342.564102564103,4193.846153846154,4428.717948717949
1895.5039,0.3999345,0.98769873,0.4050289,0.45541775,0,0.0,0.0,0.0,0.0,0.0043734624,0,0,0.0,0.0,0,0,25.0,0.0,0.0,4547.179487179488,3868.717948717949,4523.589743589744,4408.717948717949,4266.666666666667,4542.051282051282,4466.153846153847,4477.435897435898,4369.743589743591,4682.564102564103,4337.948717948719,4280.000000000001,4087.1794871794878,4387.179487179487
1895.7542,0.3557972,0.94324744,0.3978465,0.46511906,0,0.0,0.0,0.0,0.0,0.0,0,0,0.0,0.0,0,0,57.0,0.0,0.0,4540.000000000001,3864.615384615385,4537.435897435898,4461.538461538462,4307.6923076923085,4562.564102564103,4473.846153846154,4512.307692307693,4247.6923076923085,4570.769230769231,4350.256410256411,4088.717948717949,3954.358974358975,4356.410256410257
1895.7542,0.3557972,0.94324744,0.3978465,0.46511906,0,0.0,0.0,0.0,0.0,0.0,0,0,0.0,0.0,0,0,57.0,0.0,0.0,4540.000000000001,3864.615384615385,4537.435897435898,4461.538461538462,4307.6923076923085,4562.564102564103,4473.846153846154,4512.307692307693,4247.6923076923085,4570.769230769231,4350.256410256411,4088.717948717949,3954.358974358975,4356.410256410257
1896.1295,0.42897666,0.90355873,0.3913815,0.47385028,0,0.0,0.0,0.0,0.0,0.0,0,0,0.0,0.0,0,0,105.0,0.0,462.0,4556.923076923077,3853.333333333334,4418.974358974359,4537.435897435898,4365.128205128206,4612.820512820514,4495.384615384616,4600.000000000001,4220.512820512821,4604.615384615385,4449.743589743591,3935.8974358974365,3978.9743589743593,4441.025641025642
1896.1295,0.42897666,0.90355873,0.3913815,0.47385028,0,0.0,0.0,0.0,0.0,0.0,0,0,0.0,0.0,0,0,105.0,0.0,462.0,4556.923076923077,3853.333333333334,4418.974358974359,4537.435897435898,4365.128205128206,4612.820512820514,4495.384615384616,4600.000000000001,4220.512820512821,4604.615384615385,4449.743589743591,3935.8974358974365,3978.9743589743593,4441.025641025642
1896.6299,0.48929706,0.8678389,0.38556224,0.481706,0,0.0,0.0,0.0,0.0,0.0,0,0,0.0,0.0,0,0,40.0,0.0,0.0,4662.564102564103,3927.1794871794878,4412.307692307693,4554.871794871796,4326.666666666667,4604.615384615385,4477.435897435898,4636.923076923077,4342.051282051282,4725.128205128206,4513.333333333334,4047.1794871794878,4162.051282051282,4603.589743589744
1896.6299,0.48929706,0.8678389,0.38556224,0.481706,0,0.0,0.0,0.0,0.0,0.0,0,0,0.0,0.0,0,0,40.0,0.0,0.0,4662.564102564103,3927.1794871794878,4412.307692307693,4554.871794871796,4326.666666666667,4604.615384615385,4477.435897435898,4636.923076923077,4342.051282051282,4725.128205128206,4513.333333333334,4047.1794871794878,4162.051282051282,4603.589743589744
1897.1304,0.504342,0.8356911,0.3803242,0.48436072,0,0.0,0.0,0.0,0.0,0.0,0,0,0.0,0.0,0,0,104.0,0.0,509.0,4686.666666666667,3945.1282051282055,4459.48717948718,4477.948717948719,4232.820512820514,4540.512820512821,4474.358974358975,4765.641025641026,4428.717948717949,4758.974358974359,4433.846153846154,4223.589743589744,4235.384615384616,4722.564102564103
1897.5057,0.504342,0.8356911,0.3803242,0.48436072,0,0.0,0.0,0.0,0.0,0.0063252826,0,0,0.0,0.0,0,0,23.0,0.0,0.0,4699.48717948718,3924.1025641025644,4519.48717948718,4394.871794871796,4172.307692307693,4507.179487179488,4445.128205128206,4714.358974358975,4470.769230769231,4765.128205128206,4364.102564102564,4372.307692307693,4308.717948717949,4706.153846153847
1897.7559,0.56620175,0.806758,0.3716377,0.48135856,0,0.0,0.0,0.0,0.0,0.006695642,0,0,0.0,0.0,0,0,55.0,0.0,0.0,4707.6923076923085,3924.615384615385,4526.153846153847,4368.717948717949,4155.384615384616,4500.512820512821,4440.512820512821,4683.589743589744,4506.153846153847,4786.666666666667,4350.769230769231,4455.384615384616,4331.282051282052,4731.794871794872
1898.0061,0.56620175,0.806758,0.3716377,0.48135856,0,0.0,0.0,0.0,0.0,0.014522683,0,0,0.0,0.0,0,0,87.0,0.0,504.0,4713.333333333334,3944.1025641025644,4554.358974358975,4372.307692307693,4169.2307692307695,4494.871794871796,4443.589743589744,4662.564102564103,4505.128205128206,4786.666666666667,4329.743589743591,4485.128205128206,4337.435897435898,4717.948717948719
1898.1312,0.60664284,0.81300825,0.36382034,0.47865805,0,0.0,0.0,0.0,0.0,0.0,0,0,0.0,0.0,0,0,103.0,0.0,504.0,4710.769230769231,3946.1538461538466,4584.102564102564,4377.435897435898,4171.794871794872,4503.076923076924,4444.615384615385,4702.564102564103,4509.2307692307695,4799.48717948718,4332.820512820514,4501.538461538462,4329.2307692307695,4683.589743589744
1898.5066,0.60664284,0.81300825,0.36382034,0.47865805,0,0.0,0.0,0.0,0.0,0.54599416,0,0,0.0,0.0,0,0,22.0,0.0,0.0,4730.256410256411,3945.1282051282055,4589.2307692307695,4379.48717948718,4173.333333333334,4496.923076923077,4458.974358974359,4698.974358974359,4494.358974358975,4781.025641025642,4316.923076923077,4488.205128205129,4291.282051282052,4535.8974358974365
1898.7567,0.6177001,0.79534256,0.3587649,0.47622913,0,0.0,0.0,0.0,0.0,0.25254375,0,0,0.0,0.0,0,0,54.0,0.0,0.0,4724.615384615386,3936.9230769230776,4576.923076923077,4375.384615384616,4188.717948717949,4505.641025641026,4455.384615384616,4660.512820512821,4471.794871794872,4763.076923076924,4304.102564102564,4461.025641025642,4254.358974358975,4492.307692307693
1899.007,0.6177001,0.79534256,0.3587649,0.47622913,0,0.0,0.0,0.0,0.0,0.034428786,0,0,0.0,0.0,0,0,86.0,0.0,536.0,4729.2307692307695,3968.717948717949,4552.820512820514,4412.307692307693,4213.333333333334,4506.153846153847,4433.846153846154,4778.974358974359,4442.051282051282,4749.743589743591,4281.538461538462,4404.102564102564,4212.307692307693,4420.512820512821
1899.2572,0.5530984,0.76037353,0.35224107,0.4761762,0,0.0,0.0,0.0,0.0,0.012369923,0,0,0.0,0.0,0,0,118.0,0.0,536.0,4702.051282051282,3940.5128205128212,4550.769230769231,4394.871794871796,4231.794871794872,4517.948717948719,4445.128205128206,4716.923076923077,4431.794871794872,4749.743589743591,4281.025641025642,4382.564102564103,4200.000000000001,4414.358974358975
1899.5074,0.5530984,0.76037353,0.35224107,0.4761762,0,0.0,0.0,0.0,0.0,0.07482096,0,0,0.0,0.0,0,0,21.0,0.0,0.0,4666.153846153847,3910.7692307692314,4535.8974358974365,4383.589743589744,4232.820512820514,4521.538461538462,4458.461538461539,4695.384615384616,4449.743589743591,4772.307692307693,4310.769230769231,4381.538461538462,4217.435897435898,4442.564102564103
1899.7576,0.5326142,0.72032106,0.35034785,0.48045182,0,0.0,0.0,0.0,0.0,0.21385625,0,0,0.0,0.0,0,0,53.0,0.0,0.0,4668.205128205129,3910.2564102564106,4547.179487179488,4396.923076923077,4243.589743589744,4524.615384615385,4458.974358974359,4658.974358974359,4446.666666666667,4774.871794871796,4335.384615384616,4384.102564102564,4217.435897435898,4408.717948717949
1900.0078,0.5326142,0.72032106,0.35034785,0.48045182,0,0.0,0.0,0.0,0.0,0.15531987,0,0,0.0,0.0,0,0,85.0,0.0,460.0,4654.358974358975,3879.48717948718,4526.666666666667,4382.051282051282,4232.820512820514,4523.076923076924,4463.076923076924,4616.410256410257,4444.102564102564,4755.8974358974365,4339.48717948718,4373.333333333334,4208.205128205129,4423.589743589744
1900.258,0.4612323,0.6729046,0.34864393,0.48754293,0,0.0,0.0,0.0,0.0,0.086470485,0,0,0.0,0.0,0,0,117.0,0.0,460.0,4616.410256410257,3868.717948717949,4520.000000000001,4375.8974358974365,4233.333333333334,4520.000000000001,4460.512820512821,4585.128205128206,4429.743589743591,4748.205128205129,4340.512820512821,4351.794871794872,4211.794871794872,4388.717948717949
1900.5083,0.4612323,0.6729046,0.34864393,0.48754293,0,0.0,0.0,0.0,0.0,0.11388902,0,0,0.0,0.0,0,0,20.0,0.0,0.0,4622.564102564103,3874.8717948717954,4521.025641025642,4379.48717948718,4247.179487179487,4536.923076923077,4473.333333333334,4556.923076923077,4428.717948717949,4753.333333333334,4362.051282051282,4344.615384615385,4217.948717948719,4415.8974358974365
1900.7584,0.43174154,0.6286339,0.3471107,0.4940221,0,0.0,0.0,0.0,0.0,0.0,0,0,0.0,0.0,0,0,52.0,0.0,0.0,4641.538461538462,3891.7948717948725,4521.538461538462,4394.871794871796,4248.205128205129,4523.076923076924,4444.102564102564,4536.923076923077,4404.615384615385,4727.179487179488,4341.538461538462,4311.282051282052,4188.717948717949,4426.666666666667
1900.7584,0.43174154,0.6286339,0.3471107,0.4940221,0,0.0,0.0,0.0,0.0,0.0,0,0,0.0,0.0,0,0,52.0,0.0,0.0,4641.538461538462,3891.7948717948725,4521.538461538462,4394.871794871796,4248.205128205129,4523.076923076924,4444.102564102564,4536.923076923077,4404.615384615385,4727.179487179488,4341.538461538462,4311.282051282052,4188.717948717949,4426.666666666667
1901.2589,0.41013813,0.5901466,0.34573007,0.4998538,0,0.0,0.0,0.0,0.0,0.040636007,0,0,0.0,0.0,0,0,116.0,0.0,509.0,4628.717948717949,3875.3846153846157,4510.769230769231,4381.538461538462,4235.384615384616,4522.564102564103,4449.2307692307695,4506.666666666667,4402.051282051282,4738.974358974359,4341.538461538462,4285.128205128206,4186.666666666667,4429.2307692307695
1901.384,0.41013813,0.5901466,0.34573007,0.4998538,0,0.0,0.0,0.0,0.0,0.0,0,0,0.0,0.0,0,0,3.0,0.0,543.0,4613.333333333334,3870.7692307692314,4508.717948717949,4365.641025641026,4230.256410256411,4522.564102564103,4458.974358974359,4538.461538461539,4428.205128205129,4765.128205128206,4348.205128205129,4297.948717948719,4202.051282051282,4432.307692307693
1901.7593,0.38545325,0.5874439,0.34448713,0.50510275,0,0.0,0.0,0.0,0.0,0.5322481,0,0,0.0,0.0,0,0,51.0,0.0,0.0,4735.384615384616,3921.0256410256416,4520.000000000001,4396.923076923077,4231.794871794872,4522.564102564103,4443.076923076924,4464.102564102564,4367.6923076923085,4720.000000000001,4309.2307692307695,4243.076923076924,4125.128205128206,4411.282051282052
1902.0095,0.38545325,0.5874439,0.34448713,0.50510275,0,0.0,0.0,0.0,0.0,0.1393406,0,0,0.0,0.0,0,0,83.0,0.0,508.0,4745.128205128206,3941.538461538462,4537.435897435898,4427.179487179487,4251.282051282052,4535.384615384616,4454.871794871796,4457.435897435898,4365.128205128206,4709.743589743591,4326.153846153847,4234.358974358975,4118.974358974359,4447.6923076923085
1902.2598,0.3378998,0.6144943,0.34205562,0.507544,0,0.0,0.0,0.0,0.0,0.17441611,0,0,0.0,0.0,0,0,115.0,0.0,508.0,4726.153846153847,3942.0512820512827,4525.128205128206,4430.256410256411,4250.256410256411,4525.641025641026,4454.871794871796,4424.615384615385,4352.307692307693,4701.025641025642,4323.589743589744,4219.48717948718,4132.820512820514,4484.615384615385
1902.51,0.3378998,0.6144943,0.34205562,0.507544,0,0.0,0.0,0.0,0.0,0.25692782,0,0,0.0,0.0,0,0,18.0,0.0,0.0,4708.717948717949,3914.8717948717954,4522.564102564103,4431.282051282052,4265.641025641026,4538.461538461539,4449.2307692307695,4428.717948717949,4365.128205128206,4708.717948717949,4335.8974358974365,4216.410256410257,4124.102564102564,4489.743589743591
1902.6351,0.34713244,0.6344186,0.33986738,0.5071172,0,0.0,0.0,0.0,0.0,0.0,0,0,0.0,0.0,0,0,34.0,0.0,0.0,4714.871794871796,3926.1538461538466,4528.717948717949,4441.025641025642,4263.076923076924,4535.384615384616,4457.435897435898,4425.128205128206,4366.666666666667,4698.974358974359,4327.6923076923085,4197.948717948719,4134.871794871796,4484.102564102564
1902.6351,0.34713244,0.6344186,0.33986738,0.5071172,0,0.0,0.0,0.0,0.0,0.0,0,0,0.0,0.0,0,0,34.0,0.0,0.0,4714.871794871796,3926.1538461538466,4528.717948717949,4441.025641025642,4263.076923076924,4535.384615384616,4457.435897435898,4425.128205128206,4366.666666666667,4698.974358974359,4327.6923076923085,4197.948717948719,4134.871794871796,4484.102564102564
1903.1355,0.31407908,0.63253367,0.33789808,0.5067337,0,0.0,0.0,0.0,0.0,0.0,0,0,0.0,0.0,0,0,98.0,0.0,536.0,4682.564102564103,3930.2564102564106,4528.205128205129,4445.641025641026,4265.641025641026,4540.512820512821,4475.384615384616,4466.153846153847,4431.794871794872,4755.8974358974365,4402.051282051282,4253.846153846154,4232.820512820514,4541.025641025642
1903.1355,0.31407908,0.63253367,0.33789808,0.5067337,0,0.0,0.0,0.0,0.0,0.0,0,0,0.0,0.0,0,0,98.0,0.0,536.0,4682.564102564103,3930.2564102564106,4528.205128205129,4445.641025641026,4265.641025641026,4540.512820512821,4475.384615384616,4466.153846153847,4431.794871794872,4755.8974358974365,4402.051282051282,4253.846153846154,4232.820512820514,4541.025641025642
1903.636,0.29953843,0.6109988,0.33641613,0.50619006,0,0.0,0.0,0.0,0.0,0.0,0,0,0.0,0.0,0,0,33.0,0.0,0.0,4704.102564102564,3915.3846153846157,4491.794871794872,4409.743589743591,4258.974358974359,4534.358974358975,4445.128205128206,4428.717948717949,4392.820512820514,4728.205128205129,4356.410256410257,4221.538461538462,4196.923076923077,4507.6923076923085
1903.636,0.29953843,0.6109988,0.33641613,0.50619006,0,0.0,0.0,0.0,0.0,0.0,0,0,0.0,0.0,0,0,33.0,0.0,0.0,4704.102564102564,3915.3846153846157,4491.794871794872,4409.743589743591,4258.974358974359,4534.358974358975,4445.128205128206,4428.717948717949,4392.820512820514,4728.205128205129,4356.410256410257,4221.538461538462,4196.923076923077,4507.6923076923085
1904.1364,0.24899393,0.5917549,0.33541548,0.504835,0,0.0,0.0,0.0,0.0,0.0,0,0,0.0,0.0,0,0,97.0,0.0,460.0,4726.153846153847,3962.564102564103,4536.923076923077,4445.128205128206,4291.282051282052,4566.666666666667,4477.948717948719,4458.974358974359,4421.538461538462,4750.256410256411,4369.2307692307695,4245.128205128206,4190.769230769231,4506.153846153847
1904.1364,0.24899393,0.5917549,0.33541548,0.504835,0,0.0,0.0,0.0,0.0,0.0,0,0,0.0,0.0,0,0,97.0,0.0,460.0,4726.153846153847,3962.564102564103,4536.923076923077,4445.128205128206,4291.282051282052,4566.666666666667,4477.948717948719,4458.974358974359,4421.538461538462,4750.256410256411,4369.2307692307695,4245.128205128206,4190.769230769231,4506.153846153847
1904.6368,0.1971602,0.5787599,0.33451492,0.50448275,0,0.0,0.0,0.0,0.0,0.0,0,0,0.0,0.0,0,0,32.0,0.0,0.0,4697.435897435898,3954.358974358975,4520.512820512821,4444.102564102564,4287.6923076923085,4564.615384615385,4478.974358974359,4447.179487179487,4411.794871794872,4725.641025641026,4362.564102564103,4223.589743589744,4185.128205128206,4527.6923076923085
1904.6368,0.1971602,0.5787599,0.33451492,0.50448275,0,0.0,0.0,0.0,0.0,0.0,0,0,0.0,0.0,0,0,32.0,0.0,0.0,4697.435897435898,3954.358974358975,4520.512820512821,4444.102564102564,4287.6923076923085,4564.615384615385,4478.974358974359,4447.179487179487,4411.794871794872,4725.641025641026,4362.564102564103,4223.589743589744,4185.128205128206,4527.6923076923085
1905.1372,0.16289327,0.57276887,0.33540148,0.50416636,0,0.0,0.0,0.0,0.0,0.0,0,0,0.0,0.0,0,0,96.0,0.0,509.0,4666.153846153847,3945.1282051282055,4520.000000000001,4449.2307692307695,4275.384615384616,4555.384615384616,4476.923076923077,4465.641025641026,4430.769230769231,4748.717948717949,4395.384615384616,4264.102564102564,4232.820512820514,4641.025641025642
1905.5126,0.16289327,0.57276887,0.33540148,0.50416636,0,0.0,0.0,0.0,0.0,0.14447537,0,0,0.0,0.0,0,0,15.0,0.0,507.0,4637.435897435898,3932.820512820513,4504.615384615385,4437.435897435898,4263.589743589744,4543.589743589744,4458.461538461539,4450.256410256411,4413.333333333334,4728.717948717949,4363.076923076924,4236.923076923077,4199.48717948718,4615.384615384616
1905.6377,0.19169025,0.5574811,0.33700773,0.5031583,0,0.0,0.0,0.0,0.0,0.0,0,0,0.0,0.0,0,0,31.0,0.0,0.0,4630.256410256411,3926.666666666667,4529.743589743591,4443.076923076924,4276.410256410257,4555.8974358974365,4475.8974358974365,4475.8974358974365,4448.205128205129,4752.307692307693,4398.461538461539,4287.6923076923085,4232.307692307693,4628.717948717949
1905.6377,0.19169025,0.5574811,0.33700773,0.5031583,0,0.0,0.0,0.0,0.0,0.0,0,0,0.0,0.0,0,0,31.0,0.0,0.0,4630.256410256411,3926.666666666667,4529.743589743591,4443.076923076924,4276.410256410257,4555.8974358974365,4475.8974358974365,4475.8974358974365,4448.205128205129,4752.307692307693,4398.461538461539,4287.6923076923085,4232.307692307693,4628.717948717949
1906.2632,0.12858813,0.55579865,0.33885446,0.5012211,0,0.0,0.0,0.0,0.0,0.0,0,0,0.0,0.0,0,0,111.0,0.0,505.0,4595.8974358974365,3929.7435897435903,4573.846153846154,4490.256410256411,4307.6923076923085,4585.128205128206,4509.743589743591,4447.6923076923085,4262.051282051282,4585.641025641026,4375.384615384616,4225.128205128206,4004.615384615385,4518.974358974359
1906.2632,0.12858813,0.55579865,0.33885446,0.5012211,0,0.0,0.0,0.0,0.0,0.0,0,0,0.0,0.0,0,0,111.0,0.0,505.0,4595.8974358974365,3929.7435897435903,4573.846153846154,4490.256410256411,4307.6923076923085,4585.128205128206,4509.743589743591,4447.6923076923085,4262.051282051282,4585.641025641026,4375.384615384616,4225.128205128206,4004.615384615385,4518.974358974359
1906.6385,0.1824883,0.5342612,0.33934927,0.49757257,0,0.0,0.0,0.0,0.0,0.0,0,0,0.0,0.0,0,0,30.0,0.0,0.0,4597.435897435898,3970.2564102564106,4505.641025641026,4551.794871794872,4334.871794871796,4595.384615384616,4479.48717948718,4455.384615384616,4236.923076923077,4593.846153846154,4456.923076923077,4044.615384615385,4035.8974358974365,4551.794871794872
1906.6385,0.1824883,0.5342612,0.33934927,0.49757257,0,0.0,0.0,0.0,0.0,0.0,0,0,0.0,0.0,0,0,30.0,0.0,0.0,4597.435897435898,3970.2564102564106,4505.641025641026,4551.794871794872,4334.871794871796,4595.384615384616,4479.48717948718,4455.384615384616,4236.923076923077,4593.846153846154,4456.923076923077,4044.615384615385,4035.8974358974365,4551.794871794872
1907.1389,0.19354002,0.5762452,0.33979455,0.4942899,0,0.0,0.0,0.0,0.0,0.0,0,0,0.0,0.0,0,0,94.0,0.0,536.0,4687.6923076923085,3987.692307692308,4417.948717948719,4574.358974358975,4295.384615384616,4583.589743589744,4457.435897435898,4521.025641025642,4329.743589743591,4701.538461538462,4482.564102564103,3941.0256410256416,4155.8974358974365,4617.948717948719
1907.1389,0.19354002,0.5762452,0.33979455,0.4942899,0,0.0,0.0,0.0,0.0,0.0,0,0,0.0,0.0,0,0,94.0,0.0,536.0,4687.6923076923085,3987.692307692308,4417.948717948719,4574.358974358975,4295.384615384616,4583.589743589744,4457.435897435898,4521.025641025642,4329.743589743591,4701.538461538462,4482.564102564103,3941.0256410256416,4155.8974358974365,4617.948717948719
1907.6394,0.19539359,0.6255873,0.3442842,0.4913366,0,0.0,0.0,0.0,0.0,0.0,0,0,0.0,0.0,0,0,29.0,0.0,0.0,4703.076923076924,3969.2307692307695,4448.205128205129,4506.666666666667,4229.2307692307695,4542.051282051282,4463.076923076924,4518.974358974359,4430.769230769231,4768.717948717949,4472.820512820514,4105.641025641026,4278.461538461539,4722.564102564103
1908.0146,0.19539359,0.6255873,0.3442842,0.4913366,0,0.0,0.0,0.0,0.0,0.19657074,0,0,0.0,0.0,0,0,77.0,0.0,461.0,4741.025641025642,3963.076923076924,4506.153846153847,4458.461538461539,4186.153846153847,4508.205128205129,4441.025641025642,4480.000000000001,4457.435897435898,4782.051282051282,4411.282051282052,4223.589743589744,4296.923076923077,4662.564102564103
1908.1398,0.2239072,0.67588335,0.35153955,0.49044296,0,0.0,0.0,0.0,0.0,0.0,0,0,0.0,0.0,0,0,93.0,0.0,461.0,4713.846153846154,3942.564102564103,4505.641025641026,4431.282051282052,4178.461538461539,4508.205128205129,4459.48717948718,4503.076923076924,4500.000000000001,4808.205128205129,4403.589743589744,4275.384615384616,4311.794871794872,4629.743589743591
1908.1398,0.2239072,0.67588335,0.35153955,0.49044296,0,0.0,0.0,0.0,0.0,0.0,0,0,0.0,0.0,0,0,93.0,0.0,461.0,4713.846153846154,3942.564102564103,4505.641025641026,4431.282051282052,4178.461538461539,4508.205128205129,4459.48717948718,4503.076923076924,4500.000000000001,4808.205128205129,4403.589743589744,4275.384615384616,4311.794871794872,4629.743589743591
1908.6403,0.22488356,0.7237767,0.36028737,0.48943636,0,0.0,0.0,0.0,0.0,0.0,0,0,0.0,0.0,0,0,28.0,0.0,0.0,4621.538461538462,3907.692307692308,4501.538461538462,4373.333333333334,4184.615384615385,4509.2307692307695,4440.512820512821,4444.615384615385,4491.794871794872,4804.615384615386,4328.205128205129,4337.948717948719,4277.948717948719,4503.076923076924
1908.6403,0.22488356,0.7237767,0.36028737,0.48943636,0,0.0,0.0,0.0,0.0,0.0,0,0,0.0,0.0,0,0,28.0,0.0,0.0,4621.538461538462,3907.692307692308,4501.538461538462,4373.333333333334,4184.615384615385,4509.2307692307695,4440.512820512821,4444.615384615385,4491.794871794872,4804.615384615386,4328.205128205129,4337.948717948719,4277.948717948719,4503.076923076924
1909.1406,0.19218999,0.6881197,0.36992824,0.4885314,0,0.0,0.0,0.0,0.0,0.0,0,0,0.0,0.0,0,0,92.0,0.0,510.0,4602.051282051282,3911.2820512820517,4536.923076923077,4397.435897435898,4183.076923076924,4504.615384615385,4445.128205128206,4421.538461538462,4459.48717948718,4774.358974358975,4310.769230769231,4383.076923076924,4230.256410256411,4503.076923076924
1909.516,0.19218999,0.6881197,0.36992824,0.4885314,0,0.0,0.0,0.0,0.0,0.30391547,0,0,0.0,0.0,0,0,11.0,0.0,503.0,4617.435897435898,3929.2307692307695,4538.974358974359,4413.846153846154,4207.6923076923085,4511.794871794872,4445.128205128206,4405.641025641026,4433.333333333334,4749.743589743591,4314.358974358975,4370.256410256411,4217.435897435898,4523.076923076924
1909.7662,0.14702629,0.64382964,0.3875293,0.48771805,0,0.0,0.0,0.0,0.0,0.18857433,0,0,0.0,0.0,0,0,43.0,0.0,0.0,4611.282051282052,3929.2307692307695,4541.538461538462,4416.410256410257,4219.48717948718,4524.615384615385,4449.2307692307695,4412.820512820514,4423.589743589744,4743.589743589744,4322.051282051282,4362.564102564103,4217.435897435898,4524.615384615385
1910.0165,0.14702629,0.64382964,0.3875293,0.48771805,0,0.0,0.0,0.0,0.0,0.0,0,0,0.0,0.0,0,0,75.0,0.0,503.0,4614.358974358975,3941.0256410256416,4538.461538461539,4425.641025641026,4219.48717948718,4517.948717948719,4441.538461538462,4385.128205128206,4415.8974358974365,4730.256410256411,4321.538461538462,4342.051282051282,4198.974358974359,4514.358974358975
1910.1415,0.11200957,0.58948076,0.40336916,0.4890013,0,0.0,0.0,0.0,0.0,0.0,0,0,0.0,0.0,0,0,91.0,0.0,503.0,4589.2307692307695,3908.717948717949,4523.076923076924,4404.102564102564,4230.769230769231,4526.666666666667,4458.974358974359,4422.564102564103,4456.923076923077,4777.435897435898,4350.256410256411,4350.256410256411,4232.307692307693,4538.461538461539
1910.5168,0.11200957,0.58948076,0.40336916,0.4890013,0,0.0,0.0,0.0,0.0,0.612605,0,0,0.0,0.0,0,0,10.0,0.0,536.0,4639.48717948718,3932.820512820513,4540.000000000001,4419.48717948718,4221.538461538462,4520.512820512821,4460.000000000001,4415.384615384616,4435.384615384616,4756.410256410257,4324.615384615385,4327.179487179487,4200.512820512821,4461.538461538462
1910.7671,0.102696255,0.5556554,0.4176236,0.4901571,0,0.0,0.0,0.0,0.0,0.37042102,0,0,0.0,0.0,0,0,42.0,0.0,0.0,4728.717948717949,3952.307692307693,4541.538461538462,4421.025641025642,4232.307692307693,4522.564102564103,4461.025641025642,4396.923076923077,4433.333333333334,4787.179487179488,4348.717948717949,4327.6923076923085,4227.179487179487,4480.512820512821
1911.0173,0.102696255,0.5556554,0.4176236,0.4901571,0,0.0,0.0,0.0,0.0,1.0,0,0,0.0,0.0,0,0,74.0,0.0,536.0,4758.461538461539,3940.5128205128212,4516.923076923077,4396.410256410257,4217.948717948719,4507.6923076923085,4442.564102564103,4395.8974358974365,4411.282051282052,4748.717948717949,4307.179487179487,4265.128205128206,4168.205128205129,4420.512820512821
1911.2675,0.13206872,0.57763755,0.41360343,0.49119815,0,0.0,0.0,0.0,0.0,0.6961409,0,0,0.0,0.0,0,0,106.0,0.0,536.0,4765.641025641026,3945.6410256410263,4522.051282051282,4396.923076923077,4229.74358974359,4518.461538461539,4459.48717948718,4394.871794871796,4413.333333333334,4754.358974358975,4319.48717948718,4263.589743589744,4192.820512820514,4460.000000000001
1911.5177,0.13206872,0.57763755,0.41360343,0.49119815,0,0.0,0.0,0.0,0.0,0.93510646,0,0,0.0,0.0,0,0,9.0,0.0,469.0,4770.769230769231,3966.666666666667,4546.153846153847,4416.410256410257,4229.74358974359,4522.564102564103,4464.615384615385,4406.153846153847,4414.358974358975,4752.307692307693,4332.307692307693,4287.6923076923085,4191.282051282052,4544.615384615385
1911.768,0.16164437,0.6114501,0.4032416,0.49215326,0,0.0,0.0,0.0,0.0,0.58946234,0,0,0.0,0.0,0,0,41.0,0.0,0.0,4745.128205128206,3957.9487179487182,4518.461538461539,4402.564102564103,4235.8974358974365,4522.051282051282,4460.000000000001,4412.307692307693,4412.820512820514,4749.2307692307695,4335.8974358974365,4263.589743589744,4198.974358974359,4538.461538461539
1912.0182,0.16164437,0.6114501,0.4032416,0.49215326,0,0.0,0.0,0.0,0.0,0.0,0,0,0.0,0.0,0,0,73.0,0.0,469.0,4737.948717948719,3958.9743589743593,4522.051282051282,4407.6923076923085,4245.128205128206,4524.102564102564,4460.512820512821,4413.846153846154,4412.307692307693,4735.8974358974365,4342.051282051282,4257.435897435898,4199.48717948718,4523.589743589744
1912.1433,0.11194472,0.6477376,0.39391515,0.49301368,0,0.0,0.0,0.0,0.0,0.0,0,0,0.0,0.0,0,0,89.0,0.0,461.0,4721.538461538462,3936.410256410257,4490.769230769231,4371.794871794872,4238.461538461539,4524.615384615385,4460.512820512821,4411.794871794872,4395.8974358974365,4706.153846153847,4289.74358974359,4221.025641025642,4154.871794871796,4497.948717948719
1912.5186,0.11194472,0.6477376,0.39391515,0.49301368,0,0.0,0.0,0.0,0.0,1.0,0,0,0.0,0.0,0,0,8.0,0.0,467.0,4744.102564102564,3952.307692307693,4506.153846153847,4398.461538461539,4243.589743589744,4523.589743589744,4455.384615384616,4415.384615384616,4401.025641025642,4745.641025641026,4335.8974358974365,4231.282051282052,4190.256410256411,4710.256410256411
1912.7688,0.081190795,0.6709479,0.38552058,0.4937889,0,0.0,0.0,0.0,0.0,0.9527218,0,0,0.0,0.0,0,0,40.0,0.0,0.0,4741.538461538462,3937.9487179487182,4503.076923076924,4384.102564102564,4241.025641025642,4524.615384615385,4453.333333333334,4426.153846153847,4426.666666666667,4786.153846153847,4364.102564102564,4236.923076923077,4218.974358974359,4703.589743589744
1913.019,0.081190795,0.6709479,0.38552058,0.4937889,0,0.0,0.0,0.0,0.0,1.0,0,0,0.0,0.0,0,0,72.0,0.0,467.0,4741.538461538462,3926.1538461538466,4507.6923076923085,4383.076923076924,4239.48717948718,4525.128205128206,4461.538461538462,4425.128205128206,4433.333333333334,4812.307692307693,4385.641025641026,4263.589743589744,4237.435897435898,4644.102564102564
1913.1442,0.069334775,0.63711804,0.3793803,0.48261413,0,0.0,0.0,0.0,0.0,1.0,0,0,0.0,0.0,0,0,88.0,0.0,510.0,4727.179487179488,3914.358974358975,4497.435897435898,4383.589743589744,4242.051282051282,4535.384615384616,4473.333333333334,4426.153846153847,4442.051282051282,4806.153846153847,4371.794871794872,4244.102564102564,4216.410256410257,4585.641025641026
1913.1442,0.069334775,0.63711804,0.3793803,0.48261413,0,0.0,0.0,0.0,0.0,1.0,0,0,0.0,0.0,0,0,88.0,0.0,510.0,4727.179487179488,3914.358974358975,4497.435897435898,4383.589743589744,4242.051282051282,4535.384615384616,4473.333333333334,4426.153846153847,4442.051282051282,4806.153846153847,4371.794871794872,4244.102564102564,4216.410256410257,4585.641025641026
1913.7697,0.078873575,0.59872276,0.37385342,0.47255918,0,0.0,0.0,0.0,0.0,0.52243245,0,0,0.0,0.0,0,0,39.0,0.0,0.0,4757.948717948719,3925.6410256410263,4512.307692307693,4394.871794871796,4233.846153846154,4523.076923076924,4442.051282051282,4425.128205128206,4418.461538461539,4780.512820512821,4370.256410256411,4253.333333333334,4214.871794871796,4524.615384615385
1914.0199,0.078873575,0.59872276,0.37385342,0.47255918,0,0.0,0.0,0.0,0.0,0.088255495,0,0,0.0,0.0,0,0,71.0,0.0,455.0,4732.307692307693,3785.1282051282055,4507.179487179488,4312.307692307693,4246.666666666667,4523.076923076924,4443.076923076924,4426.153846153847,4428.717948717949,4782.564102564103,4382.564102564103,4254.871794871796,4235.8974358974365,4507.6923076923085
1914.2701,0.078726225,0.56855625,0.3738079,0.4635125,0,0.0,0.0,0.0,0.0,0.30245855,0,0,0.0,0.0,0,0,103.0,0.0,503.0,4774.358974358975,3801.538461538462,4527.6923076923085,4327.179487179487,4244.615384615385,4526.153846153847,4455.384615384616,4422.564102564103,4412.307692307693,4747.179487179488,4349.2307692307695,4232.307692307693,4184.615384615385,4505.128205128206
1914.5203,0.078726225,0.56855625,0.3738079,0.4635125,0,0.0,0.0,0.0,0.0,0.26416042,0,0,0.0,0.0,0,0,6.0,0.0,555.0,4766.153846153847,3825.6410256410263,4520.512820512821,4348.205128205129,4244.615384615385,4522.564102564103,4455.8974358974365,4440.512820512821,4412.820512820514,4752.307692307693,4368.717948717949,4244.102564102564,4205.128205128206,4517.948717948719
1914.7705,0.07494433,0.5688721,0.37289336,0.46078807,0,0.0,0.0,0.0,0.0,0.07336698,0,0,0.0,0.0,0,0,38.0,0.0,0.0,4811.794871794872,3867.692307692308,4540.512820512821,4381.025641025642,4237.948717948719,4522.564102564103,4457.948717948719,4429.743589743591,4411.794871794872,4751.794871794872,4373.846153846154,4269.2307692307695,4218.461538461539,4542.564102564103
1914.8956,0.07494433,0.5688721,0.37289336,0.46078807,0,0.0,0.0,0.0,0.0,0.0,0,0,0.0,0.0,0,0,54.0,0.0,0.0,4815.8974358974365,3880.0000000000005,4538.974358974359,4382.564102564103,4242.051282051282,4522.564102564103,4457.435897435898,4415.8974358974365,4394.358974358975,4732.820512820514,4362.051282051282,4231.282051282052,4201.538461538462,4535.8974358974365
1915.271,0.049214814,0.58290386,0.36893222,0.46994704,0,0.0,0.0,0.0,0.0,0.877278,0,0,0.0,0.0,0,0,102.0,0.0,536.0,4760.000000000001,3891.2820512820517,4510.256410256411,4381.025641025642,4247.6923076923085,4524.102564102564,4461.025641025642,4411.282051282052,4400.512820512821,4750.256410256411,4337.948717948719,4225.128205128206,4172.307692307693,4443.589743589744
1915.5211,0.049214814,0.58290386,0.36893222,0.46994704,0,0.0,0.0,0.0,0.0,0.34417647,0,0,0.0,0.0,0,0,5.0,0.0,557.0,4761.538461538462,3908.717948717949,4525.128205128206,4401.538461538462,4245.128205128206,4523.589743589744,4460.000000000001,4409.743589743591,4400.000000000001,4752.820512820514,4333.846153846154,4235.384615384616,4168.717948717949,4432.307692307693
1915.7714,0.062939405,0.5895119,0.36536673,0.47819027,0,0.0,0.0,0.0,0.0,0.17543653,0,0,0.0,0.0,0,0,37.0,0.0,0.0,4755.384615384616,3913.8461538461543,4512.820512820514,4407.179487179487,4245.128205128206,4527.179487179488,4462.564102564103,4413.333333333334,4397.948717948719,4752.820512820514,4342.051282051282,4233.333333333334,4157.435897435898,4416.410256410257
1916.0216,0.062939405,0.5895119,0.36536673,0.47819027,0,0.0,0.0,0.0,0.0,0.0,0,0,0.0,0.0,0,0,69.0,0.0,557.0,4753.333333333334,3910.7692307692314,4521.538461538462,4402.564102564103,4247.179487179487,4531.794871794872,4457.948717948719,4432.820512820514,4387.6923076923085,4733.333333333334,4354.871794871796,4234.871794871796,4166.666666666667,4418.461538461539
1916.1467,0.072319485,0.58869946,0.36215782,0.48560947,0,0.0,0.0,0.0,0.0,0.0,0,0,0.0,0.0,0,0,85.0,0.0,461.0,4741.538461538462,3907.692307692308,4506.666666666667,4395.8974358974365,4245.128205128206,4526.666666666667,4457.435897435898,4409.743589743591,4369.2307692307695,4718.974358974359,4337.948717948719,4204.102564102564,4155.8974358974365,4415.384615384616
1916.1467,0.072319485,0.58869946,0.36215782,0.48560947,0,0.0,0.0,0.0,0.0,0.0,0,0,0.0,0.0,0,0,85.0,0.0,461.0,4741.538461538462,3907.692307692308,4506.666666666667,4395.8974358974365,4245.128205128206,4526.666666666667,4457.435897435898,4409.743589743591,4369.2307692307695,4718.974358974359,4337.948717948719,4204.102564102564,4155.8974358974365,4415.384615384616
1916.6471,0.06063761,0.56104034,0.35926944,0.49228612,0,0.0,0.0,0.0,0.0,0.0,0,0,0.0,0.0,0,0,20.0,0.0,0.0,4743.589743589744,3910.2564102564106,4520.000000000001,4396.410256410257,4247.179487179487,4535.8974358974365,4456.410256410257,4396.923076923077,4367.179487179487,4702.051282051282,4348.205128205129,4217.435897435898,4182.564102564103,4491.794871794872
1916.6471,0.06063761,0.56104034,0.35926944,0.49228612,0,0.0,0.0,0.0,0.0,0.0,0,0,0.0,0.0,0,0,20.0,0.0,0.0,4743.589743589744,3910.2564102564106,4520.000000000001,4396.410256410257,4247.179487179487,4535.8974358974365,4456.410256410257,4396.923076923077,4367.179487179487,4702.051282051282,4348.205128205129,4217.435897435898,4182.564102564103,4491.794871794872
1917.1476,0.05575515,0.51639897,0.356669,0.4982935,0,0.0,0.0,0.0,0.0,0.0,0,0,0.0,0.0,0,0,84.0,0.0,510.0,4728.205128205129,3913.8461538461543,4507.6923076923085,4401.025641025642,4261.025641025642,4538.974358974359,4460.000000000001,4414.358974358975,4376.410256410257,4711.794871794872,4350.769230769231,4228.717948717949,4201.538461538462,4526.153846153847
1917.1476,0.05575515,0.51639897,0.356669,0.4982935,0,0.0,0.0,0.0,0.0,0.0,0,0,0.0,0.0,0,0,84.0,0.0,510.0,4728.205128205129,3913.8461538461543,4507.6923076923085,4401.025641025642,4261.025641025642,4538.974358974359,4460.000000000001,4414.358974358975,4376.410256410257,4711.794871794872,4350.769230769231,4228.717948717949,4201.538461538462,4526.153846153847
1917.648,0.04076432,0.47762832,0.3541334,0.50139725,0,0.0,0.0,0.0,0.0,0.0,0,0,0.0,0.0,0,0,19.0,0.0,0.0,4700.000000000001,3928.205128205129,4520.000000000001,4418.461538461539,4255.8974358974365,4534.871794871796,4455.8974358974365,4416.923076923077,4387.6923076923085,4718.974358974359,4328.717948717949,4233.333333333334,4157.435897435898,4492.820512820514
1918.0233,0.04076432,0.47762832,0.3541334,0.50139725,0,0.0,0.0,0.0,0.0,0.28758845,0,0,0.0,0.0,0,0,67.0,0.0,543.0,4667.179487179488,4105.641025641026,4507.179487179488,4538.461538461539,4261.025641025642,4536.410256410257,4443.076923076924,4372.307692307693,4305.641025641026,4657.948717948719,4317.948717948719,4224.615384615385,4005.1282051282055,4388.717948717949
1918.2736,0.04445946,0.4589584,0.35185158,0.5041912,0,0.0,0.0,0.0,0.0,0.16448997,0,0,0.0,0.0,0,0,99.0,0.0,509.0,4687.179487179488,4500.512820512821,4581.025641025642,4827.179487179488,4293.846153846154,4555.384615384616,4462.051282051282,4367.179487179487,4177.435897435898,4533.333333333334,4342.564102564103,4203.589743589744,3834.8717948717954,4416.410256410257
1918.5237,0.04445946,0.4589584,0.35185158,0.5041912,0,0.0,0.0,0.0,0.0,0.0,0,0,0.789994,0.0,0,0,2.0,0.0,264.0,4655.8974358974365,4831.794871794872,4437.948717948719,4982.051282051283,4335.8974358974365,4572.820512820514,4388.205128205129,4373.333333333334,4120.512820512821,4474.871794871796,4384.102564102564,4024.615384615385,3816.9230769230776,4411.794871794872
1918.7739,0.11447813,0.44214568,0.34980047,0.50669634,0,0.0,0.0,0.0,0.0,0.0,0,0,0.17165472,0.0,0,0,34.0,0.0,0.0,4642.564102564103,4707.6923076923085,4349.743589743591,4981.538461538462,4333.846153846154,4587.179487179488,4412.307692307693,4443.589743589744,4180.512820512821,4524.102564102564,4453.333333333334,3957.9487179487182,3908.205128205129,4420.000000000001
1919.0242,0.11447813,0.44214568,0.34980047,0.50669634,0,0.0,0.0,0.0,0.0,0.14812367,0,0,0.0,0.0,0,0,66.0,0.0,261.0,4677.948717948719,4533.846153846154,4371.794871794872,4886.666666666667,4286.153846153847,4584.102564102564,4427.6923076923085,4492.307692307693,4274.358974358975,4624.615384615385,4550.769230769231,4034.358974358975,4064.615384615385,4556.410256410257
1919.2744,0.26951545,0.42701423,0.34795406,0.50895697,0,0.0,0.0,0.0,0.0,0.099151924,0,0,0.0,0.0,0,0,98.0,0.0,535.0,4646.153846153847,4291.794871794872,4356.923076923077,4680.512820512821,4263.589743589744,4595.8974358974365,4435.8974358974365,4503.589743589744,4292.820512820514,4713.333333333334,4508.205128205129,3991.7948717948725,4095.3846153846157,4491.794871794872
1919.3995,0.26951545,0.42701423,0.34795406,0.50895697,0,0.0,0.0,0.0,0.0,0.0,0,0,1.0,0.0,0,0,114.0,0.0,535.0,4600.000000000001,4242.564102564103,4338.461538461539,4617.948717948719,4231.282051282052,4576.923076923077,4446.153846153847,4502.564102564103,4346.666666666667,4776.923076923077,4549.2307692307695,4056.9230769230776,4196.923076923077,4563.589743589744
1919.6497,0.33068773,0.41339594,0.3464897,0.51329106,0,0.0,0.0,0.0,0.0,0.0,0,0,1.0,0.0,0,0,17.0,0.0,0.0,4604.102564102564,4186.153846153847,4339.48717948718,4556.923076923077,4198.461538461539,4544.102564102564,4436.923076923077,4496.410256410257,4425.641025641026,4798.461538461539,4507.179487179488,4134.358974358975,4231.282051282052,4587.6923076923085
1920.025,0.33068773,0.41339594,0.3464897,0.51329106,0,0.0,0.0,0.0,0.0,0.0,0,0,0.32988653,0.0,0,0,65.0,0.0,458.0,4597.435897435898,4147.179487179487,4382.051282051282,4494.871794871796,4153.846153846154,4506.666666666667,4414.358974358975,4443.076923076924,4472.820512820514,4780.512820512821,4434.358974358975,4137.435897435898,4338.974358974359,4520.512820512821
1920.2753,0.43647245,0.40113947,0.34517348,0.5171874,0,0.0,0.0,0.0,0.0,0.0,0,0,0.111604884,0.0,0,0,97.0,0.0,462.0,4613.846153846154,4123.589743589744,4398.461538461539,4449.2307692307695,4102.051282051282,4438.461538461539,4369.2307692307695,4379.48717948718,4474.871794871796,4760.512820512821,4334.358974358975,4233.846153846154,4323.076923076924,4462.564102564103
1920.5255,0.43647245,0.40113947,0.34517348,0.5171874,0,0.0,0.0,0.0,0.0,0.0,0,0,0.10842859,0.0,0,0,0.0,0.0,519.0,4613.333333333334,4079.48717948718,4411.794871794872,4540.000000000001,4029.7435897435903,4345.128205128206,4288.205128205129,4269.74358974359,4396.923076923077,4688.717948717949,4168.717948717949,4302.051282051282,4250.769230769231,4368.717948717949
1920.7756,0.57472694,0.39010864,0.34398776,0.52069837,0,0.0,0.0,0.0,0.0,0.7232223,0,0,0.0,0.0,0,0,32.0,0.0,0.0,4590.256410256411,3982.564102564103,4399.48717948718,4433.846153846154,4062.0512820512827,4362.051282051282,4285.641025641026,4234.358974358975,4338.461538461539,4649.2307692307695,4073.333333333334,4246.666666666667,4227.6923076923085,4215.384615384616
1921.0259,0.57472694,0.39010864,0.34398776,0.52069837,0,0.0,0.0,0.0,0.0,0.18624853,0,0,0.0,0.0,0,0,64.0,0.0,519.0,4587.6923076923085,3942.564102564103,4418.974358974359,4381.538461538462,4082.564102564103,4379.48717948718,4309.2307692307695,4201.538461538462,4322.051282051282,4629.2307692307695,4033.333333333334,4290.256410256411,4179.48717948718,4199.48717948718
1921.2761,0.6310956,0.3801809,0.34292048,0.52385753,0,0.0,0.0,0.0,0.0,0.0,0,0,0.0,0.32144907,0,0,96.0,0.0,516.0,4601.538461538462,3962.0512820512827,4464.615384615385,4347.6923076923085,4112.820512820514,4408.717948717949,4339.48717948718,4221.025641025642,4322.564102564103,4620.000000000001,4047.692307692308,4265.128205128206,4169.2307692307695,4288.205128205129
1921.5264,0.6310956,0.3801809,0.34292048,0.52385753,0,0.0,0.0,0.0,0.0,0.0,0,0,0.0,0.84730214,0,0,128.0,0.0,516.0,4627.6923076923085,3943.076923076924,4480.000000000001,4325.641025641026,4140.512820512821,4428.205128205129,4349.743589743591,4230.769230769231,4311.282051282052,4603.076923076924,4051.2820512820517,4227.6923076923085,4130.256410256411,4385.128205128206
1921.6515,0.6811106,0.37124592,0.34195995,0.5267006,0,0.0,0.0,0.0,0.0,1.0,0,0,0.0,0.0,0,0,15.0,0.0,515.0,4620.000000000001,3927.692307692308,4492.307692307693,4323.589743589744,4147.6923076923085,4428.717948717949,4356.923076923077,4215.8974358974365,4306.666666666667,4590.769230769231,4057.9487179487182,4223.589743589744,4117.948717948719,4414.871794871796
1922.0267,0.6811106,0.37124592,0.34195995,0.5267006,0,0.0,0.0,0.0,0.0,0.19654776,0,0,0.0,0.0,0,0,63.0,0.0,0.0,4602.564102564103,3737.435897435898,4504.102564102564,4199.48717948718,4187.6923076923085,4472.820512820514,4398.974358974359,4289.2307692307695,4362.051282051282,4666.153846153847,4165.128205128206,4251.282051282052,4241.025641025642,4444.102564102564
1922.277,0.71167845,0.36320448,0.34109554,0.5292596,0,0.0,0.0,0.17896247,0.0,0.0,0,0,0.0,0.0,0,0,95.0,0.0,515.0,4597.435897435898,3837.9487179487182,4503.589743589744,4281.025641025642,4203.076923076924,4482.564102564103,4405.641025641026,4300.000000000001,4365.128205128206,4677.948717948719,4183.589743589744,4266.666666666667,4209.74358974359,4429.2307692307695
1922.5272,0.71167845,0.36320448,0.34109554,0.5292596,0,0.0,0.0,0.023772294,0.0,0.0,0,0,0.0,0.0,0,0,127.0,0.0,515.0,4618.461538461539,3862.564102564103,4507.179487179488,4309.743589743591,4212.820512820514,4489.743589743591,4411.794871794872,4361.538461538462,4377.435897435898,4694.871794871796,4200.512820512821,4291.282051282052,4193.846153846154,4443.076923076924
1922.7773,0.64170337,0.35596713,0.3403187,0.53155994,0,0.0,0.0,0.0,0.0,0.0,0,0,0.0,0.0,0,0,30.0,0.0,0.0,4592.820512820514,3844.615384615385,4479.48717948718,4301.025641025642,4213.846153846154,4490.769230769231,4402.051282051282,4324.615384615385,4326.666666666667,4665.641025641026,4172.820512820514,4262.564102564103,4133.846153846154,4394.358974358975
1922.7773,0.64170337,0.35596713,0.3403187,0.53155994,0,0.0,0.0,0.0,0.0,0.0,0,0,0.0,0.0,0,0,30.0,0.0,0.0,4592.820512820514,3844.615384615385,4479.48717948718,4301.025641025642,4213.846153846154,4490.769230769231,4402.051282051282,4324.615384615385,4326.666666666667,4665.641025641026,4172.820512820514,4262.564102564103,4133.846153846154,4394.358974358975
1923.1527,0.63576674,0.3645449,0.33961904,0.53363186,0,0.0,0.0,0.0,0.0,0.0,0,0,0.0,0.0,0,0,78.0,0.0,535.0,4617.948717948719,3893.8461538461543,4522.564102564103,4350.769230769231,4215.8974358974365,4493.846153846154,4427.179487179487,4377.948717948719,4374.871794871796,4722.051282051282,4269.74358974359,4305.641025641026,4186.153846153847,4446.666666666667
1923.1527,0.63576674,0.3645449,0.33961904,0.53363186,0,0.0,0.0,0.0,0.0,0.0,0,0,0.0,0.0,0,0,78.0,0.0,535.0,4617.948717948719,3893.8461538461543,4522.564102564103,4350.769230769231,4215.8974358974365,4493.846153846154,4427.179487179487,4377.948717948719,4374.871794871796,4722.051282051282,4269.74358974359,4305.641025641026,4186.153846153847,4446.666666666667
1923.7782,0.5555114,0.35632074,0.3389895,0.5354959,0,0.0,0.0,0.0,0.0,0.0,0,0,0.0,0.2000004,0,0,29.0,0.0,0.0,4595.384615384616,3879.48717948718,4526.153846153847,4322.051282051282,4236.410256410257,4513.846153846154,4448.205128205129,4385.128205128206,4384.102564102564,4703.076923076924,4274.358974358975,3988.717948717949,4172.307692307693,4386.153846153847
1924.0284,0.5555114,0.35632074,0.3389895,0.5354959,0,0.0,0.0,0.0,0.0,0.0,0,0,0.4347114,0.0,0,0,61.0,0.0,0.0,4604.615384615385,3892.820512820513,4520.512820512821,4355.384615384616,4262.051282051282,4531.794871794872,4455.384615384616,4365.128205128206,4350.256410256411,4665.128205128206,4296.923076923077,4117.948717948719,4122.564102564103,4298.461538461539
1924.2787,0.48542204,0.34871638,0.3384229,0.53717303,0,0.0,0.0,0.0,0.0,0.0,0,0,1.0,0.0,0,0,93.0,0.0,464.0,4608.205128205129,3893.333333333334,4537.948717948719,4397.948717948719,4281.538461538462,4551.794871794872,4471.282051282052,4350.256410256411,4260.512820512821,4584.102564102564,4312.820512820514,4154.358974358975,4027.692307692308,4252.307692307693
1924.5289,0.48542204,0.34871638,0.3384229,0.53717303,0,0.0,0.0,0.0,0.0,0.0,0,0,0.0,0.0,0,0,125.0,0.0,464.0,4607.6923076923085,3907.692307692308,4520.512820512821,4457.435897435898,4300.000000000001,4561.538461538462,4492.820512820514,4350.769230769231,4210.256410256411,4544.102564102564,4345.641025641026,4141.025641025642,3971.7948717948725,4237.435897435898
1924.654,0.4592689,0.34341687,0.33791307,0.53868264,0,0.0,0.0,0.0,0.0,0.0,0,0,0.0,0.0,0,0,12.0,0.0,517.0,4607.6923076923085,3916.410256410257,4492.307692307693,4483.076923076924,4327.179487179487,4574.358974358975,4487.179487179488,4350.256410256411,4200.000000000001,4554.358974358975,4379.48717948718,4128.205128205129,3989.7435897435903,4272.820512820514
1924.654,0.4592689,0.34341687,0.33791307,0.53868264,0,0.0,0.0,0.0,0.0,0.0,0,0,0.0,0.0,0,0,12.0,0.0,517.0,4607.6923076923085,3916.410256410257,4492.307692307693,4483.076923076924,4327.179487179487,4574.358974358975,4487.179487179488,4350.256410256411,4200.000000000001,4554.358974358975,4379.48717948718,4128.205128205129,3989.7435897435903,4272.820512820514
1925.1544,0.49045935,0.35023263,0.33745417,0.54004127,0,0.0,0.0,0.0,0.0,0.0,0,0,0.0,0.0,0,0,76.0,0.0,517.0,4593.846153846154,3939.48717948718,4424.615384615385,4484.102564102564,4311.282051282052,4584.102564102564,4491.794871794872,4428.717948717949,4292.820512820514,4653.846153846154,4398.461538461539,4077.9487179487187,4107.6923076923085,4360.512820512821
1925.1544,0.49045935,0.35023263,0.33745417,0.54004127,0,0.0,0.0,0.0,0.0,0.0,0,0,0.0,0.0,0,0,76.0,0.0,517.0,4593.846153846154,3939.48717948718,4424.615384615385,4484.102564102564,4311.282051282052,4584.102564102564,4491.794871794872,4428.717948717949,4292.820512820514,4653.846153846154,4398.461538461539,4077.9487179487187,4107.6923076923085,4360.512820512821
1925.6549,0.46964797,0.3855431,0.34029883,0.5412637,0,0.0,0.0,0.0,0.0,0.0,0,0,0.0,0.0,0,0,11.0,0.0,513.0,4572.820512820514,3892.307692307693,4434.871794871796,4415.384615384616,4212.820512820514,4492.820512820514,4429.743589743591,4393.333333333334,4347.179487179487,4707.6923076923085,4368.717948717949,4138.974358974359,4202.051282051282,4502.564102564103
1925.6549,0.46964797,0.3855431,0.34029883,0.5412637,0,0.0,0.0,0.0,0.0,0.0,0,0,0.0,0.0,0,0,11.0,0.0,513.0,4572.820512820514,3892.307692307693,4434.871794871796,4415.384615384616,4212.820512820514,4492.820512820514,4429.743589743591,4393.333333333334,4347.179487179487,4707.6923076923085,4368.717948717949,4138.974358974359,4202.051282051282,4502.564102564103
1926.2491,0.4761709,0.4198701,0.34884974,0.5392301,1,0.0,0.0,0.0,0.0,0.0,0,0,0.0,0.0,0,0,87.0,0.0,508.0,4644.102564102564,3909.2307692307695,4545.128205128206,4404.615384615385,4168.205128205129,4465.128205128206,4415.384615384616,4380.512820512821,4447.179487179487,4756.923076923077,4366.666666666667,4302.051282051282,4295.384615384616,4627.6923076923085
1926.4055,0.4761709,0.4198701,0.34884974,0.5392301,0,0.0,0.0,0.0,0.0,0.0,0,0,0.0,0.0,0,0,107.0,0.0,508.0,4657.435897435898,3973.8461538461543,4618.461538461539,4458.974358974359,4260.512820512821,4555.8974358974365,4498.461538461539,4471.794871794872,4537.435897435898,4842.051282051283,4444.102564102564,4394.358974358975,4380.512820512821,4611.282051282052
1926.7809,0.5664724,0.50057876,0.36339846,0.5260986,0,0.0,0.0,0.0,0.0,0.72654516,0,0,0.0,0.0,0,0,26.0,0.0,0.0,4601.025641025642,3925.6410256410263,4572.307692307693,4412.820512820514,4246.666666666667,4537.435897435898,4470.769230769231,4444.102564102564,4506.666666666667,4810.769230769231,4348.205128205129,4357.948717948719,4311.282051282052,4442.051282051282
1927.031,0.5664724,0.50057876,0.36339846,0.5260986,0,0.0,0.0,0.0,0.0,0.22166556,0,0,0.0,0.0,0,0,58.0,0.0,0.0,4603.589743589744,3896.410256410257,4573.333333333334,4283.589743589744,4235.8974358974365,4526.153846153847,4462.564102564103,4442.051282051282,4502.051282051282,4796.923076923077,4354.358974358975,4394.358974358975,4305.641025641026,4433.846153846154
1927.2812,0.6572229,0.56960964,0.37734738,0.5028686,0,0.0,0.0,0.0,0.0,0.0,0,0,0.41693,0.0,0,0,90.0,0.0,536.0,4569.743589743591,3877.435897435898,4517.435897435898,4294.358974358975,4232.820512820514,4522.051282051282,4446.153846153847,4407.6923076923085,4456.923076923077,4748.717948717949,4309.2307692307695,4334.358974358975,4243.076923076924,4312.307692307693
1927.5315,0.6572229,0.56960964,0.37734738,0.5028686,0,0.0,0.0,0.0,0.0,0.3168685,0,0,0.0,0.0,0,0,122.0,0.0,536.0,4593.846153846154,3892.307692307693,4539.48717948718,4334.358974358975,4235.384615384616,4520.000000000001,4446.153846153847,4398.974358974359,4435.8974358974365,4731.794871794872,4308.205128205129,4331.794871794872,4208.205128205129,4339.48717948718
1927.7817,0.6610842,0.63881105,0.3899006,0.48196393,0,0.0,0.0,0.0,0.0,0.10206097,0,0,0.0,0.0,0,0,25.0,0.0,0.0,4594.871794871796,3897.435897435898,4521.538461538462,4358.974358974359,4234.871794871796,4518.461538461539,4454.358974358975,4412.820512820514,4403.589743589744,4701.538461538462,4305.641025641026,4344.102564102564,4175.8974358974365,4352.820512820514
1927.9069,0.6610842,0.63881105,0.3899006,0.48196393,0,0.0,0.0,0.0,0.0,0.0,0,0,0.0,0.0,0,0,41.0,0.0,0.0,4582.051282051282,3881.0256410256416,4516.923076923077,4342.564102564103,4245.128205128206,4521.538461538462,4449.743589743591,4396.410256410257,4392.820512820514,4698.461538461539,4301.538461538462,4336.923076923077,4171.282051282052,4361.025641025642
1928.157,0.56940436,0.6894192,0.3943416,0.46315345,0,0.0,0.0,0.0,0.0,0.0,0,0,0.0,0.0,0,0,73.0,0.0,471.0,4578.461538461539,3895.8974358974365,4538.974358974359,4369.2307692307695,4244.102564102564,4520.000000000001,4442.051282051282,4365.128205128206,4340.000000000001,4657.435897435898,4281.025641025642,4306.153846153847,4116.923076923077,4336.923076923077
1928.157,0.56940436,0.6894192,0.3943416,0.46315345,0,0.0,0.0,0.0,0.0,0.0,0,0,0.0,0.0,0,0,73.0,0.0,471.0,4578.461538461539,3895.8974358974365,4538.974358974359,4369.2307692307695,4244.102564102564,4520.000000000001,4442.051282051282,4365.128205128206,4340.000000000001,4657.435897435898,4281.025641025642,4306.153846153847,4116.923076923077,4336.923076923077
1928.6575,0.5051089,0.68032473,0.40735936,0.45906448,0,0.0,0.0,0.0,0.0,0.0,0,0,0.0,0.0,0,0,8.0,0.0,467.0,4572.820512820514,3886.666666666667,4510.256410256411,4397.948717948719,4229.74358974359,4507.6923076923085,4440.512820512821,4345.128205128206,4314.871794871796,4639.48717948718,4291.794871794872,4281.538461538462,4108.205128205129,4313.846153846154
1928.6575,0.5051089,0.68032473,0.40735936,0.45906448,0,0.0,0.0,0.0,0.0,0.0,0,0,0.0,0.0,0,0,8.0,0.0,467.0,4572.820512820514,3886.666666666667,4510.256410256411,4397.948717948719,4229.74358974359,4507.6923076923085,4440.512820512821,4345.128205128206,4314.871794871796,4639.48717948718,4291.794871794872,4281.538461538462,4108.205128205129,4313.846153846154
1929.1578,0.45632604,0.6668507,0.41907394,0.46511495,0,0.0,0.0,0.0,0.0,0.0,0,0,0.0,0.0,0,0,72.0,0.0,467.0,4546.153846153847,3918.9743589743593,4509.743589743591,4445.128205128206,4253.846153846154,4525.641025641026,4445.128205128206,4348.205128205129,4276.410256410257,4624.102564102564,4330.769230769231,4192.820512820514,4103.076923076924,4349.2307692307695
1929.1578,0.45632604,0.6668507,0.41907394,0.46511495,0,0.0,0.0,0.0,0.0,0.0,0,0,0.0,0.0,0,0,72.0,0.0,467.0,4546.153846153847,3918.9743589743593,4509.743589743591,4445.128205128206,4253.846153846154,4525.641025641026,4445.128205128206,4348.205128205129,4276.410256410257,4624.102564102564,4330.769230769231,4192.820512820514,4103.076923076924,4349.2307692307695
1929.6583,0.4460587,0.6161485,0.42961532,0.47904256,0,0.0,0.0,0.0,0.0,0.0,0,0,0.0,0.0,0,0,7.0,0.0,458.0,4553.846153846154,3931.2820512820517,4466.153846153847,4462.051282051282,4248.205128205129,4525.128205128206,4441.538461538462,4394.871794871796,4343.076923076924,4694.871794871796,4364.102564102564,4170.256410256411,4170.769230769231,4522.051282051282
1929.6583,0.4460587,0.6161485,0.42961532,0.47904256,0,0.0,0.0,0.0,0.0,0.0,0,0,0.0,0.0,0,0,7.0,0.0,458.0,4553.846153846154,3931.2820512820517,4466.153846153847,4462.051282051282,4248.205128205129,4525.128205128206,4441.538461538462,4394.871794871796,4343.076923076924,4694.871794871796,4364.102564102564,4170.256410256411,4170.769230769231,4522.051282051282
1930.1587,0.4417017,0.57531166,0.43385783,0.49621132,0,0.0,0.0,0.0,0.0,0.0,0,0,0.0,0.0,0,0,71.0,0.0,458.0,4564.615384615385,3941.0256410256416,4474.358974358975,4459.48717948718,4234.871794871796,4526.666666666667,4445.641025641026,4441.025641025642,4415.384615384616,4736.410256410257,4370.256410256411,4280.000000000001,4191.282051282052,4549.2307692307695
1930.1587,0.4417017,0.57531166,0.43385783,0.49621132,0,0.0,0.0,0.0,0.0,0.0,0,0,0.0,0.0,0,0,71.0,0.0,458.0,4564.615384615385,3941.0256410256416,4474.358974358975,4459.48717948718,4234.871794871796,4526.666666666667,4445.641025641026,4441.025641025642,4415.384615384616,4736.410256410257,4370.256410256411,4280.000000000001,4191.282051282052,4549.2307692307695
1930.6592,0.42986733,0.55178547,0.43988127,0.5116631,0,0.0,0.0,0.0,0.0,0.0,0,0,0.0,0.0,0,0,6.0,0.0,555.0,4562.564102564103,3911.7948717948725,4503.076923076924,4428.717948717949,4216.923076923077,4510.769230769231,4430.256410256411,4428.205128205129,4417.435897435898,4752.820512820514,4362.564102564103,4374.871794871796,4231.794871794872,4525.128205128206
1930.6592,0.42986733,0.55178547,0.43988127,0.5116631,0,0.0,0.0,0.0,0.0,0.0,0,0,0.0,0.0,0,0,6.0,0.0,555.0,4562.564102564103,3911.7948717948725,4503.076923076924,4428.717948717949,4216.923076923077,4510.769230769231,4430.256410256411,4428.205128205129,4417.435897435898,4752.820512820514,4362.564102564103,4374.871794871796,4231.794871794872,4525.128205128206
1931.1595,0.38428316,0.5387619,0.44530037,0.5179794,0,0.0,0.0,0.0,0.0,0.0,0,0,0.0,0.0,0,0,70.0,0.0,555.0,4562.051282051282,3922.564102564103,4521.538461538462,4430.256410256411,4222.051282051282,4522.564102564103,4453.846153846154,4460.000000000001,4430.256410256411,4749.2307692307695,4354.871794871796,4385.128205128206,4224.615384615385,4525.128205128206
1931.1595,0.38428316,0.5387619,0.44530037,0.5179794,0,0.0,0.0,0.0,0.0,0.0,0,0,0.0,0.0,0,0,70.0,0.0,555.0,4562.051282051282,3922.564102564103,4521.538461538462,4430.256410256411,4222.051282051282,4522.564102564103,4453.846153846154,4460.000000000001,4430.256410256411,4749.2307692307695,4354.871794871796,4385.128205128206,4224.615384615385,4525.128205128206
1931.66,0.37578818,0.53655773,0.44297448,0.52366436,0,0.0,0.0,0.0,0.0,0.0,0,0,0.0,0.0,0,0,5.0,0.0,558.0,4557.948717948719,3910.7692307692314,4537.948717948719,4423.076923076924,4231.794871794872,4536.410256410257,4472.307692307693,4461.538461538462,4444.615384615385,4754.871794871796,4386.153846153847,4402.051282051282,4211.794871794872,4523.076923076924
1931.66,0.37578818,0.53655773,0.44297448,0.52366436,0,0.0,0.0,0.0,0.0,0.0,0,0,0.0,0.0,0,0,5.0,0.0,558.0,4557.948717948719,3910.7692307692314,4537.948717948719,4423.076923076924,4231.794871794872,4536.410256410257,4472.307692307693,4461.538461538462,4444.615384615385,4754.871794871796,4386.153846153847,4402.051282051282,4211.794871794872,4523.076923076924
1932.2855,0.35832834,0.5303406,0.4381577,0.52189803,0,0.0,0.0,0.0,0.0,0.037110403,0,0,0.0,0.0,0,0,85.0,0.0,462.0,4550.256410256411,3939.48717948718,4546.153846153847,4461.025641025642,4261.538461538462,4542.564102564103,4482.564102564103,4424.102564102564,4234.358974358975,4542.564102564103,4300.512820512821,4237.948717948719,3962.0512820512827,4367.179487179487
1932.4106,0.35832834,0.5303406,0.4381577,0.52189803,0,0.0,0.0,0.0,0.0,0.0,0,0,0.0,0.0,0,0,101.0,0.0,462.0,4553.846153846154,3938.461538461539,4548.717948717949,4457.435897435898,4259.48717948718,4545.641025641026,4493.333333333334,4458.974358974359,4258.461538461539,4577.435897435898,4347.6923076923085,4240.000000000001,4008.717948717949,4400.512820512821
1932.6609,0.452835,0.52259725,0.43082893,0.5115281,0,0.0,0.0,0.0,0.0,0.0,0,0,0.0,0.0,0,0,4.0,0.0,557.0,4562.051282051282,3938.9743589743593,4527.6923076923085,4457.948717948719,4261.025641025642,4540.512820512821,4474.358974358975,4443.076923076924,4252.307692307693,4573.333333333334,4348.205128205129,4181.538461538462,4013.8461538461543,4419.48717948718
1932.6609,0.452835,0.52259725,0.43082893,0.5115281,0,0.0,0.0,0.0,0.0,0.0,0,0,0.0,0.0,0,0,4.0,0.0,557.0,4562.051282051282,3938.9743589743593,4527.6923076923085,4457.948717948719,4261.025641025642,4540.512820512821,4474.358974358975,4443.076923076924,4252.307692307693,4573.333333333334,4348.205128205129,4181.538461538462,4013.8461538461543,4419.48717948718
1933.1614,0.3870981,0.5254686,0.42722455,0.49290937,0,0.0,0.0,0.0,0.0,0.0,0,0,0.0,0.0,0,0,68.0,0.0,557.0,4541.025641025642,3923.076923076924,4486.666666666667,4443.589743589744,4247.6923076923085,4543.076923076924,4475.8974358974365,4492.820512820514,4367.6923076923085,4673.846153846154,4377.948717948719,4216.923076923077,4155.384615384616,4477.435897435898
1933.1614,0.3870981,0.5254686,0.42722455,0.49290937,0,0.0,0.0,0.0,0.0,0.0,0,0,0.0,0.0,0,0,68.0,0.0,557.0,4541.025641025642,3923.076923076924,4486.666666666667,4443.589743589744,4247.6923076923085,4543.076923076924,4475.8974358974365,4492.820512820514,4367.6923076923085,4673.846153846154,4377.948717948719,4216.923076923077,4155.384615384616,4477.435897435898
1933.6617,0.31115505,0.53476137,0.42525178,0.47615507,0,0.0,0.0,0.0,0.0,0.0,0,0,0.0,0.0,0,0,3.0,0.0,542.0,4543.076923076924,3923.076923076924,4488.205128205129,4440.512820512821,4236.923076923077,4536.410256410257,4447.6923076923085,4473.846153846154,4449.743589743591,4767.6923076923085,4422.051282051282,4284.615384615385,4278.461538461539,4518.461538461539
1933.6617,0.31115505,0.53476137,0.42525178,0.47615507,0,0.0,0.0,0.0,0.0,0.0,0,0,0.0,0.0,0,0,3.0,0.0,542.0,4543.076923076924,3923.076923076924,4488.205128205129,4440.512820512821,4236.923076923077,4536.410256410257,4447.6923076923085,4473.846153846154,4449.743589743591,4767.6923076923085,4422.051282051282,4284.615384615385,4278.461538461539,4518.461538461539
1934.1622,0.32650474,0.5419278,0.4262868,0.46107978,0,0.0,0.0,0.0,0.0,0.0,0,0,0.0,0.0,0,0,67.0,0.0,542.0,4548.717948717949,3929.7435897435903,4531.794871794872,4460.512820512821,4269.2307692307695,4565.641025641026,4477.435897435898,4523.589743589744,4461.538461538462,4770.769230769231,4420.512820512821,4329.2307692307695,4249.2307692307695,4496.923076923077
1934.4124,0.32650474,0.5419278,0.4262868,0.46107978,0,0.0,0.0,0.0,0.0,0.0,0,0,0.0,0.0,0,0,99.0,0.0,509.0,4546.666666666667,3941.538461538462,4510.256410256411,4461.538461538462,4296.410256410257,4577.948717948719,4474.871794871796,4489.2307692307695,4475.384615384616,4782.564102564103,4446.666666666667,4326.153846153847,4252.307692307693,4494.358974358975
1934.6626,0.33066672,0.56052846,0.43209532,0.46011496,0,0.0,0.0,0.0,0.0,0.0,0,0,0.0,0.0,0,0,2.0,0.0,261.0,4547.179487179488,3948.205128205129,4486.666666666667,4458.461538461539,4293.846153846154,4584.615384615385,4476.410256410257,4492.820512820514,4458.461538461539,4767.179487179488,4447.179487179487,4278.974358974359,4243.589743589744,4478.461538461539
1934.6626,0.33066672,0.56052846,0.43209532,0.46011496,0,0.0,0.0,0.0,0.0,0.0,0,0,0.0,0.0,0,0,2.0,0.0,261.0,4547.179487179488,3948.205128205129,4486.666666666667,4458.461538461539,4293.846153846154,4584.615384615385,4476.410256410257,4492.820512820514,4458.461538461539,4767.179487179488,4447.179487179487,4278.974358974359,4243.589743589744,4478.461538461539
1935.1631,0.34754482,0.5691683,0.44691575,0.46291035,0,0.0,0.0,0.0,0.0,0.0,0,0,0.0,0.0,0,0,66.0,0.0,261.0,4546.153846153847,3959.48717948718,4460.000000000001,4443.076923076924,4254.358974358975,4549.743589743591,4432.307692307693,4431.282051282052,4400.000000000001,4741.025641025642,4415.8974358974365,4127.179487179487,4231.794871794872,4509.743589743591
1935.1631,0.34754482,0.5691683,0.44691575,0.46291035,0,0.0,0.0,0.0,0.0,0.0,0,0,0.0,0.0,0,0,66.0,0.0,261.0,4546.153846153847,3959.48717948718,4460.000000000001,4443.076923076924,4254.358974358975,4549.743589743591,4432.307692307693,4431.282051282052,4400.000000000001,4741.025641025642,4415.8974358974365,4127.179487179487,4231.794871794872,4509.743589743591
1935.6635,0.29953736,0.580524,0.4602514,0.46542734,0,0.0,0.0,0.0,0.0,0.0,0,0,0.0,0.0,0,0,1.0,0.0,467.0,4602.051282051282,3985.6410256410263,4472.307692307693,4460.000000000001,4233.333333333334,4536.923076923077,4415.8974358974365,4404.615384615385,4412.307692307693,4749.2307692307695,4381.538461538462,4095.8974358974365,4247.179487179487,4553.846153846154
1935.6635,0.29953736,0.580524,0.4602514,0.46542734,0,0.0,0.0,0.0,0.0,0.0,0,0,0.0,0.0,0,0,1.0,0.0,467.0,4602.051282051282,3985.6410256410263,4472.307692307693,4460.000000000001,4233.333333333334,4536.923076923077,4415.8974358974365,4404.615384615385,4412.307692307693,4749.2307692307695,4381.538461538462,4095.8974358974365,4247.179487179487,4553.846153846154
1936.164,0.25774908,0.583439,0.4732766,0.46769372,0,0.0,0.0,0.0,0.0,0.0,0,0,0.0,0.0,0,0,65.0,0.0,467.0,4619.48717948718,3962.0512820512827,4518.461538461539,4427.6923076923085,4216.410256410257,4530.769230769231,4431.794871794872,4410.769230769231,4442.051282051282,4763.589743589744,4360.000000000001,4206.153846153847,4250.256410256411,4511.794871794872
1936.164,0.25774908,0.583439,0.4732766,0.46769372,0,0.0,0.0,0.0,0.0,0.0,0,0,0.0,0.0,0,0,65.0,0.0,467.0,4619.48717948718,3962.0512820512827,4518.461538461539,4427.6923076923085,4216.410256410257,4530.769230769231,4431.794871794872,4410.769230769231,4442.051282051282,4763.589743589744,4360.000000000001,4206.153846153847,4250.256410256411,4511.794871794872
1936.6643,0.24884224,0.5709417,0.48499572,0.4633221,0,0.0,0.0,0.0,0.0,0.0,0,0,0.0,0.0,0,0,0.0,0.0,516.0,4604.615384615385,3945.1282051282055,4537.948717948719,4400.512820512821,4230.769230769231,4527.6923076923085,4427.179487179487,4409.2307692307695,4462.051282051282,4763.589743589744,4349.2307692307695,4322.051282051282,4228.205128205129,4428.205128205129
1936.6643,0.24884224,0.5709417,0.48499572,0.4633221,0,0.0,0.0,0.0,0.0,0.0,0,0,0.0,0.0,0,0,0.0,0.0,516.0,4604.615384615385,3945.1282051282055,4537.948717948719,4400.512820512821,4230.769230769231,4527.6923076923085,4427.179487179487,4409.2307692307695,4462.051282051282,4763.589743589744,4349.2307692307695,4322.051282051282,4228.205128205129,4428.205128205129
1937.1648,0.21739528,0.55427164,0.48905778,0.45938995,0,0.0,0.0,0.0,0.0,0.0,0,0,0.0,0.0,0,0,64.0,0.0,516.0,4544.615384615385,3910.2564102564106,4461.538461538462,4505.641025641026,4332.307692307693,4596.410256410257,4489.743589743591,4484.615384615385,4301.538461538462,4664.615384615386,4475.8974358974365,4154.358974358975,4041.538461538462,4337.948717948719
1937.1648,0.21739528,0.55427164,0.48905778,0.45938995,0,0.0,0.0,0.0,0.0,0.0,0,0,0.0,0.0,0,0,64.0,0.0,516.0,4544.615384615385,3910.2564102564106,4461.538461538462,4505.641025641026,4332.307692307693,4596.410256410257,4489.743589743591,4484.615384615385,4301.538461538462,4664.615384615386,4475.8974358974365,4154.358974358975,4041.538461538462,4337.948717948719
1937.6652,0.30778378,0.5342467,0.48891982,0.45189837,0,0.0,0.0,0.0,0.0,0.0,0,0,0.0,0.0,0,0,128.0,0.0,513.0,4510.769230769231,3862.564102564103,4318.974358974359,4585.128205128206,4358.461538461539,4644.615384615385,4453.846153846154,4516.923076923077,4277.435897435898,4726.153846153847,4543.589743589744,4073.333333333334,4029.23076923077,4405.641025641026
1937.6652,0.30778378,0.5342467,0.48891982,0.45189837,0,0.0,0.0,0.0,0.0,0.0,0,0,0.0,0.0,0,0,128.0,0.0,513.0,4510.769230769231,3862.564102564103,4318.974358974359,4585.128205128206,4358.461538461539,4644.615384615385,4453.846153846154,4516.923076923077,4277.435897435898,4726.153846153847,4543.589743589744,4073.333333333334,4029.23076923077,4405.641025641026
1938.1656,0.24835493,0.5175135,0.48879305,0.43118846,0,0.0,0.0,0.0,0.0,0.0,0,0,0.0,0.0,0,0,63.0,0.0,0.0,4541.538461538462,3904.615384615385,4389.2307692307695,4555.384615384616,4262.051282051282,4595.384615384616,4440.000000000001,4475.8974358974365,4378.461538461539,4761.025641025642,4513.333333333334,4244.615384615385,4168.205128205129,4450.769230769231
1938.1656,0.24835493,0.5175135,0.48879305,0.43118846,0,0.0,0.0,0.0,0.0,0.0,0,0,0.0,0.0,0,0,63.0,0.0,0.0,4541.538461538462,3904.615384615385,4389.2307692307695,4555.384615384616,4262.051282051282,4595.384615384616,4440.000000000001,4475.8974358974365,4378.461538461539,4761.025641025642,4513.333333333334,4244.615384615385,4168.205128205129,4450.769230769231
1938.666,0.1974029,0.5138601,0.49137893,0.41337642,0,0.0,0.0,0.0,0.0,0.16749094,0,0,0.0,0.0,0,0,127.0,0.0,510.0,4589.743589743591,3926.666666666667,4518.461538461539,4457.435897435898,4157.948717948719,4520.000000000001,4449.743589743591,4430.256410256411,4439.48717948718,4737.948717948719,4380.000000000001,4340.512820512821,4234.358974358975,4543.076923076924
1938.9163,0.1974029,0.5138601,0.49137893,0.41337642,0,0.0,0.0,0.0,0.0,0.0,0,0,0.0,0.0,0,0,30.0,0.0,0.0,4583.589743589744,3943.076923076924,4556.923076923077,4407.179487179487,4121.538461538462,4474.358974358975,4443.589743589744,4414.358974358975,4443.076923076924,4693.846153846154,4274.358974358975,4387.6923076923085,4226.666666666667,4570.769230769231
1939.1665,0.17306489,0.5195637,0.50150913,0.40032637,0,0.0,0.0,0.0,0.0,0.0,0,0,0.0,0.0,0,0,62.0,0.0,0.0,4581.025641025642,3955.8974358974365,4590.256410256411,4344.102564102564,4085.1282051282055,4439.48717948718,4428.717948717949,4347.179487179487,4438.974358974359,4683.589743589744,4225.641025641026,4452.820512820514,4237.948717948719,4559.48717948718
1939.4167,0.17306489,0.5195637,0.50150913,0.40032637,0,0.0,0.0,0.0,0.0,0.058367506,0,0,0.0,0.0,0,0,94.0,0.0,536.0,4589.743589743591,3959.48717948718,4635.8974358974365,4318.461538461539,4079.48717948718,4427.179487179487,4427.179487179487,4337.948717948719,4461.025641025642,4696.410256410257,4199.48717948718,4498.461538461539,4239.48717948718,4526.153846153847
1939.6669,0.25013047,0.5330203,0.52257556,0.3793912,0,0.0,0.0,0.0,0.0,0.0,0,0,0.0,0.0,0,0,126.0,0.0,536.0,4585.641025641026,3962.564102564103,4653.333333333334,4313.333333333334,4093.333333333334,4428.205128205129,4440.512820512821,4328.717948717949,4438.461538461539,4684.102564102564,4171.282051282052,4465.641025641026,4225.641025641026,4480.000000000001
1939.6669,0.25013047,0.5330203,0.52257556,0.3793912,0,0.0,0.0,0.0,0.0,0.0,0,0,0.0,0.0,0,0,126.0,0.0,536.0,4585.641025641026,3962.564102564103,4653.333333333334,4313.333333333334,4093.333333333334,4428.205128205129,4440.512820512821,4328.717948717949,4438.461538461539,4684.102564102564,4171.282051282052,4465.641025641026,4225.641025641026,4480.000000000001
1940.1674,0.25660416,0.5429182,0.5445484,0.3605687,0,0.0,0.0,0.0,0.0,0.0,0,0,0.0,0.0,0,0,61.0,0.0,0.0,4576.923076923077,3953.8461538461543,4641.025641025642,4320.512820512821,4135.384615384616,4443.076923076924,4423.589743589744,4333.333333333334,4425.128205128206,4678.461538461539,4184.615384615385,4476.923076923077,4200.512820512821,4370.769230769231
1940.1674,0.25660416,0.5429182,0.5445484,0.3605687,0,0.0,0.0,0.0,0.0,0.0,0,0,0.0,0.0,0,0,61.0,0.0,0.0,4576.923076923077,3953.8461538461543,4641.025641025642,4320.512820512821,4135.384615384616,4443.076923076924,4423.589743589744,4333.333333333334,4425.128205128206,4678.461538461539,4184.615384615385,4476.923076923077,4200.512820512821,4370.769230769231
1940.6677,0.24469402,0.5386665,0.564315,0.3495413,0,0.0,0.0,0.0,0.0,0.0,0,0,0.0,0.0,0,0,125.0,0.0,458.0,4563.589743589744,3929.2307692307695,4611.794871794872,4327.6923076923085,4172.307692307693,4457.435897435898,4426.666666666667,4320.512820512821,4396.923076923077,4660.000000000001,4201.025641025642,4412.820512820514,4152.820512820514,4348.205128205129
1940.6677,0.24469402,0.5386665,0.564315,0.3495413,0,0.0,0.0,0.0,0.0,0.0,0,0,0.0,0.0,0,0,125.0,0.0,458.0,4563.589743589744,3929.2307692307695,4611.794871794872,4327.6923076923085,4172.307692307693,4457.435897435898,4426.666666666667,4320.512820512821,4396.923076923077,4660.000000000001,4201.025641025642,4412.820512820514,4152.820512820514,4348.205128205129
1941.1682,0.22442251,0.5360334,0.57907456,0.3475396,0,0.0,0.0,0.0,0.0,0.0,0,0,0.0,0.0,0,0,60.0,0.0,0.0,4610.769230769231,3910.7692307692314,4573.333333333334,4338.461538461539,4201.025641025642,4477.435897435898,4434.871794871796,4320.512820512821,4347.179487179487,4613.333333333334,4217.435897435898,4361.538461538462,4082.564102564103,4310.769230769231
1941.1682,0.22442251,0.5360334,0.57907456,0.3475396,0,0.0,0.0,0.0,0.0,0.0,0,0,0.0,0.0,0,0,60.0,0.0,0.0,4610.769230769231,3910.7692307692314,4573.333333333334,4338.461538461539,4201.025641025642,4477.435897435898,4434.871794871796,4320.512820512821,4347.179487179487,4613.333333333334,4217.435897435898,4361.538461538462,4082.564102564103,4310.769230769231
1941.6686,0.25785834,0.54620355,0.59062266,0.34596127,0,0.0,0.0,0.0,0.0,0.0,0,0,0.0,0.0,0,0,124.0,0.0,513.0,4660.512820512821,3924.1025641025644,4550.769230769231,4367.6923076923085,4215.384615384616,4492.307692307693,4424.615384615385,4227.179487179487,4204.615384615385,4504.615384615385,4200.512820512821,4207.6923076923085,3979.48717948718,4315.8974358974365
1941.6686,0.25785834,0.54620355,0.59062266,0.34596127,0,0.0,0.0,0.0,0.0,0.0,0,0,0.0,0.0,0,0,124.0,0.0,513.0,4660.512820512821,3924.1025641025644,4550.769230769231,4367.6923076923085,4215.384615384616,4492.307692307693,4424.615384615385,4227.179487179487,4204.615384615385,4504.615384615385,4200.512820512821,4207.6923076923085,3979.48717948718,4315.8974358974365
1942.1691,0.39237222,0.5571754,0.5943379,0.34060806,0,0.0,0.0,0.0,0.0,0.0,0,0,0.0,0.0,0,0,59.0,0.0,0.0,4687.6923076923085,3916.410256410257,4516.923076923077,4372.820512820514,4232.820512820514,4521.538461538462,4446.153846153847,4289.74358974359,4278.974358974359,4587.179487179488,4237.435897435898,4181.538461538462,4056.410256410257,4379.48717948718
1942.1691,0.39237222,0.5571754,0.5943379,0.34060806,0,0.0,0.0,0.0,0.0,0.0,0,0,0.0,0.0,0,0,59.0,0.0,0.0,4687.6923076923085,3916.410256410257,4516.923076923077,4372.820512820514,4232.820512820514,4521.538461538462,4446.153846153847,4289.74358974359,4278.974358974359,4587.179487179488,4237.435897435898,4181.538461538462,4056.410256410257,4379.48717948718
1942.6694,0.3485679,0.59652984,0.5916042,0.3402726,0,0.0,0.0,0.0,0.0,0.0,0,0,0.0,0.0,0,0,123.0,0.0,512.0,4749.743589743591,3939.48717948718,4520.512820512821,4381.538461538462,4231.794871794872,4518.461538461539,4444.102564102564,4349.743589743591,4383.076923076924,4701.538461538462,4290.256410256411,4232.307692307693,4165.641025641026,4418.974358974359
1942.9197,0.3485679,0.59652984,0.5916042,0.3402726,0,0.0,0.0,0.0,0.0,1.0,0,0,0.0,0.0,0,0,26.0,0.0,0.0,4782.051282051282,3941.0256410256416,4526.153846153847,4397.435897435898,4235.384615384616,4519.48717948718,4443.589743589744,4361.538461538462,4412.820512820514,4747.6923076923085,4309.743589743591,4281.538461538462,4210.256410256411,4602.564102564103
1943.1699,0.36936674,0.63928723,0.5794702,0.34391987,0,0.0,0.0,0.0,0.0,1.0,0,0,0.0,0.0,0,0,58.0,0.0,0.0,4790.256410256411,3942.564102564103,4538.461538461539,4396.410256410257,4227.6923076923085,4503.589743589744,4458.974358974359,4403.076923076924,4441.025641025642,4771.282051282052,4316.410256410257,4304.102564102564,4229.74358974359,4743.076923076924
1943.1699,0.36936674,0.63928723,0.5794702,0.34391987,0,0.0,0.0,0.0,0.0,1.0,0,0,0.0,0.0,0,0,58.0,0.0,0.0,4790.256410256411,3942.564102564103,4538.461538461539,4396.410256410257,4227.6923076923085,4503.589743589744,4458.974358974359,4403.076923076924,4441.025641025642,4771.282051282052,4316.410256410257,4304.102564102564,4229.74358974359,4743.076923076924
1943.6704,0.44374385,0.65518105,0.56854755,0.34745935,0,0.0,0.0,0.0,0.0,0.719776,0,0,0.0,0.0,0,0,122.0,0.0,536.0,4710.256410256411,3907.1794871794878,4531.282051282052,4396.923076923077,4252.820512820514,4524.102564102564,4444.102564102564,4388.205128205129,4367.179487179487,4682.564102564103,4326.666666666667,4293.333333333334,4105.641025641026,4602.564102564103
1943.9205,0.44374385,0.65518105,0.56854755,0.34745935,0,0.0,0.0,0.0,0.0,0.0,0,0,0.0,0.0,0,0,25.0,0.0,0.0,4682.564102564103,3884.615384615385,4541.025641025642,4460.000000000001,4314.358974358975,4564.615384615385,4466.666666666667,4407.6923076923085,4261.538461538462,4628.205128205129,4391.282051282052,4217.948717948719,4019.48717948718,4590.769230769231
1944.1708,0.44286478,0.65852916,0.5587149,0.34645706,0,0.0,0.0,0.0,0.0,0.0,0,0,0.0,0.0,0,0,57.0,0.0,0.0,4675.384615384616,3893.8461538461543,4423.589743589744,4536.410256410257,4360.512820512821,4609.2307692307695,4473.846153846154,4458.461538461539,4231.794871794872,4671.282051282052,4489.2307692307695,4037.9487179487182,4039.48717948718,4701.025641025642
1944.1708,0.44286478,0.65852916,0.5587149,0.34645706,0,0.0,0.0,0.0,0.0,0.0,0,0,0.0,0.0,0,0,57.0,0.0,0.0,4675.384615384616,3893.8461538461543,4423.589743589744,4536.410256410257,4360.512820512821,4609.2307692307695,4473.846153846154,4458.461538461539,4231.794871794872,4671.282051282052,4489.2307692307695,4037.9487179487182,4039.48717948718,4701.025641025642
1944.6713,0.49205565,0.6615782,0.5518748,0.3455635,0,0.0,0.0,0.0,0.0,1.0,0,0,0.0,0.0,0,0,121.0,0.0,461.0,4642.564102564103,3909.7435897435903,4341.025641025642,4544.102564102564,4326.153846153847,4614.871794871796,4454.871794871796,4515.384615384616,4333.846153846154,4809.743589743591,4533.333333333334,3902.564102564103,4156.410256410257,4999.48717948718
1944.9214,0.49205565,0.6615782,0.5518748,0.3455635,0,0.0,0.0,0.0,0.0,0.6761086,0,0,0.0,0.0,0,0,24.0,0.0,0.0,4623.589743589744,3915.3846153846157,4369.2307692307695,4511.282051282052,4270.769230769231,4585.641025641026,4434.871794871796,4460.512820512821,4357.948717948719,4778.974358974359,4457.435897435898,3956.9230769230776,4167.179487179487,4858.974358974359
1945.1716,0.5342283,0.6643223,0.55955327,0.3409207,0,0.0,0.0,0.0,0.0,1.0,0,0,0.0,0.0,0,0,56.0,0.0,0.0,4626.666666666667,3911.7948717948725,4411.282051282052,4479.48717948718,4225.128205128206,4551.282051282052,4443.589743589744,4459.48717948718,4380.512820512821,4766.666666666667,4430.769230769231,4078.461538461539,4195.8974358974365,4797.435897435898
1945.2968,0.5342283,0.6643223,0.55955327,0.3409207,0,0.0,0.0,0.0,0.0,0.0,0,0,0.0,0.0,0,0,72.0,0.0,467.0,4637.948717948719,3926.1538461538466,4417.948717948719,4448.205128205129,4201.025641025642,4521.025641025642,4411.282051282052,4427.6923076923085,4377.435897435898,4755.8974358974365,4407.6923076923085,4116.923076923077,4207.179487179487,4778.461538461539
1945.6721,0.54022235,0.66679204,0.5677549,0.33600998,0,0.0,0.0,0.0,0.0,0.41487232,0,0,0.0,0.0,0,0,120.0,0.0,512.0,4662.564102564103,3950.7692307692314,4469.2307692307695,4396.410256410257,4154.871794871796,4490.769230769231,4421.538461538462,4380.512820512821,4382.051282051282,4688.717948717949,4295.384615384616,4212.820512820514,4153.333333333334,4603.076923076924
1945.9222,0.54022235,0.66679204,0.5677549,0.33600998,0,0.0,0.0,0.0,0.0,0.49431196,0,0,0.0,0.0,0,0,23.0,0.0,0.0,4649.2307692307695,3956.9230769230776,4524.102564102564,4366.666666666667,4122.564102564103,4463.076923076924,4445.641025641026,4335.384615384616,4342.564102564103,4651.282051282052,4251.282051282052,4266.153846153847,4141.538461538462,4584.615384615385
1946.1725,0.5144255,0.66901475,0.5805297,0.3276528,0,0.0,0.0,0.0,0.0,0.088439494,0,0,0.0,0.0,0,0,55.0,0.0,0.0,4633.846153846154,3987.1794871794878,4552.820512820514,4373.333333333334,4151.794871794872,4471.794871794872,4421.538461538462,4324.615384615385,4363.076923076924,4660.000000000001,4238.461538461539,4270.256410256411,4150.256410256411,4609.743589743591
1946.2976,0.5144255,0.66901475,0.5805297,0.3276528,0,0.0,0.0,0.0,0.0,0.0,0,0,0.0,0.0,0,0,71.0,0.0,460.0,4646.153846153847,3985.6410256410263,4553.846153846154,4371.794871794872,4136.410256410257,4457.435897435898,4416.410256410257,4293.846153846154,4346.666666666667,4645.128205128206,4222.564102564103,4278.974358974359,4153.846153846154,4617.435897435898
1946.673,0.5267522,0.6388951,0.59808844,0.3163389,0,0.0,0.0,0.0,0.0,0.0,0,0,0.0,0.0,0,0,119.0,0.0,498.0,4683.589743589744,4012.307692307693,4601.538461538462,4404.615384615385,4157.948717948719,4457.948717948719,4393.846153846154,4331.282051282052,4382.051282051282,4671.282051282052,4239.48717948718,4369.2307692307695,4208.205128205129,4651.282051282052
1946.673,0.5267522,0.6388951,0.59808844,0.3163389,0,0.0,0.0,0.0,0.0,0.0,0,0,0.0,0.0,0,0,119.0,0.0,498.0,4683.589743589744,4012.307692307693,4601.538461538462,4404.615384615385,4157.948717948719,4457.948717948719,4393.846153846154,4331.282051282052,4382.051282051282,4671.282051282052,4239.48717948718,4369.2307692307695,4208.205128205129,4651.282051282052
1947.1733,0.4962352,0.6584879,0.6229576,0.30287743,0,0.0,0.0,0.0,0.0,0.0,0,0,0.0,0.0,0,0,54.0,0.0,0.0,4675.384615384616,3956.410256410257,4576.410256410257,4385.128205128206,4185.128205128206,4477.948717948719,4414.358974358975,4371.282051282052,4430.256410256411,4699.48717948718,4231.794871794872,4416.410256410257,4228.717948717949,4585.641025641026
1947.1733,0.4962352,0.6584879,0.6229576,0.30287743,0,0.0,0.0,0.0,0.0,0.0,0,0,0.0,0.0,0,0,54.0,0.0,0.0,4675.384615384616,3956.410256410257,4576.410256410257,4385.128205128206,4185.128205128206,4477.948717948719,4414.358974358975,4371.282051282052,4430.256410256411,4699.48717948718,4231.794871794872,4416.410256410257,4228.717948717949,4585.641025641026
1947.7051,0.43886235,0.701406,0.6454047,0.29777563,0,0.0,0.0,0.0,0.0,0.0,0,0,0.0,0.0,0,0,122.0,0.0,536.0,4687.6923076923085,3898.461538461539,4559.48717948718,4352.307692307693,4202.051282051282,4487.179487179488,4418.461538461539,4356.410256410257,4452.820512820514,4717.435897435898,4264.615384615385,4424.102564102564,4201.538461538462,4525.128205128206
1947.7051,0.43886235,0.701406,0.6454047,0.29777563,0,0.0,0.0,0.0,0.0,0.0,0,0,0.0,0.0,0,0,122.0,0.0,536.0,4687.6923076923085,3898.461538461539,4559.48717948718,4352.307692307693,4202.051282051282,4487.179487179488,4418.461538461539,4356.410256410257,4452.820512820514,4717.435897435898,4264.615384615385,4424.102564102564,4201.538461538462,4525.128205128206
1948.1742,0.42314246,0.7634057,0.6601143,0.2990728,0,0.0,0.0,0.0,0.0,0.0,0,0,0.0,0.0,0,0,53.0,0.0,0.0,4655.384615384616,3889.2307692307695,4554.358974358975,4385.641025641026,4257.948717948719,4538.461538461539,4469.2307692307695,4338.974358974359,4290.769230769231,4557.948717948719,4277.948717948719,4273.846153846154,4004.1025641025644,4356.410256410257
1948.1742,0.42314246,0.7634057,0.6601143,0.2990728,0,0.0,0.0,0.0,0.0,0.0,0,0,0.0,0.0,0,0,53.0,0.0,0.0,4655.384615384616,3889.2307692307695,4554.358974358975,4385.641025641026,4257.948717948719,4538.461538461539,4469.2307692307695,4338.974358974359,4290.769230769231,4557.948717948719,4277.948717948719,4273.846153846154,4004.1025641025644,4356.410256410257
1948.6747,0.40617594,0.84152144,0.65873885,0.31039435,0,0.0,0.0,0.0,0.0,0.0,0,0,0.0,0.0,0,0,117.0,0.0,461.0,4642.051282051282,3911.7948717948725,4512.820512820514,4460.000000000001,4294.871794871796,4568.205128205129,4462.051282051282,4348.205128205129,4222.564102564103,4554.871794871796,4346.153846153847,4098.974358974359,3989.7435897435903,4493.846153846154
1948.6747,0.40617594,0.84152144,0.65873885,0.31039435,0,0.0,0.0,0.0,0.0,0.0,0,0,0.0,0.0,0,0,117.0,0.0,461.0,4642.051282051282,3911.7948717948725,4512.820512820514,4460.000000000001,4294.871794871796,4568.205128205129,4462.051282051282,4348.205128205129,4222.564102564103,4554.871794871796,4346.153846153847,4098.974358974359,3989.7435897435903,4493.846153846154
1949.175,0.3716172,0.84926015,0.62612116,0.33466837,0,0.0,0.0,0.0,0.0,0.0,0,0,0.0,0.0,0,0,52.0,0.0,0.0,4656.410256410257,3785.1282051282055,4502.564102564103,4306.153846153847,4278.974358974359,4543.589743589744,4424.615384615385,4357.435897435898,4284.102564102564,4663.589743589744,4344.102564102564,4049.7435897435903,4090.7692307692314,4528.205128205129
