timestamp,excitement,frustration,meditation,engagementBoredom,blink,clench,laugh,smile,eyebrow,furrowBrow,lookLeft,lookRight,smirkLeft,smirkRight,winkLeft,winkRight,eeg0,eeg1,eeg2,eeg3,eeg4,eeg5,eeg6,eeg7,eeg8,eeg9,eeg10,eeg11,eeg12,eeg13,eeg14,eeg15,eeg16
53.671124,0.9317339,0.8803923,0.36309186,0.5986949,0,0.0,0.0,0.0,0.0,0.29150966,0,0,0.0,0.0,0,0,52.0,0.0,0.0,4355.8974358974365,3466.1538461538466,4494.871794871796,3895.3846153846157,3754.8717948717954,4029.23076923077,3849.2307692307695,3878.9743589743593,3914.8717948717954,4081.0256410256416,4025.6410256410263,3697.9487179487182,3862.0512820512827,4250.256410256411
53.921337,0.9317339,0.8803923,0.36309186,0.5986949,0,0.0,0.0,0.0,0.0,1.0,0,0,0.0,0.0,0,0,84.0,0.0,494.0,4607.6923076923085,3477.9487179487182,4458.974358974359,3897.435897435898,3758.461538461539,4075.3846153846157,3876.9230769230776,3881.538461538462,3920.0000000000005,4064.1025641025644,3979.48717948718,3729.7435897435903,3860.512820512821,4262.051282051282
54.171555,0.94244146,0.8974459,0.36003694,0.5939879,0,0.0,0.0,0.0,0.0,0.5731067,0,0,0.0,0.0,0,0,116.0,0.0,494.0,4582.051282051282,3498.9743589743593,4334.871794871796,3865.1282051282055,3786.1538461538466,4106.153846153847,3908.717948717949,3927.1794871794878,3955.8974358974365,4093.333333333334,3987.692307692308,3744.1025641025644,3930.2564102564106,4293.333333333334
54.42177,0.94244146,0.8974459,0.36003694,0.5939879,0,0.0,0.0,0.0,0.0,0.94949526,0,0,0.0,0.0,0,0,19.0,0.0,0.0,4408.205128205129,3573.333333333334,4255.384615384616,3831.2820512820517,3801.538461538462,4122.051282051282,3938.9743589743593,3939.48717948718,3959.48717948718,4091.2820512820517,3988.205128205129,3784.1025641025644,3950.2564102564106,4311.794871794872
54.671986,0.9485336,0.9127942,0.35729596,0.58975834,0,0.0,0.0,0.0,0.0,1.0,0,0,0.0,0.0,0,0,51.0,0.0,0.0,4287.179487179487,3597.435897435898,4200.000000000001,3852.307692307693,3787.692307692308,4101.538461538462,3930.2564102564106,3927.1794871794878,3946.1538461538466,4109.2307692307695,3882.564102564103,3792.307692307693,3917.435897435898,3624.615384615385
54.671986,0.9485336,0.9127942,0.35729596,0.58975834,0,0.0,0.0,0.0,0.0,1.0,0,0,0.0,0.0,0,0,51.0,0.0,0.0,4287.179487179487,3597.435897435898,4200.000000000001,3852.307692307693,3787.692307692308,4101.538461538462,3930.2564102564106,3927.1794871794878,3946.1538461538466,4109.2307692307695,3882.564102564103,3792.307692307693,3917.435897435898,3624.615384615385
55.078583,0.91451806,0.9266076,0.35488492,0.58599544,0,0.0,0.0,0.0,0.0,1.0,0,0,0.0,0.0,0,0,103.0,0.0,514.0,4325.128205128206,3741.538461538462,4190.256410256411,4006.1538461538466,3922.0512820512827,4247.6923076923085,4069.7435897435903,4051.2820512820517,4070.7692307692314,4249.2307692307695,3941.538461538462,3896.9230769230776,4017.435897435898,3961.538461538462
55.29752,0.91451806,0.9266076,0.35488492,0.58599544,0,0.0,0.0,0.0,0.0,1.0,0,0,0.0,0.0,0,0,2.0,0.0,423.0,4530.256410256411,3820.0000000000005,4237.948717948719,4103.076923076924,3983.589743589744,4313.846153846154,4157.435897435898,4131.794871794872,4166.153846153847,4369.2307692307695,4063.076923076924,3992.820512820513,4127.6923076923085,4217.948717948719
55.547737,0.9359904,0.9390397,0.3526946,0.5825923,0,0.0,0.0,0.0,0.0,1.0,0,0,0.0,0.0,0,0,34.0,0.0,0.0,4626.153846153847,3850.7692307692314,4251.794871794872,4168.205128205129,4016.410256410257,4347.6923076923085,4200.000000000001,4153.333333333334,4200.000000000001,4427.6923076923085,4121.025641025642,4011.7948717948725,4125.641025641026,4368.205128205129
55.547737,0.9359904,0.9390397,0.3526946,0.5825923,0,0.0,0.0,0.0,0.0,1.0,0,0,0.0,0.0,0,0,34.0,0.0,0.0,4626.153846153847,3850.7692307692314,4251.794871794872,4168.205128205129,4016.410256410257,4347.6923076923085,4200.000000000001,4153.333333333334,4200.000000000001,4427.6923076923085,4121.025641025642,4011.7948717948725,4125.641025641026,4368.205128205129
56.04817,0.97035646,0.9502286,0.3507235,0.5795299,0,0.0,0.0,0.0,0.0,1.0,0,0,0.0,0.0,0,0,98.0,0.0,527.0,4504.102564102564,3944.615384615385,4302.051282051282,4295.384615384616,4062.0512820512827,4411.794871794872,4301.025641025642,4268.717948717949,4330.256410256411,4579.48717948718,4285.128205128206,4133.333333333334,4263.076923076924,4573.333333333334
56.42349,0.97035646,0.9502286,0.3507235,0.5795299,0,0.0,0.0,0.0,0.0,0.2893616,0,0,0.0,0.0,0,0,17.0,0.0,0.0,4575.8974358974365,3957.9487179487182,4393.333333333334,4370.256410256411,4083.589743589744,4454.871794871796,4381.538461538462,4279.48717948718,4353.846153846154,4622.564102564103,4378.974358974359,4197.948717948719,4325.128205128206,4649.743589743591
56.673706,1.0,0.9602986,0.34895322,0.5767766,0,0.0,0.0,0.0,0.0,0.30627003,0,0,0.0,0.0,0,0,49.0,0.0,0.0,4736.410256410257,4008.717948717949,4462.564102564103,4431.794871794872,4124.102564102564,4490.256410256411,4412.307692307693,4296.923076923077,4387.179487179487,4688.717948717949,4443.076923076924,4234.871794871796,4313.333333333334,4684.615384615386
56.798813,1.0,0.9602986,0.34895322,0.5767766,0,0.0,0.0,0.0,0.0,1.0,0,0,0.0,0.0,0,0,65.0,0.0,503.0,4890.769230769231,4004.615384615385,4454.358974358975,4436.410256410257,4126.666666666667,4498.974358974359,4445.641025641026,4309.2307692307695,4380.000000000001,4667.6923076923085,4419.48717948718,4230.256410256411,4259.48717948718,4717.948717948719
57.049026,0.9713613,0.9693616,0.34735727,0.57429177,0,0.0,0.0,0.0,0.0,1.0,0,0,0.0,0.0,0,0,97.0,0.0,506.0,5105.641025641026,4023.076923076924,4470.769230769231,4471.794871794872,4158.974358974359,4525.641025641026,4445.641025641026,4308.205128205129,4398.461538461539,4699.48717948718,4440.000000000001,4261.538461538462,4271.282051282052,4647.179487179488
57.42435,0.9713613,0.9693616,0.34735727,0.57429177,0,0.0,0.0,0.0,0.0,0.48994926,0,0,0.0,0.0,0,0,16.0,0.0,0.0,4980.512820512821,4038.461538461539,4534.871794871796,4490.769230769231,4162.564102564103,4524.102564102564,4430.769230769231,4347.6923076923085,4375.8974358974365,4708.717948717949,4450.256410256411,4267.6923076923085,4287.6923076923085,4715.8974358974365
57.674564,0.9978748,0.97751826,0.34591854,0.572051,0,0.0,0.0,0.0,0.0,0.86369115,0,0,0.0,0.0,0,0,48.0,0.0,0.0,4780.512820512821,4020.5128205128212,4502.051282051282,4470.769230769231,4172.307692307693,4525.641025641026,4427.179487179487,4369.743589743591,4358.461538461539,4705.128205128206,4412.307692307693,4223.076923076924,4278.461538461539,4732.307692307693
57.924778,0.9978748,0.97751826,0.34591854,0.572051,0,0.0,0.0,0.0,0.0,0.7842458,0,0,0.0,0.0,0,0,80.0,0.0,494.0,4738.974358974359,4027.692307692308,4470.769230769231,4490.256410256411,4181.538461538462,4530.256410256411,4462.564102564103,4424.615384615385,4396.410256410257,4733.846153846154,4439.48717948718,4247.179487179487,4294.871794871796,4663.589743589744
58.174995,1.0,0.9848593,0.3468022,0.57003534,0,0.0,0.0,0.0,0.0,0.9714702,0,0,0.0,0.0,0,0,112.0,0.0,494.0,4660.000000000001,4070.7692307692314,4456.923076923077,4521.025641025642,4186.153846153847,4540.000000000001,4476.410256410257,4411.794871794872,4410.256410256411,4767.6923076923085,4471.282051282052,4272.820512820514,4320.000000000001,4776.923076923077
58.42521,1.0,0.9848593,0.3468022,0.57003534,0,0.0,0.0,0.0,0.0,0.62759453,0,0,0.0,0.0,0,0,15.0,0.0,500.0,4602.051282051282,4101.538461538462,4451.794871794872,4524.102564102564,4183.076923076924,4523.076923076924,4457.948717948719,4441.538461538462,4402.564102564103,4763.589743589744,4453.846153846154,4258.974358974359,4313.846153846154,4700.512820512821
58.675423,0.9818859,0.9914662,0.34763056,0.56823874,0,0.0,0.0,0.0,0.0,0.6960359,0,0,0.0,0.0,0,0,47.0,0.0,0.0,4440.512820512821,4124.102564102564,4455.384615384616,4529.2307692307695,4198.461538461539,4541.538461538462,4478.974358974359,4537.435897435898,4410.256410256411,4770.769230769231,4473.846153846154,4274.358974358975,4379.48717948718,4721.538461538462
58.92564,0.9818859,0.9914662,0.34763056,0.56823874,0,0.0,0.0,0.0,0.0,0.6464886,0,0,0.0,0.0,0,0,79.0,0.0,500.0,4704.615384615386,4122.564102564103,4445.641025641026,4523.076923076924,4196.923076923077,4526.153846153847,4491.794871794872,4568.717948717949,4408.717948717949,4780.000000000001,4449.743589743591,4241.025641025642,4408.717948717949,4678.974358974359
59.082024,0.91155624,0.99741244,0.3483761,0.56663144,0,0.0,0.0,0.0,0.0,1.0,0,0,0.0,0.0,0,0,99.0,0.0,500.0,4786.666666666667,4096.410256410257,4461.025641025642,4504.102564102564,4194.871794871796,4522.564102564103,4477.948717948719,4569.743589743591,4401.538461538462,4788.717948717949,4456.410256410257,4241.025641025642,4411.794871794872,4654.358974358975
59.082024,0.91155624,0.99741244,0.3483761,0.56663144,0,0.0,0.0,0.0,0.0,1.0,0,0,0.0,0.0,0,0,99.0,0.0,500.0,4786.666666666667,4096.410256410257,4461.025641025642,4504.102564102564,4194.871794871796,4522.564102564103,4477.948717948719,4569.743589743591,4401.538461538462,4788.717948717949,4456.410256410257,4241.025641025642,4411.794871794872,4654.358974358975
59.582455,0.9037002,1.0,0.34904706,0.56519216,0,0.0,0.0,0.0,0.0,1.0,0,0,0.0,0.0,0,0,34.0,0.0,0.0,4958.461538461539,4208.205128205129,4390.256410256411,4543.076923076924,4289.2307692307695,4572.307692307693,4492.820512820514,4610.769230769231,4417.948717948719,4821.025641025642,4452.307692307693,4282.564102564103,4432.820512820514,4679.48717948718
59.9265,0.9037002,1.0,0.34904706,0.56519216,0,0.0,0.0,0.0,0.0,1.0,0,0,0.0,0.0,0,0,78.0,0.0,527.0,4857.435897435898,4231.794871794872,4278.461538461539,4818.461538461539,4295.8974358974365,4555.384615384616,4457.948717948719,4615.384615384616,4424.615384615385,4821.538461538462,4400.000000000001,4232.307692307693,4397.948717948719,4596.410256410257
60.176716,0.8935522,1.0,0.3474757,0.56389683,0,0.0,0.0,0.0,0.0,1.0,0,0,0.0,0.0,0,0,110.0,0.0,527.0,4772.307692307693,4256.410256410257,4317.435897435898,4954.871794871796,4317.948717948719,4573.846153846154,4438.974358974359,4667.6923076923085,4418.974358974359,4814.871794871796,4446.153846153847,4221.025641025642,4345.128205128206,4511.282051282052
60.42693,0.8935522,1.0,0.3474757,0.56389683,0,0.0,0.0,0.0,0.0,0.37676162,0,0,0.0,0.0,0,0,13.0,0.0,506.0,4818.461538461539,4252.820512820514,4365.641025641026,4957.948717948719,4347.179487179487,4611.794871794872,4464.102564102564,4607.6923076923085,4425.641025641026,4828.205128205129,4348.205128205129,4243.589743589744,4323.589743589744,4567.179487179488
60.677143,0.85635686,1.0,0.34606147,0.562731,0,0.0,0.0,0.0,0.0,0.46787703,0,0,0.0,0.0,0,0,45.0,0.0,0.0,4728.717948717949,4161.025641025642,4345.641025641026,4857.435897435898,4276.410256410257,4568.205128205129,4427.6923076923085,4601.025641025642,4408.717948717949,4780.000000000001,4404.102564102564,4230.256410256411,4299.48717948718,4625.128205128206
60.92736,0.85635686,1.0,0.34606147,0.562731,0,0.0,0.0,0.0,0.0,0.37595624,0,0,0.0,0.0,0,0,77.0,0.0,506.0,4572.307692307693,4062.564102564103,4351.794871794872,4687.179487179488,4218.974358974359,4519.48717948718,4358.461538461539,4567.6923076923085,4368.205128205129,4742.051282051282,4315.8974358974365,4200.512820512821,4252.307692307693,4595.384615384616
61.177574,0.85438204,1.0,0.34478864,0.5616818,0,0.0,0.0,0.0,0.0,0.17194551,0,0,0.0,0.0,0,0,109.0,0.0,506.0,4507.179487179488,4037.9487179487182,4382.564102564103,4603.589743589744,4213.333333333334,4509.743589743591,4346.153846153847,4442.564102564103,4294.358974358975,4677.435897435898,4279.48717948718,4164.102564102564,4164.615384615385,4579.48717948718
61.42779,0.85438204,1.0,0.34478864,0.5616818,0,0.0,0.0,0.0,0.0,0.27928966,0,0,0.0,0.0,0,0,12.0,0.0,498.0,4351.794871794872,3989.23076923077,4423.076923076924,4554.871794871796,4205.128205128206,4492.307692307693,4323.589743589744,4378.974358974359,4277.435897435898,4681.538461538462,4277.948717948719,4161.538461538462,4124.615384615385,4544.615384615385
61.678005,0.84079874,1.0,0.34362486,0.5607302,0,0.0,0.0,0.0,0.0,0.23051041,0,0,0.0,0.0,0,0,44.0,0.0,0.0,4290.256410256411,3985.1282051282055,4442.564102564103,4535.8974358974365,4222.564102564103,4515.8974358974365,4343.076923076924,4306.153846153847,4306.666666666667,4712.820512820514,4305.128205128206,4164.102564102564,4170.256410256411,4564.615384615385
61.92822,0.84079874,1.0,0.34362486,0.5607302,0,0.0,0.0,0.0,0.0,0.031985737,0,0,0.0,0.0,0,0,76.0,0.0,498.0,4332.820512820514,3992.307692307693,4455.8974358974365,4539.48717948718,4243.589743589744,4525.128205128206,4356.923076923077,4247.6923076923085,4321.025641025642,4750.256410256411,4329.743589743591,4186.666666666667,4236.923076923077,4544.102564102564
62.178436,0.8112845,1.0,0.34257573,0.55987304,0,0.0,0.0,0.0,0.0,0.09497274,0,0,0.0,0.0,0,0,108.0,0.0,498.0,4285.128205128206,3925.1282051282055,4381.025641025642,4492.307692307693,4199.48717948718,4494.871794871796,4324.102564102564,4218.974358974359,4302.564102564103,4735.8974358974365,4310.256410256411,4150.769230769231,4218.974358974359,4534.871794871796
62.42865,0.8112845,1.0,0.34257573,0.55987304,0,0.0,0.0,0.0,0.0,1.0,0,0,0.0,0.0,0,0,11.0,0.0,500.0,4391.282051282052,3882.564102564103,4292.307692307693,4443.076923076924,4155.384615384616,4447.6923076923085,4277.948717948719,4172.820512820514,4250.769230769231,4675.384615384616,4281.538461538462,4091.2820512820517,4174.358974358975,4490.256410256411
62.553757,0.8110714,0.9168729,0.34162992,0.5591009,0,0.0,0.0,0.0,0.0,1.0,0,0,0.0,0.0,0,0,27.0,0.0,0.0,4518.461538461539,3873.333333333334,4277.948717948719,4419.48717948718,4140.000000000001,4438.461538461539,4263.589743589744,4160.512820512821,4218.461538461539,4641.025641025642,4261.538461538462,4075.8974358974365,4156.923076923077,4476.923076923077
62.553757,0.8110714,0.9168729,0.34162992,0.5591009,0,0.0,0.0,0.0,0.0,1.0,0,0,0.0,0.0,0,0,27.0,0.0,0.0,4518.461538461539,3873.333333333334,4277.948717948719,4419.48717948718,4140.000000000001,4438.461538461539,4263.589743589744,4160.512820512821,4218.461538461539,4641.025641025642,4261.538461538462,4075.8974358974365,4156.923076923077,4476.923076923077
63.054188,0.8207359,0.86282694,0.34077916,0.55840623,0,0.0,0.0,0.0,0.0,1.0,0,0,0.0,0.0,0,0,91.0,0.0,501.0,4568.205128205129,3815.8974358974365,4261.025641025642,4341.025641025642,4068.717948717949,4369.2307692307695,4213.333333333334,4120.512820512821,4166.666666666667,4586.153846153847,4219.48717948718,4015.3846153846157,4129.2307692307695,4447.179487179487
63.054188,0.8207359,0.86282694,0.34077916,0.55840623,0,0.0,0.0,0.0,0.0,1.0,0,0,0.0,0.0,0,0,91.0,0.0,501.0,4568.205128205129,3815.8974358974365,4261.025641025642,4341.025641025642,4068.717948717949,4369.2307692307695,4213.333333333334,4120.512820512821,4166.666666666667,4586.153846153847,4219.48717948718,4015.3846153846157,4129.2307692307695,4447.179487179487
63.679726,0.7871841,0.83673674,0.3400274,0.5577866,0,0.0,0.0,0.0,0.0,0.81099564,0,0,0.0,0.0,0,0,42.0,0.0,0.0,4565.641025641026,3913.8461538461543,4356.923076923077,4355.384615384616,4104.102564102564,4397.435897435898,4250.256410256411,4240.000000000001,4230.769230769231,4653.333333333334,4303.076923076924,4103.076923076924,4138.974358974359,4224.615384615385
63.92994,0.7871841,0.83673674,0.3400274,0.5577866,1,0.0,0.0,0.0,0.0,0.7860762,0,0,0.0,0.0,0,0,74.0,0.0,527.0,4349.743589743591,3955.3846153846157,4341.538461538462,4378.974358974359,4126.153846153847,4417.948717948719,4265.128205128206,4278.974358974359,4245.128205128206,4671.282051282052,4317.948717948719,4089.23076923077,4160.512820512821,4396.923076923077
64.08633,0.7571372,0.81138784,0.3393552,0.5572307,0,0.0,0.0,0.0,0.0,1.0,0,0,0.0,0.0,0,0,94.0,0.0,527.0,4465.641025641026,4004.1025641025644,4397.948717948719,4420.000000000001,4161.538461538462,4458.974358974359,4314.358974358975,4320.512820512821,4278.974358974359,4705.128205128206,4383.589743589744,4162.564102564103,4234.358974358975,4522.564102564103
64.43037,0.7571372,0.81138784,0.3393552,0.5572307,0,0.0,0.0,0.0,0.0,0.5040264,0,0,0.0,0.0,0,1,9.0,0.0,475.0,4474.871794871796,4011.7948717948725,4442.051282051282,4459.48717948718,4191.282051282052,4493.333333333334,4389.2307692307695,4363.589743589744,4346.666666666667,4769.2307692307695,4473.846153846154,4200.000000000001,4318.461538461539,4567.179487179488
64.68059,0.7279518,0.7836649,0.33874357,0.5567277,0,0.0,0.0,0.0,0.0,0.052378777,0,0,0.0,0.0,0,0,41.0,0.0,0.0,4503.076923076924,4002.0512820512827,4508.717948717949,4477.948717948719,4212.307692307693,4520.512820512821,4413.846153846154,4328.205128205129,4374.871794871796,4802.564102564103,4501.025641025642,4241.025641025642,4341.538461538462,4585.641025641026
64.9308,0.7279518,0.7836649,0.33874357,0.5567277,0,0.0,0.0,0.0,0.0,0.113439724,0,0,0.0,0.0,0,0,73.0,0.0,475.0,4520.512820512821,4005.1282051282055,4551.282051282052,4478.461538461539,4232.307692307693,4538.974358974359,4441.538461538462,4328.717948717949,4381.025641025642,4811.794871794872,4481.538461538462,4268.717948717949,4313.846153846154,4600.000000000001
65.181015,0.63754296,0.7508422,0.33819216,0.5562746,0,0.0,0.0,0.0,0.0,1.0,0,0,0.0,0.0,0,0,105.0,0.0,506.0,4427.6923076923085,4010.7692307692314,4520.512820512821,4457.435897435898,4222.051282051282,4514.358974358975,4386.153846153847,4276.410256410257,4309.743589743591,4752.307692307693,4424.615384615385,4211.282051282052,4227.179487179487,4553.333333333334
65.181015,0.63754296,0.7508422,0.33819216,0.5562746,0,0.0,0.0,0.0,0.0,1.0,0,0,0.0,0.0,0,0,105.0,0.0,506.0,4427.6923076923085,4010.7692307692314,4520.512820512821,4457.435897435898,4222.051282051282,4514.358974358975,4386.153846153847,4276.410256410257,4309.743589743591,4752.307692307693,4424.615384615385,4211.282051282052,4227.179487179487,4553.333333333334
65.556335,0.6265146,0.70720893,0.33769608,0.55586684,0,0.0,0.0,0.0,0.0,1.0,0,0,0.0,0.0,0,0,24.0,0.0,0.0,4426.153846153847,4014.358974358975,4478.461538461539,4444.102564102564,4282.051282051282,4541.025641025642,4374.871794871796,4248.205128205129,4325.641025641026,4753.333333333334,4426.153846153847,4215.8974358974365,4239.48717948718,4220.000000000001
65.556335,0.6265146,0.70720893,0.33769608,0.55586684,0,0.0,0.0,0.0,0.0,1.0,0,0,0.0,0.0,0,0,24.0,0.0,0.0,4426.153846153847,4014.358974358975,4478.461538461539,4444.102564102564,4282.051282051282,4541.025641025642,4374.871794871796,4248.205128205129,4325.641025641026,4753.333333333334,4426.153846153847,4215.8974358974365,4239.48717948718,4220.000000000001
66.18188,0.6340004,0.69434494,0.33725563,0.55550236,0,0.0,0.0,0.0,0.0,0.22833313,0,0,0.0,0.0,0,0,104.0,0.0,498.0,4661.025641025642,4038.9743589743593,4451.794871794872,4472.307692307693,4349.743589743591,4617.948717948719,4426.666666666667,4439.48717948718,4438.461538461539,4814.358974358975,4508.717948717949,4257.435897435898,4320.512820512821,4231.794871794872
66.43209,0.6340004,0.69434494,0.33725563,0.55550236,0,0.0,0.0,0.0,0.0,1.0,0,0,0.0,0.0,0,0,7.0,0.0,478.0,4421.025641025642,3967.692307692308,4372.307692307693,4405.641025641026,4298.974358974359,4568.717948717949,4354.358974358975,4379.48717948718,4352.307692307693,4736.410256410257,4392.820512820514,4171.794871794872,4228.205128205129,4303.076923076924
66.682304,0.6410985,0.66890645,0.336861,0.55517507,0,0.0,0.0,0.0,0.0,0.5644265,0,0,0.0,0.0,0,0,39.0,0.0,0.0,4434.871794871796,3959.48717948718,4382.051282051282,4398.974358974359,4257.435897435898,4533.846153846154,4366.153846153847,4418.461538461539,4326.666666666667,4721.538461538462,4414.358974358975,4211.794871794872,4263.589743589744,4301.025641025642
66.93252,0.6410985,0.66890645,0.336861,0.55517507,0,0.0,0.0,0.0,0.0,0.97167647,0,0,0.0,0.0,0,0,71.0,0.0,478.0,4275.8974358974365,3930.7692307692314,4380.512820512821,4396.410256410257,4247.6923076923085,4527.6923076923085,4394.871794871796,4430.256410256411,4323.589743589744,4701.538461538462,4365.641025641026,4186.666666666667,4213.333333333334,4325.641025641026
67.18274,0.57361174,0.64583474,0.33650202,0.5548789,0,0.0,0.0,0.0,0.0,0.9702689,0,0,0.0,0.0,0,0,103.0,0.0,509.0,4148.717948717949,3876.410256410257,4347.179487179487,4361.025641025642,4188.205128205129,4469.2307692307695,4352.820512820514,4386.666666666667,4281.538461538462,4661.025641025642,4335.8974358974365,4133.333333333334,4178.461538461539,4364.615384615385
67.307846,0.57361174,0.64583474,0.33650202,0.5548789,0,0.0,0.0,0.0,0.0,1.0,0,0,0.0,0.0,0,0,119.0,0.0,509.0,4178.974358974359,3898.9743589743593,4348.205128205129,4372.820512820514,4200.000000000001,4474.358974358975,4358.461538461539,4401.025641025642,4273.846153846154,4654.358974358975,4322.051282051282,4135.8974358974365,4160.512820512821,4285.641025641026
67.55806,0.55890733,0.64433825,0.33617914,0.5546124,0,0.0,0.0,0.0,0.0,1.0,0,0,0.0,0.0,0,0,22.0,0.0,0.0,4266.153846153847,3866.666666666667,4352.820512820514,4363.076923076924,4191.794871794872,4458.461538461539,4370.256410256411,4429.2307692307695,4277.435897435898,4650.256410256411,4327.6923076923085,4141.538461538462,4154.871794871796,4238.974358974359
67.55806,0.55890733,0.64433825,0.33617914,0.5546124,0,0.0,0.0,0.0,0.0,1.0,0,0,0.0,0.0,0,0,22.0,0.0,0.0,4266.153846153847,3866.666666666667,4352.820512820514,4363.076923076924,4191.794871794872,4458.461538461539,4370.256410256411,4429.2307692307695,4277.435897435898,4650.256410256411,4327.6923076923085,4141.538461538462,4154.871794871796,4238.974358974359
68.18359,0.56419027,0.60936564,0.33589247,0.5543742,0,0.0,0.0,0.0,0.0,0.8883332,0,0,0.0,0.0,0,0,102.0,0.0,527.0,4361.025641025642,3864.615384615385,4444.102564102564,4375.384615384616,4186.666666666667,4462.564102564103,4381.538461538462,4401.025641025642,4302.564102564103,4657.435897435898,4310.769230769231,4157.435897435898,4137.435897435898,4484.615384615385
68.3087,0.56419027,0.60936564,0.33589247,0.5543742,0,0.0,0.0,0.0,0.0,1.0,0,0,0.0,0.0,0,0,118.0,0.0,527.0,4341.025641025642,3865.6410256410263,4472.820512820514,4370.769230769231,4198.974358974359,4473.333333333334,4400.512820512821,4441.538461538462,4320.000000000001,4662.564102564103,4311.282051282052,4153.333333333334,4129.74358974359,4537.948717948719
68.68403,0.5752865,0.5946755,0.33563504,0.55416,0,0.0,0.0,0.0,0.0,0.41966945,0,0,0.0,0.0,0,0,37.0,0.0,0.0,4345.128205128206,3909.2307692307695,4473.846153846154,4393.846153846154,4191.794871794872,4469.743589743591,4383.589743589744,4475.8974358974365,4312.307692307693,4660.000000000001,4300.512820512821,4139.48717948718,4091.2820512820517,4625.641025641026
68.809135,0.5752865,0.5946755,0.33563504,0.55416,0,0.0,0.0,0.0,0.0,1.0,0,0,0.0,0.0,0,0,53.0,0.0,0.0,4366.666666666667,3920.0000000000005,4488.717948717949,4407.6923076923085,4201.538461538462,4475.384615384616,4384.615384615385,4464.615384615385,4322.564102564103,4665.641025641026,4312.820512820514,4162.564102564103,4092.820512820513,4430.256410256411
69.184456,0.5552234,0.5764463,0.33540437,0.5539677,0,0.0,0.0,0.0,0.0,0.47207963,0,0,0.0,0.0,0,0,101.0,0.0,507.0,4359.48717948718,4005.6410256410263,4410.256410256411,4461.025641025642,4281.025641025642,4544.615384615385,4404.102564102564,4603.589743589744,4342.564102564103,4702.051282051282,4315.8974358974365,4156.410256410257,4052.820512820513,4398.974358974359
69.43467,0.5552234,0.5764463,0.33540437,0.5539677,0,0.0,0.0,0.0,0.0,1.0,0,0,0.0,0.0,0,0,4.0,0.0,560.0,4071.7948717948725,3975.3846153846157,4381.025641025642,4420.000000000001,4262.564102564103,4523.589743589744,4318.974358974359,4504.102564102564,4280.000000000001,4668.205128205129,4295.384615384616,4141.025641025642,4054.8717948717954,4454.871794871796
69.68488,0.5134162,0.55243367,0.33519727,0.5537948,0,0.0,0.0,0.0,0.0,0.38149166,0,0,0.0,0.0,0,0,36.0,0.0,0.0,4234.871794871796,3955.8974358974365,4356.410256410257,4386.666666666667,4240.000000000001,4507.6923076923085,4276.410256410257,4419.48717948718,4263.589743589744,4647.6923076923085,4310.769230769231,4154.358974358975,4106.666666666667,4408.205128205129
69.935104,0.5134162,0.55243367,0.33519727,0.5537948,0,0.0,0.0,0.0,0.0,0.8269045,0,0,0.0,0.0,0,0,68.0,0.0,560.0,4673.846153846154,4006.666666666667,4388.717948717949,4418.974358974359,4301.538461538462,4557.435897435898,4334.358974358975,4390.256410256411,4295.384615384616,4682.051282051282,4351.794871794872,4209.2307692307695,4151.282051282052,4566.153846153847
70.091484,0.51778245,0.6016821,0.33501086,0.55363923,0,0.0,0.0,0.0,0.0,1.0,0,0,0.0,0.0,0,0,88.0,0.0,498.0,4716.923076923077,4003.076923076924,4378.461538461539,4432.307692307693,4313.333333333334,4568.717948717949,4356.410256410257,4409.743589743591,4311.794871794872,4690.769230769231,4365.641025641026,4215.384615384616,4234.358974358975,4766.666666666667
70.43553,0.51778245,0.6016821,0.33501086,0.55363923,0,0.0,0.0,0.0,0.0,0.5819581,0,0,0.0,0.0,0,0,121.0,0.0,507.0,4760.000000000001,4001.538461538462,4389.743589743591,4444.102564102564,4301.538461538462,4556.923076923077,4364.615384615385,4346.153846153847,4313.846153846154,4689.743589743591,4347.6923076923085,4231.282051282052,4226.153846153847,4845.128205128206
70.685745,0.48755008,0.63310826,0.33484313,0.55349916,0,0.0,0.0,0.0,0.0,0.6275208,0,0,0.0,0.0,0,0,35.0,0.0,0.0,4579.48717948718,4012.820512820513,4369.743589743591,4461.538461538462,4293.846153846154,4557.948717948719,4378.461538461539,4422.051282051282,4360.000000000001,4708.205128205129,4336.410256410257,4212.307692307693,4157.948717948719,4864.102564102564
70.93596,0.48755008,0.63310826,0.33484313,0.55349916,0,0.0,0.0,0.0,0.0,0.6341973,0,0,0.0,0.0,0,0,67.0,0.0,532.0,4694.871794871796,4025.6410256410263,4397.948717948719,4476.410256410257,4284.102564102564,4551.282051282052,4381.538461538462,4414.358974358975,4374.871794871796,4717.435897435898,4372.307692307693,4215.384615384616,4200.000000000001,5001.025641025642
71.18617,0.48963597,0.6683059,0.3346898,0.5533722,0,0.0,0.0,0.0,0.0,0.61489695,0,0,0.0,0.0,0,0,99.0,0.0,496.0,4902.051282051283,3959.48717948718,4465.128205128206,4657.948717948719,4252.307692307693,4532.820512820514,4359.48717948718,4425.128205128206,4397.435897435898,4807.179487179488,4267.179487179487,4318.461538461539,4291.794871794872,5045.128205128206
71.43639,0.48963597,0.6683059,0.3346898,0.5533722,0,0.0,0.0,0.0,0.0,0.28757748,0,0,0.0,0.0,0,0,2.0,0.0,420.0,4643.076923076924,3928.205128205129,4596.923076923077,4598.974358974359,4288.717948717949,4520.000000000001,4283.076923076924,4294.871794871796,4280.512820512821,4695.8974358974365,4284.102564102564,4171.282051282052,4123.589743589744,4893.846153846154
71.68661,0.52460635,0.7031915,0.3345537,0.55325866,0,0.0,0.0,0.0,0.0,0.62924254,0,0,0.0,0.0,0,0,34.0,0.0,0.0,4738.461538461539,3975.8974358974365,4534.871794871796,4524.102564102564,4246.153846153847,4493.333333333334,4311.282051282052,4341.538461538462,4304.102564102564,4734.871794871796,4218.974358974359,4236.410256410257,4161.538461538462,4985.128205128206
71.93682,0.52460635,0.7031915,0.3345537,0.55325866,0,0.0,0.0,0.0,0.0,0.72612673,0,0,0.0,0.0,0,0,66.0,0.0,420.0,4609.743589743591,4078.461538461539,4572.307692307693,4555.8974358974365,4280.000000000001,4537.948717948719,4354.358974358975,4346.666666666667,4315.8974358974365,4703.589743589744,4203.589743589744,4254.358974358975,4165.641025641026,4892.820512820514
72.187035,0.49780762,0.7345886,0.33442932,0.5531557,0,0.0,0.0,0.0,0.0,1.0,0,0,0.0,0.0,0,0,98.0,0.0,527.0,4870.256410256411,4112.820512820514,4554.358974358975,4580.512820512821,4289.2307692307695,4589.2307692307695,4431.794871794872,4386.666666666667,4366.153846153847,4744.102564102564,4323.076923076924,4275.8974358974365,4195.384615384616,4989.2307692307695
72.43725,0.49780762,0.7345886,0.33442932,0.5531557,0,0.0,0.0,0.0,0.0,0.27486983,0,0,0.0,0.0,0,0,1.0,0.0,506.0,4804.615384615386,4068.205128205129,4537.435897435898,4517.948717948719,4233.333333333334,4535.8974358974365,4371.794871794872,4237.948717948719,4324.615384615385,4718.974358974359,4273.333333333334,4241.538461538462,4175.384615384616,4977.948717948719
72.68747,0.50537413,0.762846,0.33431742,0.55306304,0,0.0,0.0,0.0,0.0,0.08772584,0,0,0.0,0.0,0,0,33.0,0.0,0.0,4765.128205128206,4073.333333333334,4572.307692307693,4536.410256410257,4243.589743589744,4534.358974358975,4367.179487179487,4245.128205128206,4335.8974358974365,4738.461538461539,4300.000000000001,4244.102564102564,4181.025641025642,4908.717948717949
72.81258,0.50537413,0.762846,0.33431742,0.55306304,0,0.0,0.0,0.0,0.0,1.0,0,0,0.0,0.0,0,0,49.0,0.0,0.0,4770.256410256411,4060.5128205128212,4584.102564102564,4551.282051282052,4236.410256410257,4523.589743589744,4367.179487179487,4266.666666666667,4348.717948717949,4753.333333333334,4326.153846153847,4217.435897435898,4154.871794871796,4825.128205128206
73.1879,0.48637637,0.7882777,0.3342168,0.5529797,0,0.0,0.0,0.0,0.0,0.17013325,0,0,0.0,0.0,0,0,95.0,0.0,493.0,4733.333333333334,4006.1538461538466,4590.769230769231,4447.6923076923085,4198.974358974359,4489.2307692307695,4297.948717948719,4266.153846153847,4256.923076923077,4598.461538461539,4437.948717948719,4151.282051282052,4135.8974358974365,4717.435897435898
73.313,0.48637637,0.7882777,0.3342168,0.5529797,0,0.0,0.0,0.0,0.0,0.10056834,0,0,0.0,0.0,0,0,113.0,0.0,507.0,4694.358974358975,4016.9230769230776,4646.666666666667,4450.769230769231,4215.8974358974365,4506.666666666667,4283.589743589744,4302.051282051282,4245.641025641026,4558.974358974359,4383.589743589744,4147.6923076923085,4138.974358974359,4668.205128205129
73.688324,0.43808973,0.7724694,0.33412763,0.55290526,0,0.0,0.0,0.0,0.0,0.7862952,0,0,0.0,0.0,0,0,32.0,0.0,0.0,4627.179487179488,3997.9487179487182,4604.102564102564,4407.6923076923085,4218.974358974359,4505.128205128206,4312.820512820514,4356.923076923077,4238.974358974359,4510.769230769231,4344.102564102564,4145.128205128206,4078.9743589743593,4303.076923076924
73.93854,0.43808973,0.7724694,0.33412763,0.55290526,0,0.0,0.0,0.0,0.0,0.27830932,0,0,0.0,0.0,0,0,64.0,0.0,497.0,4514.871794871796,3987.692307692308,4472.307692307693,4343.589743589744,4139.48717948718,4442.564102564103,4251.282051282052,4294.358974358975,4186.153846153847,4444.102564102564,4283.589743589744,4045.6410256410263,3968.205128205129,4240.512820512821
74.18876,0.5005954,0.75816804,0.33404773,0.55283844,0,0.0,0.0,0.0,0.0,1.0,0,0,0.0,0.0,0,0,96.0,0.0,499.0,4697.435897435898,4029.7435897435903,4441.538461538462,4381.025641025642,4152.307692307693,4465.128205128206,4282.051282051282,4327.6923076923085,4192.820512820514,4477.435897435898,4264.615384615385,4058.461538461539,3942.564102564103,4247.179487179487
74.18876,0.5005954,0.75816804,0.33404773,0.55283844,0,0.0,0.0,0.0,0.0,1.0,0,0,0.0,0.0,0,0,96.0,0.0,499.0,4697.435897435898,4029.7435897435903,4441.538461538462,4381.025641025642,4152.307692307693,4465.128205128206,4282.051282051282,4327.6923076923085,4192.820512820514,4477.435897435898,4264.615384615385,4058.461538461539,3942.564102564103,4247.179487179487
74.56408,0.5442308,0.72335815,0.33397505,0.55277795,0,0.0,0.0,0.0,0.0,0.54230267,0,0,0.0,0.0,0,0,15.0,0.0,508.0,4567.179487179488,4068.205128205129,4464.102564102564,4409.743589743591,4182.051282051282,4486.153846153847,4321.025641025642,4397.435897435898,4250.769230769231,4585.641025641026,4264.102564102564,4120.000000000001,3957.435897435898,4230.769230769231
74.81429,0.5442308,0.72335815,0.33397505,0.55277795,0,0.0,0.0,0.0,0.0,1.0,0,0,0.0,0.0,0,0,47.0,0.0,0.0,4688.717948717949,4122.051282051282,4453.333333333334,4468.205128205129,4197.948717948719,4507.179487179488,4340.512820512821,4420.512820512821,4321.025641025642,4616.923076923077,4286.153846153847,4160.512820512821,4017.9487179487182,4554.358974358975
75.06451,0.56529343,0.70713896,0.3339097,0.5527235,0,0.0,0.0,0.0,0.0,1.0,0,0,0.0,0.0,0,0,79.0,0.0,508.0,4663.076923076924,4109.74358974359,4426.666666666667,4483.076923076924,4218.461538461539,4508.205128205129,4327.179487179487,4410.769230769231,4307.6923076923085,4635.384615384616,4282.564102564103,4164.615384615385,4030.2564102564106,4614.871794871796
75.06451,0.56529343,0.70713896,0.3339097,0.5527235,0,0.0,0.0,0.0,0.0,1.0,0,0,0.0,0.0,0,0,79.0,0.0,508.0,4663.076923076924,4109.74358974359,4426.666666666667,4483.076923076924,4218.461538461539,4508.205128205129,4327.179487179487,4410.769230769231,4307.6923076923085,4635.384615384616,4282.564102564103,4164.615384615385,4030.2564102564106,4614.871794871796
75.56494,0.55759573,0.7115656,0.33385077,0.55267453,0,0.0,0.0,0.0,0.0,1.0,0,0,0.0,0.0,0,0,14.0,0.0,527.0,4701.025641025642,4007.1794871794878,4430.256410256411,4525.128205128206,4160.512820512821,4472.820512820514,4317.435897435898,4362.564102564103,4210.769230769231,4569.2307692307695,4274.358974358975,4203.076923076924,3948.205128205129,4614.358974358975
75.815155,0.55759573,0.7115656,0.33385077,0.55267453,0,0.0,0.0,0.0,0.0,0.26175302,0,0,0.0,0.0,0,0,46.0,0.0,0.0,4777.948717948719,3937.9487179487182,4339.48717948718,4483.076923076924,4139.48717948718,4442.051282051282,4296.923076923077,4391.282051282052,4187.6923076923085,4572.820512820514,4272.820512820514,4150.769230769231,3844.615384615385,4488.717948717949
76.06537,0.4984238,0.7279945,0.33379775,0.5526304,0,0.0,0.0,0.0,0.0,1.0,0,0,0.0,0.0,0,0,78.0,0.0,527.0,5343.589743589744,3992.820512820513,4363.589743589744,4490.256410256411,4185.128205128206,4489.2307692307695,4335.384615384616,4363.076923076924,4199.48717948718,4610.256410256411,4307.179487179487,4186.666666666667,3802.0512820512827,4396.923076923077
76.06537,0.4984238,0.7279945,0.33379775,0.5526304,0,0.0,0.0,0.0,0.0,1.0,0,0,0.0,0.0,0,0,78.0,0.0,527.0,5343.589743589744,3992.820512820513,4363.589743589744,4490.256410256411,4185.128205128206,4489.2307692307695,4335.384615384616,4363.076923076924,4199.48717948718,4610.256410256411,4307.179487179487,4186.666666666667,3802.0512820512827,4396.923076923077
76.565796,0.5449386,0.7952488,0.3337502,0.5525908,0,0.0,0.0,0.0,0.0,0.9530955,0,0,0.0,0.0,0,0,13.0,0.0,507.0,5375.8974358974365,3975.3846153846157,4424.615384615385,4517.435897435898,4263.076923076924,4522.564102564103,4387.179487179487,4402.051282051282,4240.512820512821,4693.846153846154,4352.820512820514,4212.820512820514,3847.1794871794878,4332.820512820514
76.69091,0.5449386,0.7952488,0.3337502,0.5525908,0,0.0,0.0,0.0,0.0,1.0,0,0,0.0,0.0,0,0,29.0,0.0,0.0,5195.384615384616,3976.410256410257,4467.179487179487,4571.794871794872,4283.589743589744,4543.589743589744,4431.282051282052,4446.666666666667,4275.8974358974365,4716.923076923077,4387.179487179487,4247.6923076923085,3880.512820512821,4369.743589743591
77.06623,0.5852205,0.8628369,0.3343999,0.56113553,0,0.0,0.0,0.0,0.0,1.0,0,0,0.0,0.0,0,0,77.0,0.0,507.0,4816.410256410257,3997.9487179487182,4474.871794871796,4617.948717948719,4378.461538461539,4618.974358974359,4559.48717948718,4511.282051282052,4355.384615384616,4853.846153846154,4811.794871794872,4342.051282051282,3960.5128205128212,4462.051282051282
77.44155,0.5852205,0.8628369,0.3343999,0.56113553,0,0.0,0.0,0.0,0.0,0.0,0,0,0.0,0.2793526,0,0,123.0,0.0,507.0,5328.717948717949,4023.076923076924,4442.051282051282,4798.974358974359,4545.641025641026,4683.076923076924,4585.128205128206,4513.333333333334,4395.384615384616,5042.564102564103,4941.025641025642,4301.538461538462,4057.9487179487182,4427.6923076923085
77.59794,0.59045744,0.9236662,0.3349876,0.5688397,0,0.0,0.0,0.0,0.0,1.0,0,0,0.0,0.0,0,0,16.0,0.0,0.0,5083.589743589744,3937.435897435898,4441.538461538462,4668.717948717949,4440.512820512821,4620.512820512821,4592.820512820514,4545.128205128206,4392.307692307693,5034.871794871796,4791.282051282052,4303.589743589744,4087.1794871794878,4364.615384615385
77.81687,0.59045744,0.9236662,0.3349876,0.5688397,0,0.0,0.0,0.0,0.0,0.15808807,0,0,0.0,0.0,0,0,44.0,0.0,0.0,5092.307692307693,3952.820512820513,4461.538461538462,4524.615384615385,4354.871794871796,4570.769230769231,4529.2307692307695,4527.179487179488,4366.153846153847,4924.102564102564,4382.564102564103,4242.564102564103,4096.923076923077,4336.410256410257
78.06709,0.59717405,0.9784125,0.33551297,0.57575345,0,0.0,0.0,0.0,0.0,1.0,0,0,0.0,0.0,0,0,76.0,0.0,495.0,4931.794871794872,3977.435897435898,4522.564102564103,4433.846153846154,4220.000000000001,4510.769230769231,4507.179487179488,4510.769230769231,4356.923076923077,4736.923076923077,4302.564102564103,4318.974358974359,4142.051282051282,4546.666666666667
78.31731,0.59717405,0.9784125,0.33551297,0.57575345,0,0.0,0.0,0.0,0.0,0.77211446,0,0,0.0,0.0,0,0,108.0,0.0,495.0,4998.461538461539,3971.2820512820517,4475.384615384616,4389.2307692307695,4217.948717948719,4508.205128205129,4471.282051282052,4474.871794871796,4313.333333333334,4653.846153846154,4274.358974358975,4202.564102564103,3869.2307692307695,4457.435897435898
78.56752,0.5673449,1.0,0.33598578,0.5819752,0,0.0,0.0,0.0,0.0,0.4114169,0,0,0.0,0.0,0,0,11.0,0.0,507.0,5092.307692307693,4033.333333333334,4459.48717948718,4491.282051282052,4245.128205128206,4526.666666666667,4493.846153846154,4508.717948717949,4348.205128205129,4740.000000000001,4555.8974358974365,4235.8974358974365,3909.7435897435903,4445.641025641026
78.81773,0.5673449,1.0,0.33598578,0.5819752,0,0.0,0.0,0.0,0.0,0.70361185,0,0,0.0,0.0,0,0,43.0,0.0,0.0,4990.769230769231,4021.538461538462,4443.589743589744,4476.410256410257,4218.974358974359,4493.846153846154,4490.256410256411,4491.794871794872,4344.102564102564,4745.641025641026,4596.923076923077,4187.179487179487,3960.0000000000005,4553.846153846154
79.06795,0.52536327,1.0,0.33571616,0.5789762,0,0.0,0.0,0.0,0.0,1.0,0,0,0.0,0.0,0,0,75.0,0.0,507.0,4676.410256410257,3970.7692307692314,4454.871794871796,4438.974358974359,4186.666666666667,4460.512820512821,4460.512820512821,4456.923076923077,4328.205128205129,4707.6923076923085,4628.717948717949,4174.358974358975,3936.9230769230776,4542.051282051282
79.06795,0.52536327,1.0,0.33571616,0.5789762,0,0.0,0.0,0.0,0.0,1.0,0,0,0.0,0.0,0,0,75.0,0.0,507.0,4676.410256410257,3970.7692307692314,4454.871794871796,4438.974358974359,4186.666666666667,4460.512820512821,4460.512820512821,4456.923076923077,4328.205128205129,4707.6923076923085,4628.717948717949,4174.358974358975,3936.9230769230776,4542.051282051282
79.56838,0.53269833,1.0,0.33547315,0.57627517,0,0.0,0.0,0.0,0.0,1.0,0,0,0.0,0.0,0,0,10.0,0.0,528.0,4193.846153846154,3843.589743589744,4392.820512820514,4368.205128205129,4132.307692307693,4373.846153846154,4380.000000000001,4322.564102564103,4287.179487179487,4647.6923076923085,4609.2307692307695,4122.564102564103,3960.0000000000005,4631.794871794872
79.56838,0.53269833,1.0,0.33547315,0.57627517,0,0.0,0.0,0.0,0.0,1.0,0,0,0.0,0.0,0,0,10.0,0.0,528.0,4193.846153846154,3843.589743589744,4392.820512820514,4368.205128205129,4132.307692307693,4373.846153846154,4380.000000000001,4322.564102564103,4287.179487179487,4647.6923076923085,4609.2307692307695,4122.564102564103,3960.0000000000005,4631.794871794872
80.06881,0.5869742,1.0,0.33525407,0.5738424,0,0.0,0.0,0.0,0.0,0.51931417,0,0,0.0,0.0,0,0,74.0,0.0,528.0,4376.410256410257,3929.2307692307695,4377.948717948719,4373.333333333334,4172.307692307693,4407.6923076923085,4398.974358974359,4342.051282051282,4341.538461538462,4685.641025641026,4622.564102564103,4126.153846153847,4063.076923076924,4691.794871794872
80.31902,0.5869742,1.0,0.33525407,0.5738424,0,0.0,0.0,0.0,0.0,0.38664785,0,0,0.0,0.0,0,0,106.0,0.0,528.0,4556.923076923077,3958.9743589743593,4388.205128205129,4383.076923076924,4186.153846153847,4413.333333333334,4389.2307692307695,4308.717948717949,4348.717948717949,4667.179487179488,4599.48717948718,4109.2307692307695,4097.435897435898,4781.538461538462
80.56924,0.56610817,0.9518969,0.33745357,0.59034634,0,0.0,0.0,0.0,0.0,0.8195776,0,0,0.0,0.0,0,0,9.0,0.0,472.0,4599.48717948718,3944.1025641025644,4414.358974358975,4384.615384615385,4186.153846153847,4421.025641025642,4413.333333333334,4334.358974358975,4351.282051282052,4674.871794871796,4586.153846153847,4140.000000000001,4129.74358974359,4726.153846153847
80.81946,0.56610817,0.9518969,0.33745357,0.59034634,0,0.0,0.0,0.0,0.0,1.0,0,0,0.0,0.0,0,0,41.0,0.0,0.0,4476.410256410257,3972.307692307693,4441.538461538462,4394.871794871796,4206.153846153847,4433.333333333334,4393.846153846154,4321.538461538462,4342.564102564103,4663.076923076924,4531.282051282052,4132.307692307693,4123.589743589744,4626.153846153847
81.06967,0.50539786,0.89016914,0.34207875,0.6150399,0,0.0,0.0,0.0,0.0,1.0,0,0,0.0,0.0,0,0,73.0,0.0,472.0,4321.538461538462,4000.0000000000005,4455.8974358974365,4414.358974358975,4204.102564102564,4442.051282051282,4399.48717948718,4376.410256410257,4354.358974358975,4643.589743589744,4492.307692307693,4140.000000000001,4119.48717948718,4597.948717948719
81.319885,0.50539786,0.89016914,0.34207875,0.6150399,0,0.0,0.0,0.0,0.0,0.3804951,0,0,0.0,0.0,0,0,105.0,0.0,507.0,4398.461538461539,4051.7948717948725,4442.564102564103,4425.641025641026,4203.076923076924,4444.102564102564,4424.102564102564,4460.512820512821,4370.256410256411,4686.666666666667,4472.820512820514,4149.74358974359,4116.410256410257,4363.589743589744
81.60138,0.4757172,0.8465159,0.34626102,0.63733405,0,0.0,0.0,0.0,0.0,1.0,0,0,0.0,0.0,0,0,12.0,0.0,494.0,4711.794871794872,4034.8717948717954,4421.025641025642,4383.589743589744,4171.282051282052,4430.769230769231,4398.461538461539,4478.461538461539,4366.153846153847,4701.538461538462,4473.846153846154,4160.000000000001,4150.256410256411,4348.717948717949
81.60138,0.4757172,0.8465159,0.34626102,0.63733405,0,0.0,0.0,0.0,0.0,1.0,0,0,0.0,0.0,0,0,12.0,0.0,494.0,4711.794871794872,4034.8717948717954,4421.025641025642,4383.589743589744,4171.282051282052,4430.769230769231,4398.461538461539,4478.461538461539,4366.153846153847,4701.538461538462,4473.846153846154,4160.000000000001,4150.256410256411,4348.717948717949
82.070526,0.48661774,0.8121501,0.349998,0.65726954,0,0.0,0.0,0.0,0.0,1.0,0,0,0.0,0.0,0,0,72.0,0.0,482.0,4721.025641025642,4028.717948717949,4430.769230769231,4395.8974358974365,4183.589743589744,4438.974358974359,4388.205128205129,4435.8974358974365,4361.025641025642,4687.6923076923085,4388.205128205129,4178.461538461539,4112.820512820514,4291.794871794872
82.070526,0.48661774,0.8121501,0.349998,0.65726954,0,0.0,0.0,0.0,0.0,1.0,0,0,0.0,0.0,0,0,72.0,0.0,482.0,4721.025641025642,4028.717948717949,4430.769230769231,4395.8974358974365,4183.589743589744,4438.974358974359,4388.205128205129,4435.8974358974365,4361.025641025642,4687.6923076923085,4388.205128205129,4178.461538461539,4112.820512820514,4291.794871794872
82.57096,0.46720564,0.7728377,0.3507097,0.65648603,0,0.0,0.0,0.0,0.0,0.15323277,0,0,0.0,0.0,0,0,7.0,0.0,477.0,4627.179487179488,4103.589743589744,4434.871794871796,4483.589743589744,4250.256410256411,4511.794871794872,4415.8974358974365,4421.025641025642,4398.461538461539,4727.179487179488,4350.256410256411,4219.48717948718,4166.666666666667,4366.153846153847
82.821175,0.46720564,0.7728377,0.3507097,0.65648603,0,0.0,0.0,0.0,0.0,1.0,0,0,0.0,0.0,0,0,39.0,0.0,0.0,4815.8974358974365,4035.3846153846157,4391.282051282052,4435.8974358974365,4182.051282051282,4460.512820512821,4348.717948717949,4344.615384615385,4352.307692307693,4676.923076923077,4285.128205128206,4180.000000000001,4130.769230769231,4374.358974358975
83.07139,0.47944275,0.74298424,0.34894404,0.64594555,0,0.0,0.0,0.0,0.0,1.0,0,0,0.0,0.0,0,0,71.0,0.0,477.0,5080.000000000001,3894.8717948717954,4278.461538461539,4316.410256410257,4131.794871794872,4415.384615384616,4244.615384615385,4216.410256410257,4244.615384615385,4565.641025641026,4154.871794871796,4049.23076923077,4032.820512820513,4139.48717948718
83.07139,0.47944275,0.74298424,0.34894404,0.64594555,0,0.0,0.0,0.0,0.0,1.0,0,0,0.0,0.0,0,0,71.0,0.0,477.0,5080.000000000001,3894.8717948717954,4278.461538461539,4316.410256410257,4131.794871794872,4415.384615384616,4244.615384615385,4216.410256410257,4244.615384615385,4565.641025641026,4154.871794871796,4049.23076923077,4032.820512820513,4139.48717948718
83.57182,0.49867404,0.7161161,0.34735253,0.6364428,0,0.0,0.0,0.0,0.0,1.0,0,0,0.0,0.0,0,0,6.0,0.0,533.0,4718.974358974359,3969.2307692307695,4375.8974358974365,4435.384615384616,4215.8974358974365,4493.333333333334,4334.871794871796,4316.410256410257,4330.256410256411,4660.512820512821,4214.358974358975,4176.923076923077,4126.153846153847,4029.7435897435903
83.91586,0.49867404,0.7161161,0.34735253,0.6364428,1,0.0,0.0,0.0,0.0,1.0,0,0,0.0,0.0,0,0,50.0,0.0,0.0,5043.076923076924,4019.48717948718,4487.6923076923085,4541.538461538462,4237.435897435898,4521.025641025642,4390.769230769231,4333.333333333334,4370.769230769231,4704.615384615386,4249.2307692307695,4228.205128205129,4216.410256410257,4170.769230769231
84.07225,0.54772234,0.69193476,0.34591803,0.62788963,0,0.0,0.0,0.0,0.0,1.0,0,0,0.0,0.0,0,0,70.0,0.0,533.0,4940.512820512821,4008.205128205129,4513.333333333334,4542.564102564103,4240.000000000001,4522.051282051282,4395.384615384616,4343.076923076924,4388.205128205129,4718.461538461539,4261.538461538462,4229.2307692307695,4247.179487179487,4194.871794871796
84.07225,0.54772234,0.69193476,0.34591803,0.62788963,0,0.0,0.0,0.0,0.0,1.0,0,0,0.0,0.0,0,0,70.0,0.0,533.0,4940.512820512821,4008.205128205129,4513.333333333334,4542.564102564103,4240.000000000001,4522.051282051282,4395.384615384616,4343.076923076924,4388.205128205129,4718.461538461539,4261.538461538462,4229.2307692307695,4247.179487179487,4194.871794871796
84.57268,0.528079,0.67017156,0.34583846,0.62020737,0,0.0,0.0,0.0,0.0,0.9747712,0,0,0.0,0.0,0,0,5.0,0.0,558.0,4691.794871794872,4040.0000000000005,4524.615384615385,4577.948717948719,4268.205128205129,4552.820512820514,4441.538461538462,4375.8974358974365,4418.461538461539,4755.8974358974365,4276.410256410257,4255.8974358974365,4286.666666666667,4205.641025641026
84.916725,0.528079,0.67017156,0.34583846,0.62020737,0,0.0,0.0,0.0,0.0,1.0,0,0,0.0,0.0,1,0,49.0,0.0,0.0,4750.769230769231,4084.615384615385,4511.794871794872,4598.974358974359,4315.8974358974365,4598.461538461539,4450.769230769231,4325.128205128206,4416.923076923077,4766.666666666667,4301.538461538462,4276.923076923077,4325.128205128206,4235.384615384616
85.07311,0.5222575,0.7166693,0.34833628,0.6136286,0,0.0,0.0,0.0,0.0,0.119043514,0,0,0.0,0.0,1,0,69.0,0.0,558.0,4749.743589743591,4098.974358974359,4521.538461538462,4604.102564102564,4332.820512820514,4619.48717948718,4472.307692307693,4312.820512820514,4435.8974358974365,4776.923076923077,4319.48717948718,4274.871794871796,4333.846153846154,4311.282051282052
85.323326,0.5222575,0.7166693,0.34833628,0.6136286,0,0.0,0.0,0.0,0.0,1.0,0,0,0.0,0.0,0,0,101.0,0.0,507.0,4694.871794871796,4127.179487179487,4533.846153846154,4641.025641025642,4351.282051282052,4632.820512820514,4473.333333333334,4435.384615384616,4463.589743589744,4825.641025641026,4336.410256410257,4298.461538461539,4348.205128205129,4554.358974358975
85.57354,0.5241665,0.7619827,0.35357293,0.60770506,0,0.0,0.0,0.0,0.0,1.0,0,0,0.0,0.0,0,0,4.0,0.0,559.0,4493.846153846154,4136.410256410257,4557.948717948719,4690.769230769231,4365.641025641026,4639.48717948718,4475.8974358974365,4393.333333333334,4458.461538461539,4839.48717948718,4350.256410256411,4310.256410256411,4382.564102564103,4655.384615384616
85.57354,0.5241665,0.7619827,0.35357293,0.60770506,0,0.0,0.0,0.0,0.0,1.0,0,0,0.0,0.0,0,0,4.0,0.0,559.0,4493.846153846154,4136.410256410257,4557.948717948719,4690.769230769231,4365.641025641026,4639.48717948718,4475.8974358974365,4393.333333333334,4458.461538461539,4839.48717948718,4350.256410256411,4310.256410256411,4382.564102564103,4655.384615384616
86.07397,0.54040474,0.8027647,0.35866717,0.6014351,0,0.0,0.0,0.0,0.0,1.0,0,0,0.0,0.0,0,0,68.0,0.0,559.0,4791.794871794872,4076.410256410257,4520.512820512821,4647.179487179488,4343.076923076924,4616.410256410257,4491.794871794872,4462.051282051282,4483.589743589744,4824.102564102564,4354.871794871796,4297.948717948719,4405.641025641026,4500.000000000001
86.07397,0.54040474,0.8027647,0.35866717,0.6014351,0,0.0,0.0,0.0,0.0,1.0,0,0,0.0,0.0,0,0,68.0,0.0,559.0,4791.794871794872,4076.410256410257,4520.512820512821,4647.179487179488,4343.076923076924,4616.410256410257,4491.794871794872,4462.051282051282,4483.589743589744,4824.102564102564,4354.871794871796,4297.948717948719,4405.641025641026,4500.000000000001
86.5744,0.53880244,0.83946854,0.36324802,0.5885195,0,0.0,0.0,0.0,0.0,1.0,0,0,0.0,0.0,0,0,3.0,0.0,532.0,4955.384615384616,4062.0512820512827,4524.102564102564,4625.128205128206,4345.641025641026,4615.8974358974365,4490.769230769231,4455.8974358974365,4504.615384615385,4848.205128205129,4377.948717948719,4296.923076923077,4435.384615384616,4475.8974358974365
86.5744,0.53880244,0.83946854,0.36324802,0.5885195,0,0.0,0.0,0.0,0.0,1.0,0,0,0.0,0.0,0,0,3.0,0.0,532.0,4955.384615384616,4062.0512820512827,4524.102564102564,4625.128205128206,4345.641025641026,4615.8974358974365,4490.769230769231,4455.8974358974365,4504.615384615385,4848.205128205129,4377.948717948719,4296.923076923077,4435.384615384616,4475.8974358974365
87.07483,0.54695636,0.87250197,0.36736605,0.56506395,0,0.0,0.0,0.0,0.0,0.3007288,0,0,0.0,0.0,0,0,67.0,0.0,532.0,4879.48717948718,3877.435897435898,4546.153846153847,4585.128205128206,4345.128205128206,4615.8974358974365,4508.205128205129,4434.871794871796,4473.846153846154,4837.948717948719,4365.128205128206,4296.923076923077,4409.2307692307695,4347.6923076923085
87.32504,0.54695636,0.87250197,0.36736605,0.56506395,0,0.0,0.0,0.0,0.0,1.0,0,0,0.0,0.0,0,0,99.0,0.0,506.0,4749.743589743591,3876.410256410257,4534.871794871796,4534.871794871796,4321.538461538462,4601.538461538462,4503.589743589744,4413.846153846154,4421.025641025642,4796.410256410257,4338.974358974359,4279.48717948718,4333.846153846154,4183.076923076924
87.575264,0.54089355,0.8415278,0.37423444,0.5389574,0,0.0,0.0,0.0,0.0,0.674192,0,0,0.0,0.0,0,0,2.0,0.0,417.0,4681.538461538462,3875.3846153846157,4528.717948717949,4537.435897435898,4327.6923076923085,4613.333333333334,4523.589743589744,4443.589743589744,4408.205128205129,4788.717948717949,4348.205128205129,4293.846153846154,4285.128205128206,4240.512820512821
87.70037,0.54089355,0.8415278,0.37423444,0.5389574,0,0.0,0.0,0.0,0.0,1.0,0,0,0.0,0.0,0,0,18.0,0.0,0.0,4532.307692307693,3866.666666666667,4521.538461538462,4525.641025641026,4314.358974358975,4602.051282051282,4527.179487179488,4449.2307692307695,4405.641025641026,4767.179487179488,4287.179487179487,4280.000000000001,4265.641025641026,4276.410256410257
88.07569,0.5322735,0.7805281,0.3823989,0.51546437,0,0.0,0.0,0.0,0.0,1.0,0,0,0.0,0.0,0,0,66.0,0.0,420.0,4389.2307692307695,3707.1794871794878,4433.333333333334,4476.923076923077,4280.512820512821,4568.717948717949,4473.333333333334,4421.538461538462,4340.000000000001,4693.333333333334,4294.358974358975,4244.102564102564,4169.2307692307695,4310.256410256411
88.325905,0.5322735,0.7805281,0.3823989,0.51546437,0,0.0,0.0,0.0,0.0,0.60930705,0,0,0.0,0.0,0,0,98.0,0.0,530.0,4352.307692307693,3698.9743589743593,4412.307692307693,4445.641025641026,4277.435897435898,4554.358974358975,4471.794871794872,4418.461538461539,4318.461538461539,4663.076923076924,4283.589743589744,4216.923076923077,4125.641025641026,4324.615384615385
88.57612,0.5514522,0.70972747,0.38973847,0.4970652,0,0.0,0.0,0.0,0.0,1.0,0,0,0.0,0.0,0,0,1.0,0.0,505.0,4227.179487179487,3742.564102564103,4431.282051282052,4454.358974358975,4263.589743589744,4551.794871794872,4458.974358974359,4411.794871794872,4319.48717948718,4656.923076923077,4263.076923076924,4215.384615384616,4171.282051282052,4397.435897435898
88.57612,0.5514522,0.70972747,0.38973847,0.4970652,0,0.0,0.0,0.0,0.0,1.0,0,0,0.0,0.0,0,0,1.0,0.0,505.0,4227.179487179487,3742.564102564103,4431.282051282052,4454.358974358975,4263.589743589744,4551.794871794872,4458.974358974359,4411.794871794872,4319.48717948718,4656.923076923077,4263.076923076924,4215.384615384616,4171.282051282052,4397.435897435898
89.07655,0.567721,0.6355615,0.39633426,0.48051992,0,0.0,0.0,0.0,0.0,0.49827695,0,0,0.0,0.0,0,0,65.0,0.0,505.0,4296.410256410257,3892.307692307693,4486.666666666667,4492.307692307693,4264.102564102564,4554.871794871796,4464.102564102564,4441.538461538462,4343.589743589744,4703.589743589744,4290.769230769231,4215.384615384616,4224.615384615385,4412.307692307693
89.32677,0.567721,0.6355615,0.39633426,0.48051992,0,0.0,0.0,0.0,0.0,1.0,0,0,0.0,0.0,0,0,97.0,0.0,507.0,4307.179487179487,3881.538461538462,4478.974358974359,4470.769230769231,4255.384615384616,4543.076923076924,4446.153846153847,4433.333333333334,4330.769230769231,4683.589743589744,4276.923076923077,4185.641025641026,4201.538461538462,4435.8974358974365
89.57698,0.5406082,0.58243173,0.400956,0.4869268,0,0.0,0.0,0.0,0.0,0.21721846,0,0,0.0,0.0,0,0,0.0,0.0,498.0,4260.512820512821,3878.9743589743593,4432.307692307693,4427.6923076923085,4248.717948717949,4524.615384615385,4405.641025641026,4438.974358974359,4338.461538461539,4681.025641025642,4199.48717948718,4153.846153846154,4212.307692307693,4427.6923076923085
89.827194,0.5406082,0.58243173,0.400956,0.4869268,0,0.0,0.0,0.0,0.0,0.0,0,0,0.0,0.0,0,0,32.0,0.0,0.0,4437.948717948719,3953.8461538461543,4462.051282051282,4475.8974358974365,4287.179487179487,4562.051282051282,4431.794871794872,4495.384615384616,4405.641025641026,4742.564102564103,4286.153846153847,4229.74358974359,4283.589743589744,4527.6923076923085
90.07741,0.560071,0.56443065,0.40326524,0.51149535,0,0.0,0.0,0.0,0.0,0.0,0,0,0.0,0.0,0,0,64.0,0.0,498.0,4503.076923076924,4003.076923076924,4430.256410256411,4491.794871794872,4310.256410256411,4588.205128205129,4464.615384615385,4470.256410256411,4397.948717948719,4743.589743589744,4292.307692307693,4199.48717948718,4278.461538461539,4568.205128205129
90.32763,0.560071,0.56443065,0.40326524,0.51149535,0,0.0,0.0,0.0,0.0,0.25038287,0,0,0.0,0.0,0,0,96.0,0.0,506.0,4549.2307692307695,4000.0000000000005,4426.153846153847,4498.974358974359,4303.076923076924,4582.564102564103,4449.2307692307695,4447.179487179487,4414.358974358975,4735.8974358974365,4245.128205128206,4198.974358974359,4267.179487179487,4605.641025641026
90.57784,0.49621853,0.5434498,0.40298182,0.53360707,0,0.0,0.0,0.0,0.0,0.5873183,0,0,0.0,0.0,0,0,128.0,0.0,506.0,4568.205128205129,4028.205128205129,4412.820512820514,4522.564102564103,4311.794871794872,4584.615384615385,4427.6923076923085,4457.435897435898,4412.820512820514,4750.256410256411,4265.128205128206,4201.538461538462,4262.564102564103,4651.282051282052
90.70295,0.49621853,0.5434498,0.40298182,0.53360707,0,0.0,0.0,0.0,0.0,1.0,0,0,0.0,0.0,0,0,15.0,0.0,505.0,4716.923076923077,4020.5128205128212,4397.435897435898,4506.666666666667,4295.384615384616,4567.179487179488,4408.205128205129,4425.128205128206,4360.000000000001,4715.384615384616,4235.384615384616,4183.076923076924,4203.076923076924,4635.8974358974365
91.07827,0.48305902,0.5618129,0.39889136,0.55350864,0,0.0,0.0,0.0,0.0,0.39928946,0,0,0.0,0.0,0,0,63.0,0.0,0.0,4745.128205128206,4066.666666666667,4447.179487179487,4536.410256410257,4319.48717948718,4585.128205128206,4398.974358974359,4449.2307692307695,4386.153846153847,4732.820512820514,4277.435897435898,4203.076923076924,4215.8974358974365,4657.435897435898
91.32848,0.48305902,0.5618129,0.39889136,0.55350864,0,0.0,0.0,0.0,0.0,0.3652989,0,0,0.0,0.0,0,0,95.0,0.0,505.0,4632.307692307693,4093.8461538461543,4474.871794871796,4563.076923076924,4353.333333333334,4611.794871794872,4409.743589743591,4493.333333333334,4424.102564102564,4765.641025641026,4344.102564102564,4222.564102564103,4248.717948717949,4678.974358974359
91.5787,0.49255437,0.5552499,0.39348218,0.56880873,0,0.0,0.0,0.0,0.0,0.30048704,0,0,0.0,0.0,0,0,127.0,0.0,505.0,4681.025641025642,4096.923076923077,4462.051282051282,4558.974358974359,4364.102564102564,4616.410256410257,4393.846153846154,4504.615384615385,4388.717948717949,4735.384615384616,4334.871794871796,4204.102564102564,4229.2307692307695,4685.641025641026
91.82892,0.49255437,0.5552499,0.39348218,0.56880873,0,0.0,0.0,0.0,0.0,0.20665203,0,0,0.0,0.0,0,0,30.0,0.0,0.0,4599.48717948718,4058.9743589743593,4425.641025641026,4518.461538461539,4323.589743589744,4583.589743589744,4342.564102564103,4424.615384615385,4325.128205128206,4675.8974358974365,4291.794871794872,4155.8974358974365,4168.717948717949,4655.8974358974365
92.07913,0.5152912,0.5456167,0.3886057,0.576624,0,0.0,0.0,0.0,0.0,1.0,0,0,0.0,0.0,0,0,62.0,0.0,0.0,4996.923076923077,4034.8717948717954,4432.820512820514,4524.102564102564,4317.948717948719,4585.128205128206,4344.615384615385,4462.051282051282,4375.384615384616,4739.48717948718,4354.358974358975,4197.435897435898,4233.333333333334,4675.384615384616
92.07913,0.5152912,0.5456167,0.3886057,0.576624,0,0.0,0.0,0.0,0.0,1.0,0,0,0.0,0.0,0,0,62.0,0.0,0.0,4996.923076923077,4034.8717948717954,4432.820512820514,4524.102564102564,4317.948717948719,4585.128205128206,4344.615384615385,4462.051282051282,4375.384615384616,4739.48717948718,4354.358974358975,4197.435897435898,4233.333333333334,4675.384615384616
92.57956,0.47853732,0.6545831,0.38420928,0.577877,0,0.0,0.0,0.0,0.0,1.0,0,0,0.0,0.0,0,0,126.0,0.0,530.0,5616.410256410257,4013.333333333334,4503.589743589744,4552.307692307693,4307.6923076923085,4586.666666666667,4362.564102564103,4428.205128205129,4366.153846153847,4757.435897435898,4338.461538461539,4182.051282051282,4231.794871794872,4532.307692307693
92.57956,0.47853732,0.6545831,0.38420928,0.577877,0,0.0,0.0,0.0,0.0,1.0,0,0,0.0,0.0,0,0,126.0,0.0,530.0,5616.410256410257,4013.333333333334,4503.589743589744,4552.307692307693,4307.6923076923085,4586.666666666667,4362.564102564103,4428.205128205129,4366.153846153847,4757.435897435898,4338.461538461539,4182.051282051282,4231.794871794872,4532.307692307693
93.11127,0.52374095,0.68648577,0.37982857,0.5749664,0,0.0,0.0,0.0,0.0,1.0,0,0,0.0,0.0,0,0,65.0,0.0,505.0,5309.743589743591,4007.692307692308,4507.179487179488,4555.384615384616,4278.461538461539,4567.179487179488,4401.025641025642,4395.384615384616,4388.205128205129,4742.051282051282,4351.282051282052,4211.282051282052,4236.923076923077,4497.948717948719
93.11127,0.52374095,0.68648577,0.37982857,0.5749664,0,0.0,0.0,0.0,0.0,1.0,0,0,0.0,0.0,0,0,65.0,0.0,505.0,5309.743589743591,4007.692307692308,4507.179487179488,4555.384615384616,4278.461538461539,4567.179487179488,4401.025641025642,4395.384615384616,4388.205128205129,4742.051282051282,4351.282051282052,4211.282051282052,4236.923076923077,4497.948717948719
93.58042,0.4490571,0.71478367,0.37582055,0.57233053,0,0.0,0.0,0.0,0.0,1.0,0,0,0.0,0.0,0,0,125.0,0.0,508.0,4721.025641025642,3978.461538461539,4462.051282051282,4487.179487179488,4246.153846153847,4524.102564102564,4374.871794871796,4367.179487179487,4370.256410256411,4726.666666666667,4342.051282051282,4172.307692307693,4214.358974358975,4474.358974358975
93.58042,0.4490571,0.71478367,0.37582055,0.57233053,0,0.0,0.0,0.0,0.0,1.0,0,0,0.0,0.0,0,0,125.0,0.0,508.0,4721.025641025642,3978.461538461539,4462.051282051282,4487.179487179488,4246.153846153847,4524.102564102564,4374.871794871796,4367.179487179487,4370.256410256411,4726.666666666667,4342.051282051282,4172.307692307693,4214.358974358975,4474.358974358975
94.08085,0.42607015,0.7318048,0.3722138,0.56995684,0,0.0,0.0,0.0,0.0,1.0,0,0,0.0,0.0,0,0,60.0,0.0,0.0,4457.435897435898,3971.2820512820517,4493.846153846154,4524.102564102564,4262.564102564103,4537.948717948719,4395.8974358974365,4363.589743589744,4394.871794871796,4750.256410256411,4374.358974358975,4216.923076923077,4196.410256410257,4551.282051282052
94.08085,0.42607015,0.7318048,0.3722138,0.56995684,0,0.0,0.0,0.0,0.0,1.0,0,0,0.0,0.0,0,0,60.0,0.0,0.0,4457.435897435898,3971.2820512820517,4493.846153846154,4524.102564102564,4262.564102564103,4537.948717948719,4395.8974358974365,4363.589743589744,4394.871794871796,4750.256410256411,4374.358974358975,4216.923076923077,4196.410256410257,4551.282051282052
94.58128,0.4282971,0.65338653,0.3682667,0.56816626,0,0.0,0.0,0.0,0.0,0.15602244,0,0,0.0,0.0,0,0,124.0,0.0,506.0,4440.512820512821,3981.0256410256416,4497.435897435898,4536.410256410257,4292.307692307693,4569.743589743591,4444.615384615385,4370.769230769231,4437.948717948719,4782.051282051282,4406.153846153847,4274.871794871796,4221.538461538462,4574.358974358975
94.8315,0.4282971,0.65338653,0.3682667,0.56816626,0,0.0,0.0,0.0,0.0,0.15900117,0,0,0.0,0.0,0,0,27.0,0.0,0.0,4255.384615384616,3911.7948717948725,4436.410256410257,4470.769230769231,4217.948717948719,4507.179487179488,4355.8974358974365,4348.205128205129,4381.538461538462,4717.948717948719,4359.48717948718,4215.384615384616,4201.538461538462,4568.205128205129
95.08171,0.47611102,0.580509,0.36470944,0.5665552,0,0.0,0.0,0.0,0.0,0.9393961,0,0,0.0,0.0,0,0,59.0,0.0,0.0,4117.435897435898,3887.1794871794878,4394.871794871796,4438.461538461539,4200.512820512821,4473.846153846154,4317.948717948719,4348.717948717949,4323.076923076924,4655.384615384616,4285.641025641026,4148.717948717949,4153.846153846154,4562.564102564103
95.331924,0.47611102,0.580509,0.36470944,0.5665552,0,0.0,0.0,0.0,0.0,0.2115155,0,0,0.0,0.0,0,0,91.0,0.0,502.0,4154.871794871796,3922.564102564103,4405.128205128206,4441.025641025642,4220.512820512821,4500.512820512821,4344.615384615385,4293.333333333334,4303.076923076924,4651.282051282052,4306.666666666667,4166.153846153847,4128.717948717949,4533.333333333334
95.58214,0.48188326,0.5370849,0.36150345,0.5651071,0,0.0,0.0,0.0,0.0,0.13272282,0,0,0.0,0.0,0,0,123.0,0.0,502.0,4279.48717948718,3958.9743589743593,4447.179487179487,4474.871794871796,4264.615384615385,4536.923076923077,4367.179487179487,4324.102564102564,4348.205128205129,4716.410256410257,4381.025641025642,4234.358974358975,4172.307692307693,4571.794871794872
95.83236,0.48188326,0.5370849,0.36150345,0.5651071,0,0.0,0.0,0.0,0.0,0.096101746,0,0,0.0,0.0,0,0,26.0,0.0,0.0,4265.128205128206,3709.2307692307695,4413.333333333334,4456.410256410257,4245.128205128206,4502.051282051282,4343.076923076924,4362.564102564103,4334.871794871796,4711.282051282052,4372.820512820514,4225.641025641026,4152.820512820514,4541.025641025642
96.08257,0.47036386,0.5203376,0.35964593,0.5740137,0,0.0,0.0,0.0,0.0,1.0,0,0,0.0,0.0,0,0,58.0,0.0,0.0,4673.846153846154,3766.1538461538466,4394.358974358975,4455.384615384616,4265.641025641026,4509.2307692307695,4310.256410256411,4346.153846153847,4281.538461538462,4671.282051282052,4325.641025641026,4200.512820512821,4096.923076923077,4587.6923076923085
96.33279,0.47036386,0.5203376,0.35964593,0.5740137,0,0.0,0.0,0.0,0.0,0.9656781,0,0,0.0,0.0,0,0,90.0,0.0,530.0,4570.769230769231,3789.7435897435903,4372.307692307693,4447.179487179487,4258.974358974359,4507.179487179488,4285.128205128206,4289.2307692307695,4282.051282051282,4660.512820512821,4311.282051282052,4180.000000000001,4104.102564102564,4636.923076923077
96.583,0.43055356,0.53863895,0.35998335,0.5890802,0,0.0,0.0,0.0,0.0,1.0,0,0,0.0,0.0,0,0,122.0,0.0,530.0,4425.128205128206,3785.6410256410263,4374.358974358975,4445.128205128206,4231.794871794872,4489.2307692307695,4297.435897435898,4346.666666666667,4289.2307692307695,4654.358974358975,4299.48717948718,4158.974358974359,4095.8974358974365,4569.743589743591
96.92705,0.43055356,0.53863895,0.35998335,0.5890802,1,0.0,0.0,0.0,0.0,0.7314583,0,0,0.0,0.0,0,0,37.0,0.0,0.0,4521.538461538462,3819.48717948718,4385.128205128206,4474.358974358975,4251.794871794872,4522.051282051282,4350.256410256411,4375.8974358974365,4318.461538461539,4685.641025641026,4321.025641025642,4202.564102564103,4153.333333333334,4508.717948717949
97.083435,0.4312617,0.5928876,0.36186525,0.6026337,0,0.0,0.0,0.0,0.0,0.97291356,0,0,0.0,0.0,0,0,57.0,0.0,0.0,4409.2307692307695,3834.8717948717954,4393.333333333334,4474.871794871796,4249.2307692307695,4521.025641025642,4357.948717948719,4404.615384615385,4340.512820512821,4709.2307692307695,4336.410256410257,4200.512820512821,4186.153846153847,4475.8974358974365
97.20854,0.4312617,0.5928876,0.36186525,0.6026337,0,0.0,0.0,0.0,0.0,1.0,0,0,0.0,0.0,0,0,73.0,0.0,475.0,4353.846153846154,3847.1794871794878,4369.743589743591,4460.512820512821,4246.666666666667,4505.128205128206,4328.205128205129,4380.512820512821,4317.435897435898,4686.153846153847,4295.8974358974365,4161.025641025642,4153.333333333334,4405.128205128206
97.58386,0.45564264,0.6227638,0.364822,0.6148224,1,0.0,0.0,0.0,0.0,0.63387537,0,0,0.0,0.0,0,0,121.0,0.0,508.0,4387.6923076923085,3778.9743589743593,4353.846153846154,4421.538461538462,4237.948717948719,4492.820512820514,4326.153846153847,4370.256410256411,4305.641025641026,4658.974358974359,4269.2307692307695,4152.820512820514,4137.948717948719,4340.512820512821
97.74025,0.45564264,0.6227638,0.364822,0.6148224,0,0.0,0.0,0.0,0.0,1.0,0,0,0.0,0.0,0,0,12.0,0.0,506.0,4422.564102564103,3822.564102564103,4382.564102564103,4460.512820512821,4228.717948717949,4503.076923076924,4358.974358974359,4400.000000000001,4350.769230769231,4705.128205128206,4297.435897435898,4198.974358974359,4154.358974358975,4460.512820512821
98.08429,0.44086242,0.64187557,0.3668816,0.6206867,0,0.0,0.0,0.0,0.0,1.0,0,0,0.0,0.0,0,0,56.0,0.0,0.0,4458.974358974359,3898.461538461539,4420.512820512821,4541.025641025642,4263.589743589744,4535.8974358974365,4408.205128205129,4445.641025641026,4394.358974358975,4782.051282051282,4352.307692307693,4233.333333333334,4220.512820512821,4443.589743589744
98.3345,0.44086242,0.64187557,0.3668816,0.6206867,0,0.0,0.0,0.0,0.0,0.80691206,0,0,0.0,0.0,0,0,88.0,0.0,506.0,4560.512820512821,3925.1282051282055,4429.2307692307695,4536.410256410257,4222.564102564103,4504.615384615385,4384.102564102564,4409.2307692307695,4385.128205128206,4779.48717948718,4344.615384615385,4214.358974358975,4224.102564102564,4441.538461538462
98.584724,0.3708602,0.6623909,0.36879557,0.6259545,0,0.0,0.0,0.0,0.0,1.0,0,0,0.0,0.0,0,0,120.0,0.0,506.0,5041.025641025642,3893.8461538461543,4418.974358974359,4506.153846153847,4233.333333333334,4509.743589743591,4377.948717948719,4391.282051282052,4339.48717948718,4725.128205128206,4331.282051282052,4211.794871794872,4210.256410256411,4455.8974358974365
98.584724,0.3708602,0.6623909,0.36879557,0.6259545,0,0.0,0.0,0.0,0.0,1.0,0,0,0.0,0.0,0,0,120.0,0.0,506.0,5041.025641025642,3893.8461538461543,4418.974358974359,4506.153846153847,4233.333333333334,4509.743589743591,4377.948717948719,4391.282051282052,4339.48717948718,4725.128205128206,4331.282051282052,4211.794871794872,4210.256410256411,4455.8974358974365
99.08515,0.30875868,0.7145365,0.37051302,0.6306848,0,0.0,0.0,0.0,0.0,1.0,0,0,0.0,0.0,0,0,55.0,0.0,0.0,5088.205128205129,3942.564102564103,4408.717948717949,4479.48717948718,4258.461538461539,4517.948717948719,4324.615384615385,4373.846153846154,4304.102564102564,4701.025641025642,4327.179487179487,4165.641025641026,4196.923076923077,4462.564102564103
99.08515,0.30875868,0.7145365,0.37051302,0.6306848,0,0.0,0.0,0.0,0.0,1.0,0,0,0.0,0.0,0,0,55.0,0.0,0.0,5088.205128205129,3942.564102564103,4408.717948717949,4479.48717948718,4258.461538461539,4517.948717948719,4324.615384615385,4373.846153846154,4304.102564102564,4701.025641025642,4327.179487179487,4165.641025641026,4196.923076923077,4462.564102564103
99.58558,0.31762624,0.7724518,0.3705346,0.6316645,0,0.0,0.0,0.0,0.0,1.0,0,0,0.0,0.0,0,0,119.0,0.0,504.0,5241.538461538462,3957.435897435898,4477.948717948719,4510.769230769231,4283.076923076924,4535.8974358974365,4323.076923076924,4411.282051282052,4341.538461538462,4718.974358974359,4336.410256410257,4188.205128205129,4200.512820512821,4382.051282051282
99.58558,0.31762624,0.7724518,0.3705346,0.6316645,0,0.0,0.0,0.0,0.0,1.0,0,0,0.0,0.0,0,0,119.0,0.0,504.0,5241.538461538462,3957.435897435898,4477.948717948719,4510.769230769231,4283.076923076924,4535.8974358974365,4323.076923076924,4411.282051282052,4341.538461538462,4718.974358974359,4336.410256410257,4188.205128205129,4200.512820512821,4382.051282051282
100.08601,0.28738007,0.8140595,0.37036705,0.6282825,0,0.0,0.0,0.0,0.0,1.0,0,0,0.0,0.0,0,0,54.0,0.0,0.0,5024.615384615386,3990.2564102564106,4575.384615384616,4554.358974358975,4275.384615384616,4545.128205128206,4356.410256410257,4344.102564102564,4340.512820512821,4735.8974358974365,4358.461538461539,4264.102564102564,4246.153846153847,5120.512820512821
100.08601,0.28738007,0.8140595,0.37036705,0.6282825,0,0.0,0.0,0.0,0.0,1.0,0,0,0.0,0.0,0,0,54.0,0.0,0.0,5024.615384615386,3990.2564102564106,4575.384615384616,4554.358974358975,4275.384615384616,4545.128205128206,4356.410256410257,4344.102564102564,4340.512820512821,4735.8974358974365,4358.461538461539,4264.102564102564,4246.153846153847,5120.512820512821
100.58644,0.31815022,0.8443114,0.37002182,0.6304098,0,0.0,0.0,0.0,0.0,1.0,0,0,0.0,0.0,0,0,118.0,0.0,530.0,4731.794871794872,3988.717948717949,4554.358974358975,4529.743589743591,4282.051282051282,4568.205128205129,4340.000000000001,4347.179487179487,4375.384615384616,4750.769230769231,4373.846153846154,4246.153846153847,4272.307692307693,5379.487179487181
100.58644,0.31815022,0.8443114,0.37002182,0.6304098,0,0.0,0.0,0.0,0.0,1.0,0,0,0.0,0.0,0,0,118.0,0.0,530.0,4731.794871794872,3988.717948717949,4554.358974358975,4529.743589743591,4282.051282051282,4568.205128205129,4340.000000000001,4347.179487179487,4375.384615384616,4750.769230769231,4373.846153846154,4246.153846153847,4272.307692307693,5379.487179487181
101.08687,0.39111242,0.7912886,0.36989546,0.6323151,0,0.0,0.0,0.0,0.0,1.0,0,0,0.0,0.0,0,0,53.0,0.0,0.0,4601.538461538462,3941.538461538462,4504.102564102564,4472.820512820514,4262.051282051282,4534.871794871796,4324.102564102564,4320.000000000001,4320.512820512821,4705.128205128206,4311.282051282052,4151.282051282052,4247.6923076923085,5005.128205128206
101.08687,0.39111242,0.7912886,0.36989546,0.6323151,0,0.0,0.0,0.0,0.0,1.0,0,0,0.0,0.0,0,0,53.0,0.0,0.0,4601.538461538462,3941.538461538462,4504.102564102564,4472.820512820514,4262.051282051282,4534.871794871796,4324.102564102564,4320.000000000001,4320.512820512821,4705.128205128206,4311.282051282052,4151.282051282052,4247.6923076923085,5005.128205128206
101.5873,0.3693263,0.7278401,0.36977664,0.6232438,0,0.0,0.0,0.0,0.0,0.92275494,0,0,0.0,0.0,0,0,117.0,0.0,508.0,4638.974358974359,3755.8974358974365,4516.410256410257,4494.358974358975,4272.820512820514,4518.974358974359,4346.666666666667,4356.410256410257,4334.871794871796,4744.102564102564,4305.128205128206,4169.2307692307695,4293.846153846154,4782.564102564103
101.83752,0.3693263,0.7278401,0.36977664,0.6232438,0,0.0,0.0,0.0,0.0,0.727532,0,0,0.0,0.0,0,0,20.0,0.0,0.0,4469.2307692307695,3780.512820512821,4520.512820512821,4522.051282051282,4260.512820512821,4525.128205128206,4369.743589743591,4380.512820512821,4346.153846153847,4752.820512820514,4320.000000000001,4178.974358974359,4307.179487179487,4628.717948717949
102.08773,0.31637448,0.6719031,0.3706846,0.6150783,0,0.0,0.0,0.0,0.0,1.0,0,0,0.0,0.0,0,0,52.0,0.0,0.0,4430.256410256411,3811.7948717948725,4490.769230769231,4524.102564102564,4249.74358974359,4520.512820512821,4361.538461538462,4359.48717948718,4346.153846153847,4762.564102564103,4351.282051282052,4182.564102564103,4343.589743589744,4546.666666666667
102.08773,0.31637448,0.6719031,0.3706846,0.6150783,0,0.0,0.0,0.0,0.0,1.0,0,0,0.0,0.0,0,0,52.0,0.0,0.0,4430.256410256411,3811.7948717948725,4490.769230769231,4524.102564102564,4249.74358974359,4520.512820512821,4361.538461538462,4359.48717948718,4346.153846153847,4762.564102564103,4351.282051282052,4182.564102564103,4343.589743589744,4546.666666666667
102.588165,0.3908731,0.62788683,0.37285882,0.60546505,0,0.0,0.0,0.0,0.0,0.98850405,0,0,0.0,0.0,0,0,116.0,0.0,506.0,4487.179487179488,3942.0512820512827,4524.102564102564,4604.102564102564,4308.717948717949,4588.205128205129,4460.000000000001,4475.8974358974365,4459.48717948718,4879.48717948718,4443.076923076924,4278.974358974359,4409.2307692307695,4640.512820512821
102.83838,0.3908731,0.62788683,0.37285882,0.60546505,0,0.0,0.0,0.0,0.0,0.83341205,0,0,0.0,0.0,0,0,19.0,0.0,0.0,4625.641025641026,3975.8974358974365,4535.384615384616,4601.538461538462,4291.282051282052,4572.820512820514,4445.641025641026,4446.153846153847,4452.820512820514,4882.051282051283,4464.102564102564,4285.128205128206,4430.769230769231,4654.358974358975
103.08859,0.39965945,0.6015867,0.37633014,0.5958119,0,0.0,0.0,0.0,0.0,1.0,0,0,0.0,0.0,0,0,51.0,0.0,0.0,4699.48717948718,3991.7948717948725,4494.871794871796,4587.179487179488,4274.358974358975,4554.871794871796,4434.358974358975,4397.948717948719,4407.6923076923085,4826.666666666667,4426.153846153847,4254.358974358975,4325.128205128206,4610.256410256411
103.08859,0.39965945,0.6015867,0.37633014,0.5958119,0,0.0,0.0,0.0,0.0,1.0,0,0,0.0,0.0,0,0,51.0,0.0,0.0,4699.48717948718,3991.7948717948725,4494.871794871796,4587.179487179488,4274.358974358975,4554.871794871796,4434.358974358975,4397.948717948719,4407.6923076923085,4826.666666666667,4426.153846153847,4254.358974358975,4325.128205128206,4610.256410256411
103.58902,0.36779588,0.5726933,0.37950027,0.58712244,0,0.0,0.0,0.0,0.0,1.0,0,0,0.0,0.0,0,0,115.0,0.0,493.0,4883.589743589744,4029.23076923077,4461.025641025642,4587.6923076923085,4308.717948717949,4589.2307692307695,4399.48717948718,4360.000000000001,4394.358974358975,4810.256410256411,4461.538461538462,4229.2307692307695,4372.820512820514,4487.179487179488
103.58902,0.36779588,0.5726933,0.37950027,0.58712244,0,0.0,0.0,0.0,0.0,1.0,0,0,0.0,0.0,0,0,115.0,0.0,493.0,4883.589743589744,4029.23076923077,4461.025641025642,4587.6923076923085,4308.717948717949,4589.2307692307695,4399.48717948718,4360.000000000001,4394.358974358975,4810.256410256411,4461.538461538462,4229.2307692307695,4372.820512820514,4487.179487179488
104.089455,0.37806955,0.555056,0.38234666,0.58407056,0,0.0,0.0,0.0,0.0,1.0,0,0,0.0,0.0,0,0,50.0,0.0,0.0,4505.128205128206,4091.7948717948725,4439.48717948718,4588.717948717949,4301.025641025642,4585.641025641026,4371.282051282052,4356.923076923077,4373.333333333334,4811.282051282052,4409.2307692307695,4211.794871794872,4412.820512820514,4364.615384615385
104.089455,0.37806955,0.555056,0.38234666,0.58407056,0,0.0,0.0,0.0,0.0,1.0,0,0,0.0,0.0,0,0,50.0,0.0,0.0,4505.128205128206,4091.7948717948725,4439.48717948718,4588.717948717949,4301.025641025642,4585.641025641026,4371.282051282052,4356.923076923077,4373.333333333334,4811.282051282052,4409.2307692307695,4211.794871794872,4412.820512820514,4364.615384615385
104.58988,0.33534178,0.54258007,0.38556883,0.5813217,0,0.0,0.0,0.0,0.0,1.0,0,0,0.0,0.0,0,0,114.0,0.0,529.0,4771.282051282052,4169.2307692307695,4445.128205128206,4624.615384615385,4300.512820512821,4586.153846153847,4388.717948717949,4425.641025641026,4402.564102564103,4828.717948717949,4417.948717948719,4265.641025641026,4372.820512820514,4478.461538461539
104.840096,0.33534178,0.54258007,0.38556883,0.5813217,0,0.0,0.0,0.0,0.0,0.7655306,0,0,0.0,0.0,0,0,17.0,0.0,0.0,4687.179487179488,4154.871794871796,4492.307692307693,4646.666666666667,4316.923076923077,4601.025641025642,4414.358974358975,4493.846153846154,4409.743589743591,4844.102564102564,4445.641025641026,4286.153846153847,4373.333333333334,4658.461538461539
105.09031,0.29691708,0.5272496,0.38745826,0.5768348,0,0.0,0.0,0.0,0.0,1.0,0,0,0.0,0.0,0,0,49.0,0.0,0.0,4464.615384615385,4094.8717948717954,4472.307692307693,4591.282051282052,4295.384615384616,4583.076923076924,4412.307692307693,4504.102564102564,4464.615384615385,4841.538461538462,4444.615384615385,4263.076923076924,4316.410256410257,4585.128205128206
105.09031,0.29691708,0.5272496,0.38745826,0.5768348,0,0.0,0.0,0.0,0.0,1.0,0,0,0.0,0.0,0,0,49.0,0.0,0.0,4464.615384615385,4094.8717948717954,4472.307692307693,4591.282051282052,4295.384615384616,4583.076923076924,4412.307692307693,4504.102564102564,4464.615384615385,4841.538461538462,4444.615384615385,4263.076923076924,4316.410256410257,4585.128205128206
105.590744,0.32012644,0.54507273,0.3880718,0.5727949,0,0.0,0.0,0.0,0.0,1.0,0,0,0.0,0.0,0,0,113.0,0.0,508.0,4433.846153846154,4121.538461538462,4492.820512820514,4595.8974358974365,4303.076923076924,4573.333333333334,4428.717948717949,4497.948717948719,4423.589743589744,4821.538461538462,4466.153846153847,4280.000000000001,4273.333333333334,4522.051282051282
105.84096,0.32012644,0.54507273,0.3880718,0.5727949,0,0.0,0.0,0.0,0.0,0.82892424,0,0,0.0,0.0,0,0,16.0,0.0,0.0,4369.2307692307695,4081.538461538462,4476.410256410257,4560.512820512821,4284.615384615385,4552.820512820514,4414.358974358975,4473.846153846154,4388.205128205129,4781.538461538462,4361.025641025642,4217.948717948719,4203.589743589744,4436.410256410257
106.09117,0.38181847,0.55870247,0.3886163,0.56786567,0,0.0,0.0,0.0,0.0,0.5203998,0,0,0.0,0.0,0,0,48.0,0.0,0.0,4465.128205128206,4075.3846153846157,4509.743589743591,4553.333333333334,4279.48717948718,4554.871794871796,4415.8974358974365,4492.307692307693,4397.435897435898,4795.8974358974365,4395.8974358974365,4250.256410256411,4264.102564102564,4482.564102564103
106.341385,0.38181847,0.55870247,0.3886163,0.56786567,0,0.0,0.0,0.0,0.0,0.67754203,0,0,0.0,0.0,0,0,80.0,0.0,506.0,4422.051282051282,4092.307692307693,4488.717948717949,4553.846153846154,4291.282051282052,4571.282051282052,4424.102564102564,4506.153846153847,4404.102564102564,4809.743589743591,4422.051282051282,4244.615384615385,4281.025641025642,4449.2307692307695
106.591606,0.38189793,0.53635615,0.3886196,0.5634283,0,0.0,0.0,0.0,0.0,0.0,0,0,0.0,0.0,0,0,112.0,0.0,506.0,4446.153846153847,4064.1025641025644,4457.948717948719,4528.205128205129,4281.025641025642,4567.6923076923085,4436.923076923077,4511.282051282052,4392.820512820514,4789.2307692307695,4428.205128205129,4233.846153846154,4278.974358974359,4403.589743589744
106.84182,0.38189793,0.53635615,0.3886196,0.5634283,0,0.0,0.0,0.0,0.0,0.7327283,0,0,0.0,0.0,0,0,15.0,0.0,504.0,4489.743589743591,4124.615384615385,4491.282051282052,4571.282051282052,4298.974358974359,4582.564102564103,4444.102564102564,4495.384615384616,4400.512820512821,4796.410256410257,4438.461538461539,4244.102564102564,4278.974358974359,4360.000000000001
107.09203,0.38074833,0.51712334,0.38861495,0.5594339,0,0.0,0.0,0.0,0.0,0.15138792,0,0,0.0,0.0,0,0,47.0,0.0,0.0,4515.384615384616,4124.102564102564,4504.102564102564,4586.153846153847,4289.74358974359,4567.6923076923085,4433.846153846154,4433.333333333334,4401.025641025642,4801.538461538462,4434.358974358975,4263.076923076924,4271.794871794872,4494.358974358975
107.34225,0.38074833,0.51712334,0.38861495,0.5594339,0,0.0,0.0,0.0,0.0,0.2556489,0,0,0.0,0.0,0,0,79.0,0.0,504.0,4462.564102564103,4071.7948717948725,4503.076923076924,4558.974358974359,4275.384615384616,4556.410256410257,4418.974358974359,4379.48717948718,4388.717948717949,4784.102564102564,4403.076923076924,4232.820512820514,4228.717948717949,4568.205128205129
107.59246,0.37555438,0.47341993,0.38834614,0.559671,0,0.0,0.0,0.0,0.0,1.0,0,0,0.0,0.0,0,0,111.0,0.0,504.0,4423.589743589744,4006.1538461538466,4479.48717948718,4524.615384615385,4250.256410256411,4523.589743589744,4397.435897435898,4381.025641025642,4340.512820512821,4718.974358974359,4354.358974358975,4220.000000000001,4167.6923076923085,4676.410256410257
107.59246,0.37555438,0.47341993,0.38834614,0.559671,0,0.0,0.0,0.0,0.0,1.0,0,0,0.0,0.0,0,0,111.0,0.0,504.0,4423.589743589744,4006.1538461538466,4479.48717948718,4524.615384615385,4250.256410256411,4523.589743589744,4397.435897435898,4381.025641025642,4340.512820512821,4718.974358974359,4354.358974358975,4220.000000000001,4167.6923076923085,4676.410256410257
108.092896,0.35796383,0.46081436,0.3879326,0.5598839,0,0.0,0.0,0.0,0.0,1.0,0,0,0.0,0.0,0,0,46.0,0.0,0.0,4724.102564102564,3976.9230769230776,4453.846153846154,4473.333333333334,4216.923076923077,4507.179487179488,4357.435897435898,4378.461538461539,4351.282051282052,4716.923076923077,4313.846153846154,4203.589743589744,4130.256410256411,4940.000000000001
108.092896,0.35796383,0.46081436,0.3879326,0.5598839,0,0.0,0.0,0.0,0.0,1.0,0,0,0.0,0.0,0,0,46.0,0.0,0.0,4724.102564102564,3976.9230769230776,4453.846153846154,4473.333333333334,4216.923076923077,4507.179487179488,4357.435897435898,4378.461538461539,4351.282051282052,4716.923076923077,4313.846153846154,4203.589743589744,4130.256410256411,4940.000000000001
108.59332,0.32610413,0.48430946,0.387553,0.56007487,0,0.0,0.0,0.0,0.0,1.0,0,0,0.0,0.0,0,0,110.0,0.0,529.0,4954.871794871796,3920.5128205128212,4428.717948717949,4401.025641025642,4217.435897435898,4489.743589743591,4342.564102564103,4396.410256410257,4335.8974358974365,4718.974358974359,4296.410256410257,4205.128205128206,4154.871794871796,4862.051282051283
108.59332,0.32610413,0.48430946,0.387553,0.56007487,0,0.0,0.0,0.0,0.0,1.0,0,0,0.0,0.0,0,0,110.0,0.0,529.0,4954.871794871796,3920.5128205128212,4428.717948717949,4401.025641025642,4217.435897435898,4489.743589743591,4342.564102564103,4396.410256410257,4335.8974358974365,4718.974358974359,4296.410256410257,4205.128205128206,4154.871794871796,4862.051282051283
109.09375,0.34746018,0.50888455,0.3871308,0.56552804,0,0.0,0.0,0.0,0.0,1.0,0,0,0.0,0.0,0,0,45.0,0.0,0.0,4954.358974358975,4023.076923076924,4462.051282051282,4427.6923076923085,4279.48717948718,4526.153846153847,4335.384615384616,4400.000000000001,4327.6923076923085,4747.6923076923085,4337.435897435898,4234.358974358975,4228.205128205129,5220.000000000001
109.09375,0.34746018,0.50888455,0.3871308,0.56552804,0,0.0,0.0,0.0,0.0,1.0,0,0,0.0,0.0,0,0,45.0,0.0,0.0,4954.358974358975,4023.076923076924,4462.051282051282,4427.6923076923085,4279.48717948718,4526.153846153847,4335.384615384616,4400.000000000001,4327.6923076923085,4747.6923076923085,4337.435897435898,4234.358974358975,4228.205128205129,5220.000000000001
109.594185,0.41588566,0.5579748,0.38619822,0.5727048,0,0.0,0.0,0.0,0.0,1.0,0,0,0.0,0.0,0,0,109.0,0.0,508.0,4914.358974358975,3941.0256410256416,4423.589743589744,4386.153846153847,4254.358974358975,4521.538461538462,4278.974358974359,4325.641025641026,4281.025641025642,4651.794871794872,4245.641025641026,4106.153846153847,4171.282051282052,4633.846153846154
109.594185,0.41588566,0.5579748,0.38619822,0.5727048,0,0.0,0.0,0.0,0.0,1.0,0,0,0.0,0.0,0,0,109.0,0.0,508.0,4914.358974358975,3941.0256410256416,4423.589743589744,4386.153846153847,4254.358974358975,4521.538461538462,4278.974358974359,4325.641025641026,4281.025641025642,4651.794871794872,4245.641025641026,4106.153846153847,4171.282051282052,4633.846153846154
110.09461,0.41385984,0.56926644,0.38535184,0.5861999,0,0.0,0.0,0.0,0.0,1.0,0,0,0.0,0.0,0,0,44.0,0.0,0.0,4870.769230769231,4006.666666666667,4592.820512820514,4492.307692307693,4296.923076923077,4569.743589743591,4363.589743589744,4346.666666666667,4326.666666666667,4717.435897435898,4335.384615384616,4206.153846153847,4232.307692307693,4788.205128205129
110.09461,0.41385984,0.56926644,0.38535184,0.5861999,0,0.0,0.0,0.0,0.0,1.0,0,0,0.0,0.0,0,0,44.0,0.0,0.0,4870.769230769231,4006.666666666667,4592.820512820514,4492.307692307693,4296.923076923077,4569.743589743591,4363.589743589744,4346.666666666667,4326.666666666667,4717.435897435898,4335.384615384616,4206.153846153847,4232.307692307693,4788.205128205129
110.59504,0.42992932,0.54778326,0.38363227,0.61369926,0,0.0,0.0,0.0,0.0,0.5520159,0,0,0.0,0.0,0,0,108.0,0.0,506.0,4855.8974358974365,4109.74358974359,4606.153846153847,4605.641025641026,4358.461538461539,4647.179487179488,4490.769230769231,4472.820512820514,4463.076923076924,4884.102564102564,4470.256410256411,4346.153846153847,4444.615384615385,4957.948717948719
110.84526,0.42992932,0.54778326,0.38363227,0.61369926,0,0.0,0.0,0.0,0.0,0.56344384,0,0,0.0,0.0,0,0,11.0,0.0,492.0,4804.615384615386,4088.205128205129,4584.615384615385,4611.794871794872,4341.538461538462,4630.769230769231,4498.974358974359,4461.025641025642,4460.512820512821,4905.641025641026,4475.384615384616,4351.282051282052,4412.307692307693,4880.512820512821
111.095474,0.40328613,0.50887054,0.37969515,0.64412963,0,0.0,0.0,0.0,0.0,0.0,0,0,0.0,0.0,0,0,43.0,0.0,0.0,4841.025641025642,4106.153846153847,4649.2307692307695,4608.205128205129,4332.307692307693,4625.128205128206,4490.769230769231,4472.820512820514,4445.128205128206,4884.102564102564,4443.076923076924,4300.512820512821,4354.358974358975,4944.615384615386
111.34569,0.40328613,0.50887054,0.37969515,0.64412963,0,0.0,0.0,0.0,0.0,1.0,0,0,0.0,0.0,0,0,75.0,0.0,492.0,5041.025641025642,4118.461538461539,4706.153846153847,4631.794871794872,4327.6923076923085,4625.128205128206,4503.589743589744,4467.6923076923085,4455.384615384616,4899.48717948718,4471.794871794872,4335.8974358974365,4394.358974358975,4935.384615384616
111.5959,0.4205893,0.4812373,0.37558392,0.6714688,0,0.0,0.0,0.0,0.0,1.0,0,0,0.0,0.0,0,0,107.0,0.0,492.0,4918.974358974359,4101.025641025642,4655.384615384616,4602.051282051282,4320.000000000001,4627.6923076923085,4508.205128205129,4416.410256410257,4468.717948717949,4881.025641025642,4444.615384615385,4304.615384615385,4369.743589743591,4796.923076923077
111.5959,0.4205893,0.4812373,0.37558392,0.6714688,0,0.0,0.0,0.0,0.0,1.0,0,0,0.0,0.0,0,0,107.0,0.0,492.0,4918.974358974359,4101.025641025642,4655.384615384616,4602.051282051282,4320.000000000001,4627.6923076923085,4508.205128205129,4416.410256410257,4468.717948717949,4881.025641025642,4444.615384615385,4304.615384615385,4369.743589743591,4796.923076923077
112.09634,0.3985563,0.45620292,0.37187842,0.6960047,0,0.0,0.0,0.0,0.0,0.6054089,0,0,0.0,0.0,0,0,42.0,0.0,0.0,4748.717948717949,4152.820512820514,4649.2307692307695,4600.512820512821,4295.384615384616,4600.000000000001,4465.128205128206,4433.333333333334,4435.384615384616,4846.666666666667,4423.589743589744,4296.923076923077,4293.846153846154,4633.333333333334
112.34655,0.3985563,0.45620292,0.37187842,0.6960047,0,0.0,0.0,0.0,0.0,1.0,0,0,0.0,0.0,0,0,74.0,0.0,529.0,4945.641025641026,4169.74358974359,4631.282051282052,4615.384615384616,4295.8974358974365,4598.461538461539,4463.589743589744,4447.179487179487,4433.333333333334,4827.6923076923085,4424.615384615385,4311.794871794872,4315.8974358974365,4863.589743589744
112.59676,0.33751842,0.46514496,0.3685386,0.7019699,0,0.0,0.0,0.0,0.0,0.6845774,0,0,0.0,0.0,0,0,106.0,0.0,529.0,4814.358974358975,4110.256410256411,4554.871794871796,4600.000000000001,4331.794871794872,4618.974358974359,4479.48717948718,4512.307692307693,4461.025641025642,4816.923076923077,4411.282051282052,4310.769230769231,4285.641025641026,4826.153846153847
112.84698,0.33751842,0.46514496,0.3685386,0.7019699,0,0.0,0.0,0.0,0.0,0.33347946,0,0,0.0,0.0,0,0,9.0,0.0,475.0,4771.794871794872,4090.7692307692314,4508.717948717949,4587.179487179488,4348.205128205129,4630.769230769231,4476.923076923077,4524.615384615385,4490.769230769231,4826.153846153847,4366.153846153847,4285.128205128206,4263.589743589744,4748.205128205129
113.09719,0.2939869,0.5138296,0.37080365,0.68780243,0,0.0,0.0,0.0,0.0,1.0,0,0,0.0,0.0,0,0,41.0,0.0,0.0,4843.076923076924,4084.1025641025644,4508.717948717949,4580.000000000001,4356.410256410257,4632.307692307693,4456.410256410257,4568.205128205129,4472.307692307693,4809.2307692307695,4391.794871794872,4260.512820512821,4281.538461538462,4677.948717948719
113.34741,0.2939869,0.5138296,0.37080365,0.68780243,0,0.0,0.0,0.0,0.0,0.39667457,0,0,0.0,0.0,0,0,73.0,0.0,475.0,4750.769230769231,4025.6410256410263,4468.717948717949,4512.307692307693,4308.205128205129,4587.6923076923085,4436.923076923077,4550.769230769231,4455.384615384616,4782.564102564103,4418.461538461539,4251.282051282052,4267.179487179487,4607.6923076923085
113.597626,0.32677114,0.54119325,0.37931377,0.66931087,0,0.0,0.0,0.0,0.0,0.5439551,0,0,0.0,0.0,0,0,105.0,0.0,508.0,4728.717948717949,4031.2820512820517,4405.641025641026,4459.48717948718,4268.717948717949,4552.307692307693,4427.179487179487,4489.743589743591,4381.025641025642,4732.307692307693,4338.974358974359,4214.358974358975,4163.589743589744,4672.820512820514
113.84784,0.32677114,0.54119325,0.37931377,0.66931087,0,0.0,0.0,0.0,0.0,1.0,0,0,0.0,0.0,0,0,8.0,0.0,480.0,4525.641025641026,3978.9743589743593,4364.615384615385,4346.666666666667,4215.384615384616,4488.205128205129,4374.358974358975,4429.743589743591,4320.000000000001,4688.205128205129,4278.974358974359,4156.410256410257,4111.282051282052,4553.846153846154
114.09805,0.416045,0.5661183,0.39074457,0.6387274,0,0.0,0.0,0.0,0.0,1.0,0,0,0.0,0.0,0,0,40.0,0.0,0.0,4574.871794871796,3956.9230769230776,4315.384615384616,4342.051282051282,4196.923076923077,4458.974358974359,4322.564102564103,4325.128205128206,4265.641025641026,4632.820512820514,4220.512820512821,4118.974358974359,4082.0512820512827,4438.974358974359
114.28571,0.416045,0.5661183,0.39074457,0.6387274,1,0.0,0.0,0.0,0.0,1.0,0,0,0.0,0.0,0,0,64.0,0.0,498.0,4712.307692307693,3964.1025641025644,4333.846153846154,4343.589743589744,4170.256410256411,4441.025641025642,4313.846153846154,4321.025641025642,4246.666666666667,4596.923076923077,4200.000000000001,4119.48717948718,4069.23076923077,4582.564102564103
114.59848,0.43122602,0.5885509,0.40102288,0.61121553,0,0.0,0.0,0.0,0.0,1.0,0,0,0.0,0.0,0,0,104.0,0.0,506.0,4501.025641025642,3930.2564102564106,4346.153846153847,4347.179487179487,4196.410256410257,4458.974358974359,4325.641025641026,4382.051282051282,4305.128205128206,4661.025641025642,4230.769230769231,4155.384615384616,4093.333333333334,4616.410256410257
114.59848,0.43122602,0.5885509,0.40102288,0.61121553,0,0.0,0.0,0.0,0.0,1.0,0,0,0.0,0.0,0,0,104.0,0.0,506.0,4501.025641025642,3930.2564102564106,4346.153846153847,4347.179487179487,4196.410256410257,4458.974358974359,4325.641025641026,4382.051282051282,4305.128205128206,4661.025641025642,4230.769230769231,4155.384615384616,4093.333333333334,4616.410256410257
115.098915,0.49210918,0.60874027,0.4075823,0.6004384,0,0.0,0.0,0.0,0.0,1.0,0,0,0.0,0.0,0,0,39.0,0.0,0.0,5000.000000000001,3989.7435897435903,4457.948717948719,4428.205128205129,4250.256410256411,4525.641025641026,4386.666666666667,4429.2307692307695,4370.769230769231,4765.128205128206,4300.000000000001,4204.615384615385,4177.948717948719,4848.717948717949
115.34913,0.49210918,0.60874027,0.4075823,0.6004384,0,0.0,0.0,0.0,0.0,0.8652574,0,0,0.0,0.0,0,0,71.0,0.0,476.0,5058.461538461539,3941.0256410256416,4474.871794871796,4429.2307692307695,4247.6923076923085,4507.179487179488,4377.948717948719,4396.923076923077,4373.846153846154,4787.6923076923085,4305.641025641026,4195.8974358974365,4204.615384615385,4880.512820512821
115.63062,0.47336945,0.6269106,0.40645486,0.59166956,0,0.0,0.0,0.0,0.0,1.0,0,0,0.0,0.0,0,0,107.0,0.0,495.0,4793.846153846154,3918.9743589743593,4459.48717948718,4410.256410256411,4221.025641025642,4479.48717948718,4345.641025641026,4378.974358974359,4366.153846153847,4757.435897435898,4308.205128205129,4198.974358974359,4186.666666666667,4741.538461538462
115.63062,0.47336945,0.6269106,0.40645486,0.59166956,0,0.0,0.0,0.0,0.0,1.0,0,0,0.0,0.0,0,0,107.0,0.0,495.0,4793.846153846154,3918.9743589743593,4459.48717948718,4410.256410256411,4221.025641025642,4479.48717948718,4345.641025641026,4378.974358974359,4366.153846153847,4757.435897435898,4308.205128205129,4198.974358974359,4186.666666666667,4741.538461538462
116.13105,0.45181355,0.643264,0.40062457,0.5859014,0,0.0,0.0,0.0,0.0,0.29384297,0,0,0.0,0.0,0,0,42.0,0.0,0.0,4762.564102564103,3905.6410256410263,4456.923076923077,4429.2307692307695,4263.589743589744,4544.615384615385,4368.717948717949,4442.051282051282,4339.48717948718,4747.179487179488,4335.8974358974365,4232.820512820514,4156.410256410257,4567.179487179488
116.34999,0.45181355,0.643264,0.40062457,0.5859014,0,0.0,0.0,0.0,0.0,0.5303355,0,0,0.0,0.0,0,0,70.0,0.0,535.0,4716.923076923077,3925.6410256410263,4476.923076923077,4457.435897435898,4280.000000000001,4571.794871794872,4410.769230769231,4454.358974358975,4380.000000000001,4766.153846153847,4362.564102564103,4262.564102564103,4169.2307692307695,4571.794871794872
116.600204,0.43071276,0.6556086,0.39381197,0.5825117,0,0.0,0.0,0.0,0.0,0.18403058,0,0,0.0,0.0,0,0,102.0,0.0,529.0,4818.974358974359,3958.461538461539,4492.307692307693,4492.820512820514,4305.641025641026,4594.871794871796,4447.6923076923085,4527.179487179488,4389.743589743591,4765.128205128206,4386.153846153847,4278.974358974359,4166.666666666667,4570.256410256411
116.85042,0.43071276,0.6556086,0.39381197,0.5825117,0,0.0,0.0,0.0,0.0,1.0,0,0,0.0,0.0,0,0,5.0,0.0,558.0,5067.6923076923085,3997.435897435898,4524.615384615385,4523.076923076924,4296.923076923077,4589.2307692307695,4475.384615384616,4538.461538461539,4425.128205128206,4776.923076923077,4410.769230769231,4293.846153846154,4199.48717948718,4592.307692307693
117.10063,0.41493392,0.6241858,0.38767356,0.57945913,0,0.0,0.0,0.0,0.0,1.0,0,0,0.0,0.0,0,0,37.0,0.0,0.0,5220.512820512821,4012.307692307693,4522.051282051282,4538.461538461539,4289.2307692307695,4587.179487179488,4487.179487179488,4519.48717948718,4439.48717948718,4795.384615384616,4437.435897435898,4286.153846153847,4229.2307692307695,4452.820512820514
117.10063,0.41493392,0.6241858,0.38767356,0.57945913,0,0.0,0.0,0.0,0.0,1.0,0,0,0.0,0.0,0,0,37.0,0.0,0.0,5220.512820512821,4012.307692307693,4522.051282051282,4538.461538461539,4289.2307692307695,4587.179487179488,4487.179487179488,4519.48717948718,4439.48717948718,4795.384615384616,4437.435897435898,4286.153846153847,4229.2307692307695,4452.820512820514
117.60107,0.39137927,0.6037525,0.3821425,0.5767122,0,0.0,0.0,0.0,0.0,1.0,0,0,0.0,0.0,0,0,101.0,0.0,508.0,5458.461538461539,4028.717948717949,4539.48717948718,4568.717948717949,4309.743589743591,4600.512820512821,4493.333333333334,4507.179487179488,4443.076923076924,4810.256410256411,4430.256410256411,4296.410256410257,4238.974358974359,4446.153846153847
117.60107,0.39137927,0.6037525,0.3821425,0.5767122,0,0.0,0.0,0.0,0.0,1.0,0,0,0.0,0.0,0,0,101.0,0.0,508.0,5458.461538461539,4028.717948717949,4539.48717948718,4568.717948717949,4309.743589743591,4600.512820512821,4493.333333333334,4507.179487179488,4443.076923076924,4810.256410256411,4430.256410256411,4296.410256410257,4238.974358974359,4446.153846153847
118.101494,0.40618065,0.6014353,0.37716678,0.5742361,0,0.0,0.0,0.0,0.0,0.24386168,0,0,0.0,0.0,0,0,36.0,0.0,0.0,5430.256410256411,4036.9230769230776,4557.948717948719,4557.435897435898,4311.282051282052,4599.48717948718,4475.8974358974365,4580.512820512821,4420.512820512821,4780.000000000001,4440.512820512821,4290.256410256411,4211.794871794872,4368.205128205129
118.2266,0.40618065,0.6014353,0.37716678,0.5742361,0,0.0,0.0,0.0,0.0,1.0,0,0,0.0,0.0,0,0,52.0,0.0,0.0,5263.076923076924,4018.461538461539,4573.846153846154,4558.461538461539,4304.615384615385,4594.871794871796,4477.948717948719,4586.666666666667,4431.282051282052,4789.2307692307695,4476.410256410257,4385.128205128206,4167.6923076923085,4383.076923076924
118.60192,0.3793129,0.60024977,0.3726987,0.5720084,0,0.0,0.0,0.0,0.0,1.0,0,0,0.0,0.0,0,0,100.0,0.0,505.0,4814.358974358975,4003.076923076924,4557.435897435898,4555.8974358974365,4335.384615384616,4629.743589743591,4507.6923076923085,4583.589743589744,4427.179487179487,4829.743589743591,4474.871794871796,4349.2307692307695,4186.666666666667,4341.538461538462
118.60192,0.3793129,0.60024977,0.3726987,0.5720084,0,0.0,0.0,0.0,0.0,1.0,0,0,0.0,0.0,0,0,100.0,0.0,505.0,4814.358974358975,4003.076923076924,4557.435897435898,4555.8974358974365,4335.384615384616,4629.743589743591,4507.6923076923085,4583.589743589744,4427.179487179487,4829.743589743591,4474.871794871796,4349.2307692307695,4186.666666666667,4341.538461538462
119.102356,0.4187742,0.57429254,0.36948055,0.5700063,0,0.0,0.0,0.0,0.0,1.0,0,0,0.0,0.0,0,0,35.0,0.0,0.0,4477.435897435898,3979.48717948718,4526.153846153847,4525.641025641026,4309.743589743591,4595.8974358974365,4476.923076923077,4558.461538461539,4331.282051282052,4748.205128205129,4397.435897435898,4337.948717948719,4083.589743589744,4639.48717948718
119.102356,0.4187742,0.57429254,0.36948055,0.5700063,0,0.0,0.0,0.0,0.0,1.0,0,0,0.0,0.0,0,0,35.0,0.0,0.0,4477.435897435898,3979.48717948718,4526.153846153847,4525.641025641026,4309.743589743591,4595.8974358974365,4476.923076923077,4558.461538461539,4331.282051282052,4748.205128205129,4397.435897435898,4337.948717948719,4083.589743589744,4639.48717948718
119.60278,0.4408892,0.51061994,0.3689368,0.5734798,0,0.0,0.0,0.0,0.0,1.0,0,0,0.0,0.0,0,0,99.0,0.0,506.0,4236.410256410257,3917.9487179487182,4460.000000000001,4484.615384615385,4264.102564102564,4555.8974358974365,4461.538461538462,4542.051282051282,4360.000000000001,4729.743589743591,4347.6923076923085,4270.769230769231,4107.179487179487,4572.820512820514
119.853,0.4408892,0.51061994,0.3689368,0.5734798,0,0.0,0.0,0.0,0.0,0.7021908,0,0,0.0,0.0,0,0,2.0,0.0,419.0,4122.051282051282,3890.2564102564106,4453.846153846154,4457.435897435898,4265.128205128206,4554.871794871796,4443.076923076924,4525.128205128206,4342.051282051282,4698.461538461539,4327.179487179487,4240.000000000001,4095.3846153846157,4433.846153846154
120.10322,0.4522318,0.43021,0.37052697,0.58298546,0,0.0,0.0,0.0,0.0,0.61333054,0,0,0.0,0.0,0,0,34.0,0.0,0.0,4241.538461538462,3885.1282051282055,4431.794871794872,4393.333333333334,4250.769230769231,4536.923076923077,4408.205128205129,4410.256410256411,4328.717948717949,4671.794871794872,4301.025641025642,4213.333333333334,4079.48717948718,4375.8974358974365
120.35343,0.4522318,0.43021,0.37052697,0.58298546,0,0.0,0.0,0.0,0.0,0.59998745,0,0,0.0,0.0,0,0,66.0,0.0,420.0,4336.410256410257,3801.538461538462,4440.512820512821,4381.538461538462,4218.974358974359,4507.179487179488,4394.871794871796,4415.8974358974365,4327.179487179487,4658.974358974359,4281.538461538462,4191.794871794872,4076.9230769230776,4521.538461538462
120.603645,0.42854017,0.3783515,0.3719533,0.5962094,0,0.0,0.0,0.0,0.0,1.0,0,0,0.0,0.0,0,0,98.0,0.0,529.0,4203.076923076924,3831.2820512820517,4440.512820512821,4416.923076923077,4232.820512820514,4524.615384615385,4406.666666666667,4413.846153846154,4358.461538461539,4693.846153846154,4318.974358974359,4210.769230769231,4125.128205128206,4646.666666666667
120.603645,0.42854017,0.3783515,0.3719533,0.5962094,0,0.0,0.0,0.0,0.0,1.0,0,0,0.0,0.0,0,0,98.0,0.0,529.0,4203.076923076924,3831.2820512820517,4440.512820512821,4416.923076923077,4232.820512820514,4524.615384615385,4406.666666666667,4413.846153846154,4358.461538461539,4693.846153846154,4318.974358974359,4210.769230769231,4125.128205128206,4646.666666666667
121.10407,0.39400747,0.3349507,0.37168813,0.61429167,0,0.0,0.0,0.0,0.0,0.54987127,0,0,0.0,0.0,0,0,33.0,0.0,0.0,4278.461538461539,3848.205128205129,4444.102564102564,4398.461538461539,4268.717948717949,4555.384615384616,4367.6923076923085,4381.538461538462,4334.358974358975,4677.435897435898,4321.025641025642,4199.48717948718,4147.179487179487,4803.589743589744
121.35429,0.39400747,0.3349507,0.37168813,0.61429167,0,0.0,0.0,0.0,0.0,1.0,0,0,0.0,0.0,0,0,65.0,0.0,505.0,4343.589743589744,3875.8974358974365,4461.025641025642,4415.384615384616,4264.102564102564,4555.384615384616,4381.025641025642,4374.358974358975,4341.538461538462,4693.333333333334,4311.282051282052,4188.717948717949,4138.461538461539,4740.512820512821
121.60451,0.42568743,0.31589025,0.3714446,0.632212,0,0.0,0.0,0.0,0.0,1.0,0,0,0.0,0.0,0,0,97.0,0.0,508.0,4510.256410256411,3892.820512820513,4436.410256410257,4333.333333333334,4240.000000000001,4524.102564102564,4372.307692307693,4373.333333333334,4330.256410256411,4685.641025641026,4320.512820512821,4184.615384615385,4134.871794871796,4781.025641025642
121.60451,0.42568743,0.31589025,0.3714446,0.632212,0,0.0,0.0,0.0,0.0,1.0,0,0,0.0,0.0,0,0,97.0,0.0,508.0,4510.256410256411,3892.820512820513,4436.410256410257,4333.333333333334,4240.000000000001,4524.102564102564,4372.307692307693,4373.333333333334,4330.256410256411,4685.641025641026,4320.512820512821,4184.615384615385,4134.871794871796,4781.025641025642
122.104935,0.39018345,0.31712288,0.37255627,0.6456982,0,0.0,0.0,0.0,0.0,1.0,0,0,0.0,0.0,0,0,32.0,0.0,0.0,4954.871794871796,3929.2307692307695,4445.128205128206,4384.615384615385,4221.025641025642,4515.384615384616,4404.102564102564,4363.589743589744,4344.615384615385,4701.538461538462,4335.8974358974365,4218.461538461539,4126.666666666667,4561.538461538462
122.104935,0.39018345,0.31712288,0.37255627,0.6456982,0,0.0,0.0,0.0,0.0,1.0,0,0,0.0,0.0,0,0,32.0,0.0,0.0,4954.871794871796,3929.2307692307695,4445.128205128206,4384.615384615385,4221.025641025642,4515.384615384616,4404.102564102564,4363.589743589744,4344.615384615385,4701.538461538462,4335.8974358974365,4218.461538461539,4126.666666666667,4561.538461538462
122.60536,0.4048918,0.32300857,0.37253204,0.6525754,0,0.0,0.0,0.0,0.0,0.90310454,0,0,0.0,0.0,0,0,96.0,0.0,505.0,4762.564102564103,3913.333333333334,4431.282051282052,4289.2307692307695,4189.2307692307695,4494.358974358975,4376.410256410257,4354.358974358975,4327.6923076923085,4654.358974358975,4278.974358974359,4171.282051282052,4058.461538461539,4275.8974358974365
122.73047,0.4048918,0.32300857,0.37253204,0.6525754,0,0.0,0.0,0.0,0.0,1.0,0,0,0.0,0.0,0,0,112.0,0.0,505.0,4809.2307692307695,3928.205128205129,4444.102564102564,4310.256410256411,4188.205128205129,4487.179487179488,4356.923076923077,4342.051282051282,4311.282051282052,4645.641025641026,4277.948717948719,4168.205128205129,4058.9743589743593,4328.717948717949
123.1058,0.42679563,0.3292912,0.36942366,0.6639831,0,0.0,0.0,0.0,0.0,1.0,0,0,0.0,0.0,0,0,31.0,0.0,0.0,4731.794871794872,3958.461538461539,4487.6923076923085,4381.025641025642,4239.48717948718,4524.615384615385,4410.256410256411,4393.846153846154,4373.846153846154,4692.307692307693,4332.820512820514,4202.564102564103,4106.153846153847,4290.769230769231
123.1058,0.42679563,0.3292912,0.36942366,0.6639831,0,0.0,0.0,0.0,0.0,1.0,0,0,0.0,0.0,0,0,31.0,0.0,0.0,4731.794871794872,3958.461538461539,4487.6923076923085,4381.025641025642,4239.48717948718,4524.615384615385,4410.256410256411,4393.846153846154,4373.846153846154,4692.307692307693,4332.820512820514,4202.564102564103,4106.153846153847,4290.769230769231
123.606224,0.378886,0.32669675,0.3666217,0.6768402,0,0.0,0.0,0.0,0.0,1.0,0,0,0.0,0.0,0,0,95.0,0.0,504.0,4509.2307692307695,3940.5128205128212,4440.512820512821,4381.025641025642,4213.846153846154,4506.153846153847,4412.820512820514,4362.564102564103,4341.538461538462,4665.128205128206,4300.512820512821,4168.205128205129,4094.358974358975,4372.820512820514
123.85644,0.378886,0.32669675,0.3666217,0.6768402,0,0.0,0.0,0.0,0.0,0.7737297,0,0,0.0,0.0,0,0,127.0,0.0,504.0,4411.282051282052,3976.410256410257,4494.871794871796,4412.307692307693,4245.641025641026,4523.589743589744,4405.128205128206,4350.256410256411,4371.794871794872,4692.820512820514,4318.461538461539,4185.128205128206,4185.128205128206,4523.076923076924
124.10665,0.3274265,0.28993222,0.36237755,0.682532,0,0.0,0.0,0.0,0.0,0.9675689,0,0,0.0,0.0,0,0,30.0,0.0,0.0,4537.435897435898,3998.9743589743593,4552.820512820514,4449.2307692307695,4267.179487179487,4554.871794871796,4428.205128205129,4358.974358974359,4378.974358974359,4716.410256410257,4327.6923076923085,4218.461538461539,4242.564102564103,4575.8974358974365
124.35687,0.3274265,0.28993222,0.36237755,0.682532,0,0.0,0.0,0.0,0.0,0.5369676,0,0,0.0,0.0,0,0,62.0,0.0,0.0,4508.717948717949,4024.1025641025644,4591.282051282052,4476.410256410257,4280.000000000001,4567.179487179488,4442.564102564103,4388.205128205129,4394.358974358975,4716.923076923077,4330.769230769231,4220.512820512821,4238.974358974359,4607.6923076923085
124.607086,0.31120205,0.26703522,0.3585543,0.6707999,0,0.0,0.0,0.0,0.0,1.0,0,0,0.0,0.0,0,0,94.0,0.0,529.0,4484.615384615385,3992.307692307693,4568.717948717949,4473.846153846154,4276.410256410257,4556.410256410257,4440.512820512821,4391.282051282052,4396.410256410257,4723.076923076924,4324.615384615385,4186.666666666667,4229.74358974359,4674.358974358975
124.607086,0.31120205,0.26703522,0.3585543,0.6707999,0,0.0,0.0,0.0,0.0,1.0,0,0,0.0,0.0,0,0,94.0,0.0,529.0,4484.615384615385,3992.307692307693,4568.717948717949,4473.846153846154,4276.410256410257,4556.410256410257,4440.512820512821,4391.282051282052,4396.410256410257,4723.076923076924,4324.615384615385,4186.666666666667,4229.74358974359,4674.358974358975
125.10751,0.3058345,0.24374503,0.3551103,0.6602453,0,0.0,0.0,0.0,0.0,1.0,0,0,0.0,0.0,0,0,29.0,0.0,0.0,4490.256410256411,4005.1282051282055,4505.128205128206,4452.820512820514,4266.153846153847,4540.512820512821,4402.564102564103,4356.923076923077,4361.538461538462,4721.538461538462,4309.2307692307695,4184.102564102564,4191.282051282052,4428.717948717949
125.10751,0.3058345,0.24374503,0.3551103,0.6602453,0,0.0,0.0,0.0,0.0,1.0,0,0,0.0,0.0,0,0,29.0,0.0,0.0,4490.256410256411,4005.1282051282055,4505.128205128206,4452.820512820514,4266.153846153847,4540.512820512821,4402.564102564103,4356.923076923077,4361.538461538462,4721.538461538462,4309.2307692307695,4184.102564102564,4191.282051282052,4428.717948717949
125.60795,0.26747653,0.24645709,0.3538467,0.64379966,0,0.0,0.0,0.0,0.0,1.0,0,0,0.0,0.0,0,0,93.0,0.0,508.0,4856.923076923077,3963.589743589744,4460.000000000001,4445.128205128206,4277.948717948719,4569.2307692307695,4457.948717948719,4421.025641025642,4412.307692307693,4763.589743589744,4290.769230769231,4214.871794871796,4154.358974358975,4329.743589743591
125.60795,0.26747653,0.24645709,0.3538467,0.64379966,0,0.0,0.0,0.0,0.0,1.0,0,0,0.0,0.0,0,0,93.0,0.0,508.0,4856.923076923077,3963.589743589744,4460.000000000001,4445.128205128206,4277.948717948719,4569.2307692307695,4457.948717948719,4421.025641025642,4412.307692307693,4763.589743589744,4290.769230769231,4214.871794871796,4154.358974358975,4329.743589743591
126.108376,0.2766528,0.2560438,0.35573554,0.6095495,0,0.0,0.0,0.0,0.0,1.0,0,0,0.0,0.0,0,0,28.0,0.0,0.0,4596.410256410257,3940.0000000000005,4438.974358974359,4457.948717948719,4277.948717948719,4566.153846153847,4427.179487179487,4403.076923076924,4379.48717948718,4729.2307692307695,4294.358974358975,4185.641025641026,4106.666666666667,4356.923076923077
126.108376,0.2766528,0.2560438,0.35573554,0.6095495,0,0.0,0.0,0.0,0.0,1.0,0,0,0.0,0.0,0,0,28.0,0.0,0.0,4596.410256410257,3940.0000000000005,4438.974358974359,4457.948717948719,4277.948717948719,4566.153846153847,4427.179487179487,4403.076923076924,4379.48717948718,4729.2307692307695,4294.358974358975,4185.641025641026,4106.666666666667,4356.923076923077
126.6088,0.21809435,0.25784943,0.35775945,0.5787284,0,0.0,0.0,0.0,0.0,0.7686213,0,0,0.0,0.0,0,0,92.0,0.0,506.0,4471.282051282052,3976.410256410257,4445.128205128206,4476.410256410257,4293.333333333334,4574.871794871796,4432.820512820514,4404.615384615385,4378.461538461539,4727.179487179488,4320.000000000001,4200.512820512821,4110.256410256411,4394.358974358975
126.85902,0.21809435,0.25784943,0.35775945,0.5787284,0,0.0,0.0,0.0,0.0,0.70236886,0,0,0.0,0.0,0,0,124.0,0.0,506.0,4600.000000000001,3975.3846153846157,4463.589743589744,4483.589743589744,4281.538461538462,4573.846153846154,4446.153846153847,4443.589743589744,4397.948717948719,4739.48717948718,4314.871794871796,4196.923076923077,4120.000000000001,4394.871794871796
127.10924,0.19652015,0.25922605,0.36154413,0.5509886,0,0.0,0.0,0.0,0.0,1.0,0,0,0.0,0.0,0,0,27.0,0.0,0.0,4838.974358974359,3985.6410256410263,4504.102564102564,4489.2307692307695,4289.74358974359,4582.051282051282,4448.205128205129,4499.48717948718,4420.000000000001,4752.820512820514,4328.205128205129,4210.769230769231,4138.461538461539,4401.025641025642
127.10924,0.19652015,0.25922605,0.36154413,0.5509886,0,0.0,0.0,0.0,0.0,1.0,0,0,0.0,0.0,0,0,27.0,0.0,0.0,4838.974358974359,3985.6410256410263,4504.102564102564,4489.2307692307695,4289.74358974359,4582.051282051282,4448.205128205129,4499.48717948718,4420.000000000001,4752.820512820514,4328.205128205129,4210.769230769231,4138.461538461539,4401.025641025642
127.609665,0.20733875,0.30451655,0.36653054,0.5264369,0,0.0,0.0,0.0,0.0,1.0,0,0,0.0,0.0,0,0,91.0,0.0,504.0,5109.743589743591,4011.7948717948725,4513.333333333334,4416.923076923077,4267.6923076923085,4565.128205128206,4425.128205128206,4458.974358974359,4389.743589743591,4733.333333333334,4309.2307692307695,4201.025641025642,4125.641025641026,4295.384615384616
127.85988,0.20733875,0.30451655,0.36653054,0.5264369,0,0.0,0.0,0.0,0.0,0.62516063,0,0,0.0,0.0,0,0,123.0,0.0,504.0,5037.435897435898,3998.9743589743593,4486.153846153847,4397.948717948719,4245.641025641026,4538.974358974359,4412.307692307693,4409.2307692307695,4348.717948717949,4687.179487179488,4275.384615384616,4157.435897435898,4121.538461538462,4263.589743589744
128.11009,0.23897342,0.3389661,0.37101403,0.5092186,0,0.0,0.0,0.0,0.0,1.0,0,0,0.0,0.0,0,0,26.0,0.0,0.0,4752.820512820514,4011.7948717948725,4490.769230769231,4396.410256410257,4251.282051282052,4537.948717948719,4394.871794871796,4428.717948717949,4369.743589743591,4707.6923076923085,4282.051282051282,4170.769230769231,4154.358974358975,4318.974358974359
128.11009,0.23897342,0.3389661,0.37101403,0.5092186,0,0.0,0.0,0.0,0.0,1.0,0,0,0.0,0.0,0,0,26.0,0.0,0.0,4752.820512820514,4011.7948717948725,4490.769230769231,4396.410256410257,4251.282051282052,4537.948717948719,4394.871794871796,4428.717948717949,4369.743589743591,4707.6923076923085,4282.051282051282,4170.769230769231,4154.358974358975,4318.974358974359
128.61052,0.22304042,0.3709795,0.37393826,0.505966,0,0.0,0.0,0.0,0.0,1.0,0,0,0.0,0.0,0,0,90.0,0.0,529.0,4681.025641025642,4053.333333333334,4487.6923076923085,4454.358974358975,4283.589743589744,4570.256410256411,4415.384615384616,4410.769230769231,4357.948717948719,4702.051282051282,4289.2307692307695,4166.666666666667,4177.948717948719,4310.256410256411
128.61052,0.22304042,0.3709795,0.37393826,0.505966,0,0.0,0.0,0.0,0.0,1.0,0,0,0.0,0.0,0,0,90.0,0.0,529.0,4681.025641025642,4053.333333333334,4487.6923076923085,4454.358974358975,4283.589743589744,4570.256410256411,4415.384615384616,4410.769230769231,4357.948717948719,4702.051282051282,4289.2307692307695,4166.666666666667,4177.948717948719,4310.256410256411
129.11096,0.26814944,0.47274575,0.37656492,0.5030431,0,0.0,0.0,0.0,0.0,1.0,0,0,0.0,0.0,0,0,25.0,0.0,0.0,5201.538461538462,4016.9230769230776,4550.256410256411,4522.564102564103,4312.307692307693,4602.051282051282,4460.000000000001,4442.564102564103,4408.205128205129,4739.48717948718,4312.820512820514,4215.8974358974365,4233.846153846154,4420.000000000001
129.42372,0.26814944,0.47274575,0.37656492,0.5030431,0,0.0,0.0,0.0,0.0,1.0,0,0,0.0,0.0,0,0,65.0,0.0,506.0,5091.794871794872,4020.5128205128212,4565.641025641026,4507.179487179488,4294.358974358975,4578.974358974359,4443.076923076924,4425.128205128206,4397.948717948719,4718.974358974359,4303.589743589744,4193.846153846154,4191.794871794872,4375.8974358974365
129.61139,0.28892747,0.5755239,0.37912408,0.5004172,0,0.0,0.0,0.0,0.0,0.71460426,0,0,0.0,0.0,0,0,89.0,0.0,508.0,5165.128205128206,4021.538461538462,4556.923076923077,4508.205128205129,4290.769230769231,4571.282051282052,4476.410256410257,4460.000000000001,4422.564102564103,4733.333333333334,4323.076923076924,4234.358974358975,4206.666666666667,4369.743589743591
129.8616,0.28892747,0.5755239,0.37912408,0.5004172,0,0.0,0.0,0.0,0.0,1.0,0,0,0.0,0.0,0,0,121.0,0.0,508.0,5000.512820512821,4027.692307692308,4586.153846153847,4521.025641025642,4309.743589743591,4595.8974358974365,4505.128205128206,4473.846153846154,4455.384615384616,4766.153846153847,4352.307692307693,4282.564102564103,4235.8974358974365,4413.846153846154
130.11182,0.2580421,0.66672987,0.38082317,0.49691805,0,0.0,0.0,0.0,0.0,1.0,0,0,0.0,0.0,0,0,24.0,0.0,0.0,4754.358974358975,4006.1538461538466,4570.769230769231,4498.461538461539,4311.282051282052,4598.461538461539,4506.153846153847,4460.000000000001,4464.102564102564,4794.358974358975,4368.205128205129,4282.564102564103,4237.948717948719,4429.2307692307695
130.11182,0.2580421,0.66672987,0.38082317,0.49691805,0,0.0,0.0,0.0,0.0,1.0,0,0,0.0,0.0,0,0,24.0,0.0,0.0,4754.358974358975,4006.1538461538466,4570.769230769231,4498.461538461539,4311.282051282052,4598.461538461539,4506.153846153847,4460.000000000001,4464.102564102564,4794.358974358975,4368.205128205129,4282.564102564103,4237.948717948719,4429.2307692307695
130.61224,0.28560764,0.746693,0.3820833,0.49377453,0,0.0,0.0,0.0,0.0,1.0,0,0,0.0,0.0,0,0,88.0,0.0,506.0,4409.743589743591,3922.0512820512827,4524.102564102564,4427.6923076923085,4266.153846153847,4551.794871794872,4470.256410256411,4409.743589743591,4414.871794871796,4742.564102564103,4318.461538461539,4235.384615384616,4202.564102564103,4919.48717948718
130.86246,0.28560764,0.746693,0.3820833,0.49377453,0,0.0,0.0,0.0,0.0,0.819532,0,0,0.0,0.0,0,0,120.0,0.0,506.0,4188.205128205129,3879.48717948718,4462.564102564103,4397.435897435898,4199.48717948718,4502.051282051282,4382.564102564103,4420.000000000001,4329.2307692307695,4645.128205128206,4224.102564102564,4114.871794871796,4140.000000000001,4904.615384615386
131.11267,0.404202,0.6709226,0.38347474,0.49095136,0,0.0,0.0,0.0,0.0,0.65272796,0,0,0.0,0.0,0,0,23.0,0.0,0.0,4056.410256410257,3880.512820512821,4418.461538461539,4447.179487179487,4218.461538461539,4524.102564102564,4358.974358974359,4424.615384615385,4282.051282051282,4577.435897435898,4085.6410256410263,4061.538461538462,4072.820512820513,4683.076923076924
131.36288,0.404202,0.6709226,0.38347474,0.49095136,0,0.0,0.0,0.0,0.0,1.0,0,0,0.0,0.0,0,0,55.0,0.0,0.0,4149.2307692307695,3864.615384615385,4426.666666666667,4446.666666666667,4192.307692307693,4517.948717948719,4289.2307692307695,4344.615384615385,4229.74358974359,4454.871794871796,3915.3846153846157,4019.48717948718,4014.358974358975,4778.461538461539
131.6131,0.34699488,0.60343605,0.3856681,0.49599802,0,0.0,0.0,0.0,0.0,0.6001073,0,0,0.0,0.0,0,0,87.0,0.0,497.0,4333.333333333334,3902.564102564103,4442.051282051282,4426.153846153847,4213.846153846154,4526.153846153847,4221.538461538462,4281.025641025642,4151.282051282052,4407.179487179487,3911.2820512820517,3986.1538461538466,4004.615384615385,4823.076923076924
131.86333,0.34699488,0.60343605,0.3856681,0.49599802,0,0.0,0.0,0.0,0.0,0.742697,0,0,0.0,0.0,0,0,119.0,0.0,497.0,4585.128205128206,3977.435897435898,4509.2307692307695,4412.820512820514,4232.820512820514,4545.641025641026,4218.461538461539,4279.48717948718,4155.8974358974365,4420.000000000001,3959.48717948718,4018.9743589743593,4035.8974358974365,4892.820512820514
132.11354,0.39590278,0.54269814,0.38855204,0.5238154,0,0.0,0.0,0.0,0.0,1.0,0,0,0.0,0.0,0,0,22.0,0.0,0.0,4847.6923076923085,3988.717948717949,4527.6923076923085,4461.025641025642,4234.358974358975,4550.256410256411,4233.846153846154,4264.102564102564,4168.717948717949,4456.923076923077,4005.1282051282055,4044.615384615385,4067.692307692308,4818.974358974359
132.11354,0.39590278,0.54269814,0.38855204,0.5238154,0,0.0,0.0,0.0,0.0,1.0,0,0,0.0,0.0,0,0,22.0,0.0,0.0,4847.6923076923085,3988.717948717949,4527.6923076923085,4461.025641025642,4234.358974358975,4550.256410256411,4233.846153846154,4264.102564102564,4168.717948717949,4456.923076923077,4005.1282051282055,4044.615384615385,4067.692307692308,4818.974358974359
132.61397,0.41841102,0.488034,0.39087608,0.55597275,0,0.0,0.0,0.0,0.0,1.0,0,0,0.0,0.0,0,0,86.0,0.0,529.0,4918.461538461539,3862.564102564103,4465.641025641026,4385.641025641026,4196.923076923077,4509.2307692307695,4228.205128205129,4246.153846153847,4181.025641025642,4498.461538461539,4089.23076923077,4032.307692307693,4075.3846153846157,4635.384615384616
132.61397,0.41841102,0.488034,0.39087608,0.55597275,0,0.0,0.0,0.0,0.0,1.0,0,0,0.0,0.0,0,0,86.0,0.0,529.0,4918.461538461539,3862.564102564103,4465.641025641026,4385.641025641026,4196.923076923077,4509.2307692307695,4228.205128205129,4246.153846153847,4181.025641025642,4498.461538461539,4089.23076923077,4032.307692307693,4075.3846153846157,4635.384615384616
133.1144,0.4641026,0.4388363,0.39138013,0.5849131,0,0.0,0.0,0.0,0.0,0.75908333,0,0,0.0,0.0,0,0,21.0,0.0,0.0,4673.846153846154,3789.7435897435903,4446.153846153847,4292.307692307693,4188.205128205129,4505.641025641026,4205.128205128206,4215.384615384616,4150.769230769231,4478.974358974359,4075.3846153846157,3988.717948717949,3987.692307692308,4729.743589743591
133.36461,0.4641026,0.4388363,0.39138013,0.5849131,0,0.0,0.0,0.0,0.0,1.0,0,0,0.0,0.0,0,0,53.0,0.0,0.0,4717.435897435898,3769.7435897435903,4434.358974358975,4287.6923076923085,4216.923076923077,4521.538461538462,4212.307692307693,4204.615384615385,4150.256410256411,4498.974358974359,4095.3846153846157,3997.9487179487182,4004.615384615385,4770.256410256411
133.61482,0.5181691,0.39455837,0.39464042,0.6109509,0,0.0,0.0,0.0,0.0,1.0,0,0,0.0,0.0,0,0,85.0,0.0,508.0,4674.871794871796,3861.538461538462,4479.48717948718,4351.794871794872,4238.974358974359,4526.666666666667,4248.205128205129,4266.666666666667,4228.205128205129,4555.384615384616,4168.717948717949,4074.358974358975,4092.307692307693,5010.256410256411
133.61482,0.5181691,0.39455837,0.39464042,0.6109509,0,0.0,0.0,0.0,0.0,1.0,0,0,0.0,0.0,0,0,85.0,0.0,508.0,4674.871794871796,3861.538461538462,4479.48717948718,4351.794871794872,4238.974358974359,4526.666666666667,4248.205128205129,4266.666666666667,4228.205128205129,4555.384615384616,4168.717948717949,4074.358974358975,4092.307692307693,5010.256410256411
134.11525,0.47569203,0.35470825,0.39528063,0.63283235,0,0.0,0.0,0.0,0.0,0.287311,0,0,0.0,0.0,0,0,20.0,0.0,0.0,4521.538461538462,3846.1538461538466,4410.256410256411,4308.717948717949,4177.435897435898,4474.358974358975,4215.384615384616,4198.461538461539,4190.256410256411,4517.948717948719,4108.205128205129,4000.0000000000005,4010.7692307692314,4881.538461538462
134.36548,0.47569203,0.35470825,0.39528063,0.63283235,0,0.0,0.0,0.0,0.0,1.0,0,0,0.0,0.0,0,0,52.0,0.0,0.0,4463.589743589744,3828.205128205129,4480.000000000001,4311.282051282052,4187.6923076923085,4488.205128205129,4233.333333333334,4197.435897435898,4200.000000000001,4522.564102564103,4103.589743589744,4004.1025641025644,3988.717948717949,4759.48717948718
134.61569,0.47200713,0.31884313,0.39383566,0.64618546,0,0.0,0.0,0.0,0.0,1.0,0,0,0.0,0.0,0,0,84.0,0.0,507.0,4504.102564102564,3893.8461538461543,4524.615384615385,4365.128205128206,4183.076923076924,4484.102564102564,4278.461538461539,4240.000000000001,4247.179487179487,4569.2307692307695,4169.74358974359,4058.461538461539,4051.7948717948725,4824.615384615386
134.8659,0.47200713,0.31884313,0.39383566,0.64618546,0,0.0,0.0,0.0,0.0,0.0,0,0,0.0,0.0,0,0,116.0,0.0,507.0,4503.589743589744,3909.2307692307695,4520.512820512821,4427.6923076923085,4198.974358974359,4502.564102564103,4326.153846153847,4287.6923076923085,4306.666666666667,4617.435897435898,4259.48717948718,4106.666666666667,4144.102564102564,4798.461538461539
135.11612,0.4628458,0.31425154,0.39163083,0.6480941,0,0.0,0.0,0.0,0.0,1.0,0,0,0.0,0.0,0,0,19.0,0.0,0.0,4556.923076923077,3989.23076923077,4511.794871794872,4464.102564102564,4205.128205128206,4506.153846153847,4347.179487179487,4314.358974358975,4325.128205128206,4648.717948717949,4280.000000000001,4157.435897435898,4144.615384615385,4549.2307692307695
135.11612,0.4628458,0.31425154,0.39163083,0.6480941,0,0.0,0.0,0.0,0.0,1.0,0,0,0.0,0.0,0,0,19.0,0.0,0.0,4556.923076923077,3989.23076923077,4511.794871794872,4464.102564102564,4205.128205128206,4506.153846153847,4347.179487179487,4314.358974358975,4325.128205128206,4648.717948717949,4280.000000000001,4157.435897435898,4144.615384615385,4549.2307692307695
135.61655,0.45120895,0.29841468,0.39053798,0.63952804,0,0.0,0.0,0.0,0.0,1.0,0,0,0.0,0.0,0,0,83.0,0.0,496.0,4484.102564102564,3987.1794871794878,4470.256410256411,4411.282051282052,4234.358974358975,4537.948717948719,4397.948717948719,4364.615384615385,4391.794871794872,4729.2307692307695,4306.666666666667,4162.564102564103,4151.282051282052,4609.2307692307695
135.61655,0.45120895,0.29841468,0.39053798,0.63952804,0,0.0,0.0,0.0,0.0,1.0,0,0,0.0,0.0,0,0,83.0,0.0,496.0,4484.102564102564,3987.1794871794878,4470.256410256411,4411.282051282052,4234.358974358975,4537.948717948719,4397.948717948719,4364.615384615385,4391.794871794872,4729.2307692307695,4306.666666666667,4162.564102564103,4151.282051282052,4609.2307692307695
136.11697,0.44750038,0.29826173,0.39156842,0.62363786,0,0.0,0.0,0.0,0.0,1.0,0,0,0.0,0.0,0,0,18.0,0.0,0.0,4509.743589743591,3943.589743589744,4494.358974358975,4382.564102564103,4204.102564102564,4521.025641025642,4412.307692307693,4411.794871794872,4428.717948717949,4774.871794871796,4341.025641025642,4191.794871794872,4186.153846153847,4802.564102564103
136.36719,0.44750038,0.29826173,0.39156842,0.62363786,0,0.0,0.0,0.0,0.0,0.25830376,0,0,0.0,0.0,0,0,50.0,0.0,0.0,4506.666666666667,3897.435897435898,4440.512820512821,4324.615384615385,4186.153846153847,4494.358974358975,4411.282051282052,4440.000000000001,4388.205128205129,4731.282051282052,4297.435897435898,4134.358974358975,4135.384615384616,4596.410256410257
136.6174,0.45024356,0.3064144,0.39341775,0.6034049,0,0.0,0.0,0.0,0.0,1.0,0,0,0.0,0.0,0,0,82.0,0.0,529.0,4834.358974358975,3863.589743589744,4387.6923076923085,4276.410256410257,4172.307692307693,4471.282051282052,4351.282051282052,4394.871794871796,4320.512820512821,4663.589743589744,4263.076923076924,4088.205128205129,4081.538461538462,4462.564102564103
