timestamp,excitement,frustration,meditation,engagementBoredom,blink,clench,laugh,smile,eyebrow,furrowBrow,lookLeft,lookRight,smirkLeft,smirkRight,winkLeft,winkRight,eeg0,eeg1,eeg2,eeg3,eeg4,eeg5,eeg6,eeg7,eeg8,eeg9,eeg10,eeg11,eeg12,eeg13,eeg14,eeg15,eeg16
174.18094,0.61821,0.607044,0.33333337,0.55223876,0,0.0,0.0,0.0,0.11283657,0.0,0,0,0.0,0.0,0,0,19.0,0.0,0.0,4589.2307692307695,3895.3846153846157,4378.974358974359,4395.8974358974365,4283.589743589744,4565.641025641026,4398.461538461539,4428.205128205129,4358.461538461539,4653.333333333334,4243.589743589744,4292.307692307693,4232.307692307693,4522.051282051282
174.39987,0.61821,0.607044,0.33333337,0.55223876,0,0.0,0.0,0.0,0.06576031,0.0,0,0,0.0,0.0,0,0,47.0,0.0,0.0,4596.410256410257,3865.6410256410263,4381.025641025642,4382.051282051282,4276.410256410257,4556.923076923077,4411.794871794872,4399.48717948718,4325.128205128206,4638.974358974359,4261.538461538462,4227.6923076923085,4198.461538461539,4504.102564102564
174.68137,0.59154737,0.5882443,0.33333337,0.55223876,0,0.0,0.0,0.0,0.07131521,0.0,0,0,0.0,0.0,0,0,83.0,0.0,508.0,4647.179487179488,3909.7435897435903,4345.641025641026,4390.769230769231,4278.974358974359,4557.435897435898,4399.48717948718,4387.179487179487,4312.307692307693,4622.564102564103,4280.000000000001,4222.051282051282,4163.076923076924,4557.948717948719
174.9003,0.59154737,0.5882443,0.33333337,0.55223876,0,0.0,0.0,0.0,0.17693159,0.0,0,0,0.0,0.0,0,0,111.0,0.0,508.0,4572.307692307693,3875.8974358974365,4235.384615384616,4378.974358974359,4258.461538461539,4526.666666666667,4367.6923076923085,4326.666666666667,4270.256410256411,4578.461538461539,4221.538461538462,4124.615384615385,4070.2564102564106,4451.794871794872
175.1818,0.69185317,0.57739836,0.33333337,0.55223876,0,0.0,0.0,0.0,0.0,0.0,0,0,0.0,0.22898214,0,0,18.0,0.0,0.0,4613.333333333334,3838.9743589743593,4493.333333333334,4316.923076923077,4276.410256410257,4539.48717948718,4371.794871794872,4309.2307692307695,4255.384615384616,4571.794871794872,4221.538461538462,4097.948717948719,4083.589743589744,4454.871794871796
175.40074,0.69185317,0.57739836,0.33333337,0.55223876,0,0.0,0.0,0.0,0.93325573,0.0,0,0,0.0,0.0,0,0,46.0,0.0,0.0,4553.333333333334,3882.564102564103,4418.461538461539,4354.871794871796,4281.538461538462,4558.461538461539,4403.589743589744,4372.820512820514,4283.076923076924,4618.461538461539,4261.538461538462,4120.512820512821,4112.307692307693,4480.000000000001
175.68222,0.77141786,0.6145274,0.33333337,0.55223876,0,0.0,0.0,0.0,0.21357827,0.0,0,0,0.0,0.0,0,0,82.0,0.0,532.0,4598.974358974359,3958.461538461539,4516.923076923077,4369.2307692307695,4243.076923076924,4529.743589743591,4380.512820512821,4377.435897435898,4285.128205128206,4585.128205128206,4225.128205128206,4112.307692307693,4111.794871794872,4488.205128205129
175.90117,0.77141786,0.6145274,0.33333337,0.55223876,0,0.0,0.0,0.0,0.0,0.0,0,0,0.0,0.24721894,0,0,110.0,0.0,532.0,4586.153846153847,3961.538461538462,4449.743589743591,4465.641025641026,4263.076923076924,4555.8974358974365,4390.256410256411,4392.307692307693,4296.410256410257,4648.717948717949,4222.564102564103,4137.435897435898,4064.1025641025644,4490.256410256411
176.18266,0.7165975,0.6481871,0.33333337,0.55223876,0,0.0,0.0,0.0,0.0,0.0,0,0,0.0,0.0700914,0,0,17.0,0.0,0.0,4547.179487179488,4137.948717948719,3960.5128205128212,4977.948717948719,4274.358974358975,4577.435897435898,4446.666666666667,4400.512820512821,4358.974358974359,4644.615384615385,4466.666666666667,4266.666666666667,4411.282051282052,4421.025641025642
176.4016,0.7165975,0.6481871,0.33333337,0.55223876,0,0.05292648,0.0,0.0,0.0,0.0,0,0,0.0,0.0,0,0,45.0,0.0,0.0,4490.769230769231,4062.564102564103,5029.2307692307695,4795.384615384616,4085.6410256410263,4404.102564102564,4268.205128205129,4196.923076923077,4202.051282051282,4493.333333333334,4336.410256410257,4111.794871794872,4263.076923076924,4220.000000000001
176.68309,0.7165975,0.67848086,0.33333334,0.55223876,0,0.04554909,0.0,0.0,0.0,0.0,0,0,0.0,0.0,0,0,81.0,0.0,506.0,4573.846153846154,4087.1794871794878,5144.102564102564,4681.538461538462,4109.74358974359,4427.6923076923085,4287.6923076923085,4197.435897435898,4197.435897435898,4515.8974358974365,4286.153846153847,4130.256410256411,4256.923076923077,4296.923076923077
176.90202,0.7165975,0.67848086,0.33333334,0.55223876,0,0.0,0.0,0.0,0.2004629,0.0,0,0,0.0,0.0,0,0,109.0,0.0,506.0,4570.256410256411,4071.7948717948725,5031.282051282052,4627.179487179488,4147.6923076923085,4473.846153846154,4344.102564102564,4275.8974358974365,4256.923076923077,4564.615384615385,4333.333333333334,4194.358974358975,4242.051282051282,4339.48717948718
177.18352,0.6447007,0.7057452,0.33333334,0.5522388,0,0.07556918,0.0,0.0,0.0,0.0,0,0,0.0,0.0,0,0,16.0,0.0,0.0,4621.538461538462,4060.0000000000005,4965.128205128206,4649.743589743591,4203.589743589744,4531.794871794872,4401.025641025642,4331.282051282052,4299.48717948718,4605.128205128206,4382.051282051282,4275.384615384616,4209.2307692307695,4423.076923076924
177.40245,0.6447007,0.7057452,0.33333334,0.5522388,0,0.17618832,0.0,0.0,0.0,0.0,0,0,0.0,0.0,0,0,44.0,0.0,0.0,4619.48717948718,4003.076923076924,5017.435897435898,4564.102564102564,4191.282051282052,4524.615384615385,4408.205128205129,4340.000000000001,4303.589743589744,4633.846153846154,4380.000000000001,4274.358974358975,4202.051282051282,4459.48717948718
177.68394,0.5889634,0.73028314,0.33333334,0.5522388,0,0.23696052,0.0,0.0,0.0,0.0,0,0,0.0,0.0,0,0,80.0,0.0,522.0,4601.538461538462,3953.333333333334,4742.564102564103,4507.179487179488,4215.384615384616,4538.461538461539,4427.179487179487,4380.000000000001,4337.948717948719,4683.589743589744,4427.6923076923085,4277.435897435898,4217.948717948719,4482.564102564103
177.9029,0.5889634,0.73028314,0.33333334,0.5522388,0,0.124157995,0.0,0.0,0.0,0.0,0,0,0.0,0.0,0,0,108.0,0.0,522.0,4639.48717948718,3910.7692307692314,4741.025641025642,4497.948717948719,4209.2307692307695,4528.205128205129,4412.307692307693,4374.358974358975,4339.48717948718,4697.948717948719,4414.358974358975,4283.589743589744,4205.128205128206,4468.717948717949
178.18437,0.55877346,0.75236726,0.33333334,0.5522388,0,0.08752182,0.0,0.0,0.0,0.0,0,0,0.0,0.0,0,0,15.0,0.0,509.0,4675.384615384616,3858.461538461539,4754.871794871796,4478.974358974359,4209.74358974359,4521.538461538462,4413.333333333334,4377.435897435898,4322.051282051282,4666.153846153847,4369.2307692307695,4352.820512820514,4098.461538461539,4534.871794871796
178.40332,0.55877346,0.75236726,0.33333334,0.5522388,0,0.0,0.0,0.0,0.0,0.0,0,0,0.0,0.17283337,0,0,43.0,0.0,0.0,4641.025641025642,3910.2564102564106,4493.333333333334,4457.948717948719,4232.307692307693,4552.307692307693,4428.205128205129,4410.256410256411,4358.461538461539,4697.948717948719,4367.6923076923085,4374.871794871796,4107.6923076923085,4549.2307692307695
178.68481,0.5151668,0.77224296,0.33333334,0.5522388,0,0.0,0.0,0.0,0.0,0.0,0,0,0.0,0.14163306,0,0,79.0,0.0,509.0,4651.282051282052,3881.0256410256416,4623.076923076924,4404.102564102564,4203.076923076924,4522.564102564103,4416.410256410257,4409.2307692307695,4362.051282051282,4672.307692307693,4349.743589743591,4405.128205128206,4082.564102564103,4560.000000000001
178.90375,0.5151668,0.77224296,0.33333334,0.5522388,0,0.0,0.0,0.0,0.0,0.0,0,0,0.0,0.52791435,0,0,107.0,0.0,509.0,4663.589743589744,3886.1538461538466,4586.666666666667,4389.743589743591,4216.923076923077,4537.435897435898,4426.666666666667,4408.717948717949,4373.333333333334,4658.974358974359,4316.923076923077,4394.358974358975,4086.1538461538466,4572.820512820514
179.18524,0.4935566,0.8164705,0.33333334,0.5522388,0,0.0,0.0,0.0,0.0,0.0,0,0,0.0,1.0,0,0,14.0,0.0,534.0,4664.615384615386,3903.589743589744,4688.205128205129,4356.410256410257,4254.871794871796,4552.307692307693,4411.282051282052,4398.974358974359,4367.6923076923085,4652.820512820514,4317.948717948719,4407.179487179487,4089.7435897435903,4583.076923076924
179.40417,0.4935566,0.8164705,0.33333334,0.5522388,0,0.0,0.0,0.0,0.0,0.0,0,0,0.0,0.18934147,0,0,42.0,0.0,0.0,4658.974358974359,3931.7948717948725,4493.846153846154,4364.615384615385,4263.589743589744,4555.8974358974365,4414.358974358975,4400.000000000001,4385.128205128206,4675.8974358974365,4295.8974358974365,4409.2307692307695,4129.74358974359,4587.6923076923085
179.68567,0.46059048,0.8259794,0.33333334,0.5522388,0,0.0,0.0,0.0,0.0,0.0,0,0,0.0,0.18284036,0,0,78.0,0.0,530.0,4665.128205128206,3922.564102564103,4558.461538461539,4343.589743589744,4241.025641025642,4545.128205128206,4425.128205128206,4410.769230769231,4378.461538461539,4666.153846153847,4266.153846153847,4377.435897435898,4126.153846153847,4613.333333333334
179.9046,0.46059048,0.8259794,0.33333334,0.5522388,0,0.0,0.0,0.0,0.0,0.0,0,0,0.0,0.09718086,0,0,106.0,0.0,530.0,4643.589743589744,3899.48717948718,4502.564102564103,4327.179487179487,4236.923076923077,4543.076923076924,4415.8974358974365,4423.589743589744,4354.871794871796,4637.948717948719,4227.179487179487,4288.717948717949,4051.2820512820517,4576.923076923077
180.1861,0.45373163,0.79431427,0.33333334,0.5522388,0,0.0,0.0,0.0,0.0,0.0,0,0,0.0,0.14528218,0,0,13.0,0.0,508.0,4637.948717948719,3880.512820512821,4518.461538461539,4310.256410256411,4229.74358974359,4533.333333333334,4403.589743589744,4422.564102564103,3264.1025641025644,4631.282051282052,4243.076923076924,4230.769230769231,4061.0256410256416,4552.307692307693
180.40503,0.45373163,0.79431427,0.33333334,0.5522388,0,0.0,0.0,0.0,0.06057533,0.0,0,0,0.0,0.0,0,0,41.0,0.0,0.0,4641.025641025642,3897.435897435898,4582.051282051282,4324.102564102564,4228.205128205129,4533.333333333334,4425.128205128206,4442.564102564103,3376.410256410257,4655.8974358974365,4248.205128205129,4176.410256410257,4089.7435897435903,4561.538461538462
180.68652,0.4285853,0.7424396,0.33333334,0.5522388,0,0.0,0.0,0.0,0.11560017,0.0,0,0,0.0,0.0,0,0,77.0,0.0,508.0,4618.974358974359,3892.307692307693,4529.743589743591,4279.48717948718,4214.871794871796,4519.48717948718,4403.076923076924,4423.589743589744,3541.0256410256416,4646.666666666667,4227.6923076923085,4142.564102564103,4078.461538461539,4525.641025641026
180.90547,0.4285853,0.7424396,0.33333334,0.5522388,0,0.0,0.0,0.0,0.10814833,0.0,0,0,0.0,0.0,0,0,105.0,0.0,508.0,4616.410256410257,3918.9743589743593,4534.871794871796,4302.564102564103,4237.948717948719,4535.384615384616,4416.410256410257,4452.820512820514,3687.1794871794878,4681.538461538462,4265.641025641026,4174.871794871796,4114.358974358975,4559.48717948718
181.18697,0.45565248,0.6918299,0.33333334,0.5522388,0,0.0,0.0,0.0,0.058809023,0.0,0,0,0.0,0.0,0,0,12.0,0.0,516.0,4617.948717948719,3898.461538461539,4522.564102564103,4283.589743589744,4215.8974358974365,4519.48717948718,4408.717948717949,4428.717948717949,3786.1538461538466,4653.846153846154,4214.871794871796,4110.256410256411,4070.7692307692314,4520.512820512821
181.4059,0.45565248,0.6918299,0.33333334,0.5522388,0,0.0,0.0,0.0,0.10311623,0.0,0,0,0.0,0.0,0,0,40.0,0.0,0.0,4616.923076923077,3895.8974358974365,4434.358974358975,4291.794871794872,4217.948717948719,4522.564102564103,4430.256410256411,4451.794871794872,3891.7948717948725,4685.641025641026,4234.871794871796,4142.564102564103,4091.2820512820517,4525.128205128206
181.6874,0.45450798,0.641182,0.33333334,0.5522388,0,0.0,0.0,0.0,0.066792764,0.0,0,0,0.0,0.0,0,0,76.0,0.0,516.0,4601.538461538462,3899.48717948718,4510.256410256411,4314.358974358975,4230.256410256411,4524.615384615385,4410.769230769231,4428.717948717949,3985.6410256410263,4681.025641025642,4216.923076923077,4129.2307692307695,4086.1538461538466,4507.6923076923085
181.90633,0.45450798,0.641182,0.33333334,0.5522388,0,0.0,0.0,0.0,0.024342211,0.0,0,0,0.0,0.0,0,0,104.0,0.0,516.0,4620.000000000001,3882.564102564103,4461.538461538462,4304.615384615385,4228.205128205129,4522.051282051282,4426.153846153847,4425.128205128206,4036.410256410257,4695.8974358974365,4221.025641025642,4139.48717948718,4082.564102564103,4533.333333333334
182.18782,0.46138567,0.6005046,0.33333334,0.5522388,0,0.0,0.0,0.0,0.041154996,0.0,0,0,0.0,0.0,0,0,11.0,0.0,503.0,4648.205128205129,3933.333333333334,4455.384615384616,4325.128205128206,4218.974358974359,4522.051282051282,4395.384615384616,4399.48717948718,4092.307692307693,4693.333333333334,4259.48717948718,4173.846153846154,4148.717948717949,4581.538461538462
182.40675,0.46138567,0.6005046,0.33333334,0.5522388,0,0.0,0.0,0.0,0.05393197,0.0,0,0,0.0,0.0,0,0,39.0,0.0,0.0,4589.743589743591,3884.615384615385,4600.000000000001,4282.564102564103,4204.102564102564,4510.769230769231,4416.923076923077,4414.358974358975,4123.589743589744,4663.589743589744,4198.461538461539,4144.102564102564,4105.641025641026,4495.8974358974365
182.68825,0.5037724,0.5718834,0.33333334,0.5522388,0,0.0,0.0,0.0,0.091575906,0.0,0,0,0.0,0.0,0,0,75.0,0.0,503.0,4628.205128205129,3926.1538461538466,4430.769230769231,4322.564102564103,4217.435897435898,4522.051282051282,4439.48717948718,4428.205128205129,4171.282051282052,4665.641025641026,4224.615384615385,4205.641025641026,4150.769230769231,4540.000000000001
182.78207,0.5037724,0.5718834,0.33333334,0.5522388,0,0.0,0.0,0.0,0.0,0.0,0,0,0.0,0.0,0,0,87.0,0.0,503.0,4631.794871794872,3938.461538461539,4417.435897435898,4332.307692307693,4214.871794871796,4517.435897435898,4423.076923076924,4437.948717948719,4202.051282051282,4698.461538461539,4244.615384615385,4209.2307692307695,4194.358974358975,4551.282051282052
183.18867,0.54719085,0.55085206,0.33333334,0.5522388,0,0.0,0.0,0.0,0.055861134,0.0,0,0,0.0,0.0,0,0,10.0,0.0,530.0,4615.8974358974365,3950.2564102564106,4514.871794871796,4342.564102564103,4215.384615384616,4523.076923076924,4427.6923076923085,4451.282051282052,4255.8974358974365,4702.564102564103,4265.128205128206,4221.538461538462,4241.538461538462,4524.615384615385
183.28252,0.54719085,0.55085206,0.33333334,0.5522388,0,0.0,0.0,0.0,0.0,0.0,0,0,0.0,0.0,0,0,22.0,0.0,0.0,4632.307692307693,3989.23076923077,4508.205128205129,4382.564102564103,4234.358974358975,4533.846153846154,4427.6923076923085,4449.2307692307695,4265.128205128206,4710.769230769231,4282.564102564103,4230.256410256411,4255.8974358974365,4536.923076923077
183.6891,0.5290455,0.5351807,0.33333334,0.5522388,0,0.0,0.0,0.0,0.0,0.0,0,0,0.0,0.0,0,0,74.0,0.0,530.0,4617.435897435898,3921.538461538462,4576.923076923077,4355.384615384616,4201.538461538462,4508.205128205129,4423.076923076924,4402.564102564103,4232.820512820514,4645.641025641026,4238.974358974359,4162.051282051282,4170.256410256411,4490.256410256411
183.6891,0.5290455,0.5351807,0.33333334,0.5522388,0,0.0,0.0,0.0,0.0,0.0,0,0,0.0,0.0,0,0,74.0,0.0,530.0,4617.435897435898,3921.538461538462,4576.923076923077,4355.384615384616,4201.538461538462,4508.205128205129,4423.076923076924,4402.564102564103,4232.820512820514,4645.641025641026,4238.974358974359,4162.051282051282,4170.256410256411,4490.256410256411
184.18954,0.5545198,0.51785976,0.33333334,0.5522388,0,0.0,0.0,0.0,0.0,0.0,0,0,0.0,0.0,0,0,9.0,0.0,476.0,4595.384615384616,3929.2307692307695,4470.769230769231,4367.6923076923085,4202.051282051282,4502.051282051282,4407.179487179487,4391.794871794872,4249.2307692307695,4664.615384615386,4284.102564102564,4173.333333333334,4180.000000000001,4467.6923076923085
184.18954,0.5545198,0.51785976,0.33333334,0.5522388,0,0.0,0.0,0.0,0.0,0.0,0,0,0.0,0.0,0,0,9.0,0.0,476.0,4595.384615384616,3929.2307692307695,4470.769230769231,4367.6923076923085,4202.051282051282,4502.051282051282,4407.179487179487,4391.794871794872,4249.2307692307695,4664.615384615386,4284.102564102564,4173.333333333334,4180.000000000001,4467.6923076923085
184.68997,0.52132803,0.49779388,0.33333334,0.5522388,0,0.0,0.0,0.0,0.10385918,0.0,0,0,0.0,0.0,0,0,73.0,0.0,476.0,4593.846153846154,3895.8974358974365,4444.615384615385,4392.307692307693,4189.2307692307695,4495.384615384616,4437.948717948719,4398.461538461539,4248.205128205129,4655.8974358974365,4254.358974358975,4140.512820512821,4150.769230769231,4429.2307692307695
184.9089,0.52132803,0.49779388,0.33333334,0.5522388,0,0.0,0.0,0.0,0.0,0.0,0,0,0.0,0.0,0,0,101.0,0.0,509.0,4606.666666666667,3928.205128205129,4361.538461538462,4415.384615384616,4211.282051282052,4516.923076923077,4445.128205128206,4413.333333333334,4276.923076923077,4694.358974358975,4279.48717948718,4172.820512820514,4152.307692307693,4434.358974358975
185.1904,0.49350664,0.48156074,0.33333334,0.5522388,0,0.0,0.0,0.0,0.029137615,0.0,0,0,0.0,0.0,0,0,8.0,0.0,467.0,4615.384615384616,3884.615384615385,4589.2307692307695,4433.846153846154,4251.282051282052,4517.948717948719,4458.461538461539,4402.051282051282,4233.333333333334,4789.743589743591,4361.538461538462,4172.307692307693,4161.538461538462,4463.589743589744
185.40933,0.49350664,0.48156074,0.33333334,0.5522388,0,0.0,0.0,0.0,0.017448006,0.0,0,0,0.0,0.0,0,0,36.0,0.0,0.0,4602.051282051282,3862.0512820512827,4681.538461538462,4435.384615384616,4368.205128205129,4571.794871794872,4415.8974358974365,4362.564102564103,4197.948717948719,5051.282051282052,4553.846153846154,4190.256410256411,4182.564102564103,4471.794871794872
185.69083,0.5142619,0.4808681,0.33333334,0.5522388,0,0.0,0.0,0.0,0.0,0.0,0,0,0.0,0.0,0,0,72.0,0.0,467.0,4621.025641025642,3897.9487179487182,4713.333333333334,4502.564102564103,4538.974358974359,4640.512820512821,4380.000000000001,4336.410256410257,4202.564102564103,5276.923076923078,4565.128205128206,4260.512820512821,4210.769230769231,4464.615384615385
185.81593,0.5142619,0.4808681,0.33333334,0.5522388,1,0.0,0.0,0.0,0.0,0.0,0,0,0.0,0.0,0,0,88.0,0.0,510.0,4651.282051282052,3910.2564102564106,4789.743589743591,4518.461538461539,4525.128205128206,4626.666666666667,4404.102564102564,4350.256410256411,4230.256410256411,5469.743589743591,4599.48717948718,4323.589743589744,4243.076923076924,4486.153846153847
186.19125,0.66255045,0.48021707,0.33333334,0.5522388,0,0.0,0.0,0.0,0.01822865,0.0,0,0,0.0,0.0,0,0,7.0,0.0,468.0,4714.358974358975,4020.5128205128212,4593.333333333334,4414.358974358975,4574.358974358975,4652.820512820514,4381.538461538462,4375.384615384616,4294.358974358975,5637.948717948719,4523.076923076924,4488.205128205129,4484.102564102564,4651.282051282052
186.4102,0.66255045,0.48021707,0.33333334,0.5522388,0,0.0,0.0,0.0,0.8161884,0.0,0,0,0.0,0.0,0,0,35.0,0.0,0.0,4758.974358974359,4063.589743589744,4663.589743589744,4407.6923076923085,4553.846153846154,4643.589743589744,4395.384615384616,4397.948717948719,4339.48717948718,5601.538461538462,4480.512820512821,4561.025641025642,4545.641025641026,4636.923076923077
186.6917,0.79304445,0.47963116,0.33333334,0.5522388,0,0.0,0.0,0.0,0.09613019,0.0,0,0,0.0,0.0,0,0,71.0,0.0,468.0,4790.769230769231,4030.7692307692314,4626.666666666667,4390.256410256411,4505.641025641026,4631.794871794872,4392.820512820514,4400.000000000001,4344.615384615385,5434.3589743589755,4416.410256410257,4576.410256410257,4500.512820512821,4632.820512820514
186.91063,0.79304445,0.47963116,0.33333334,0.5522388,0,0.0,0.0,0.0,0.69203895,0.0,0,0,0.0,0.0,0,0,99.0,0.0,504.0,4729.2307692307695,4070.7692307692314,4565.641025641026,4436.923076923077,4479.48717948718,4627.6923076923085,4401.025641025642,4433.846153846154,4367.6923076923085,5310.769230769231,4451.282051282052,4603.076923076924,4542.051282051282,4703.076923076924
187.19212,0.907879,0.47910383,0.33333334,0.5522388,0,0.0,0.0,0.0,0.0,1.0,0,0,0.0,0.0,0,0,6.0,0.0,534.0,4713.333333333334,4046.1538461538466,4505.128205128206,4443.589743589744,4415.8974358974365,4604.102564102564,4383.589743589744,4399.48717948718,4331.794871794872,5152.820512820514,4425.128205128206,4550.256410256411,4473.846153846154,4710.769230769231
187.19212,0.907879,0.47910383,0.33333334,0.5522388,0,0.0,0.0,0.0,0.0,1.0,0,0,0.0,0.0,0,0,6.0,0.0,534.0,4713.333333333334,4046.1538461538466,4505.128205128206,4443.589743589744,4415.8974358974365,4604.102564102564,4383.589743589744,4399.48717948718,4331.794871794872,5152.820512820514,4425.128205128206,4550.256410256411,4473.846153846154,4710.769230769231
187.69255,0.93331754,0.47862923,0.33333334,0.5522388,0,0.0,0.0,0.0,0.0,0.43275246,0,0,0.0,0.0,0,0,70.0,0.0,534.0,4739.48717948718,3977.9487179487182,4651.282051282052,4455.8974358974365,4377.948717948719,4591.794871794872,4427.179487179487,4388.717948717949,4298.461538461539,4964.102564102564,4432.820512820514,4415.8974358974365,4319.48717948718,4701.538461538462
187.91148,0.93331754,0.47862923,0.33333334,0.5522388,0,0.0,0.0,0.0,0.06058571,0.0,0,0,0.0,0.0,0,0,98.0,0.0,522.0,4725.641025641026,3929.7435897435903,4662.051282051282,4458.461538461539,4355.8974358974365,4580.512820512821,4428.717948717949,4410.769230769231,4313.333333333334,4918.974358974359,4385.641025641026,4345.128205128206,4255.8974358974365,4664.615384615386
188.19298,0.94552636,0.4782021,0.33333334,0.5522388,0,0.0,0.0,0.0,0.056218848,0.0,0,0,0.0,0.0,0,0,5.0,0.0,553.0,4739.48717948718,3924.1025641025644,4580.512820512821,4476.923076923077,4343.589743589744,4577.948717948719,4438.461538461539,4421.538461538462,4285.128205128206,4907.6923076923085,4383.076923076924,4283.076923076924,4230.256410256411,4618.974358974359
188.41191,0.94552636,0.4782021,0.33333334,0.5522388,0,0.0,0.0,0.0,0.17412056,0.0,0,0,0.0,0.0,0,0,33.0,0.0,0.0,4734.871794871796,3913.333333333334,4509.2307692307695,4455.384615384616,4369.2307692307695,4592.307692307693,4430.769230769231,4413.846153846154,4280.512820512821,4945.641025641026,4398.974358974359,4280.512820512821,4231.794871794872,4591.282051282052
188.6934,0.9024876,0.47781768,0.33333334,0.5522388,0,0.0,0.0,0.0,0.086378425,0.0,0,0,0.0,0.0,0,0,69.0,0.0,553.0,4754.358974358975,3896.9230769230776,4598.974358974359,4442.051282051282,4345.128205128206,4569.2307692307695,4444.102564102564,4415.8974358974365,4258.461538461539,4970.256410256411,4387.179487179487,4326.153846153847,4229.74358974359,4609.2307692307695
188.91235,0.9024876,0.47781768,0.33333334,0.5522388,0,0.0,0.0,0.0,0.058091458,0.0,0,0,0.0,0.0,0,0,97.0,0.0,504.0,4746.153846153847,3891.2820512820517,4633.846153846154,4411.794871794872,4329.2307692307695,4555.384615384616,4422.564102564103,4392.307692307693,4218.974358974359,4940.000000000001,4371.282051282052,4277.948717948719,4221.025641025642,4570.256410256411
189.19383,0.8366717,0.5784642,0.33333334,0.5522388,0,0.0,0.0,0.0,0.09292135,0.0,0,0,0.0,0.0,0,0,4.0,0.0,558.0,4750.769230769231,3928.205128205129,4615.8974358974365,4444.102564102564,4284.102564102564,4534.871794871796,4429.743589743591,4403.076923076924,4223.589743589744,4972.820512820514,4370.256410256411,4266.153846153847,4212.820512820514,4571.794871794872
189.41278,0.8366717,0.5784642,0.33333334,0.5522388,0,0.0,0.48322064,0.0,0.0,0.0,0,0,0.0,0.0,0,0,32.0,0.0,0.0,4788.205128205129,3943.076923076924,4651.794871794872,4454.871794871796,4293.333333333334,4529.2307692307695,4445.641025641026,4417.435897435898,4235.384615384616,4999.48717948718,4392.307692307693,4312.307692307693,4248.205128205129,4606.153846153847
189.69427,0.8196659,0.56587815,0.33333334,0.5522388,0,0.0,0.9352652,0.0,0.0,0.0,0,0,0.0,0.0,0,0,68.0,0.0,558.0,4817.435897435898,3974.8717948717954,4594.358974358975,4505.641025641026,4270.769230769231,4521.538461538462,4462.564102564103,4416.923076923077,4223.589743589744,4925.641025641026,4402.564102564103,4299.48717948718,4252.820512820514,4606.666666666667
189.91321,0.8196659,0.56587815,0.33333334,0.5522388,0,0.0,0.83835614,0.0,0.0,0.0,0,0,0.0,0.0,0,0,96.0,0.0,510.0,4798.461538461539,3962.564102564103,4724.615384615386,4497.948717948719,4224.102564102564,4491.282051282052,4480.000000000001,4457.948717948719,4232.307692307693,4879.48717948718,4436.923076923077,4339.48717948718,4249.74358974359,4621.025641025642
190.1947,0.75869495,0.5585997,0.33333334,0.5522388,0,0.0,0.0,0.0,0.07292737,0.0,0,0,0.0,0.0,0,0,3.0,0.0,539.0,4829.743589743591,3982.564102564103,4616.923076923077,4485.641025641026,4278.461538461539,4529.2307692307695,4480.512820512821,4414.871794871796,4236.410256410257,4877.948717948719,4399.48717948718,4241.025641025642,4186.666666666667,4595.384615384616
190.41364,0.75869495,0.5585997,0.33333334,0.5522388,0,0.0,0.0,0.0,0.1704744,0.0,0,0,0.0,0.0,0,0,31.0,0.0,0.0,4782.051282051282,3953.8461538461543,4649.743589743591,4470.256410256411,4249.2307692307695,4495.8974358974365,4489.743589743591,4428.205128205129,4247.6923076923085,4852.307692307693,4420.512820512821,4210.256410256411,4161.538461538462,4542.051282051282
190.69513,0.846881,0.5470722,0.33333334,0.5522388,0,0.0,0.0,0.0,0.18851078,0.0,0,0,0.0,0.0,0,0,67.0,0.0,539.0,4821.025641025642,3979.48717948718,4573.333333333334,4497.435897435898,4274.871794871796,4534.358974358975,4525.128205128206,4434.358974358975,4298.461538461539,4913.846153846154,4424.102564102564,4210.256410256411,4161.538461538462,4557.948717948719
190.91406,0.846881,0.5470722,0.33333334,0.5522388,0,0.0,0.0,0.0,0.0208693,0.0,0,0,0.0,0.0,0,0,95.0,0.0,503.0,4774.871794871796,3921.538461538462,4406.666666666667,4440.000000000001,4233.333333333334,4512.820512820514,4492.307692307693,4405.641025641026,4286.666666666667,4852.820512820514,4382.564102564103,4157.948717948719,4108.717948717949,4494.871794871796
191.19556,0.9318227,0.5435383,0.33333334,0.5522388,0,0.0,0.0,0.0,0.0,0.055032898,0,0,0.0,0.0,0,0,2.0,0.0,284.0,4752.820512820514,3893.333333333334,4484.615384615385,4431.282051282052,4213.846153846154,4499.48717948718,4455.8974358974365,4396.923076923077,4300.512820512821,4854.871794871796,4347.6923076923085,4142.051282051282,4076.9230769230776,4470.256410256411
191.4145,0.9318227,0.5435383,0.33333334,0.5522388,0,0.0,0.0,0.0,0.0,0.08304215,0,0,0.0,0.0,0,0,30.0,0.0,0.0,4757.948717948719,3894.358974358975,4550.769230769231,4430.769230769231,4206.666666666667,4502.051282051282,4448.205128205129,4364.615384615385,4296.923076923077,4807.6923076923085,4309.743589743591,4121.025641025642,4030.7692307692314,4440.512820512821
191.69598,1.0,0.53674257,0.33333334,0.5522388,0,0.0,0.0,0.0,0.0,0.0,0,0,0.0,0.0,0,0,66.0,0.0,284.0,4748.717948717949,3866.666666666667,4486.153846153847,4411.794871794872,4204.615384615385,4503.589743589744,4441.025641025642,4334.358974358975,4303.589743589744,4764.102564102564,4294.358974358975,4117.948717948719,4020.5128205128212,4433.333333333334
191.69598,1.0,0.53674257,0.33333334,0.5522388,0,0.0,0.0,0.0,0.0,0.0,0,0,0.0,0.0,0,0,66.0,0.0,284.0,4748.717948717949,3866.666666666667,4486.153846153847,4411.794871794872,4204.615384615385,4503.589743589744,4441.025641025642,4334.358974358975,4303.589743589744,4764.102564102564,4294.358974358975,4117.948717948719,4020.5128205128212,4433.333333333334
192.19643,1.0,0.5142378,0.33333334,0.5522388,0,0.0,0.0,0.0,0.0,0.0,0,0,0.0,0.0,0,0,1.0,0.0,512.0,4745.128205128206,3882.0512820512827,4272.307692307693,4411.794871794872,4177.435897435898,4497.948717948719,4445.128205128206,4343.589743589744,4331.794871794872,4692.820512820514,4288.717948717949,4122.051282051282,4026.1538461538466,4425.641025641026
192.19643,1.0,0.5142378,0.33333334,0.5522388,0,0.0,0.0,0.0,0.0,0.0,0,0,0.0,0.0,0,0,1.0,0.0,512.0,4745.128205128206,3882.0512820512827,4272.307692307693,4411.794871794872,4177.435897435898,4497.948717948719,4445.128205128206,4343.589743589744,4331.794871794872,4692.820512820514,4288.717948717949,4122.051282051282,4026.1538461538466,4425.641025641026
192.69685,1.0,0.4940835,0.33333334,0.5522388,0,0.0,0.0,0.0,0.0,0.0,0,0,0.0,0.0,0,0,65.0,0.0,512.0,4711.282051282052,3893.8461538461543,4405.128205128206,4385.641025641026,4125.641025641026,4455.8974358974365,4398.461538461539,4296.923076923077,4325.128205128206,4614.871794871796,4261.538461538462,4095.3846153846157,4062.0512820512827,4362.051282051282
192.91579,1.0,0.4940835,0.33333334,0.5522388,0,0.0,1.0,0.0,0.0,0.0,0,0,0.0,0.0,0,0,93.0,0.0,507.0,4711.794871794872,3909.2307692307695,4364.615384615385,4386.666666666667,4155.8974358974365,4469.743589743591,4413.846153846154,4272.307692307693,4324.615384615385,4570.769230769231,4220.512820512821,4089.23076923077,4024.1025641025644,4362.564102564103
193.19728,1.0,0.47630447,0.33333334,0.5522388,0,0.0,0.0,0.0,0.05242942,0.0,0,0,0.0,0.0,0,0,0.0,0.0,501.0,4696.923076923077,3934.8717948717954,4382.051282051282,4409.2307692307695,4186.153846153847,4513.846153846154,4465.641025641026,4351.794871794872,4356.410256410257,4609.743589743591,4301.538461538462,4138.974358974359,4123.076923076924,4405.641025641026
193.41621,1.0,0.47630447,0.33333334,0.5522388,0,0.0,0.3543611,0.0,0.0,0.0,0,0,0.0,0.0,0,0,28.0,0.0,0.0,4682.564102564103,3950.2564102564106,4462.051282051282,4437.948717948719,4146.153846153847,4480.000000000001,4460.512820512821,4391.794871794872,4366.666666666667,4599.48717948718,4340.512820512821,4190.769230769231,4170.256410256411,4394.358974358975
193.69771,0.98918587,0.45851403,0.33333334,0.5522388,0,0.0,0.9196307,0.0,0.0,0.0,0,0,0.0,0.0,0,0,64.0,0.0,501.0,4674.358974358975,3927.692307692308,4473.846153846154,4423.589743589744,4161.025641025642,4490.256410256411,4473.846153846154,4350.769230769231,4340.512820512821,4560.000000000001,4328.205128205129,4198.461538461539,4154.871794871796,4417.948717948719
193.91664,0.98918587,0.45851403,0.33333334,0.5522388,0,0.0,0.0,0.0,0.11397762,0.0,0,0,0.0,0.0,0,0,92.0,0.0,517.0,4681.025641025642,3892.820512820513,4640.000000000001,4424.102564102564,4175.8974358974365,4494.358974358975,4475.8974358974365,4357.435897435898,4341.025641025642,4559.48717948718,4350.256410256411,4241.538461538462,4204.615384615385,4462.564102564103
194.19814,1.0,0.45437905,0.33333334,0.5522388,0,0.0,0.0,0.0,0.13715462,0.0,0,0,0.0,0.0,0,0,128.0,0.0,517.0,4647.179487179488,3882.564102564103,4785.128205128206,4389.2307692307695,4182.051282051282,4488.717948717949,4447.6923076923085,4353.333333333334,4337.948717948719,4526.153846153847,4310.256410256411,4190.769230769231,4170.769230769231,4433.333333333334
194.41708,1.0,0.45437905,0.33333334,0.5522388,0,0.0,0.0,0.0,0.042726908,0.0,0,0,0.0,0.0,0,0,27.0,0.0,0.0,4641.025641025642,3878.9743589743593,4469.2307692307695,4409.2307692307695,4190.769230769231,4502.051282051282,4474.871794871796,4374.358974358975,4336.410256410257,4540.000000000001,4323.589743589744,4198.461538461539,4158.461538461539,4466.666666666667
194.69856,0.99910706,0.45341122,0.33333334,0.5522388,0,0.0,0.0,0.0,0.036776796,0.0,0,0,0.0,0.0,0,0,63.0,0.0,0.0,4597.948717948719,3878.461538461539,4485.128205128206,4395.8974358974365,4185.641025641026,4507.179487179488,4489.743589743591,4379.48717948718,4363.076923076924,4544.102564102564,4307.179487179487,4169.2307692307695,4104.102564102564,4426.666666666667
194.91751,0.99910706,0.45341122,0.33333334,0.5522388,0,0.0,0.0,0.0,0.037811108,0.0,0,0,0.0,0.0,0,0,91.0,0.0,510.0,4582.051282051282,3895.3846153846157,4408.205128205129,4397.435897435898,4181.025641025642,4497.948717948719,4453.846153846154,4365.641025641026,4345.641025641026,4502.564102564103,4269.2307692307695,4139.48717948718,4071.2820512820517,4391.794871794872
195.199,0.9779915,0.4537145,0.33333334,0.5522388,0,0.0,0.0,0.0,0.22932602,0.0,0,0,0.0,0.0,0,0,127.0,0.0,510.0,4660.000000000001,3895.8974358974365,4355.384615384616,4393.846153846154,4076.9230769230776,4444.102564102564,4458.974358974359,4401.025641025642,4371.282051282052,4428.717948717949,4360.000000000001,4181.025641025642,4202.564102564103,4555.384615384616
195.41794,0.9779915,0.4537145,0.33333334,0.5522388,0,0.0,0.0,0.0,0.0,1.0,0,0,0.0,0.0,0,0,26.0,0.0,0.0,4616.410256410257,3861.538461538462,4411.794871794872,4364.102564102564,4126.666666666667,4468.205128205129,4445.128205128206,4408.717948717949,4435.384615384616,4384.615384615385,4377.948717948719,4203.076923076924,4178.461538461539,4530.769230769231
195.69943,0.9316191,0.46091813,0.33333334,0.5522388,0,0.0,0.0,0.0,0.2758865,0.0,0,0,0.0,0.0,0,0,62.0,0.0,0.0,4678.461538461539,3816.9230769230776,4606.666666666667,4312.307692307693,4036.410256410257,4409.2307692307695,4425.128205128206,4371.794871794872,4367.179487179487,4276.410256410257,4292.820512820514,4161.538461538462,4090.2564102564106,4470.769230769231
195.91837,0.9316191,0.46091813,0.33333334,0.5522388,0,0.0,0.0,0.0,0.3833318,0.0,0,0,0.0,0.0,0,0,90.0,0.0,531.0,4618.461538461539,3818.9743589743593,4457.435897435898,4338.461538461539,4072.820512820513,4433.846153846154,4419.48717948718,4381.538461538462,4361.538461538462,4215.8974358974365,4286.666666666667,4166.666666666667,4081.0256410256416,4483.076923076924
196.19986,1.0,0.4761758,0.33333334,0.5522388,0,0.0,0.0,0.0,0.3618957,0.0,0,0,0.0,0.0,0,0,126.0,0.0,531.0,4616.410256410257,3830.7692307692314,4387.6923076923085,4325.128205128206,4048.205128205129,4427.179487179487,4421.025641025642,4356.923076923077,4365.641025641026,4230.769230769231,4291.282051282052,4163.076923076924,4086.1538461538466,4472.820512820514
196.4188,1.0,0.4761758,0.33333334,0.5522388,0,0.0,0.0,0.0,0.13758025,0.0,0,0,0.0,0.0,0,0,25.0,0.0,0.0,4628.205128205129,3828.205128205129,4524.615384615385,4292.820512820514,4047.1794871794878,4426.666666666667,4412.820512820514,4360.512820512821,4340.512820512821,4247.6923076923085,4315.8974358974365,4186.666666666667,4131.282051282052,4471.282051282052
196.70029,1.0,0.5793279,0.33333334,0.5522388,1,0.0,0.0,0.0,0.5923421,0.0,0,0,0.0,0.0,0,0,61.0,0.0,0.0,4532.307692307693,3878.9743589743593,4460.512820512821,4324.615384615385,4084.1025641025644,4456.410256410257,4460.000000000001,4423.076923076924,4359.48717948718,4317.435897435898,4389.2307692307695,4318.974358974359,4225.128205128206,4537.948717948719
196.79413,1.0,0.5793279,0.33333334,0.5522388,0,0.0,0.0,0.0,1.0,0.0,0,0,0.0,0.0,0,0,73.0,0.0,483.0,4585.128205128206,3878.9743589743593,4497.435897435898,4334.358974358975,4081.0256410256416,4449.2307692307695,4455.8974358974365,4411.794871794872,4335.8974358974365,4333.846153846154,4393.333333333334,4312.820512820514,4234.871794871796,4551.794871794872
197.20071,1.0,0.75973004,0.33333334,0.5522388,0,0.0,0.0,0.0,0.13214959,0.0,0,0,0.0,0.0,0,0,125.0,0.0,510.0,4607.6923076923085,3946.1538461538466,4439.48717948718,4385.128205128206,4178.461538461539,4509.2307692307695,4488.717948717949,4430.769230769231,4367.6923076923085,4352.307692307693,4416.410256410257,4357.435897435898,4229.2307692307695,4595.384615384616
197.41966,1.0,0.75973004,0.33333334,0.5522388,0,0.0,0.0,0.0,0.06373055,0.0,0,0,0.0,0.0,0,0,24.0,0.0,0.0,4639.48717948718,3961.0256410256416,4476.923076923077,4429.743589743591,4211.282051282052,4518.461538461539,4511.794871794872,4445.641025641026,4358.461538461539,4417.435897435898,4474.871794871796,4349.2307692307695,4213.333333333334,4617.435897435898
197.70116,1.0,0.95121104,0.33333334,0.5522388,0,0.0,0.0,0.0,0.0,0.10135655,0,0,0.0,0.0,0,0,60.0,0.0,0.0,4647.179487179488,3961.538461538462,4462.564102564103,4441.538461538462,4266.153846153847,4553.846153846154,4556.410256410257,4476.410256410257,4369.2307692307695,4507.6923076923085,4523.076923076924,4364.102564102564,4276.923076923077,4659.48717948718
197.92009,1.0,0.95121104,0.33333334,0.5522388,0,0.0,0.0,0.0,0.0,0.07096469,0,0,0.0,0.0,0,0,88.0,0.0,513.0,4654.871794871796,3928.717948717949,4506.153846153847,4452.307692307693,4267.6923076923085,4557.435897435898,4554.871794871796,4451.794871794872,4352.820512820514,4538.974358974359,4521.538461538462,4415.384615384616,4288.717948717949,4671.282051282052
198.20158,0.99309796,1.0,0.33333334,0.5522388,0,0.0,0.0,0.0,0.0,0.3666988,0,0,0.0,0.0,0,0,124.0,0.0,513.0,4674.358974358975,3973.333333333334,4576.410256410257,4494.871794871796,4273.333333333334,4560.000000000001,4571.794871794872,4505.128205128206,4353.333333333334,4556.923076923077,4584.615384615385,4523.076923076924,4341.538461538462,4771.794871794872
198.42052,0.99309796,1.0,0.33333334,0.5522388,0,0.0,0.0,0.0,0.0,0.46802905,0,0,0.0,0.0,0,0,23.0,0.0,0.0,4701.025641025642,3980.0000000000005,4616.410256410257,4522.564102564103,4243.589743589744,4537.948717948719,4579.48717948718,4501.025641025642,4354.358974358975,4606.666666666667,4603.076923076924,4549.2307692307695,4346.153846153847,4814.871794871796
198.67073,0.98655087,1.0,0.33333334,0.5522388,0,0.0,0.0,0.0,0.0,0.12440512,0,0,0.0,0.0,0,0,55.0,0.0,0.0,4695.384615384616,3962.564102564103,4614.871794871796,4521.025641025642,4292.307692307693,4583.076923076924,4630.256410256411,4563.589743589744,4383.076923076924,4672.820512820514,4616.923076923077,4554.871794871796,4323.589743589744,4750.256410256411
198.92094,0.98655087,1.0,0.33333334,0.5522388,0,0.0,0.0,0.0,0.0,0.0,0,0,0.0,0.0,0,0,87.0,0.0,503.0,4697.948717948719,3960.5128205128212,4580.512820512821,4543.076923076924,4277.948717948719,4579.48717948718,4635.8974358974365,4523.076923076924,4355.8974358974365,4667.6923076923085,4596.410256410257,4523.076923076924,4286.666666666667,4720.512820512821
199.20244,0.9829202,1.0,0.33333334,0.5522388,0,0.0,0.0,0.0,0.0,0.0,0,0,0.0,0.0,0,0,123.0,0.0,503.0,4673.846153846154,3924.615384615385,4571.282051282052,4518.974358974359,4267.6923076923085,4569.743589743591,4634.871794871796,4492.820512820514,4345.641025641026,4610.256410256411,4529.743589743591,4512.307692307693,4216.410256410257,4711.282051282052
199.42137,0.9829202,1.0,0.33333334,0.5522388,0,0.0,0.0,0.0,0.0,0.05987086,0,0,0.0,0.0,0,0,22.0,0.0,0.0,4676.410256410257,3886.666666666667,4590.769230769231,4493.333333333334,4210.256410256411,4522.564102564103,4617.435897435898,4422.564102564103,4310.769230769231,4564.102564102564,4480.000000000001,4399.48717948718,4153.846153846154,4672.820512820514
199.70287,1.0,1.0,0.33333334,0.5522388,0,0.0,0.0,0.0,0.0,0.14076962,0,0,0.0,0.0,0,0,58.0,0.0,0.0,4677.435897435898,3888.717948717949,4475.8974358974365,4470.769230769231,4185.641025641026,4474.871794871796,4551.794871794872,4401.025641025642,4316.410256410257,4556.923076923077,4451.794871794872,4346.666666666667,4171.282051282052,4627.179487179488
199.7967,1.0,1.0,0.33333334,0.5522388,0,0.0,0.0,0.0,0.0,0.0,0,0,0.0,0.0,0,0,70.0,0.0,528.0,4652.820512820514,3848.205128205129,4480.512820512821,4429.2307692307695,4186.153846153847,4489.2307692307695,4549.2307692307695,4388.205128205129,4311.282051282052,4556.923076923077,4406.666666666667,4294.871794871796,4123.589743589744,4565.128205128206
200.20331,1.0,1.0,0.33333334,0.5522388,0,0.0,0.0,0.0,0.0,0.0,0,0,0.0,0.0,0,0,122.0,0.0,531.0,4640.512820512821,3804.1025641025644,4595.8974358974365,4386.666666666667,4184.615384615385,4493.333333333334,4495.384615384616,4342.051282051282,4267.6923076923085,4530.256410256411,4357.435897435898,4222.051282051282,4084.1025641025644,4495.384615384616
200.20331,1.0,1.0,0.33333334,0.5522388,0,0.0,0.0,0.0,0.0,0.0,0,0,0.0,0.0,0,0,122.0,0.0,531.0,4640.512820512821,3804.1025641025644,4595.8974358974365,4386.666666666667,4184.615384615385,4493.333333333334,4495.384615384616,4342.051282051282,4267.6923076923085,4530.256410256411,4357.435897435898,4222.051282051282,4084.1025641025644,4495.384615384616
200.70374,0.9364174,1.0,0.33333334,0.5522388,0,0.0,0.0,0.0,0.0,0.0,0,0,0.0,0.0,0,0,57.0,0.0,0.0,4613.846153846154,3787.692307692308,4568.717948717949,4385.641025641026,4183.076923076924,4474.871794871796,4429.2307692307695,4351.282051282052,4278.974358974359,4547.179487179488,4298.974358974359,4177.948717948719,4093.333333333334,4444.615384615385
200.70374,0.9364174,1.0,0.33333334,0.5522388,0,0.0,0.0,0.0,0.0,0.0,0,0,0.0,0.0,0,0,57.0,0.0,0.0,4613.846153846154,3787.692307692308,4568.717948717949,4385.641025641026,4183.076923076924,4474.871794871796,4429.2307692307695,4351.282051282052,4278.974358974359,4547.179487179488,4298.974358974359,4177.948717948719,4093.333333333334,4444.615384615385
201.17288,0.9335551,1.0,0.33333334,0.5522388,0,0.0,0.0,0.0,0.0,0.0,0,0,0.0,0.0,0,0,117.0,0.0,505.0,4610.769230769231,3804.1025641025644,4483.076923076924,4342.564102564103,4179.48717948718,4467.6923076923085,4449.743589743591,4332.307692307693,4307.179487179487,4614.358974358975,4306.153846153847,4163.589743589744,4041.0256410256416,4394.871794871796
201.17288,0.9335551,1.0,0.33333334,0.5522388,0,0.0,0.0,0.0,0.0,0.0,0,0,0.0,0.0,0,0,117.0,0.0,505.0,4610.769230769231,3804.1025641025644,4483.076923076924,4342.564102564103,4179.48717948718,4467.6923076923085,4449.743589743591,4332.307692307693,4307.179487179487,4614.358974358975,4306.153846153847,4163.589743589744,4041.0256410256416,4394.871794871796
201.67331,0.94904274,0.9337236,0.33333334,0.5522388,0,0.0,0.0,0.0,0.0,0.0,0,0,0.0,0.0,0,0,52.0,0.0,0.0,4581.025641025642,3819.48717948718,4532.820512820514,4335.384615384616,4283.076923076924,4509.743589743591,4407.179487179487,4291.794871794872,4314.871794871796,4722.564102564103,4334.358974358975,4136.410256410257,4078.461538461539,4342.051282051282
201.92352,0.94904274,0.9337236,0.33333334,0.5522388,0,0.0,0.97632176,0.0,0.0,0.0,0,0,0.0,0.0,0,0,84.0,0.0,512.0,4586.666666666667,3887.692307692308,4569.2307692307695,4381.538461538462,4232.307692307693,4490.256410256411,4395.384615384616,4311.794871794872,4277.948717948719,4766.153846153847,4311.794871794872,4249.2307692307695,4167.6923076923085,4352.307692307693
202.17374,0.9425607,0.88099754,0.33333334,0.5522388,0,0.0,0.49630135,0.0,0.0,0.0,0,0,0.0,0.0,0,0,116.0,0.0,512.0,4598.974358974359,3927.1794871794878,4664.102564102564,4427.179487179487,4235.8974358974365,4507.6923076923085,4445.128205128206,4333.846153846154,4244.615384615385,4795.384615384616,4333.333333333334,4370.256410256411,4244.615384615385,4412.307692307693
202.42397,0.9425607,0.88099754,0.33333334,0.5522388,0,0.0,0.0,0.0,0.12699948,0.0,0,0,0.0,0.0,0,0,19.0,0.0,0.0,4648.205128205129,3985.1282051282055,4680.512820512821,4463.076923076924,4273.333333333334,4528.717948717949,4496.410256410257,4363.076923076924,4234.871794871796,4851.794871794872,4402.051282051282,4463.589743589744,4347.179487179487,4513.333333333334
202.70544,1.0,0.84861994,0.33333334,0.5522388,0,0.0,0.0,0.0,0.17207794,0.0,0,0,0.0,0.0,0,0,55.0,0.0,0.0,4640.000000000001,4062.0512820512827,4645.641025641026,4531.282051282052,4335.384615384616,4586.666666666667,4556.410256410257,4365.128205128206,4234.358974358975,4843.589743589744,4427.179487179487,4504.102564102564,4393.846153846154,4584.102564102564
202.9244,1.0,0.84861994,0.33333334,0.5522388,0,0.0,0.0,0.0,0.040040985,0.0,0,0,0.0,0.0,0,0,83.0,0.0,508.0,4673.333333333334,4108.205128205129,4740.000000000001,4563.589743589744,4365.128205128206,4590.256410256411,4552.307692307693,4318.974358974359,4223.076923076924,4865.128205128206,4427.179487179487,4474.358974358975,4359.48717948718,4615.384615384616
203.20589,1.0,0.8208514,0.33333334,0.5522388,0,0.0,0.0,0.0,0.06270481,0.0,0,0,0.0,0.0,0,0,119.0,0.0,508.0,4724.102564102564,4133.333333333334,4670.769230769231,4575.384615384616,4293.333333333334,4524.102564102564,4585.641025641026,4280.512820512821,4248.205128205129,4856.410256410257,4455.8974358974365,4487.179487179488,4328.717948717949,4628.717948717949
203.42482,1.0,0.8208514,0.33333334,0.5522388,0,0.0,0.0,0.0,0.033061046,0.0,0,0,0.0,0.0,0,0,18.0,0.0,0.0,4703.076923076924,4092.820512820513,4625.128205128206,4577.948717948719,4285.128205128206,4510.256410256411,4608.205128205129,4281.538461538462,4288.717948717949,4866.666666666667,4485.128205128206,4436.410256410257,4250.256410256411,4601.538461538462
203.70631,1.0,0.79585975,0.33333334,0.5522388,0,0.0,0.0,0.0,0.025104811,0.0,0,0,0.0,0.0,0,0,54.0,0.0,0.0,4694.358974358975,4018.461538461539,4642.564102564103,4598.461538461539,4289.2307692307695,4521.538461538462,4615.384615384616,4262.051282051282,4308.717948717949,4838.461538461539,4483.589743589744,4367.179487179487,4150.256410256411,4604.615384615385
203.92525,1.0,0.79585975,0.33333334,0.5522388,0,0.0,0.0,0.0,0.091106,0.0,0,0,0.0,0.0,0,0,82.0,0.0,531.0,4666.153846153847,3896.410256410257,4626.666666666667,4535.384615384616,4202.564102564103,4465.641025641026,4582.564102564103,4183.076923076924,4287.6923076923085,4803.589743589744,4468.717948717949,4288.717948717949,4126.666666666667,4471.794871794872
204.20674,1.0,0.7733673,0.33333334,0.5522388,0,0.0,0.0,0.0,0.2216775,0.0,0,0,0.0,0.0,0,0,118.0,0.0,531.0,4676.923076923077,3875.8974358974365,4685.128205128206,4543.589743589744,4159.48717948718,4432.307692307693,4551.282051282052,4227.6923076923085,4275.384615384616,4836.410256410257,4460.000000000001,4274.871794871796,4084.1025641025644,4409.743589743591
204.42567,1.0,0.7733673,0.33333334,0.5522388,0,0.0,0.0,0.0,0.03400157,0.0,0,0,0.0,0.0,0,0,17.0,0.0,0.0,4675.8974358974365,3858.9743589743593,4555.384615384616,4548.205128205129,4167.179487179487,4451.282051282052,4578.974358974359,4263.589743589744,4275.8974358974365,4787.6923076923085,4448.205128205129,4287.6923076923085,4121.025641025642,4421.025641025642
204.70717,0.9019586,0.75312406,0.33333334,0.5522388,0,0.0,0.0,0.0,0.098730154,0.0,0,0,0.0,0.0,0,0,53.0,0.0,0.0,4691.794871794872,3863.589743589744,4526.666666666667,4577.435897435898,4134.358974358975,4440.000000000001,4587.6923076923085,4313.333333333334,4333.846153846154,4656.923076923077,4469.743589743591,4305.641025641026,4187.179487179487,4508.717948717949
204.92612,0.9019586,0.75312406,0.33333334,0.5522388,0,0.0,0.0,0.0,0.13556711,0.0,0,0,0.0,0.0,0,0,81.0,0.0,508.0,4672.820512820514,3848.205128205129,4551.794871794872,4555.8974358974365,4132.820512820514,4455.8974358974365,4553.333333333334,4284.102564102564,4306.153846153847,4681.538461538462,4430.256410256411,4263.076923076924,4138.461538461539,4507.179487179488
205.2076,0.8110494,0.7349051,0.33333334,0.5522388,0,0.0,0.0,0.0,0.096644975,0.0,0,0,0.0,0.0,0,0,117.0,0.0,508.0,4706.153846153847,3895.3846153846157,4703.076923076924,4579.48717948718,4159.48717948718,4483.076923076924,4558.461538461539,4370.769230769231,4343.589743589744,4644.102564102564,4509.743589743591,4313.846153846154,4233.846153846154,4630.256410256411
205.42654,0.8110494,0.7349051,0.33333334,0.5522388,0,0.0,0.0,0.0,0.10885212,0.0,0,0,0.0,0.0,0,0,16.0,0.0,0.0,4711.794871794872,3924.615384615385,4578.461538461539,4581.025641025642,4154.358974358975,4485.641025641026,4569.2307692307695,4366.153846153847,4346.153846153847,4688.205128205129,4487.6923076923085,4318.461538461539,4202.051282051282,4634.358974358975
205.70804,0.745665,0.7185081,0.33333334,0.5522388,0,0.0,0.0,0.0,0.005685632,0.0,0,0,0.0,0.0,0,0,52.0,0.0,0.0,4694.871794871796,3909.7435897435903,4597.435897435898,4537.435897435898,4156.410256410257,4489.743589743591,4542.564102564103,4326.666666666667,4366.666666666667,4697.948717948719,4511.794871794872,4312.307692307693,4211.794871794872,4631.794871794872
205.92697,0.745665,0.7185081,0.33333334,0.5522388,0,0.0,0.0,0.0,0.055313904,0.0,0,0,0.0,0.0,0,0,80.0,0.0,512.0,4710.256410256411,3920.0000000000005,4590.769230769231,4544.615384615385,4126.153846153847,4454.871794871796,4524.102564102564,4263.589743589744,4313.333333333334,4696.410256410257,4423.589743589744,4277.435897435898,4070.7692307692314,4552.307692307693
206.20847,0.7390747,0.68536234,0.33333334,0.5522388,0,0.0,0.0,0.0,0.7031821,0.0,0,0,0.0,0.0,0,0,116.0,0.0,512.0,4682.051282051282,3928.205128205129,4456.923076923077,4508.205128205129,4145.641025641026,4449.743589743591,4496.923076923077,4228.205128205129,4295.384615384616,4776.923076923077,4406.153846153847,4256.923076923077,4048.205128205129,4457.948717948719
206.4274,0.7390747,0.68536234,0.33333334,0.5522388,0,0.0,0.0,0.0,0.13848507,0.0,0,0,0.0,0.0,0,0,15.0,0.0,507.0,4629.743589743591,3893.333333333334,4616.923076923077,4463.076923076924,4180.000000000001,4462.564102564103,4429.2307692307695,4124.102564102564,4255.384615384616,4804.615384615386,4330.256410256411,4183.589743589744,3994.8717948717954,4377.948717948719
206.7089,0.7869732,0.6558825,0.33333334,0.5522388,0,0.0,1.0,0.0,0.0,0.0,0,0,0.0,0.0,0,0,51.0,0.0,0.0,4665.128205128206,3954.8717948717954,4614.358974358975,4517.948717948719,4347.6923076923085,4580.512820512821,4455.384615384616,4225.128205128206,4268.205128205129,5027.6923076923085,4443.076923076924,4332.307692307693,4149.2307692307695,4571.282051282052
206.92783,0.7869732,0.6558825,0.33333334,0.5522388,0,0.0,1.0,0.0,0.0,0.0,0,0,0.0,0.0,0,0,79.0,0.0,508.0,4671.282051282052,4089.23076923077,4731.794871794872,4608.717948717949,4531.794871794872,4719.48717948718,4570.256410256411,4376.923076923077,4284.615384615385,5252.307692307693,4637.435897435898,4442.564102564103,4298.974358974359,4732.307692307693
207.20932,0.90253645,0.62935054,0.33333334,0.5522388,0,0.0,0.8108958,0.0,0.0,0.0,0,0,0.0,0.0,0,0,115.0,0.0,508.0,4757.435897435898,4146.666666666667,4753.846153846154,4706.153846153847,4693.846153846154,4817.948717948719,4628.717948717949,4406.666666666667,4288.717948717949,5450.769230769231,4939.48717948718,4585.641025641026,4352.307692307693,4862.051282051283
207.42825,0.90253645,0.62935054,0.33333334,0.5522388,0,0.0,0.55235744,0.0,0.0,0.0,0,0,0.0,0.0,0,0,14.0,0.0,530.0,4752.307692307693,4125.641025641026,4831.282051282052,4687.6923076923085,4598.974358974359,4746.666666666667,4707.179487179488,4600.512820512821,4263.076923076924,5614.3589743589755,4902.564102564103,4606.666666666667,4348.205128205129,4891.282051282052
207.67848,1.0,0.60547185,0.33333334,0.5522388,0,0.0,1.0,0.0,0.0,0.0,0,0,0.0,0.0,0,0,46.0,0.0,0.0,4782.051282051282,4248.205128205129,4703.589743589744,4830.769230769231,4515.8974358974365,4700.000000000001,4773.333333333334,4655.384615384616,4396.410256410257,5797.948717948719,5041.538461538462,4732.820512820514,4489.743589743591,5076.923076923077
207.70975,1.0,0.60547185,0.33333334,0.5522388,0,0.0,1.0,0.0,0.0,0.0,0,0,0.0,0.0,0,0,50.0,0.0,0.0,4796.410256410257,4249.2307692307695,4728.717948717949,4832.307692307693,4505.641025641026,4685.641025641026,4767.179487179488,4642.564102564103,4385.128205128206,5778.461538461539,5045.641025641026,4735.384615384616,4501.025641025642,5086.666666666667
208.17891,1.0,0.583981,0.33333334,0.5522388,0,0.0,1.0,0.0,0.0,0.0,0,0,0.0,0.0,0,0,110.0,0.0,530.0,4910.769230769231,4336.410256410257,4916.410256410257,4929.2307692307695,4529.743589743591,4735.8974358974365,4851.282051282052,4612.820512820514,4510.256410256411,5550.256410256411,5080.512820512821,4737.948717948719,4558.974358974359,5213.846153846154
208.30402,1.0,0.583981,0.33333334,0.5522388,0,0.0,0.0,0.0,0.0,0.0,0,0,0.0,0.0,0,0,126.0,0.0,530.0,4802.051282051282,4290.769230769231,4889.743589743591,4897.948717948719,4506.666666666667,4723.589743589744,4850.769230769231,4558.974358974359,4498.461538461539,5450.769230769231,5024.102564102564,4662.051282051282,4486.153846153847,5149.743589743591
208.67934,1.0,0.5646392,0.33333334,0.5522388,0,0.0,0.6764785,0.0,0.0,0.0,0,0,0.0,0.0,0,0,45.0,0.0,0.0,4807.6923076923085,4143.076923076924,4847.6923076923085,4813.846153846154,4420.512820512821,4667.6923076923085,4704.102564102564,4426.666666666667,4493.846153846154,5283.076923076924,4910.769230769231,4495.384615384616,4360.000000000001,4959.48717948718
208.92955,1.0,0.5646392,0.33333334,0.5522388,0,0.0,0.0,0.0,0.04569756,0.0,0,0,0.0,0.0,0,0,77.0,0.0,499.0,4844.102564102564,4058.9743589743593,4876.410256410257,4764.102564102564,4348.205128205129,4611.282051282052,4593.846153846154,4362.564102564103,4494.358974358975,5215.384615384616,4831.794871794872,4389.743589743591,4281.025641025642,4878.974358974359
209.17976,1.0,0.5472316,0.33333334,0.5522388,0,0.0,0.8822413,0.0,0.0,0.0,0,0,0.0,0.0,0,0,109.0,0.0,499.0,4773.846153846154,4043.076923076924,4778.461538461539,4721.538461538462,4308.205128205129,4586.666666666667,4591.282051282052,4361.538461538462,4441.538461538462,5092.820512820514,4751.282051282052,4323.589743589744,4206.666666666667,4832.307692307693
209.42998,1.0,0.5472316,0.33333334,0.5522388,0,0.0,0.1791298,0.0,0.0,0.0,0,0,0.0,0.0,0,0,12.0,0.0,492.0,4809.743589743591,4038.9743589743593,4976.410256410257,4718.461538461539,4310.769230769231,4609.743589743591,4658.461538461539,4430.256410256411,4454.871794871796,5093.333333333334,4763.076923076924,4317.435897435898,4271.282051282052,4850.769230769231
209.68019,0.9224925,0.53156483,0.33333334,0.5522388,0,0.0,0.0,0.0,0.0,0.32587892,0,0,0.0,0.0,0,0,44.0,0.0,0.0,4807.6923076923085,4060.5128205128212,4804.615384615386,4719.48717948718,4272.820512820514,4590.769230769231,4601.538461538462,4423.589743589744,4462.051282051282,5062.051282051283,4766.153846153847,4280.000000000001,4266.153846153847,4873.846153846154
209.9304,0.9224925,0.53156483,0.33333334,0.5522388,0,0.0,0.0,0.0,0.0,0.12840685,0,0,0.0,0.0,0,0,76.0,0.0,492.0,4800.000000000001,4016.410256410257,4773.333333333334,4612.820512820514,4214.358974358975,4536.923076923077,4605.641025641026,4366.666666666667,4440.000000000001,4987.179487179488,4688.717948717949,4238.974358974359,4221.538461538462,4843.589743589744
210.18062,0.9475118,0.51746464,0.33333334,0.5522388,0,0.0,0.0,0.0,0.033391457,0.0,0,0,0.0,0.0,0,0,108.0,0.0,492.0,4775.384615384616,3971.2820512820517,4732.307692307693,4548.717948717949,4172.307692307693,4512.820512820514,4576.923076923077,4282.564102564103,4446.666666666667,4897.435897435898,4627.179487179488,4164.615384615385,4175.8974358974365,4775.384615384616
210.43085,0.9475118,0.51746464,0.33333334,0.5522388,0,0.0,0.3505075,0.0,0.0,0.0,0,0,0.0,0.0,0,0,11.0,0.0,492.0,4784.615384615386,3946.666666666667,4740.000000000001,4544.615384615385,4130.256410256411,4474.358974358975,4569.743589743591,4217.948717948719,4443.589743589744,4877.435897435898,4630.256410256411,4141.538461538462,4158.974358974359,4697.948717948719
210.68106,1.0,0.5047745,0.33333334,0.5522388,0,0.0,0.22866003,0.0,0.0,0.0,0,0,0.0,0.0,0,0,43.0,0.0,0.0,4749.743589743591,3923.589743589744,4666.153846153847,4536.923076923077,4140.000000000001,4489.743589743591,4567.6923076923085,4187.179487179487,4430.769230769231,4828.205128205129,4570.256410256411,4085.1282051282055,4121.538461538462,4640.000000000001
210.93127,1.0,0.5047745,0.33333334,0.5522388,0,0.0,0.0,0.0,0.0,0.08956466,0,0,0.0,0.0,0,0,75.0,0.0,495.0,4752.820512820514,3897.435897435898,4667.6923076923085,4538.461538461539,4154.871794871796,4486.666666666667,4554.871794871796,4159.48717948718,4456.410256410257,4821.538461538462,4587.6923076923085,4087.692307692308,4133.846153846154,4642.564102564103
211.18149,1.0,0.49335343,0.33333334,0.5522388,0,0.0,0.0,0.0,0.0,0.08465476,0,0,0.0,0.0,0,0,107.0,0.0,495.0,4741.538461538462,3866.666666666667,4464.615384615385,4493.333333333334,4144.102564102564,4464.615384615385,4546.666666666667,4163.076923076924,4472.307692307693,4764.102564102564,4562.564102564103,4080.0000000000005,4108.205128205129,4612.307692307693
211.4317,1.0,0.49335343,0.33333334,0.5522388,0,0.0,0.0,0.0,0.052527055,0.0,0,0,0.0,0.0,0,0,10.0,0.0,528.0,4711.794871794872,3835.8974358974365,4613.846153846154,4428.717948717949,4066.666666666667,4404.102564102564,4466.153846153847,4136.923076923077,4446.666666666667,4641.538461538462,4516.410256410257,4017.435897435898,4067.692307692308,4565.641025641026
211.68192,1.0,0.48307443,0.33333334,0.5522388,0,0.0,0.0,0.0,0.0051018875,0.0,0,0,0.0,0.0,0,0,42.0,0.0,0.0,4683.589743589744,3805.1282051282055,4667.6923076923085,4361.538461538462,4087.692307692308,4430.769230769231,4433.333333333334,4114.871794871796,4442.564102564103,4585.641025641026,4475.8974358974365,3964.615384615385,4027.1794871794878,4512.820512820514
211.93213,1.0,0.48307443,0.33333334,0.5522388,0,0.0,0.0,0.0,0.0074069593,0.0,0,0,0.0,0.0,0,0,74.0,0.0,529.0,4673.333333333334,3818.9743589743593,4570.769230769231,4338.974358974359,4062.564102564103,4415.8974358974365,4492.820512820514,4126.153846153847,4445.128205128206,4625.128205128206,4464.102564102564,3982.564102564103,4053.333333333334,4512.820512820514
212.18234,1.0,0.4738233,0.33333334,0.5522388,0,0.0,0.09274086,0.0,0.0,0.0,0,0,0.0,0.0,0,0,106.0,0.0,529.0,4683.076923076924,3832.820512820513,4264.615384615385,4322.051282051282,4058.9743589743593,4420.000000000001,4446.666666666667,4129.74358974359,4421.538461538462,4591.282051282052,4470.769230769231,4003.589743589744,4109.2307692307695,4519.48717948718
212.43256,1.0,0.4738233,0.33333334,0.5522388,0,0.0,0.0,0.0,0.1069686,0.0,0,0,0.0,0.0,0,0,9.0,0.0,476.0,4632.307692307693,3777.9487179487182,4373.846153846154,4272.820512820514,3983.589743589744,4358.461538461539,4404.615384615385,4084.1025641025644,4403.076923076924,4474.358974358975,4356.923076923077,3998.461538461539,4057.9487179487182,4426.666666666667
212.68277,1.0,0.46549731,0.33333334,0.5522388,0,0.0,0.0,0.0,0.052546576,0.0,0,0,0.0,0.0,0,0,41.0,0.0,0.0,4589.2307692307695,3732.307692307693,4398.974358974359,4213.846153846154,3923.076923076924,4303.589743589744,4320.512820512821,4073.8461538461543,4396.410256410257,4433.333333333334,4274.871794871796,3977.435897435898,4036.410256410257,4371.282051282052
212.93298,1.0,0.46549731,0.33333334,0.5522388,0,0.0,0.0,0.0,0.0100306645,0.0,0,0,0.0,0.0,0,0,73.0,0.0,480.0,4564.102564102564,3668.717948717949,4257.435897435898,4153.846153846154,3945.1282051282055,4313.333333333334,4297.435897435898,4087.1794871794878,4434.358974358975,4289.2307692307695,4226.153846153847,3987.1794871794878,4108.717948717949,4350.769230769231
213.18321,1.0,0.4580039,0.33333334,0.5522388,0,0.0,0.0,0.0,0.040918812,0.0,0,0,0.0,0.0,0,0,105.0,0.0,508.0,4552.307692307693,3672.307692307693,4231.794871794872,4114.871794871796,3911.7948717948725,4275.384615384616,4269.2307692307695,4054.8717948717954,4388.717948717949,4169.74358974359,4175.384615384616,3975.8974358974365,4127.179487179487,4332.307692307693
213.43343,1.0,0.4580039,0.33333334,0.5522388,0,0.0,0.0,0.0,0.0,0.0,0,0,0.0,0.0,0,0,8.0,0.0,464.0,4567.179487179488,3733.333333333334,4339.48717948718,4145.641025641026,3883.589743589744,4263.589743589744,4245.641025641026,4115.384615384616,4351.282051282052,4160.512820512821,4159.48717948718,4012.307692307693,4123.076923076924,4382.564102564103
213.68364,1.0,0.45125985,0.33333334,0.5522388,0,0.0,0.0,0.0,0.0,0.0151424855,0,0,0.0,0.0,0,0,40.0,0.0,0.0,4567.179487179488,3721.538461538462,4324.102564102564,4147.179487179487,3831.2820512820517,4237.948717948719,4252.307692307693,4147.6923076923085,4336.923076923077,4182.564102564103,4108.205128205129,4019.48717948718,4076.410256410257,4367.6923076923085
213.93385,1.0,0.45125985,0.33333334,0.5522388,0,0.0,0.0,0.0,0.0,0.4094265,0,0,0.0,0.0,0,0,72.0,0.0,465.0,4503.589743589744,3746.1538461538466,4298.461538461539,4124.102564102564,3808.205128205129,4219.48717948718,4186.153846153847,4077.9487179487187,4307.179487179487,4016.9230769230776,3851.7948717948725,4040.0000000000005,3940.0000000000005,4127.179487179487
214.18407,1.0,0.44519022,0.33333334,0.5522388,0,0.0,0.0,0.0,0.0,0.0,0,0,0.0,0.0,0,0,104.0,0.0,515.0,4487.6923076923085,3817.435897435898,4305.641025641026,4135.384615384616,3828.205128205129,4249.74358974359,4216.410256410257,4024.1025641025644,4302.564102564103,4092.307692307693,3861.0256410256416,3988.205128205129,3948.205128205129,3953.333333333334
214.43428,1.0,0.44519022,0.33333334,0.5522388,0,0.0,0.0,0.0,0.0,0.40062222,0,0,0.0,0.0,0,0,7.0,0.0,470.0,4491.282051282052,3818.9743589743593,4280.512820512821,4165.128205128206,3851.2820512820517,4267.6923076923085,4232.820512820514,4010.7692307692314,4273.333333333334,4147.6923076923085,3934.358974358975,4015.8974358974365,3983.589743589744,4060.0000000000005
214.6845,1.0,0.43972754,0.33333334,0.5522388,0,0.0,0.0,0.0,0.0,0.599127,0,0,0.0,0.0,0,0,39.0,0.0,0.0,4483.076923076924,3784.1025641025644,4309.743589743591,4186.666666666667,3895.8974358974365,4297.435897435898,4275.8974358974365,4094.358974358975,4298.974358974359,4195.384615384616,3972.307692307693,4023.076923076924,4002.0512820512827,4138.974358974359
214.93471,1.0,0.43972754,0.33333334,0.5522388,0,0.0,0.0,0.0,0.0,0.120097995,0,0,0.0,0.0,0,0,71.0,0.0,470.0,4467.6923076923085,3785.6410256410263,4328.205128205129,4192.307692307693,3933.8461538461543,4351.794871794872,4292.307692307693,4171.282051282052,4331.282051282052,4250.769230769231,4028.205128205129,4043.076923076924,4061.538461538462,4201.025641025642
215.18492,1.0,0.43481112,0.33333334,0.5522388,0,0.0,0.0,0.0,0.0,0.06613333,0,0,0.0,0.0,0,0,103.0,0.0,509.0,4490.769230769231,3814.8717948717954,4453.846153846154,4229.74358974359,3952.820512820513,4368.717948717949,4365.641025641026,4304.102564102564,4367.179487179487,4337.435897435898,4154.871794871796,4103.076923076924,4108.717948717949,4248.717948717949
215.43513,1.0,0.43481112,0.33333334,0.5522388,0,0.0,0.0,0.0,0.0,0.08911435,0,0,0.0,0.0,0,0,6.0,0.0,537.0,4491.794871794872,3816.410256410257,4492.307692307693,4263.076923076924,3981.538461538462,4376.923076923077,4347.6923076923085,4305.641025641026,4368.717948717949,4389.743589743591,4171.282051282052,4107.6923076923085,4122.051282051282,4280.000000000001
215.68535,1.0,0.43038633,0.33333334,0.5522388,0,0.0,0.0,0.0,0.0,0.0,0,0,0.0,0.0,0,0,38.0,0.0,0.0,4485.128205128206,3810.7692307692314,4544.102564102564,4283.076923076924,4011.2820512820517,4401.538461538462,4351.282051282052,4315.8974358974365,4355.384615384616,4389.2307692307695,4193.846153846154,4118.974358974359,4131.282051282052,4323.076923076924
215.68535,1.0,0.43038633,0.33333334,0.5522388,0,0.0,0.0,0.0,0.0,0.0,0,0,0.0,0.0,0,0,38.0,0.0,0.0,4485.128205128206,3810.7692307692314,4544.102564102564,4283.076923076924,4011.2820512820517,4401.538461538462,4351.282051282052,4315.8974358974365,4355.384615384616,4389.2307692307695,4193.846153846154,4118.974358974359,4131.282051282052,4323.076923076924
216.18579,1.0,0.42640403,0.33333334,0.5522388,0,0.0,0.0,0.0,0.0,0.0,0,0,0.0,0.0,0,0,102.0,0.0,530.0,4507.179487179488,3836.9230769230776,4534.358974358975,4325.128205128206,4062.564102564103,4415.384615384616,4366.666666666667,4371.794871794872,4355.8974358974365,4449.743589743591,4247.179487179487,4156.923076923077,4149.2307692307695,4414.358974358975
216.18579,1.0,0.42640403,0.33333334,0.5522388,0,0.0,0.0,0.0,0.0,0.0,0,0,0.0,0.0,0,0,102.0,0.0,530.0,4507.179487179488,3836.9230769230776,4534.358974358975,4325.128205128206,4062.564102564103,4415.384615384616,4366.666666666667,4371.794871794872,4355.8974358974365,4449.743589743591,4247.179487179487,4156.923076923077,4149.2307692307695,4414.358974358975
216.70186,0.9030631,0.42281997,0.33333334,0.5522388,0,0.0,0.0,0.0,0.0,0.0,0,0,0.0,0.0,0,0,117.0,0.0,508.0,4516.923076923077,3831.7948717948725,4490.769230769231,4329.743589743591,4061.0256410256416,4406.153846153847,4365.128205128206,4360.512820512821,4340.512820512821,4455.384615384616,4237.435897435898,4156.923076923077,4124.615384615385,4445.641025641026
216.70186,0.9030631,0.42281997,0.33333334,0.5522388,0,0.0,0.0,0.0,0.0,0.0,0,0,0.0,0.0,0,0,37.0,0.0,0.0,4495.8974358974365,3826.1538461538466,4502.051282051282,4316.410256410257,4108.205128205129,4435.384615384616,4367.6923076923085,4336.410256410257,4330.769230769231,4456.923076923077,4240.000000000001,4138.461538461539,4094.8717948717954,4437.948717948719
217.20229,0.9551388,0.39818734,0.33333334,0.5522388,0,0.0,0.0,0.0,0.0,0.012654214,0,0,0.0,0.0,0,0,97.0,0.0,508.0,4530.256410256411,3907.692307692308,4511.282051282052,4381.025641025642,4156.923076923077,4483.589743589744,4382.564102564103,4289.74358974359,4355.384615384616,4537.435897435898,4283.076923076924,4202.051282051282,4168.717948717949,4509.2307692307695
217.4525,0.9551388,0.39818734,0.33333334,0.5522388,0,0.0,0.0,0.0,0.0,0.59363836,0,0,0.0,0.0,0,0,4.0,0.0,555.0,4537.435897435898,3929.2307692307695,4547.6923076923085,4391.282051282052,4169.74358974359,4491.794871794872,4348.717948717949,4311.282051282052,4337.948717948719,4569.743589743591,4311.794871794872,4218.461538461539,4205.128205128206,4536.410256410257
217.70271,0.94427353,0.38918445,0.33333334,0.5522388,0,0.0,0.0,0.0,0.0,0.92999655,0,0,0.0,0.0,0,0,36.0,0.0,0.0,4541.538461538462,3944.1025641025644,4475.8974358974365,4405.641025641026,4188.717948717949,4506.153846153847,4372.307692307693,4373.846153846154,4306.666666666667,4600.512820512821,4309.743589743591,4215.8974358974365,4193.846153846154,4522.051282051282
217.95293,0.94427353,0.38918445,0.33333334,0.5522388,0,0.0,0.0,0.0,0.0,0.00445589,0,0,0.0,0.0,0,0,68.0,0.0,557.0,4529.2307692307695,3897.9487179487182,4463.076923076924,4384.615384615385,4186.153846153847,4510.769230769231,4396.410256410257,4493.333333333334,4333.846153846154,4628.205128205129,4283.589743589744,4198.461538461539,4152.307692307693,4490.256410256411
218.20314,0.8479063,0.3863335,0.33333334,0.5522388,0,0.0,0.0,0.0,0.0,0.0149062155,0,0,0.0,0.0,0,0,100.0,0.0,513.0,4508.717948717949,3846.666666666667,4431.282051282052,4352.820512820514,4200.512820512821,4532.307692307693,4402.051282051282,4531.282051282052,4343.589743589744,4628.717948717949,4231.794871794872,4168.717948717949,4093.333333333334,4439.48717948718
218.45335,0.8479063,0.3863335,0.33333334,0.5522388,0,0.0,0.0,0.0,0.0,0.025893673,0,0,0.0,0.0,0,0,3.0,0.0,540.0,4511.282051282052,3830.7692307692314,4455.384615384616,4351.282051282052,4200.512820512821,4521.538461538462,4413.846153846154,4574.358974358975,4343.589743589744,4623.076923076924,4235.384615384616,4174.358974358975,4074.8717948717954,4416.923076923077
218.70357,0.8449015,0.38147396,0.33333334,0.5522388,0,0.0,0.0,0.0,0.0,0.020770824,0,0,0.0,0.0,0,0,35.0,0.0,0.0,4513.333333333334,3846.666666666667,4415.384615384616,4365.641025641026,4194.358974358975,4509.743589743591,4388.717948717949,4507.6923076923085,4325.128205128206,4615.8974358974365,4228.717948717949,4184.102564102564,4072.307692307693,4416.923076923077
218.9538,0.8449015,0.38147396,0.33333334,0.5522388,0,0.0,0.0,0.0,0.0,0.047216933,0,0,0.0,0.0,0,0,67.0,0.0,540.0,4485.128205128206,3854.8717948717954,4468.205128205129,4374.358974358975,4196.923076923077,4522.051282051282,4400.000000000001,4510.256410256411,4326.666666666667,4609.2307692307695,4264.102564102564,4235.384615384616,4120.512820512821,4479.48717948718
219.20401,0.78547347,0.3773649,0.33333334,0.5522388,0,0.0,0.0,0.0,0.0,0.3887515,0,0,0.0,0.0,0,0,99.0,0.0,509.0,4567.6923076923085,3867.1794871794878,4465.641025641026,4364.102564102564,4201.025641025642,4512.820512820514,4385.128205128206,4466.666666666667,4277.435897435898,4591.282051282052,4282.051282051282,4268.205128205129,4147.179487179487,4522.564102564103
219.45422,0.78547347,0.3773649,0.33333334,0.5522388,0,0.0,0.0,0.0,0.0,0.37341616,0,0,0.0,0.0,0,0,2.0,0.0,284.0,4549.2307692307695,3877.435897435898,4492.307692307693,4377.435897435898,4183.076923076924,4507.179487179488,4418.461538461539,4474.358974358975,4238.974358974359,4554.358974358975,4235.8974358974365,4249.74358974359,4103.589743589744,4503.589743589744
219.70444,0.7614528,0.37591106,0.33333334,0.5522388,0,0.0,0.0,0.0,0.0,0.055903923,0,0,0.0,0.0,0,0,34.0,0.0,0.0,4566.666666666667,3896.9230769230776,4530.769230769231,4401.025641025642,4183.076923076924,4522.051282051282,4443.589743589744,4458.461538461539,4216.410256410257,4571.794871794872,4261.025641025642,4232.820512820514,4078.461538461539,4492.820512820514
219.95465,0.7614528,0.37591106,0.33333334,0.5522388,0,0.0,0.039434157,0.0,0.0,0.0,0,0,0.0,0.0,0,0,66.0,0.0,284.0,4569.2307692307695,3887.692307692308,4530.256410256411,4405.128205128206,4200.000000000001,4527.179487179488,4469.2307692307695,4392.820512820514,4237.435897435898,4594.358974358975,4287.179487179487,4258.974358974359,4093.333333333334,4505.641025641026
220.20486,0.7429082,0.3815688,0.33333334,0.5522388,0,0.0,0.0,0.0,0.0,0.0,0,0,0.0,0.0,0,0,96.0,0.0,513.0,4567.6923076923085,3878.461538461539,4538.461538461539,4415.384615384616,4222.051282051282,4542.564102564103,4483.589743589744,4413.333333333334,4241.025641025642,4590.256410256411,4275.8974358974365,4230.256410256411,4074.8717948717954,4474.871794871796
220.20486,0.7429082,0.3815688,0.33333334,0.5522388,0,0.0,0.0,0.0,0.0,0.0,0,0,0.0,0.0,0,0,98.0,0.0,531.0,4572.820512820514,3894.8717948717954,4544.102564102564,4431.282051282052,4194.871794871796,4522.564102564103,4474.358974358975,4408.717948717949,4245.641025641026,4582.051282051282,4276.410256410257,4229.2307692307695,4078.9743589743593,4475.384615384616
220.20486,0.7429082,0.3815688,0.33333334,0.5522388,0,0.0,0.0,0.0,0.0,0.0,0,0,0.0,0.0,0,0,98.0,0.0,531.0,4572.820512820514,3894.8717948717954,4544.102564102564,4431.282051282052,4194.871794871796,4522.564102564103,4474.358974358975,4408.717948717949,4245.641025641026,4582.051282051282,4276.410256410257,4229.2307692307695,4078.9743589743593,4475.384615384616
220.70529,0.6889016,0.38979143,0.33333334,0.5522388,0,0.0,0.0,0.0,0.0,0.0,0,0,0.0,0.0,0,0,33.0,0.0,0.0,4586.153846153847,3834.8717948717954,4654.871794871796,4414.358974358975,4222.051282051282,4458.461538461539,4494.358974358975,4461.025641025642,4292.820512820514,4624.615384615385,4296.410256410257,4231.794871794872,4080.0000000000005,4458.974358974359
221.20572,0.6813666,0.3749918,0.33821943,0.57029915,0,0.0,0.0,0.0,0.0,0.0,0,0,0.0,0.0,0,0,49.0,0.0,0.0,4584.102564102564,3847.692307692308,4646.666666666667,4424.102564102564,4177.948717948719,4472.820512820514,4493.333333333334,4449.743589743591,4298.461538461539,4631.282051282052,4295.8974358974365,4223.076923076924,4082.0512820512827,4472.307692307693
221.20572,0.6813666,0.3749918,0.33821943,0.57029915,0,0.0,0.0,0.0,0.0,0.0,0,0,0.0,0.0,0,0,97.0,0.0,508.0,4601.538461538462,3837.9487179487182,4584.102564102564,4409.2307692307695,4179.48717948718,4490.256410256411,4522.051282051282,4487.6923076923085,4355.384615384616,4685.641025641026,4338.974358974359,4243.589743589744,4137.435897435898,4493.333333333334
221.58105,0.6813666,0.3749918,0.33821943,0.57029915,0,0.0,0.0,0.0,0.0,0.03271871,0,0,0.0,0.0,0,0,16.0,0.0,0.0,4581.538461538462,3865.1282051282055,4567.6923076923085,4415.8974358974365,4201.025641025642,4535.384615384616,4507.179487179488,4491.794871794872,4392.820512820514,4706.666666666667,4335.384615384616,4209.2307692307695,4125.128205128206,4474.358974358975
221.95638,0.66772246,0.35905686,0.34768888,0.6057398,0,0.0,0.0,0.0,0.0,0.035488825,0,0,0.0,0.0,0,0,64.0,0.0,501.0,4603.589743589744,3881.0256410256416,4539.48717948718,4421.025641025642,4211.282051282052,4524.102564102564,4491.794871794872,4423.076923076924,4371.794871794872,4703.589743589744,4346.666666666667,4231.794871794872,4156.410256410257,4500.512820512821
222.08148,0.66772246,0.35905686,0.34768888,0.6057398,0,0.0,0.0,0.0,0.0,0.017201886,0,0,0.0,0.0,0,0,80.0,0.0,514.0,4585.128205128206,3874.358974358975,4508.205128205129,4401.025641025642,4220.000000000001,4526.153846153847,4486.666666666667,4392.820512820514,4372.307692307693,4701.025641025642,4341.538461538462,4227.6923076923085,4164.102564102564,4487.179487179488
222.3317,0.63800454,0.34266663,0.3588078,0.64124054,0,0.0,0.0,0.0,0.0,0.0,0,0,0.0,0.0,0,0,112.0,0.0,514.0,4622.564102564103,3870.7692307692314,4567.6923076923085,4411.794871794872,4215.8974358974365,4524.615384615385,4491.794871794872,4365.128205128206,4375.8974358974365,4712.820512820514,4403.076923076924,4272.307692307693,4230.769230769231,4611.282051282052
222.3317,0.63800454,0.34266663,0.3588078,0.64124054,0,0.0,0.0,0.0,0.0,0.0,0,0,0.0,0.0,0,0,112.0,0.0,514.0,4622.564102564103,3870.7692307692314,4567.6923076923085,4411.794871794872,4215.8974358974365,4524.615384615385,4491.794871794872,4365.128205128206,4375.8974358974365,4712.820512820514,4403.076923076924,4272.307692307693,4230.769230769231,4611.282051282052
222.83212,0.62616515,0.3354049,0.37624842,0.67894065,0,0.0,1.0,0.0,0.0,0.0,0,0,0.0,0.0,0,0,47.0,0.0,0.0,4647.6923076923085,3924.615384615385,4483.076923076924,4401.025641025642,4302.564102564103,4577.435897435898,4513.846153846154,4372.820512820514,4400.000000000001,4754.358974358975,4364.615384615385,4256.923076923077,4180.000000000001,4496.410256410257
223.08234,0.62616515,0.3354049,0.37624842,0.67894065,0,0.0,0.85985965,0.0,0.0,0.0,0,0,0.0,0.0,0,0,79.0,0.0,508.0,4618.974358974359,3954.8717948717954,4489.743589743591,4402.564102564103,4384.615384615385,4634.871794871796,4486.153846153847,4358.974358974359,4370.769230769231,4747.6923076923085,4398.461538461539,4225.641025641026,4220.512820512821,4558.974358974359
223.45766,0.7032201,0.3285701,0.3958897,0.7195169,0,0.0,0.44240478,0.0,0.0,0.0,0,0,0.0,0.0,0,1,127.0,0.0,508.0,4682.564102564103,4027.692307692308,4722.051282051282,4495.8974358974365,4488.205128205129,4718.461538461539,4577.948717948719,4531.282051282052,4351.794871794872,4794.358974358975,4528.205128205129,4497.948717948719,4396.923076923077,4771.282051282052
223.70787,0.82883376,0.3224188,0.41369313,0.7563119,0,0.0,0.55861217,0.0,0.0,0.0,0,0,0.0,0.0,0,0,22.0,0.0,0.0,4682.051282051282,4032.820512820513,4790.256410256411,4522.051282051282,4574.358974358975,4798.974358974359,4621.538461538462,4530.256410256411,4269.2307692307695,4802.051282051282,4546.666666666667,4526.666666666667,4385.128205128206,4866.153846153847
223.95808,0.82883376,0.3224188,0.41369313,0.7563119,0,0.0,0.17624658,0.0,0.0,0.0,0,0,0.0,0.0,0,0,62.0,0.0,0.0,4601.025641025642,4109.74358974359,4815.384615384616,4641.025641025642,4648.205128205129,4866.666666666667,4762.564102564103,4534.358974358975,4171.282051282052,4856.923076923077,4638.974358974359,4596.410256410257,4393.846153846154,4910.769230769231
224.2083,0.93937373,0.31688264,0.4297162,0.7894274,0,0.0,0.0880231,0.0,0.0,0.0,0,0,0.0,0.0,0,0,86.0,0.0,529.0,4773.846153846154,4165.641025641026,4890.256410256411,4691.282051282052,4605.641025641026,4826.666666666667,4801.538461538462,4470.256410256411,4201.025641025642,4887.179487179488,4717.435897435898,4635.384615384616,4430.256410256411,4983.076923076924
224.45853,0.93937373,0.31688264,0.4297162,0.7894274,0,0.0,0.19200663,0.0,0.0,0.0,0,0,0.0,0.0,0,0,120.0,0.0,495.0,4827.179487179488,4298.974358974359,4940.512820512821,4887.6923076923085,4712.820512820514,4913.333333333334,4931.282051282052,4574.871794871796,4338.461538461539,5042.051282051283,4890.256410256411,4733.846153846154,4496.410256410257,5086.153846153847
224.58363,0.93937373,0.31688264,0.4297162,0.7894274,0,0.0,0.20773484,0.0,0.0,0.0,0,0,0.0,0.0,0,0,13.0,0.0,496.0,4837.948717948719,4317.948717948719,4941.025641025642,4926.153846153847,4697.948717948719,4901.025641025642,4942.051282051283,4692.307692307693,4375.384615384616,5093.846153846154,4889.2307692307695,4739.48717948718,4497.948717948719,5062.051282051283
224.83385,1.0,0.31190008,0.43157154,0.7942113,0,0.0,0.0,0.0,0.06464566,0.0,0,0,0.0,0.0,0,0,45.0,0.0,0.0,4842.051282051283,4247.6923076923085,4892.820512820514,4898.461538461539,4636.923076923077,4834.871794871796,4889.743589743591,4705.641025641026,4412.820512820514,5115.384615384616,4838.974358974359,4707.179487179488,4441.025641025642,4950.256410256411
225.08406,1.0,0.31190008,0.43157154,0.7942113,0,0.0,0.4923442,0.0,0.0,0.0,0,0,0.0,0.0,0,0,77.0,0.0,495.0,4840.512820512821,4208.717948717949,4904.615384615386,4874.871794871796,4618.461538461539,4809.2307692307695,4839.48717948718,4652.307692307693,4411.794871794872,5046.666666666667,4808.205128205129,4633.846153846154,4355.8974358974365,4847.6923076923085
225.33427,1.0,0.30741578,0.42159036,0.76944715,0,0.0,0.52549523,0.0,0.0,0.0,0,0,0.0,0.0,0,0,109.0,0.0,495.0,4855.384615384616,4184.615384615385,4871.282051282052,4881.538461538462,4590.769230769231,4798.974358974359,4844.102564102564,4633.846153846154,4508.205128205129,5069.2307692307695,4797.435897435898,4584.615384615385,4340.000000000001,4811.282051282052
225.58449,1.0,0.30741578,0.42159036,0.76944715,0,0.0,0.11495142,0.0,0.0,0.0,0,0,0.0,0.0,0,0,12.0,0.0,498.0,4849.743589743591,4140.000000000001,4828.205128205129,4852.820512820514,4550.769230769231,4770.769230769231,4807.6923076923085,4554.871794871796,4536.923076923077,5016.923076923077,4774.871794871796,4567.179487179488,4330.769230769231,4793.333333333334
225.8347,1.0,0.3033799,0.41259608,0.7472492,0,0.0,0.3652863,0.0,0.0,0.0,0,0,0.0,0.0,0,0,44.0,0.0,0.0,4856.410256410257,4150.769230769231,4837.948717948719,4862.051282051283,4503.589743589744,4727.179487179488,4830.769230769231,4569.743589743591,4614.871794871796,5010.256410256411,4794.871794871796,4581.538461538462,4371.282051282052,4813.333333333334
225.95981,1.0,0.3033799,0.41259608,0.7472492,0,0.0,0.0,0.0,0.0,0.0,0,0,0.0,0.0,0,0,60.0,0.0,0.0,4860.000000000001,4136.410256410257,4823.589743589744,4847.6923076923085,4455.8974358974365,4699.48717948718,4830.256410256411,4557.435897435898,4630.256410256411,5020.512820512821,4793.846153846154,4593.333333333334,4390.769230769231,4822.051282051282
226.33513,1.0,0.29974762,0.40449068,0.7273327,0,0.0,1.0,0.0,0.0,0.0,0,0,0.0,0.0,0,0,108.0,0.0,498.0,4837.435897435898,4083.589743589744,4826.153846153847,4776.923076923077,4377.948717948719,4643.076923076924,4778.974358974359,4541.025641025642,4645.128205128206,4960.000000000001,4722.564102564103,4555.8974358974365,4367.6923076923085,4745.641025641026
226.58534,1.0,0.29974762,0.40449068,0.7273327,0,0.0,0.0,0.0,0.0,0.098521784,0,0,0.0,0.0,0,0,11.0,0.0,493.0,4828.717948717949,4038.461538461539,4733.333333333334,4715.384615384616,4366.153846153847,4644.615384615385,4724.615384615386,4528.717948717949,4634.358974358975,4944.102564102564,4656.923076923077,4490.256410256411,4327.179487179487,4665.641025641026
226.83556,1.0,0.29647857,0.39720082,0.70946777,0,0.0,0.0,0.0,0.0,0.21816725,0,0,0.0,0.0,0,0,43.0,0.0,0.0,4802.564102564103,4003.589743589744,4683.589743589744,4664.615384615386,4260.512820512821,4549.2307692307695,4665.128205128206,4466.666666666667,4629.2307692307695,4920.512820512821,4630.769230769231,4456.923076923077,4325.641025641026,4626.153846153847
227.08578,1.0,0.29647857,0.39720082,0.70946777,0,0.0,0.21085675,0.0,0.0,0.0,0,0,0.0,0.0,0,0,75.0,0.0,495.0,4755.8974358974365,3954.8717948717954,4601.538461538462,4609.2307692307695,4235.384615384616,4521.025641025642,4590.256410256411,4419.48717948718,4628.717948717949,4888.205128205129,4569.743589743591,4366.666666666667,4293.846153846154,4576.410256410257
227.336,1.0,0.29353642,0.39065897,0.69345134,0,0.0,1.0,0.0,0.0,0.0,0,0,0.0,0.0,0,0,107.0,0.0,495.0,4720.512820512821,3846.1538461538466,4457.435897435898,4510.256410256411,4156.410256410257,4464.615384615385,4551.794871794872,4431.794871794872,4640.000000000001,4894.358974358975,4583.589743589744,4290.256410256411,4324.615384615385,4568.205128205129
227.58621,1.0,0.29353642,0.39065897,0.69345134,0,0.0,0.3204259,0.0,0.0,0.0,0,0,0.0,0.0,0,0,10.0,0.0,527.0,4687.179487179488,3823.076923076924,4384.102564102564,4455.8974358974365,4119.48717948718,4424.102564102564,4491.282051282052,4409.743589743591,4570.256410256411,4824.102564102564,4495.8974358974365,4203.589743589744,4257.435897435898,4517.948717948719
227.83643,1.0,0.2908885,0.39105707,0.6911929,0,0.0,0.111792885,0.0,0.0,0.0,0,0,0.0,0.0,0,0,42.0,0.0,0.0,4660.512820512821,3842.564102564103,4340.000000000001,4391.282051282052,4032.307692307693,4373.846153846154,4426.666666666667,4425.128205128206,4517.435897435898,4747.179487179488,4385.128205128206,4148.205128205129,4158.461538461539,4455.8974358974365
228.08664,1.0,0.2908885,0.39105707,0.6911929,0,0.0,0.0,0.0,0.0,0.11144356,0,0,0.0,0.0,0,0,74.0,0.0,528.0,4653.846153846154,3806.666666666667,4376.923076923077,4349.2307692307695,3997.9487179487182,4343.589743589744,4397.948717948719,4381.538461538462,4503.076923076924,4725.128205128206,4348.717948717949,4092.820512820513,4153.846153846154,4429.743589743591
228.33685,1.0,0.28850535,0.3915452,0.68940437,0,0.0,0.0,0.0,0.0,0.022982249,0,0,0.0,0.0,0,0,106.0,0.0,528.0,4624.102564102564,3810.7692307692314,4304.615384615385,4328.205128205129,3971.7948717948725,4325.641025641026,4375.384615384616,4410.769230769231,4507.6923076923085,4737.948717948719,4344.102564102564,4099.48717948718,4188.717948717949,4414.871794871796
228.46196,1.0,0.28850535,0.3915452,0.68940437,0,0.0,0.0,0.0,0.0,0.0,0,0,0.0,0.0,0,0,122.0,0.0,528.0,4598.461538461539,3808.205128205129,4294.358974358975,4313.333333333334,3992.820512820513,4339.48717948718,4351.282051282052,4377.435897435898,4485.641025641026,4701.538461538462,4307.179487179487,4065.6410256410263,4172.820512820514,4370.769230769231
228.71217,1.0,0.2863605,0.39188594,0.6875907,0,0.0,0.0,0.0,0.0,0.0,0,0,0.0,0.0,0,0,25.0,0.0,0.0,4581.025641025642,3815.8974358974365,4267.179487179487,4291.282051282052,3987.1794871794878,4341.538461538462,4322.051282051282,4352.820512820514,4443.589743589744,4644.102564102564,4255.384615384616,4044.1025641025644,4138.974358974359,4382.564102564103
228.71217,1.0,0.2863605,0.39188594,0.6875907,0,0.0,0.0,0.0,0.0,0.0,0,0,0.0,0.0,0,0,25.0,0.0,0.0,4581.025641025642,3815.8974358974365,4267.179487179487,4291.282051282052,3987.1794871794878,4341.538461538462,4322.051282051282,4352.820512820514,4443.589743589744,4644.102564102564,4255.384615384616,4044.1025641025644,4138.974358974359,4382.564102564103
229.2126,1.0,0.28443018,0.39219275,0.685954,0,0.0,0.0,0.0,0.0,0.0,0,0,0.0,0.0,0,0,89.0,0.0,506.0,4541.025641025642,3761.0256410256416,4232.820512820514,4215.384615384616,3994.8717948717954,4352.307692307693,4266.153846153847,4337.948717948719,4418.974358974359,4641.025641025642,4265.128205128206,4036.410256410257,4187.6923076923085,4359.48717948718
229.2126,1.0,0.28443018,0.39219275,0.685954,0,0.0,0.0,0.0,0.0,0.0,0,0,0.0,0.0,0,0,89.0,0.0,506.0,4541.025641025642,3761.0256410256416,4232.820512820514,4215.384615384616,3994.8717948717954,4352.307692307693,4266.153846153847,4337.948717948719,4418.974358974359,4641.025641025642,4265.128205128206,4036.410256410257,4187.6923076923085,4359.48717948718
229.71304,1.0,0.28269285,0.38620925,0.6724083,0,0.0,0.0,0.0,0.0,0.0,0,0,0.0,0.0,0,0,24.0,0.0,0.0,4527.179487179488,3816.9230769230776,4215.8974358974365,4233.846153846154,4046.666666666667,4388.205128205129,4275.384615384616,4311.282051282052,4401.025641025642,4642.564102564103,4277.435897435898,4049.23076923077,4152.820512820514,4414.358974358975
229.71304,1.0,0.28269285,0.38620925,0.6724083,0,0.0,0.0,0.0,0.0,0.0,0,0,0.0,0.0,0,0,24.0,0.0,0.0,4527.179487179488,3816.9230769230776,4215.8974358974365,4233.846153846154,4046.666666666667,4388.205128205129,4275.384615384616,4311.282051282052,4401.025641025642,4642.564102564103,4277.435897435898,4049.23076923077,4152.820512820514,4414.358974358975
230.24474,1.0,0.28112927,0.3808948,0.6603605,0,0.0,0.0,0.0,0.0,0.0,0,0,0.0,0.0,0,0,92.0,0.0,513.0,4550.769230769231,3848.205128205129,4381.025641025642,4273.846153846154,4130.769230769231,4448.205128205129,4332.820512820514,4220.000000000001,4432.820512820514,4736.923076923077,4418.974358974359,4089.23076923077,4220.000000000001,4493.333333333334
230.58879,1.0,0.28112927,0.3808948,0.6603605,0,0.0,0.0,0.0,0.0,0.6253235,0,0,0.0,0.0,0,0,7.0,0.0,468.0,4541.538461538462,3925.1282051282055,4458.974358974359,4350.256410256411,4250.769230769231,4536.923076923077,4341.538461538462,4284.102564102564,4432.820512820514,4765.641025641026,4432.820512820514,4156.410256410257,4216.923076923077,4609.2307692307695
230.839,1.0,0.27972206,0.3760416,0.64940375,0,0.0,0.50485003,0.0,0.0,0.0,0,0,0.0,0.0,0,0,39.0,0.0,0.0,4552.820512820514,3904.1025641025644,4463.076923076924,4372.820512820514,4323.589743589744,4605.128205128206,4397.435897435898,4367.179487179487,4501.538461538462,4813.333333333334,4510.769230769231,4190.769230769231,4284.615384615385,4707.6923076923085
231.08922,1.0,0.27972206,0.3760416,0.64940375,0,0.0,0.413648,0.0,0.0,0.0,0,0,0.0,0.0,0,0,71.0,0.0,468.0,4545.641025641026,3878.461538461539,4410.769230769231,4402.564102564103,4282.564102564103,4569.743589743591,4411.794871794872,4374.871794871796,4462.564102564103,4795.8974358974365,4509.2307692307695,4237.948717948719,4292.307692307693,4722.051282051282
231.33943,1.0,0.27845556,0.37168565,0.6395652,0,0.0,0.14516318,0.0,0.0,0.0,0,0,0.0,0.0,0,0,103.0,0.0,504.0,4467.6923076923085,3846.1538461538466,4375.8974358974365,4388.205128205129,4234.358974358975,4553.333333333334,4425.641025641026,4363.589743589744,4431.282051282052,4745.128205128206,4455.384615384616,4259.48717948718,4228.717948717949,4682.564102564103
231.46454,1.0,0.27845556,0.37168565,0.6395652,0,0.0,0.0,0.0,0.0,0.0,0,0,0.0,0.0,0,0,119.0,0.0,504.0,4560.000000000001,3877.435897435898,4393.846153846154,4471.282051282052,4248.205128205129,4555.384615384616,4427.179487179487,4342.051282051282,4412.820512820514,4691.282051282052,4487.179487179488,4215.384615384616,4190.769230769231,4662.564102564103
231.71475,0.94862765,0.2773157,0.3677682,0.63072026,0,0.0,0.0,0.0,0.0,0.0,0,0,0.0,0.0,0,0,22.0,0.0,0.0,4623.589743589744,3908.717948717949,4422.564102564103,4549.743589743591,4302.051282051282,4602.564102564103,4475.8974358974365,4330.769230769231,4394.871794871796,4652.820512820514,4491.282051282052,4276.410256410257,4190.769230769231,4665.128205128206
231.71475,0.94862765,0.2773157,0.3677682,0.63072026,0,0.0,0.0,0.0,0.0,0.0,0,0,0.0,0.0,0,0,22.0,0.0,0.0,4623.589743589744,3908.717948717949,4422.564102564103,4549.743589743591,4302.051282051282,4602.564102564103,4475.8974358974365,4330.769230769231,4394.871794871796,4652.820512820514,4491.282051282052,4276.410256410257,4190.769230769231,4665.128205128206
232.34029,0.9839988,0.3306512,0.3642443,0.6227664,0,0.0,0.048218977,0.0,0.0,0.0,0,0,0.0,0.0,0,0,102.0,0.0,532.0,4606.666666666667,3929.7435897435903,4457.435897435898,4508.717948717949,4298.974358974359,4611.794871794872,4520.000000000001,4534.358974358975,4424.615384615385,4713.846153846154,4473.333333333334,4294.871794871796,4140.000000000001,4640.512820512821
232.59052,0.9839988,0.3306512,0.3642443,0.6227664,0,0.0,0.0,0.0,0.0,0.25892335,0,0,0.0,0.0,0,0,5.0,0.0,553.0,4621.025641025642,3939.48717948718,4453.846153846154,4491.282051282052,4228.205128205129,4552.820512820514,4476.923076923077,4504.102564102564,4390.256410256411,4723.076923076924,4442.051282051282,4335.8974358974365,4155.384615384616,4602.051282051282
232.84073,0.94908124,0.4181117,0.36112592,0.615682,0,0.0,0.0,0.0,0.0,0.35048866,0,0,0.0,0.0,0,0,37.0,0.0,0.0,4536.923076923077,3815.3846153846157,4380.512820512821,4402.051282051282,4201.538461538462,4528.717948717949,4447.179487179487,4371.282051282052,4363.076923076924,4677.435897435898,4275.384615384616,4197.948717948719,4008.717948717949,4428.717948717949
233.09094,0.94908124,0.4181117,0.36112592,0.615682,0,0.0,0.0,0.0,0.0,0.0,0,0,0.0,0.0,0,0,69.0,0.0,553.0,4543.076923076924,3818.9743589743593,4537.948717948719,4363.589743589744,4230.769230769231,4536.923076923077,4426.666666666667,4373.846153846154,4343.589743589744,4653.846153846154,4249.2307692307695,4202.051282051282,4049.7435897435903,4443.589743589744
233.21605,0.99032134,0.49934596,0.35829604,0.6092722,0,0.0,0.0,0.0,0.0,0.0,0,0,0.0,0.0,0,0,85.0,0.0,508.0,4556.923076923077,3838.9743589743593,4444.102564102564,4358.974358974359,4218.974358974359,4530.256410256411,4418.461538461539,4401.025641025642,4350.769230769231,4670.256410256411,4263.589743589744,4200.000000000001,4059.48717948718,4453.846153846154
233.21605,0.99032134,0.49934596,0.35829604,0.6092722,0,0.0,0.0,0.0,0.0,0.0,0,0,0.0,0.0,0,0,85.0,0.0,508.0,4556.923076923077,3838.9743589743593,4444.102564102564,4358.974358974359,4218.974358974359,4530.256410256411,4418.461538461539,4401.025641025642,4350.769230769231,4670.256410256411,4263.589743589744,4200.000000000001,4059.48717948718,4453.846153846154
233.84158,0.9767222,0.5303524,0.35575593,0.6035128,0,0.0,0.0,0.0,0.0,0.054004673,0,0,0.0,0.0,0,0,36.0,0.0,0.0,4520.000000000001,3785.1282051282055,4371.794871794872,4310.256410256411,4162.051282051282,4506.153846153847,4430.256410256411,4416.923076923077,4365.128205128206,4590.769230769231,4220.512820512821,4182.564102564103,4102.564102564103,4428.717948717949
234.0918,0.9767222,0.5303524,0.35575593,0.6035128,0,0.0,0.0,0.0,0.0,0.028168095,0,0,0.0,0.0,0,0,68.0,0.0,559.0,4521.025641025642,3787.1794871794878,4350.256410256411,4294.358974358975,4132.820512820514,4487.6923076923085,4401.025641025642,4508.205128205129,4356.923076923077,4626.153846153847,4204.615384615385,4143.589743589744,4102.051282051282,4443.076923076924
234.34201,0.97783715,0.50882816,0.35347044,0.59833133,0,0.0,0.0,0.0,0.0,2.9775087E-4,0,0,0.0,0.0,0,0,100.0,0.0,513.0,4505.128205128206,3793.333333333334,4416.923076923077,4284.615384615385,4106.153846153847,4454.871794871796,4397.435897435898,4518.461538461539,4330.769230769231,4614.871794871796,4182.564102564103,4123.589743589744,4090.7692307692314,4424.615384615385
234.59222,0.97783715,0.50882816,0.35347044,0.59833133,0,0.0,0.0,0.0,0.0,0.02853412,0,0,0.0,0.0,0,0,3.0,0.0,539.0,4506.666666666667,3799.48717948718,4393.333333333334,4296.410256410257,4103.589743589744,4456.410256410257,4413.333333333334,4472.820512820514,4349.2307692307695,4616.410256410257,4193.333333333334,4131.282051282052,4098.461538461539,4464.615384615385
234.84244,0.8480965,0.47968856,0.35141808,0.5936742,0,0.0,0.0,0.0,0.0,0.042749524,0,0,0.0,0.0,0,0,35.0,0.0,0.0,4509.2307692307695,3842.564102564103,4372.820512820514,4323.589743589744,4113.333333333334,4452.307692307693,4403.076923076924,4412.307692307693,4322.564102564103,4598.974358974359,4173.846153846154,4120.000000000001,4073.8461538461543,4405.641025641026
235.09265,0.8480965,0.47968856,0.35141808,0.5936742,0,0.0,0.0,0.0,0.0,0.038263246,0,0,0.0,0.0,0,0,67.0,0.0,539.0,4551.794871794872,3881.538461538462,4411.794871794872,4354.358974358975,4104.102564102564,4431.282051282052,4393.333333333334,4369.743589743591,4325.128205128206,4631.794871794872,4243.589743589744,4185.128205128206,4184.615384615385,4487.6923076923085
235.34288,0.8368557,0.460401,0.3495682,0.58948016,0,0.0,0.0,0.0,0.0,0.007105928,0,0,0.0,0.0,0,0,99.0,0.0,506.0,4538.974358974359,3880.0000000000005,4472.307692307693,4348.717948717949,4130.256410256411,4465.128205128206,4384.615384615385,4325.641025641026,4334.358974358975,4641.538461538462,4247.179487179487,4165.128205128206,4175.8974358974365,4457.435897435898
235.5931,0.8368557,0.460401,0.3495682,0.58948016,0,0.0,0.0,0.0,0.0,0.3210857,0,0,0.0,0.0,0,0,2.0,0.0,282.0,4540.000000000001,3870.2564102564106,4494.358974358975,4352.307692307693,4149.74358974359,4473.333333333334,4407.179487179487,4358.461538461539,4327.6923076923085,4656.410256410257,4267.6923076923085,4169.74358974359,4161.538461538462,4425.128205128206
235.8433,0.7863265,0.44081983,0.3569311,0.59780294,0,0.0,0.0,0.0,0.0,0.12648405,0,0,0.0,0.0,0,0,34.0,0.0,0.0,4548.205128205129,3912.307692307693,4448.205128205129,4367.6923076923085,4172.307692307693,4504.615384615385,4417.948717948719,4397.948717948719,4338.461538461539,4621.025641025642,4218.974358974359,4166.153846153847,4108.717948717949,4422.564102564103
236.09352,0.7863265,0.44081983,0.3569311,0.59780294,0,0.0,0.0,0.0,0.0,0.013945585,0,0,0.0,0.0,0,0,66.0,0.0,282.0,4524.102564102564,3855.8974358974365,4373.333333333334,4298.974358974359,4137.948717948719,4489.2307692307695,4366.666666666667,4316.410256410257,4310.256410256411,4541.538461538462,4117.435897435898,4135.384615384616,4106.666666666667,4397.435897435898
236.34373,0.7964125,0.4282742,0.3736976,0.61540306,0,0.0,0.0,0.0,0.0,0.029127523,0,0,0.0,0.0,0,0,98.0,0.0,532.0,4526.153846153847,3912.307692307693,4457.948717948719,4365.641025641026,4121.538461538462,4494.871794871796,4426.153846153847,4365.641025641026,4223.589743589744,4468.717948717949,4329.743589743591,4209.2307692307695,4172.820512820514,4377.948717948719
236.59395,0.7964125,0.4282742,0.3736976,0.61540306,0,0.0,0.0,0.0,0.0,0.0,0,0,0.0,0.4133862,0,0,1.0,0.0,514.0,4523.076923076924,3853.333333333334,4574.358974358975,4411.282051282052,4133.333333333334,4550.256410256411,4539.48717948718,4470.256410256411,4155.8974358974365,4422.051282051282,4335.384615384616,4243.076923076924,4198.461538461539,4452.307692307693
236.84416,0.73781306,0.4168749,0.39001456,0.6363966,0,0.0,0.0,0.0,0.0,0.0,0,0,0.0,0.057263065,0,0,33.0,0.0,0.0,4535.384615384616,3844.1025641025644,4656.923076923077,4443.589743589744,4137.435897435898,4556.923076923077,4629.743589743591,4623.589743589744,4082.0512820512827,4414.871794871796,4394.358974358975,4309.743589743591,4284.102564102564,4475.384615384616
237.09438,0.73781306,0.4168749,0.39001456,0.6363966,0,0.0,0.29082668,0.0,0.0,0.0,0,0,0.0,0.0,0,0,65.0,0.0,512.0,4585.128205128206,3922.564102564103,4824.102564102564,4632.820512820514,4149.74358974359,4570.256410256411,4723.589743589744,4738.974358974359,4154.871794871796,4556.923076923077,4534.358974358975,4407.6923076923085,4395.384615384616,4625.641025641026
237.21948,0.85927546,0.40661547,0.40468812,0.66015434,0,0.0,1.0,0.0,0.0,0.0,0,0,0.0,0.0,0,0,81.0,0.0,509.0,4603.589743589744,3957.435897435898,4879.48717948718,4667.179487179488,4148.205128205129,4563.076923076924,4745.641025641026,4756.923076923077,4190.769230769231,4596.410256410257,4511.282051282052,4393.333333333334,4363.076923076924,4636.923076923077
237.5948,0.85927546,0.40661547,0.40468812,0.66015434,0,0.0,0.0,0.0,0.0,0.0,0,0,0.0,0.13122557,0,0,0.0,0.0,488.0,4682.051282051282,4139.48717948718,5058.461538461539,4810.256410256411,4161.538461538462,4534.358974358975,4810.256410256411,4746.666666666667,4300.512820512821,4665.641025641026,4409.2307692307695,4481.538461538462,4291.794871794872,4701.025641025642
237.84503,0.93769515,0.39738202,0.41664076,0.68190724,0,0.0,0.0,0.0,0.0,0.0,0,0,0.0,0.24331789,0,0,32.0,0.0,0.0,4724.615384615386,4160.512820512821,5038.974358974359,4798.974358974359,4160.000000000001,4496.923076923077,4794.358974358975,4712.820512820514,4387.6923076923085,4741.025641025642,4444.615384615385,4528.717948717949,4338.461538461539,4819.48717948718
238.09525,0.93769515,0.39738202,0.41664076,0.68190724,0,0.0,0.0,0.0,0.0,0.0,0,0,0.0,0.6495292,0,0,64.0,0.0,485.0,4700.000000000001,4096.923076923077,4921.025641025642,4743.076923076924,4183.076923076924,4508.205128205129,4770.769230769231,4691.794871794872,4475.8974358974365,4706.153846153847,4693.846153846154,4495.384615384616,4414.358974358975,4695.8974358974365
238.34546,0.9372752,0.38907188,0.42665407,0.7135727,0,0.0,0.0,0.0,0.0,0.0,0,1,0.0,0.57317287,0,0,96.0,0.0,503.0,4705.641025641026,4033.8461538461543,4891.282051282052,4674.358974358975,4184.615384615385,4468.717948717949,4712.820512820514,4655.8974358974365,4495.384615384616,4808.205128205129,4572.307692307693,4398.974358974359,4314.358974358975,4662.051282051282
238.47057,0.9372752,0.38907188,0.42665407,0.7135727,0,0.0,0.0,0.0,0.0,0.0,0,1,0.0,1.0,0,0,112.0,0.0,503.0,4677.435897435898,3970.7692307692314,4794.358974358975,4615.384615384616,4145.128205128206,4431.794871794872,4665.641025641026,4645.128205128206,4488.205128205129,4785.128205128206,4512.820512820514,4360.512820512821,4265.641025641026,4600.000000000001
238.84589,1.0,0.38159278,0.43259794,0.742321,0,0.0,0.0,0.0,0.0,0.0,0,1,0.0,0.94145155,0,0,31.0,0.0,0.0,4657.948717948719,3901.538461538462,4647.6923076923085,4456.923076923077,4135.384615384616,4416.410256410257,4567.6923076923085,4551.282051282052,4505.641025641026,4777.948717948719,4445.641025641026,4264.102564102564,4211.794871794872,4514.871794871796
239.0961,1.0,0.38159278,0.43259794,0.742321,0,0.0,0.0,0.0,0.0,0.0,0,1,0.0,0.34149438,0,0,63.0,0.0,0.0,4646.153846153847,3876.410256410257,4568.205128205129,4395.384615384616,4135.8974358974365,4416.923076923077,4518.974358974359,4475.8974358974365,4501.025641025642,4778.974358974359,4360.512820512821,4214.871794871796,4145.641025641026,4427.6923076923085
239.34631,1.0,0.3748616,0.43540743,0.7681945,0,0.0,0.0,0.0,0.0,0.0,0,1,0.0,0.0,0,0,95.0,0.0,501.0,4629.2307692307695,3892.307692307693,4453.846153846154,4373.846153846154,4188.717948717949,4448.717948717949,4454.871794871796,4410.769230769231,4497.435897435898,4729.2307692307695,4155.8974358974365,4185.128205128206,4017.435897435898,4391.282051282052
239.59653,1.0,0.3748616,0.43540743,0.7681945,0,0.0,0.0,0.0,0.0,0.0,0,1,0.0,0.43483794,0,0,127.0,0.0,501.0,4595.8974358974365,3832.820512820513,4524.615384615385,4318.974358974359,4136.923076923077,4422.564102564103,4382.564102564103,4342.051282051282,4498.974358974359,4767.179487179488,4180.512820512821,4133.333333333334,4017.9487179487182,4384.102564102564
239.84674,1.0,0.3688035,0.4309877,0.77621037,0,0.0,0.0,0.0,0.0,0.0,0,1,0.0,0.09454284,0,0,30.0,0.0,0.0,4575.384615384616,3821.538461538462,4537.435897435898,4269.2307692307695,4188.717948717949,4469.2307692307695,4360.512820512821,4270.256410256411,4459.48717948718,4759.48717948718,4176.923076923077,4121.538461538462,4051.7948717948725,4368.205128205129
240.09695,1.0,0.3688035,0.4309877,0.77621037,0,0.0,0.0,0.0,0.0,0.0,0,0,0.0,0.11078709,0,0,62.0,0.0,0.0,4616.410256410257,3911.7948717948725,4588.205128205129,4364.102564102564,4273.846153846154,4545.641025641026,4402.051282051282,4298.461538461539,4458.461538461539,4817.948717948719,4298.974358974359,4275.8974358974365,4204.102564102564,4504.102564102564
240.34717,1.0,0.36335126,0.4210775,0.7533577,0,0.0,0.2410892,0.0,0.0,0.0,0,0,0.0,0.0,0,0,94.0,0.0,533.0,4648.717948717949,3887.692307692308,4676.923076923077,4397.948717948719,4301.025641025642,4593.333333333334,4482.051282051282,4477.435897435898,4428.717948717949,4801.538461538462,4347.179487179487,4405.128205128206,4304.102564102564,4608.717948717949
240.5974,1.0,0.36335126,0.4210775,0.7533577,0,0.0,0.03055703,0.0,0.0,0.0,0,0,0.0,0.0,0,0,126.0,0.0,533.0,4662.564102564103,3969.7435897435903,4609.743589743591,4451.282051282052,4397.948717948719,4694.871794871796,4552.307692307693,4582.051282051282,4376.923076923077,4807.6923076923085,4340.512820512821,4476.410256410257,4316.410256410257,4681.538461538462
240.84761,1.0,0.3584442,0.41214794,0.7328563,0,0.0,0.0,0.0,0.0,0.12624148,0,0,0.0,0.0,0,0,29.0,0.0,0.0,4718.974358974359,4070.7692307692314,4626.153846153847,4465.128205128206,4329.743589743591,4658.461538461539,4572.820512820514,4620.000000000001,4328.205128205129,4763.076923076924,4315.384615384616,4498.461538461539,4315.384615384616,4761.538461538462
241.09782,1.0,0.3584442,0.41214794,0.7328563,0,0.0,0.0,0.0,0.0,0.090059355,0,0,0.0,0.0,0,0,61.0,0.0,0.0,4695.384615384616,4080.5128205128212,4632.820512820514,4444.102564102564,4315.8974358974365,4635.384615384616,4597.948717948719,4565.641025641026,4345.128205128206,4785.128205128206,4290.256410256411,4474.871794871796,4309.743589743591,4733.846153846154
241.34804,0.9559238,0.35402787,0.40410155,0.71444994,0,0.0,0.0,0.0,0.0094168745,0.0,0,0,0.0,0.0,0,0,93.0,0.0,504.0,4704.615384615386,4138.974358974359,4687.179487179488,4451.282051282052,4302.051282051282,4614.358974358975,4590.256410256411,4551.794871794872,4391.282051282052,4820.512820512821,4311.282051282052,4507.179487179488,4387.6923076923085,4777.948717948719
241.59825,0.9559238,0.35402787,0.40410155,0.71444994,0,0.0,0.0,0.0,0.1807348,0.0,0,0,0.0,0.0,0,0,125.0,0.0,504.0,4751.282051282052,4142.564102564103,4698.461538461539,4446.153846153847,4284.615384615385,4602.051282051282,4612.820512820514,4536.410256410257,4456.923076923077,4857.948717948719,4336.410256410257,4506.153846153847,4377.948717948719,4744.615384615386
241.84846,0.86906856,0.35005316,0.39696497,0.6981578,0,0.0,0.0,0.0,0.0,0.0,0,0,0.0,0.0,0,0,28.0,0.0,0.0,4750.769230769231,4088.205128205129,4545.641025641026,4410.769230769231,4290.256410256411,4576.410256410257,4583.076923076924,4456.923076923077,4487.6923076923085,4844.102564102564,4356.923076923077,4481.025641025642,4365.641025641026,4721.025641025642
241.84846,0.86906856,0.35005316,0.39696497,0.6981578,0,0.0,0.0,0.0,0.0,0.0,0,0,0.0,0.0,0,0,28.0,0.0,0.0,4750.769230769231,4088.205128205129,4545.641025641026,4410.769230769231,4290.256410256411,4576.410256410257,4583.076923076924,4456.923076923077,4487.6923076923085,4844.102564102564,4356.923076923077,4481.025641025642,4365.641025641026,4721.025641025642
242.22379,0.9054651,0.39944872,0.39047796,0.6833399,0,0.0,0.0,0.0,0.0,0.0,0,0,0.0,0.0,0,0,76.0,0.0,515.0,4737.435897435898,4038.461538461539,4524.615384615385,4391.282051282052,4243.589743589744,4536.410256410257,4553.846153846154,4393.846153846154,4526.666666666667,4878.974358974359,4369.2307692307695,4396.410256410257,4284.615384615385,4642.051282051282
242.5991,0.9054651,0.39944872,0.39047796,0.6833399,0,0.0,0.0,0.0,0.0,0.21741869,0,0,0.0,0.0,0,0,124.0,0.0,515.0,4719.48717948718,3960.5128205128212,4567.6923076923085,4352.820512820514,4231.282051282052,4539.48717948718,4561.538461538462,4378.974358974359,4585.641025641026,4922.564102564103,4397.435897435898,4361.025641025642,4261.538461538462,4569.743589743591
242.84932,0.8843706,0.39950582,0.38465503,0.6700434,0,0.0,0.0,0.0,0.0,1.0,0,0,0.0,0.0,0,0,27.0,0.0,0.0,4683.589743589744,3888.205128205129,4532.307692307693,4311.282051282052,4163.076923076924,4475.8974358974365,4474.871794871796,4304.102564102564,4538.461538461539,4866.666666666667,4319.48717948718,4266.666666666667,4171.282051282052,4495.384615384616
242.97443,0.8843706,0.39950582,0.38465503,0.6700434,0,0.0,0.0,0.0,0.0,0.0,0,0,0.0,0.0,0,0,43.0,0.0,0.0,4680.000000000001,3877.9487179487182,4486.153846153847,4307.6923076923085,4148.717948717949,4461.025641025642,4455.8974358974365,4302.564102564103,4522.051282051282,4855.8974358974365,4319.48717948718,4227.6923076923085,4170.256410256411,4486.153846153847
243.22464,0.9882462,0.38592127,0.37941825,0.65809655,0,0.0,0.0,0.0,0.0,0.0,0,0,0.0,0.0,0,0,75.0,0.0,505.0,4611.282051282052,3801.0256410256416,4436.410256410257,4264.615384615385,4120.512820512821,4439.48717948718,4426.153846153847,4230.769230769231,4503.589743589744,4764.102564102564,4216.923076923077,4124.102564102564,4089.7435897435903,4270.769230769231
243.22464,0.9882462,0.38592127,0.37941825,0.65809655,0,0.0,0.0,0.0,0.0,0.0,0,0,0.0,0.0,0,0,75.0,0.0,505.0,4611.282051282052,3801.0256410256416,4436.410256410257,4264.615384615385,4120.512820512821,4439.48717948718,4426.153846153847,4230.769230769231,4503.589743589744,4764.102564102564,4216.923076923077,4124.102564102564,4089.7435897435903,4270.769230769231
243.72508,1.0,0.3613588,0.3747076,0.6473584,0,0.0,0.0,0.0,0.0,0.0,0,0,0.0,0.0,0,0,10.0,0.0,531.0,4594.358974358975,3813.333333333334,4380.000000000001,4341.025641025642,4104.102564102564,4432.820512820514,4375.384615384616,4247.179487179487,4499.48717948718,4724.615384615386,4196.410256410257,4066.666666666667,4042.564102564103,4247.179487179487
243.72508,1.0,0.3613588,0.3747076,0.6473584,0,0.0,0.0,0.0,0.0,0.0,0,0,0.0,0.0,0,0,10.0,0.0,531.0,4594.358974358975,3813.333333333334,4380.000000000001,4341.025641025642,4104.102564102564,4432.820512820514,4375.384615384616,4247.179487179487,4499.48717948718,4724.615384615386,4196.410256410257,4066.666666666667,4042.564102564103,4247.179487179487
244.22551,1.0,0.33901408,0.3704789,0.63771504,0,0.0,0.0,0.0,0.0,0.0,0,0,0.0,0.0,0,0,74.0,0.0,531.0,4571.794871794872,3830.7692307692314,4305.128205128206,4368.717948717949,4132.307692307693,4457.948717948719,4324.102564102564,4238.974358974359,4444.102564102564,4705.128205128206,4204.102564102564,4077.9487179487187,4076.410256410257,4324.102564102564
244.22551,1.0,0.33901408,0.3704789,0.63771504,0,0.0,0.0,0.0,0.0,0.0,0,0,0.0,0.0,0,0,74.0,0.0,531.0,4571.794871794872,3830.7692307692314,4305.128205128206,4368.717948717949,4132.307692307693,4457.948717948719,4324.102564102564,4238.974358974359,4444.102564102564,4705.128205128206,4204.102564102564,4077.9487179487187,4076.410256410257,4324.102564102564
244.85104,1.0,0.31890386,0.37230134,0.6569938,0,0.0,0.0,0.0,0.0,0.046353593,0,0,0.0,0.0,0,0,25.0,0.0,0.0,4562.564102564103,3845.1282051282055,4388.717948717949,4341.025641025642,4185.128205128206,4511.794871794872,4309.2307692307695,4385.128205128206,4439.48717948718,4702.051282051282,4214.358974358975,4081.0256410256416,4106.153846153847,4365.641025641026
244.97615,1.0,0.31890386,0.37230134,0.6569938,0,0.0,0.0,0.0,0.0,0.0,0,0,0.0,0.0,0,0,41.0,0.0,0.0,4558.974358974359,3848.205128205129,4361.538461538462,4348.205128205129,4192.820512820514,4525.641025641026,4310.769230769231,4413.333333333334,4445.641025641026,4702.564102564103,4236.923076923077,4092.820512820513,4126.153846153847,4372.307692307693
245.22636,1.0,0.30080464,0.37882197,0.70352745,0,0.0,0.0,0.0,0.0,0.0,0,0,0.0,0.0,0,0,73.0,0.0,474.0,4552.307692307693,3862.564102564103,4324.102564102564,4351.282051282052,4205.128205128206,4538.974358974359,4342.564102564103,4494.358974358975,4464.102564102564,4719.48717948718,4253.333333333334,4090.7692307692314,4121.538461538462,4361.538461538462
245.22636,1.0,0.30080464,0.37882197,0.70352745,0,0.0,0.0,0.0,0.0,0.0,0,0,0.0,0.0,0,0,73.0,0.0,474.0,4552.307692307693,3862.564102564103,4324.102564102564,4351.282051282052,4205.128205128206,4538.974358974359,4342.564102564103,4494.358974358975,4464.102564102564,4719.48717948718,4253.333333333334,4090.7692307692314,4121.538461538462,4361.538461538462
245.72679,0.9150462,0.28451535,0.38569042,0.7452172,0,0.0,0.0,0.0,0.0,0.0,0,0,0.0,0.0,0,0,8.0,0.0,463.0,4566.666666666667,3894.8717948717954,4377.948717948719,4381.538461538462,4187.179487179487,4528.717948717949,4333.333333333334,4442.564102564103,4443.076923076924,4686.153846153847,4294.358974358975,4140.000000000001,4166.666666666667,4414.358974358975
245.72679,0.9150462,0.28451535,0.38569042,0.7452172,0,0.0,0.0,0.0,0.0,0.0,0,0,0.0,0.0,0,0,8.0,0.0,463.0,4566.666666666667,3894.8717948717954,4377.948717948719,4381.538461538462,4187.179487179487,4528.717948717949,4333.333333333334,4442.564102564103,4443.076923076924,4686.153846153847,4294.358974358975,4140.000000000001,4166.666666666667,4414.358974358975
246.22723,0.81472605,0.27539423,0.39220124,0.7824696,0,0.0,0.0,0.0,0.0,0.0,0,0,0.0,0.0,0,0,72.0,0.0,463.0,4572.820512820514,3864.1025641025644,4365.641025641026,4383.076923076924,4204.102564102564,4552.820512820514,4356.923076923077,4444.615384615385,4435.384615384616,4662.051282051282,4299.48717948718,4155.8974358974365,4166.153846153847,4472.820512820514
246.22723,0.81472605,0.27539423,0.39220124,0.7824696,0,0.0,0.0,0.0,0.0,0.0,0,0,0.0,0.0,0,0,72.0,0.0,463.0,4572.820512820514,3864.1025641025644,4365.641025641026,4383.076923076924,4204.102564102564,4552.820512820514,4356.923076923077,4444.615384615385,4435.384615384616,4662.051282051282,4299.48717948718,4155.8974358974365,4166.153846153847,4472.820512820514
246.72766,0.75585175,0.27552947,0.39884418,0.80615497,0,0.0,0.0,0.0,0.0,0.0,0,0,0.0,0.0,0,0,7.0,0.0,467.0,4570.769230769231,3865.6410256410263,4450.769230769231,4415.8974358974365,4195.384615384616,4549.743589743591,4379.48717948718,4318.461538461539,4443.076923076924,4674.871794871796,4300.000000000001,4183.076923076924,4181.025641025642,4454.871794871796
247.10298,0.75585175,0.27552947,0.39884418,0.80615497,0,0.0,0.0,0.0,0.0,0.034139033,0,0,0.0,0.0,0,0,55.0,0.0,0.0,4576.923076923077,3914.358974358975,4456.923076923077,4429.2307692307695,4205.128205128206,4554.871794871796,4382.051282051282,4287.179487179487,4462.564102564103,4718.974358974359,4310.769230769231,4201.538461538462,4198.974358974359,4438.461538461539
247.3532,0.7292498,0.27076676,0.4056975,0.8153188,0,0.0,0.0,0.0,0.0,0.2242868,0,0,0.0,0.0,0,0,87.0,0.0,509.0,4598.461538461539,3918.461538461539,4462.564102564103,4444.102564102564,4210.256410256411,4553.846153846154,4380.512820512821,4295.8974358974365,4422.564102564103,4701.025641025642,4316.410256410257,4210.256410256411,4189.2307692307695,4490.769230769231
247.4783,0.7292498,0.27076676,0.4056975,0.8153188,0,0.0,0.0,0.0,0.0,0.0,0,0,0.0,0.0,0,0,103.0,0.0,509.0,4595.384615384616,3911.7948717948725,4432.820512820514,4439.48717948718,4213.846153846154,4558.461538461539,4390.256410256411,4332.307692307693,4425.128205128206,4698.461538461539,4306.666666666667,4213.333333333334,4186.153846153847,4480.512820512821
247.72852,0.7090072,0.26716137,0.41207072,0.8205269,0,0.0,0.0,0.0,0.0,0.0,0,0,0.0,0.0,0,0,6.0,0.0,533.0,4610.769230769231,3921.538461538462,4438.974358974359,4437.948717948719,4203.589743589744,4555.8974358974365,4400.000000000001,4434.871794871796,4431.794871794872,4713.333333333334,4340.000000000001,4231.282051282052,4218.974358974359,4510.256410256411
247.72852,0.7090072,0.26716137,0.41207072,0.8205269,0,0.0,0.0,0.0,0.0,0.0,0,0,0.0,0.0,0,0,6.0,0.0,533.0,4610.769230769231,3921.538461538462,4438.974358974359,4437.948717948719,4203.589743589744,4555.8974358974365,4400.000000000001,4434.871794871796,4431.794871794872,4713.333333333334,4340.000000000001,4231.282051282052,4218.974358974359,4510.256410256411
248.22894,0.6446432,0.26971126,0.4196872,0.8250774,0,0.0,0.0,0.0,0.0,0.0,0,0,0.0,0.0,0,0,70.0,0.0,533.0,4608.205128205129,3913.333333333334,4489.743589743591,4444.615384615385,4237.948717948719,4586.666666666667,4398.974358974359,4488.205128205129,4409.743589743591,4672.307692307693,4308.717948717949,4223.076923076924,4188.205128205129,4491.794871794872
248.22894,0.6446432,0.26971126,0.4196872,0.8250774,0,0.0,0.0,0.0,0.0,0.0,0,0,0.0,0.0,0,0,70.0,0.0,533.0,4608.205128205129,3913.333333333334,4489.743589743591,4444.615384615385,4237.948717948719,4586.666666666667,4398.974358974359,4488.205128205129,4409.743589743591,4672.307692307693,4308.717948717949,4223.076923076924,4188.205128205129,4491.794871794872
248.72939,0.6433463,0.263734,0.42984426,0.8290371,0,0.0,0.0,0.0,0.0,0.0,0,0,0.0,0.0,0,0,5.0,0.0,555.0,4601.538461538462,3907.692307692308,4454.358974358975,4443.589743589744,4247.6923076923085,4592.307692307693,4386.666666666667,4529.743589743591,4384.615384615385,4645.128205128206,4288.717948717949,4180.512820512821,4182.051282051282,4477.435897435898
249.1047,0.6433463,0.263734,0.42984426,0.8290371,0,0.0,0.0,0.0,0.0,0.016063748,0,0,0.0,0.0,0,0,53.0,0.0,0.0,4587.6923076923085,3895.8974358974365,4417.435897435898,4433.846153846154,4248.717948717949,4588.717948717949,4408.717948717949,4507.179487179488,4406.153846153847,4678.461538461539,4311.794871794872,4173.846153846154,4204.615384615385,4489.743589743591
249.35492,0.57783425,0.25717926,0.43896616,0.84238815,0,0.0,0.0,0.0,0.0,0.0039141867,0,0,0.0,0.0,0,0,85.0,0.0,509.0,4574.871794871796,3896.9230769230776,4382.051282051282,4427.179487179487,4257.948717948719,4603.589743589744,4411.282051282052,4441.025641025642,4391.794871794872,4652.307692307693,4255.8974358974365,4150.769230769231,4165.128205128206,4485.128205128206
249.60513,0.57783425,0.25717926,0.43896616,0.84238815,0,0.0,0.0,0.0,0.0,0.0,0,0,0.0,0.0,0,0,117.0,0.0,509.0,4590.256410256411,3897.435897435898,4442.051282051282,4412.307692307693,4253.846153846154,4595.8974358974365,4404.615384615385,4487.179487179488,4429.2307692307695,4689.2307692307695,4296.923076923077,4199.48717948718,4204.615384615385,4557.435897435898
249.73024,0.5040514,0.24854341,0.4471545,0.8606337,0,0.0,0.0,0.0,0.0,0.0,0,0,0.0,0.0,0,0,4.0,0.0,559.0,4583.076923076924,3880.512820512821,4437.435897435898,4396.410256410257,4262.051282051282,4600.000000000001,4410.256410256411,4494.871794871796,4421.538461538462,4690.256410256411,4278.461538461539,4171.282051282052,4167.179487179487,4534.358974358975
249.73024,0.5040514,0.24854341,0.4471545,0.8606337,0,0.0,0.0,0.0,0.0,0.0,0,0,0.0,0.0,0,0,4.0,0.0,559.0,4583.076923076924,3880.512820512821,4437.435897435898,4396.410256410257,4262.051282051282,4600.000000000001,4410.256410256411,4494.871794871796,4421.538461538462,4690.256410256411,4278.461538461539,4171.282051282052,4167.179487179487,4534.358974358975
250.23067,0.43678242,0.23834512,0.45264745,0.876701,0,0.0,0.0,0.0,0.0,0.0,0,0,0.0,0.0,0,0,68.0,0.0,559.0,4557.948717948719,3878.461538461539,4466.153846153847,4403.076923076924,4235.8974358974365,4583.589743589744,4414.358974358975,4545.128205128206,4409.2307692307695,4705.641025641026,4266.153846153847,4166.153846153847,4147.179487179487,4482.564102564103
250.23067,0.43678242,0.23834512,0.45264745,0.876701,0,0.0,0.0,0.0,0.0,0.0,0,0,0.0,0.0,0,0,68.0,0.0,559.0,4557.948717948719,3878.461538461539,4466.153846153847,4403.076923076924,4235.8974358974365,4583.589743589744,4414.358974358975,4545.128205128206,4409.2307692307695,4705.641025641026,4266.153846153847,4166.153846153847,4147.179487179487,4482.564102564103
250.7311,0.41833717,0.23160116,0.45650414,0.89624393,0,0.0,0.0,0.0,0.0,0.0,0,0,0.0,0.0,0,0,3.0,0.0,540.0,4575.8974358974365,3886.666666666667,4463.589743589744,4385.128205128206,4201.025641025642,4555.8974358974365,4427.6923076923085,4504.615384615385,4413.333333333334,4713.846153846154,4300.000000000001,4180.000000000001,4167.179487179487,4564.615384615385
251.10641,0.41833717,0.23160116,0.45650414,0.89624393,0,0.0,0.0,0.0,0.0,0.011909371,0,0,0.0,0.0,0,0,51.0,0.0,0.0,4560.512820512821,3895.8974358974365,4525.128205128206,4359.48717948718,4154.871794871796,4518.974358974359,4388.717948717949,4405.128205128206,4391.282051282052,4703.076923076924,4291.794871794872,4153.846153846154,4144.615384615385,4551.794871794872
251.23152,0.45969954,0.22592326,0.45995292,0.9079403,0,0.0,0.0,0.0,0.0,0.0,0,0,0.0,0.0,0,0,67.0,0.0,540.0,4566.666666666667,3910.7692307692314,4453.846153846154,4356.923076923077,4154.358974358975,4520.000000000001,4406.666666666667,4442.051282051282,4399.48717948718,4706.666666666667,4302.564102564103,4182.051282051282,4153.333333333334,4557.948717948719
251.23152,0.45969954,0.22592326,0.45995292,0.9079403,0,0.0,0.0,0.0,0.0,0.0,0,0,0.0,0.0,0,0,67.0,0.0,540.0,4566.666666666667,3910.7692307692314,4453.846153846154,4356.923076923077,4154.358974358975,4520.000000000001,4406.666666666667,4442.051282051282,4399.48717948718,4706.666666666667,4302.564102564103,4182.051282051282,4153.333333333334,4557.948717948719
251.73196,0.45106497,0.2223177,0.46303406,0.9163464,0,0.0,0.0,0.0,0.0,0.0,0,0,0.0,0.0,0,0,2.0,0.0,282.0,4551.282051282052,3909.2307692307695,4503.076923076924,4334.358974358975,4180.000000000001,4524.102564102564,4368.205128205129,4426.666666666667,4376.410256410257,4723.589743589744,4279.48717948718,4155.8974358974365,4122.051282051282,4425.128205128206
251.73196,0.45106497,0.2223177,0.46303406,0.9163464,0,0.0,0.0,0.0,0.0,0.0,0,0,0.0,0.0,0,0,2.0,0.0,282.0,4551.282051282052,3909.2307692307695,4503.076923076924,4334.358974358975,4180.000000000001,4524.102564102564,4368.205128205129,4426.666666666667,4376.410256410257,4723.589743589744,4279.48717948718,4155.8974358974365,4122.051282051282,4425.128205128206
252.23239,0.4444249,0.22017603,0.46592256,0.92357224,0,0.0,0.0,0.0,0.0,0.0,0,0,0.0,0.0,0,0,66.0,0.0,282.0,4547.6923076923085,3924.1025641025644,4457.948717948719,4354.871794871796,4241.025641025642,4578.974358974359,4413.846153846154,4420.512820512821,4388.717948717949,4748.205128205129,4293.333333333334,4167.6923076923085,4139.48717948718,4366.153846153847
252.23239,0.4444249,0.22017603,0.46592256,0.92357224,0,0.0,0.0,0.0,0.0,0.0,0,0,0.0,0.0,0,0,66.0,0.0,282.0,4547.6923076923085,3924.1025641025644,4457.948717948719,4354.871794871796,4241.025641025642,4578.974358974359,4413.846153846154,4420.512820512821,4388.717948717949,4748.205128205129,4293.333333333334,4167.6923076923085,4139.48717948718,4366.153846153847
252.73282,0.5041558,0.22041072,0.4684986,0.9350912,0,0.0,0.0,0.0,0.0,0.0,0,0,0.0,0.0,0,0,1.0,0.0,510.0,4557.435897435898,3929.7435897435903,4479.48717948718,4361.538461538462,4218.974358974359,4555.384615384616,4369.2307692307695,4411.794871794872,4390.256410256411,4773.333333333334,4335.8974358974365,4213.333333333334,4162.564102564103,4266.153846153847
252.73282,0.5041558,0.22041072,0.4684986,0.9350912,0,0.0,0.0,0.0,0.0,0.0,0,0,0.0,0.0,0,0,1.0,0.0,510.0,4557.435897435898,3929.7435897435903,4479.48717948718,4361.538461538462,4218.974358974359,4555.384615384616,4369.2307692307695,4411.794871794872,4390.256410256411,4773.333333333334,4335.8974358974365,4213.333333333334,4162.564102564103,4266.153846153847
253.4522,0.5553749,0.23969853,0.47079316,0.9515126,0,0.0,0.6570726,0.0,0.0,0.0,0,0,0.0,0.0,0,0,93.0,0.0,510.0,4582.564102564103,4012.307692307693,4475.384615384616,4396.410256410257,4394.358974358975,4648.205128205129,4432.307692307693,4448.717948717949,4423.589743589744,4967.6923076923085,4474.871794871796,4248.205128205129,4264.615384615385,4401.538461538462
253.67113,0.5553749,0.23969853,0.47079316,0.9515126,0,0.0,0.34763265,0.0,0.0,0.0,0,0,0.0,0.0,0,1,121.0,0.0,510.0,4561.025641025642,3977.435897435898,4519.48717948718,4358.974358974359,4382.564102564103,4656.410256410257,4412.307692307693,4478.974358974359,4407.6923076923085,4941.025641025642,4432.820512820514,4289.2307692307695,4257.948717948719,4396.410256410257
253.85878,0.6422381,0.2895083,0.47445258,0.96029323,0,0.0,0.4006969,0.0,0.0,0.0,0,0,0.0,0.0,0,0,16.0,0.0,0.0,4589.743589743591,3991.7948717948725,4583.076923076924,4413.846153846154,4436.923076923077,4705.128205128206,4491.794871794872,4483.589743589744,4327.6923076923085,4906.153846153847,4454.358974358975,4359.48717948718,4274.358974358975,4413.333333333334
254.109,0.6422381,0.2895083,0.47445258,0.96029323,0,0.0,0.30096358,0.0,0.0,0.0,0,0,0.0,0.0,0,0,48.0,0.0,0.0,4613.333333333334,4013.8461538461543,4712.820512820514,4520.000000000001,4577.435897435898,4812.820512820514,4582.564102564103,4565.641025641026,4268.205128205129,4953.846153846154,4536.923076923077,4508.717948717949,4301.538461538462,4497.435897435898
254.35922,0.7083079,0.33393848,0.47898048,0.9738104,0,0.0,0.39463145,0.0,0.0,0.0,0,0,0.0,0.0,0,0,80.0,0.0,513.0,4639.48717948718,3995.8974358974365,4771.794871794872,4571.794871794872,4553.333333333334,4819.48717948718,4698.974358974359,4592.307692307693,4212.307692307693,4915.8974358974365,4569.743589743591,4571.282051282052,4310.769230769231,4665.641025641026
254.60944,0.7083079,0.33393848,0.47898048,0.9738104,1,0.0,0.14203118,0.0,0.0,0.0,0,0,0.0,0.0,0,0,112.0,0.0,513.0,4702.564102564103,4087.1794871794878,4813.333333333334,4660.512820512821,4565.641025641026,4849.743589743591,4809.743589743591,4622.564102564103,4212.307692307693,4964.615384615386,4636.410256410257,4663.076923076924,4288.717948717949,4840.000000000001
254.85965,0.83331096,0.3739256,0.4809665,0.9885427,0,0.0,0.3509537,0.0,0.0,0.0,0,0,0.0,0.0,0,0,15.0,0.0,496.0,4802.051282051282,4241.538461538462,4923.076923076924,4761.538461538462,4588.717948717949,4854.871794871796,4922.051282051283,4682.051282051282,4293.846153846154,5118.461538461539,4737.435897435898,4748.717948717949,4344.615384615385,4960.000000000001
255.10986,0.83331096,0.3739256,0.4809665,0.9885427,0,0.0,1.0,0.0,0.0,0.0,0,0,0.0,0.0,0,0,47.0,0.0,0.0,4861.538461538462,4385.641025641026,5087.6923076923085,4889.2307692307695,4760.000000000001,4986.153846153847,5034.871794871796,4758.974358974359,4417.948717948719,5357.435897435898,4849.2307692307695,4847.6923076923085,4467.179487179487,5173.333333333334
255.26625,0.94331366,0.40991402,0.48020762,0.98659307,0,0.0,1.0,0.0,0.0,0.0,0,0,0.0,0.0,0,0,67.0,0.0,540.0,4887.6923076923085,4441.538461538462,5136.923076923077,4966.666666666667,4796.923076923077,5009.743589743591,5118.461538461539,4848.717948717949,4476.410256410257,5461.025641025642,4917.435897435898,4903.076923076924,4549.743589743591,5216.923076923078
255.61029,0.94331366,0.40991402,0.48020762,0.98659307,0,0.0,0.13787036,0.0,0.0,0.0,0,0,0.0,0.0,0,0,111.0,0.0,483.0,4926.666666666667,4594.871794871796,5221.538461538462,4995.8974358974365,4887.6923076923085,5032.307692307693,5227.179487179488,4840.512820512821,4561.538461538462,5536.923076923078,4906.666666666667,4915.384615384616,4627.6923076923085,5110.256410256411
255.8605,1.0,0.4423036,0.47287273,0.95657134,0,0.0,1.0,0.0,0.0,0.0,0,0,0.0,0.0,0,0,14.0,0.0,516.0,5004.102564102564,4641.025641025642,5113.333333333334,5004.615384615386,4811.794871794872,4958.461538461539,5221.538461538462,4894.871794871796,4652.307692307693,5589.743589743591,4902.564102564103,4929.2307692307695,4674.871794871796,5106.153846153847
256.11072,1.0,0.4423036,0.47287273,0.95657134,0,0.0,0.3818503,0.0,0.0,0.0,0,0,0.0,0.0,0,0,46.0,0.0,0.0,5031.794871794872,4635.8974358974365,5048.205128205129,5029.2307692307695,4878.461538461539,5003.589743589744,5098.461538461539,4830.769230769231,4711.282051282052,5588.717948717949,4820.000000000001,4877.948717948719,4708.717948717949,5038.461538461539
256.36093,1.0,0.47145423,0.45891878,0.91613805,0,0.0,0.0,0.0,0.034082294,0.0,0,0,0.0,0.0,0,0,78.0,0.0,507.0,5026.666666666667,4528.205128205129,4955.384615384616,4924.102564102564,4824.615384615386,4955.384615384616,5009.2307692307695,4700.512820512821,4738.974358974359,5526.666666666667,4741.025641025642,4774.871794871796,4687.179487179488,4969.2307692307695
256.61115,1.0,0.47145423,0.45891878,0.91613805,0,0.0,0.48626444,0.0,0.0,0.0,0,0,0.0,0.0,0,0,110.0,0.0,507.0,5089.2307692307695,4421.025641025642,5016.410256410257,4861.025641025642,4723.076923076924,4866.153846153847,4956.410256410257,4671.282051282052,4775.384615384616,5498.461538461539,4782.564102564103,4724.615384615386,4683.589743589744,4797.435897435898
256.86136,1.0,0.49768978,0.44636026,0.87974817,0,0.0,0.38656676,0.0,0.0,0.0,0,0,0.0,0.0,0,0,13.0,0.0,488.0,5112.820512820514,4268.717948717949,4926.153846153847,4759.48717948718,4542.564102564103,4736.923076923077,4895.8974358974365,4662.564102564103,4793.846153846154,5374.358974358975,4714.871794871796,4611.794871794872,4588.205128205129,4646.666666666667
