timestamp,excitement,frustration,meditation,engagementBoredom,blink,clench,laugh,smile,eyebrow,furrowBrow,lookLeft,lookRight,smirkLeft,smirkRight,winkLeft,winkRight,eeg0,eeg1,eeg2,eeg3,eeg4,eeg5,eeg6,eeg7,eeg8,eeg9,eeg10,eeg11,eeg12,eeg13,eeg14,eeg15,eeg16
502.31448,0.5162678,0.4506058,0.36090535,0.58586603,0,0.0,0.0,0.0,0.0,0.6776014,0,0,0.0,0.0,0,0,35.0,0.0,0.0,4636.410256410257,3827.1794871794878,4289.2307692307695,4688.717948717949,4381.538461538462,4667.6923076923085,4740.000000000001,4593.846153846154,4725.128205128206,4954.358974358975,4608.717948717949,4284.615384615385,4314.358974358975,5061.538461538462
502.5647,0.64544106,0.4510709,0.3791585,0.60038954,0,0.0,0.0,0.0,0.0,0.0,0,0,1.0,0.0,0,0,67.0,0.0,542.0,4770.769230769231,3892.307692307693,4400.000000000001,4611.794871794872,4393.333333333334,4655.8974358974365,4678.461538461539,4568.717948717949,4666.666666666667,4873.846153846154,4578.461538461539,4363.076923076924,4334.871794871796,4920.512820512821
502.8149,0.64544106,0.4510709,0.3791585,0.60038954,0,0.0,0.0,0.0,0.0,0.0,0,0,0.8681745,0.0,0,0,99.0,0.0,493.0,4715.8974358974365,3885.1282051282055,4432.307692307693,4552.820512820514,4316.923076923077,4599.48717948718,4606.153846153847,4523.589743589744,4647.6923076923085,4824.102564102564,4442.564102564103,4396.923076923077,4251.794871794872,4917.435897435898
503.06512,0.6660876,0.45148948,0.39558637,0.6134608,0,0.0,0.0,0.0,0.0,1.0,0,0,0.0,0.0,0,0,2.0,0.0,398.0,4632.820512820514,3814.8717948717954,4419.48717948718,4662.564102564103,4264.615384615385,4556.410256410257,4585.641025641026,4518.974358974359,4633.333333333334,4903.589743589744,4386.666666666667,4424.615384615385,4193.333333333334,4689.2307692307695
503.06512,0.6660876,0.45148948,0.39558637,0.6134608,0,0.0,0.0,0.0,0.0,1.0,0,0,0.0,0.0,0,0,2.0,0.0,398.0,4632.820512820514,3814.8717948717954,4419.48717948718,4662.564102564103,4264.615384615385,4556.410256410257,4585.641025641026,4518.974358974359,4633.333333333334,4903.589743589744,4386.666666666667,4424.615384615385,4193.333333333334,4689.2307692307695
503.44046,0.7797652,0.45186618,0.4103327,0.6251913,0,0.0,0.0,0.0,0.0,1.0,0,0,0.0,0.0,0,0,50.0,0.0,0.0,4476.410256410257,3835.8974358974365,4353.846153846154,4578.974358974359,4165.641025641026,4494.871794871796,4492.307692307693,4413.846153846154,4530.769230769231,4761.025641025642,4281.538461538462,4248.717948717949,4168.717948717949,4390.256410256411
503.8158,0.7797652,0.45186618,0.4103327,0.6251913,0,0.0,0.0,0.0,0.0,0.08250612,0,0,0.0,0.0,0,0,98.0,0.0,528.0,4418.461538461539,3730.2564102564106,4281.025641025642,4529.2307692307695,4132.820512820514,4450.256410256411,4458.974358974359,4431.794871794872,4466.153846153847,4656.923076923077,4191.282051282052,4171.282051282052,4131.794871794872,4383.076923076924
504.066,0.86508226,0.45220524,0.40259463,0.61786425,0,0.0,0.0,0.0,0.0,0.0,0,0,0.23212145,0.0,0,0,1.0,0.0,509.0,4425.128205128206,3852.307692307693,4260.512820512821,4511.794871794872,4161.025641025642,4475.384615384616,4460.000000000001,4443.589743589744,4440.000000000001,4666.153846153847,4161.538461538462,4171.282051282052,4136.410256410257,4362.564102564103
504.31622,0.86508226,0.45220524,0.40259463,0.61786425,0,0.0,0.0,0.0,0.0,0.0,0,0,0.5672191,0.0,0,0,33.0,0.0,0.0,4407.179487179487,3816.410256410257,4281.538461538462,4531.282051282052,4171.282051282052,4484.102564102564,4483.589743589744,4458.461538461539,4452.307692307693,4699.48717948718,4214.358974358975,4214.358974358975,4204.615384615385,4325.128205128206
504.4413,0.89856386,0.4525104,0.39562747,0.6112688,0,0.0,0.0,0.0,0.0,0.0,0,0,1.0,0.0,0,0,49.0,0.0,0.0,4403.076923076924,3803.076923076924,4289.2307692307695,4483.589743589744,4152.307692307693,4459.48717948718,4455.8974358974365,4438.974358974359,4437.435897435898,4704.615384615386,4202.051282051282,4202.564102564103,4170.256410256411,4342.051282051282
504.81665,0.89856386,0.4525104,0.39562747,0.6112688,0,0.0,0.0,0.0,0.0,0.0,0,0,0.24587288,0.0,0,0,97.0,0.0,505.0,4346.666666666667,3857.435897435898,4338.461538461539,4520.000000000001,4184.615384615385,4506.666666666667,4491.282051282052,4449.2307692307695,4471.282051282052,4723.589743589744,4237.435897435898,4273.333333333334,4168.205128205129,4546.153846153847
504.94174,0.893228,0.45278502,0.38935438,0.6053317,0,0.0,0.0,0.0,0.0,1.0,0,0,0.0,0.0,0,0,113.0,0.0,505.0,4397.435897435898,3841.538461538462,4353.333333333334,4522.051282051282,4205.128205128206,4521.025641025642,4490.769230769231,4456.410256410257,4454.358974358975,4711.794871794872,4226.666666666667,4269.74358974359,4165.641025641026,4731.794871794872
505.31708,0.893228,0.45278502,0.38935438,0.6053317,0,0.0,0.0,0.0,0.0,0.8821047,0,0,0.0,0.0,0,0,32.0,0.0,0.0,4413.333333333334,3871.2820512820517,4367.6923076923085,4466.666666666667,4243.076923076924,4563.076923076924,4468.205128205129,4466.153846153847,4472.820512820514,4710.769230769231,4246.666666666667,4279.48717948718,4148.205128205129,4697.435897435898
505.5673,0.77650285,0.4527859,0.3837132,0.59999216,0,0.0,0.0,0.0,0.0,1.0,0,0,0.0,0.0,0,0,64.0,0.0,501.0,4484.102564102564,3816.410256410257,4396.923076923077,4442.564102564103,4234.871794871796,4558.974358974359,4475.384615384616,4486.666666666667,4500.512820512821,4749.743589743591,4291.282051282052,4286.153846153847,4212.820512820514,4780.000000000001
505.5673,0.77650285,0.4527859,0.3837132,0.59999216,0,0.0,0.0,0.0,0.0,1.0,0,0,0.0,0.0,0,0,64.0,0.0,501.0,4484.102564102564,3816.410256410257,4396.923076923077,4442.564102564103,4234.871794871796,4558.974358974359,4475.384615384616,4486.666666666667,4500.512820512821,4749.743589743591,4291.282051282052,4286.153846153847,4212.820512820514,4780.000000000001
505.9426,0.7096613,0.44695848,0.37983218,0.6049763,0,0.0,0.0,0.0,0.0,1.0,0,0,0.0,0.0,0,0,112.0,0.0,520.0,4562.051282051282,3833.333333333334,4415.8974358974365,4412.820512820514,4217.435897435898,4557.948717948719,4472.820512820514,4473.846153846154,4495.8974358974365,4767.179487179488,4277.435897435898,4265.641025641026,4264.615384615385,4696.410256410257
505.9426,0.7096613,0.44695848,0.37983218,0.6049763,0,0.0,0.0,0.0,0.0,1.0,0,0,0.0,0.0,0,0,112.0,0.0,520.0,4562.051282051282,3833.333333333334,4415.8974358974365,4412.820512820514,4217.435897435898,4557.948717948719,4472.820512820514,4473.846153846154,4495.8974358974365,4767.179487179488,4277.435897435898,4265.641025641026,4264.615384615385,4696.410256410257
506.44305,0.65886855,0.43336874,0.38043162,0.6226275,0,0.0,0.0,0.0,0.0,1.0,0,0,0.0,0.0,0,0,47.0,0.0,0.0,4577.435897435898,3800.512820512821,4424.615384615385,4395.384615384616,4203.076923076924,4543.589743589744,4475.8974358974365,4472.307692307693,4486.153846153847,4754.358974358975,4276.410256410257,4253.333333333334,4263.076923076924,4399.48717948718
506.81836,0.65886855,0.43336874,0.38043162,0.6226275,0,0.0,0.0,0.0,0.0,0.19890454,0,0,0.0,0.0,0,0,95.0,0.0,504.0,4642.051282051282,3916.410256410257,4406.666666666667,4468.205128205129,4260.000000000001,4586.153846153847,4568.205128205129,4490.256410256411,4477.948717948719,4758.974358974359,4247.179487179487,4209.74358974359,4163.076923076924,4400.000000000001
507.06857,0.6221856,0.41794035,0.38385326,0.6385042,0,0.0,0.0,0.0,0.0,0.13223243,0,0,0.0,0.0,0,0,127.0,0.0,504.0,4616.923076923077,3815.8974358974365,4410.256410256411,4501.025641025642,4295.384615384616,4618.974358974359,4578.974358974359,4569.743589743591,4508.717948717949,4814.358974358975,4342.051282051282,4153.846153846154,4208.205128205129,4430.769230769231
507.3188,0.6221856,0.41794035,0.38385326,0.6385042,0,0.0,0.0,0.0,0.0,0.12180045,0,0,0.0,0.0,0,0,30.0,0.0,0.0,4535.384615384616,3763.589743589744,4408.717948717949,4459.48717948718,4266.153846153847,4579.48717948718,4490.256410256411,4598.974358974359,4476.410256410257,4811.794871794872,4340.512820512821,4152.307692307693,4216.410256410257,4345.128205128206
507.569,0.5362739,0.4039456,0.38756967,0.6527811,0,0.0,0.0,0.0,0.0,0.20637482,0,0,0.0,0.0,0,0,62.0,0.0,0.0,4575.384615384616,3863.589743589744,4431.794871794872,4459.48717948718,4300.512820512821,4595.384615384616,4506.153846153847,4603.589743589744,4460.512820512821,4829.743589743591,4343.589743589744,4217.435897435898,4270.769230769231,4384.102564102564
507.8192,0.5362739,0.4039456,0.38756967,0.6527811,0,0.0,0.0,0.0,0.0,0.64128584,0,0,0.0,0.0,0,0,94.0,0.0,530.0,4550.769230769231,3818.9743589743593,4461.538461538462,4444.615384615385,4293.846153846154,4580.000000000001,4503.589743589744,4614.871794871796,4455.8974358974365,4841.538461538462,4312.820512820514,4233.333333333334,4277.435897435898,4311.282051282052
508.06943,0.5392572,0.38933948,0.39091167,0.6656155,0,0.0,0.0,0.0,0.0,1.0,0,0,0.0,0.0,0,0,126.0,0.0,530.0,4624.615384615385,3745.1282051282055,4492.820512820514,4399.48717948718,4261.538461538462,4555.384615384616,4508.717948717949,4647.179487179488,4512.307692307693,4892.307692307693,4396.410256410257,4369.2307692307695,4431.282051282052,4311.794871794872
508.19455,0.5392572,0.38933948,0.39091167,0.6656155,0,0.0,0.0,0.0,0.0,0.0,0,0,1.0,0.0,0,0,13.0,0.0,509.0,4660.000000000001,3821.0256410256416,4495.8974358974365,4403.076923076924,4267.179487179487,4568.717948717949,4522.564102564103,4658.974358974359,4540.000000000001,4893.333333333334,4356.410256410257,4391.282051282052,4426.666666666667,4299.48717948718
508.56985,0.52130705,0.38996342,0.39483315,0.67826396,0,0.0,0.0,0.0,0.0,0.0,0,0,0.3273022,0.0,0,0,61.0,0.0,0.0,4581.025641025642,3802.564102564103,4483.076923076924,4351.794871794872,4231.794871794872,4522.051282051282,4461.025641025642,4574.871794871796,4458.974358974359,4825.128205128206,4265.128205128206,4329.2307692307695,4322.564102564103,4292.307692307693
508.82007,0.52130705,0.38996342,0.39483315,0.67826396,0,0.0,0.0,0.0,0.0,0.83788776,0,0,0.0,0.0,0,0,93.0,0.0,509.0,4500.512820512821,3784.615384615385,4473.333333333334,4338.974358974359,4203.589743589744,4509.2307692307695,4446.153846153847,4557.948717948719,4461.025641025642,4813.333333333334,4269.2307692307695,4319.48717948718,4295.384615384616,4384.102564102564
508.9452,0.52314746,0.38114664,0.3983593,0.695039,0,0.0,0.0,0.0,0.0,1.0,0,0,0.0,0.0,0,0,109.0,0.0,509.0,4488.717948717949,3836.9230769230776,4443.076923076924,4353.333333333334,4211.794871794872,4504.102564102564,4443.076923076924,4512.820512820514,4413.846153846154,4735.8974358974365,4151.794871794872,4260.512820512821,4162.564102564103,4448.717948717949
509.32053,0.52314746,0.38114664,0.3983593,0.695039,0,0.0,0.0,0.0,0.0,0.48219603,0,0,0.0,0.0,0,0,28.0,0.0,0.0,4546.666666666667,3880.0000000000005,4459.48717948718,4336.410256410257,4220.000000000001,4528.717948717949,4474.871794871796,4506.666666666667,4398.461538461539,4770.256410256411,4282.051282051282,4222.051282051282,4179.48717948718,4415.8974358974365
509.57074,0.41971645,0.38072595,0.4005962,0.71600294,0,0.0,0.0,0.0,0.0,0.52773297,0,0,0.0,0.0,0,0,60.0,0.0,0.0,4513.846153846154,3816.410256410257,4447.6923076923085,4322.564102564103,4203.076923076924,4525.641025641026,4480.000000000001,4512.307692307693,4447.179487179487,4794.871794871796,4288.717948717949,4265.641025641026,4197.948717948719,4358.974358974359
509.82095,0.41971645,0.38072595,0.4005962,0.71600294,0,0.0,0.0,0.0,0.0,0.7171252,0,0,0.0,0.0,0,0,92.0,0.0,520.0,4546.666666666667,3826.1538461538466,4458.974358974359,4291.794871794872,4197.948717948719,4527.179487179488,4458.461538461539,4464.102564102564,4436.923076923077,4767.6923076923085,4294.871794871796,4277.948717948719,4192.820512820514,4382.564102564103
510.07117,0.37149128,0.37694257,0.40378672,0.74044335,0,0.0,0.0,0.0,0.0,0.81297994,0,0,0.0,0.0,0,0,124.0,0.0,520.0,4520.512820512821,3877.435897435898,4474.871794871796,4269.2307692307695,4145.641025641026,4493.846153846154,4445.641025641026,4452.307692307693,4395.384615384616,4705.128205128206,4237.435897435898,4289.74358974359,4140.512820512821,4464.615384615385
510.19626,0.37149128,0.37694257,0.40378672,0.74044335,0,0.0,0.0,0.0,0.0,1.0,0,0,0.0,0.0,0,0,11.0,0.0,509.0,4428.205128205129,3832.820512820513,4437.948717948719,4215.384615384616,4097.948717948719,4444.102564102564,4385.641025641026,4390.256410256411,4349.2307692307695,4617.948717948719,4152.820512820514,4233.333333333334,4081.538461538462,4451.794871794872
510.5716,0.4463063,0.3643969,0.4048931,0.76236576,0,0.0,0.0,0.0,0.0,0.252548,0,0,0.0,0.0,0,0,59.0,0.0,0.0,4393.333333333334,3878.461538461539,4412.307692307693,4232.307692307693,4123.589743589744,4473.333333333334,4374.871794871796,4385.128205128206,4363.589743589744,4633.846153846154,4171.282051282052,4218.974358974359,4107.179487179487,4488.717948717949
510.8218,0.4463063,0.3643969,0.4048931,0.76236576,0,0.0,0.0,0.0,0.0,1.0,0,0,0.0,0.0,0,0,91.0,0.0,509.0,4330.256410256411,3985.1282051282055,4416.410256410257,4258.461538461539,4152.820512820514,4495.384615384616,4387.6923076923085,4398.974358974359,4368.717948717949,4654.871794871796,4169.2307692307695,4231.282051282052,4099.48717948718,4509.743589743591
510.9469,0.52949905,0.35318974,0.40292844,0.78713274,0,0.0,0.0,0.0,0.0,1.0,0,0,0.0,0.0,0,0,107.0,0.0,509.0,4515.384615384616,3976.9230769230776,4411.282051282052,4245.128205128206,4136.923076923077,4475.384615384616,4382.564102564103,4391.282051282052,4358.974358974359,4654.871794871796,4175.384615384616,4218.974358974359,4093.333333333334,4552.820512820514
510.9469,0.52949905,0.35318974,0.40292844,0.78713274,0,0.0,0.0,0.0,0.0,1.0,0,0,0.0,0.0,0,0,107.0,0.0,509.0,4515.384615384616,3976.9230769230776,4411.282051282052,4245.128205128206,4136.923076923077,4475.384615384616,4382.564102564103,4391.282051282052,4358.974358974359,4654.871794871796,4175.384615384616,4218.974358974359,4093.333333333334,4552.820512820514
511.57245,0.5863425,0.360559,0.39982757,0.8139881,0,0.0,0.0,0.0,0.0,0.5129215,0,0,0.0,0.0,0,0,58.0,0.0,0.0,4676.410256410257,4003.589743589744,4464.615384615385,4305.641025641026,4205.641025641026,4537.435897435898,4457.948717948719,4463.589743589744,4384.102564102564,4738.974358974359,4277.435897435898,4286.666666666667,4159.48717948718,4657.948717948719
511.82266,0.5863425,0.360559,0.39982757,0.8139881,0,0.0,0.0,0.0,0.0,0.7939443,0,0,0.0,0.0,0,0,90.0,0.0,530.0,4590.256410256411,3939.48717948718,4456.923076923077,4283.076923076924,4183.589743589744,4516.923076923077,4445.641025641026,4456.410256410257,4383.589743589744,4727.6923076923085,4288.717948717949,4262.564102564103,4181.025641025642,4657.948717948719
512.0729,0.54066926,0.3679176,0.39703378,0.8360515,0,0.0,0.0,0.0,0.0,0.5845353,0,0,0.0,0.0,0,0,122.0,0.0,530.0,4626.666666666667,3909.2307692307695,4475.384615384616,4310.256410256411,4184.102564102564,4504.615384615385,4442.051282051282,4458.461538461539,4382.051282051282,4718.461538461539,4304.102564102564,4280.000000000001,4202.564102564103,4636.410256410257
512.3231,0.54066926,0.3679176,0.39703378,0.8360515,0,0.0,0.0,0.0,0.0,0.55839264,0,0,0.0,0.0,0,0,25.0,0.0,0.0,4611.282051282052,3920.0000000000005,4460.512820512821,4312.307692307693,4180.512820512821,4506.153846153847,4441.025641025642,4458.461538461539,4367.6923076923085,4707.179487179488,4289.2307692307695,4289.74358974359,4165.128205128206,4622.051282051282
512.5733,0.4696989,0.37018523,0.39451647,0.851291,0,0.0,0.0,0.0,0.0,0.5966466,0,0,0.0,0.0,0,0,57.0,0.0,0.0,4552.820512820514,3870.7692307692314,4477.948717948719,4328.717948717949,4170.769230769231,4500.512820512821,4445.128205128206,4472.307692307693,4389.743589743591,4706.153846153847,4296.923076923077,4310.769230769231,4177.435897435898,4679.48717948718
512.6984,0.4696989,0.37018523,0.39451647,0.851291,0,0.0,0.0,0.0,0.0,1.0,0,0,0.0,0.0,0,0,73.0,0.0,477.0,4508.717948717949,3860.0000000000005,4475.384615384616,4327.179487179487,4180.512820512821,4504.615384615385,4445.641025641026,4473.846153846154,4391.282051282052,4714.358974358975,4313.846153846154,4316.410256410257,4197.435897435898,4734.358974358975
512.9486,0.39500612,0.36841306,0.3922481,0.8626248,0,0.0,0.0,0.0,0.0,1.0,0,0,0.0,0.0,0,0,105.0,0.0,509.0,4604.615384615385,3918.9743589743593,4445.128205128206,4340.512820512821,4187.179487179487,4506.666666666667,4435.384615384616,4472.820512820514,4388.205128205129,4695.384615384616,4291.282051282052,4303.076923076924,4174.871794871796,4704.102564102564
512.9486,0.39500612,0.36841306,0.3922481,0.8626248,0,0.0,0.0,0.0,0.0,1.0,0,0,0.0,0.0,0,0,105.0,0.0,509.0,4604.615384615385,3918.9743589743593,4445.128205128206,4340.512820512821,4187.179487179487,4506.666666666667,4435.384615384616,4472.820512820514,4388.205128205129,4695.384615384616,4291.282051282052,4303.076923076924,4174.871794871796,4704.102564102564
513.57416,0.34797317,0.35935056,0.39010268,0.8649679,0,0.0,0.0,0.0,0.0,1.0,0,0,0.0,0.0,0,0,56.0,0.0,0.0,4560.512820512821,3831.7948717948725,4449.2307692307695,4336.410256410257,4152.307692307693,4456.923076923077,4398.974358974359,4451.282051282052,4386.666666666667,4747.179487179488,4304.615384615385,4263.589743589744,4190.256410256411,4531.282051282052
513.57416,0.34797317,0.35935056,0.39010268,0.8649679,0,0.0,0.0,0.0,0.0,1.0,0,0,0.0,0.0,0,0,56.0,0.0,0.0,4560.512820512821,3831.7948717948725,4449.2307692307695,4336.410256410257,4152.307692307693,4456.923076923077,4398.974358974359,4451.282051282052,4386.666666666667,4747.179487179488,4304.615384615385,4263.589743589744,4190.256410256411,4531.282051282052
514.0746,0.29408243,0.35221127,0.38941717,0.8527804,0,0.0,0.0,0.0,0.0,0.8893126,0,0,0.0,0.0,0,0,120.0,0.0,520.0,4642.051282051282,3814.8717948717954,4477.948717948719,4376.923076923077,4133.846153846154,4446.666666666667,4390.256410256411,4457.435897435898,4338.974358974359,4694.871794871796,4277.948717948719,4247.179487179487,4163.589743589744,4525.641025641026
514.3248,0.29408243,0.35221127,0.38941717,0.8527804,0,0.0,0.0,0.0,0.0,0.57084584,0,0,0.0,0.0,0,0,23.0,0.0,0.0,4596.923076923077,3793.8461538461543,4447.6923076923085,4379.48717948718,4117.948717948719,4433.846153846154,4377.948717948719,4445.641025641026,4327.179487179487,4687.6923076923085,4276.410256410257,4236.410256410257,4176.410256410257,4360.512820512821
514.4499,0.31843632,0.3440893,0.39049864,0.83949125,0,0.0,0.0,0.0,0.0,1.0,0,0,0.0,0.0,0,0,39.0,0.0,0.0,4548.205128205129,3850.7692307692314,4423.076923076924,4381.538461538462,4116.923076923077,4442.564102564103,4364.615384615385,4430.769230769231,4322.564102564103,4677.435897435898,4289.74358974359,4214.871794871796,4138.461538461539,4333.846153846154
514.82526,0.31843632,0.3440893,0.39049864,0.83949125,0,0.0,0.0,0.0,0.0,0.31359068,0,0,0.0,0.0,0,0,87.0,0.0,505.0,4560.512820512821,3909.7435897435903,4461.025641025642,4455.384615384616,4161.538461538462,4486.666666666667,4402.564102564103,4457.435897435898,4347.6923076923085,4677.948717948719,4368.205128205129,4267.179487179487,4200.000000000001,4407.179487179487
515.07544,0.31843537,0.33672598,0.39378586,0.82530135,0,0.0,0.0,0.0,0.0,0.10112306,0,0,0.0,0.0,0,0,119.0,0.0,505.0,4612.307692307693,3908.205128205129,4491.282051282052,4439.48717948718,4184.615384615385,4502.564102564103,4412.307692307693,4441.025641025642,4353.333333333334,4658.974358974359,4387.179487179487,4247.179487179487,4182.051282051282,4411.282051282052
515.3257,0.31843537,0.33672598,0.39378586,0.82530135,0,0.0,0.0,0.0,0.0,0.24697387,0,0,0.0,0.0,0,0,22.0,0.0,0.0,4622.051282051282,3956.410256410257,4473.333333333334,4432.820512820514,4205.128205128206,4523.076923076924,4424.615384615385,4440.000000000001,4384.102564102564,4679.48717948718,4406.666666666667,4256.923076923077,4202.564102564103,4426.666666666667
515.57587,0.29960713,0.32497853,0.39731884,0.8125474,0,0.0,0.0,0.0,0.0,0.25151658,0,0,0.0,0.0,0,0,54.0,0.0,0.0,4662.051282051282,3942.564102564103,4491.794871794872,4437.435897435898,4215.8974358974365,4537.435897435898,4434.871794871796,4449.743589743591,4388.717948717949,4673.846153846154,4383.076923076924,4260.512820512821,4216.410256410257,4462.051282051282
515.8261,0.29960713,0.32497853,0.39731884,0.8125474,0,0.0,0.0,0.0,0.0,0.24972394,0,0,0.0,0.0,0,0,86.0,0.0,530.0,4581.538461538462,3909.7435897435903,4472.820512820514,4447.179487179487,4190.256410256411,4509.743589743591,4409.743589743591,4467.6923076923085,4400.512820512821,4693.846153846154,4404.102564102564,4253.846153846154,4266.666666666667,4468.205128205129
516.0763,0.19493912,0.3124111,0.39759874,0.8039063,0,0.0,0.0,0.0,0.0,0.4947102,0,0,0.0,0.0,0,0,118.0,0.0,530.0,4578.974358974359,3897.9487179487182,4458.974358974359,4376.923076923077,4202.051282051282,4502.564102564103,4374.358974358975,4425.128205128206,4378.461538461539,4721.025641025642,4326.666666666667,4196.923076923077,4246.153846153847,4433.846153846154
516.32654,0.19493912,0.3124111,0.39759874,0.8039063,0,0.0,0.0,0.0,0.0,0.0,0,0,0.0,0.0,0,0,21.0,0.0,0.0,4612.307692307693,3889.7435897435903,4456.923076923077,4324.615384615385,4221.538461538462,4510.256410256411,4399.48717948718,4449.743589743591,4373.333333333334,4754.358974358975,4341.538461538462,4215.8974358974365,4239.48717948718,4445.128205128206
516.45166,0.09486618,0.3004721,0.39784756,0.7961257,0,0.0,0.0,0.0,0.0,0.0,0,0,0.0,0.0,0,0,37.0,0.0,0.0,4512.307692307693,3895.3846153846157,4449.743589743591,4346.153846153847,4231.282051282052,4521.538461538462,4406.153846153847,4450.769230769231,4375.384615384616,4737.948717948719,4349.743589743591,4216.410256410257,4232.820512820514,4415.8974358974365
516.82697,0.09486618,0.3004721,0.39784756,0.7961257,0,0.0,0.0,0.0,0.0,0.8823396,0,0,0.0,0.0,0,0,85.0,0.0,509.0,4566.666666666667,3878.461538461539,4442.051282051282,4381.538461538462,4234.358974358975,4526.153846153847,4411.794871794872,4461.538461538462,4403.589743589744,4741.025641025642,4367.179487179487,4228.717948717949,4262.564102564103,4441.538461538462
517.07715,0.008575292,0.2942835,0.39340255,0.80004644,0,0.0,0.0,0.0,0.0,0.6563807,0,0,0.0,0.0,0,0,117.0,0.0,509.0,4620.000000000001,3875.8974358974365,4471.794871794872,4361.538461538462,4221.025641025642,4521.538461538462,4418.974358974359,4451.282051282052,4379.48717948718,4728.205128205129,4341.538461538462,4247.179487179487,4246.153846153847,4436.923076923077
517.3274,0.008575292,0.2942835,0.39340255,0.80004644,0,0.0,0.0,0.0,0.0,0.65431374,0,0,0.0,0.0,0,0,20.0,0.0,0.0,4616.410256410257,3848.205128205129,4502.051282051282,4356.410256410257,4202.564102564103,4509.743589743591,4388.717948717949,4438.974358974359,4367.6923076923085,4717.948717948719,4386.666666666667,4233.846153846154,4249.74358974359,4434.871794871796
517.57764,0.0,0.2894653,0.3869647,0.8135191,0,0.0,0.0,0.0,0.0,0.13208885,0,0,0.0,0.0,0,0,52.0,0.0,0.0,4604.615384615385,3822.0512820512827,4509.743589743591,4354.871794871796,4182.564102564103,4489.2307692307695,4387.6923076923085,4443.076923076924,4402.051282051282,4716.923076923077,4388.205128205129,4212.820512820514,4258.974358974359,4433.333333333334
517.8278,0.0,0.2894653,0.3869647,0.8135191,0,0.0,0.0,0.0,0.0,0.20566766,0,0,0.0,0.0,0,0,84.0,0.0,519.0,4618.974358974359,3860.0000000000005,4509.743589743591,4356.923076923077,4203.589743589744,4511.794871794872,4403.076923076924,4458.461538461539,4413.333333333334,4753.333333333334,4371.794871794872,4216.923076923077,4265.128205128206,4388.717948717949
518.07806,0.0,0.28427425,0.3795732,0.82555,0,0.0,0.0,0.0,0.0,0.6325062,0,0,0.0,0.0,0,0,116.0,0.0,519.0,4512.307692307693,3832.820512820513,4490.256410256411,4358.461538461539,4202.051282051282,4505.641025641026,4377.948717948719,4422.051282051282,4361.538461538462,4747.6923076923085,4391.282051282052,4199.48717948718,4266.153846153847,4403.076923076924
518.2031,0.0,0.28427425,0.3795732,0.82555,0,0.0,0.0,0.0,0.0,1.0,0,0,0.0,0.0,0,0,3.0,0.0,543.0,4478.974358974359,3840.512820512821,4476.923076923077,4359.48717948718,4191.794871794872,4491.794871794872,4377.948717948719,4399.48717948718,4352.307692307693,4747.6923076923085,4381.538461538462,4190.769230769231,4279.48717948718,4433.333333333334
518.4846,0.0,0.2804664,0.37293753,0.83675843,0,0.0,0.0,0.0,0.0,1.0,0,0,0.0,0.0,0,0,39.0,0.0,0.0,4631.282051282052,3925.6410256410263,4457.948717948719,4362.051282051282,4181.538461538462,4490.769230769231,4389.743589743591,4415.8974358974365,4357.948717948719,4753.846153846154,4392.820512820514,4189.74358974359,4307.179487179487,3784.1025641025644
518.8287,0.0,0.2804664,0.37293753,0.83675843,0,0.0,0.0,0.0,0.0,1.0,0,0,0.0,0.0,0,0,83.0,0.0,511.0,4657.948717948719,3911.2820512820517,4460.000000000001,4375.8974358974365,4215.8974358974365,4511.282051282052,4427.6923076923085,4457.948717948719,4387.6923076923085,4798.974358974359,4382.564102564103,4216.923076923077,4281.538461538462,3916.410256410257
519.0789,0.08870318,0.2800549,0.36880723,0.8366873,0,0.0,0.0,0.0,0.0,0.886043,0,0,0.0,0.0,0,0,115.0,0.0,511.0,4683.076923076924,3929.7435897435903,4460.512820512821,4422.051282051282,4233.846153846154,4522.051282051282,4405.641025641026,4416.923076923077,4382.051282051282,4776.923076923077,4379.48717948718,4217.948717948719,4333.333333333334,4004.615384615385
519.3291,0.08870318,0.2800549,0.36880723,0.8366873,0,0.0,0.0,0.0,0.0,0.45453537,0,0,0.0,0.0,0,0,18.0,0.0,0.0,4756.410256410257,4012.307692307693,4465.641025641026,4426.666666666667,4250.256410256411,4541.025641025642,4437.435897435898,4429.743589743591,4385.128205128206,4777.948717948719,4373.333333333334,4229.74358974359,4295.8974358974365,4085.1282051282055
519.4542,0.16680229,0.27942213,0.3652449,0.81673694,0,0.0,0.0,0.0,0.0,1.0,0,0,0.0,0.0,0,0,34.0,0.0,0.0,4758.974358974359,3955.3846153846157,4489.743589743591,4443.589743589744,4239.48717948718,4533.846153846154,4445.641025641026,4437.435897435898,4395.8974358974365,4777.948717948719,4372.307692307693,4246.666666666667,4284.615384615385,4132.307692307693
519.4542,0.16680229,0.27942213,0.3652449,0.81673694,0,0.0,0.0,0.0,0.0,1.0,0,0,0.0,0.0,0,0,34.0,0.0,0.0,4758.974358974359,3955.3846153846157,4489.743589743591,4443.589743589744,4239.48717948718,4533.846153846154,4445.641025641026,4437.435897435898,4395.8974358974365,4777.948717948719,4372.307692307693,4246.666666666667,4284.615384615385,4132.307692307693
520.0798,0.06468238,0.2772513,0.36203736,0.78997177,0,0.0,0.0,0.0,0.0,0.8678174,0,0,0.0,0.0,0,0,114.0,0.0,530.0,4732.820512820514,4027.1794871794878,4521.538461538462,4473.846153846154,4238.461538461539,4536.410256410257,4455.384615384616,4440.512820512821,4410.256410256411,4790.256410256411,4388.205128205129,4269.74358974359,4244.615384615385,4295.384615384616
520.32996,0.06468238,0.2772513,0.36203736,0.78997177,0,0.0,0.0,0.0,0.0,0.6145758,0,0,0.0,0.0,0,0,17.0,0.0,0.0,4706.153846153847,3966.666666666667,4523.076923076924,4475.8974358974365,4249.2307692307695,4541.538461538462,4458.974358974359,4473.333333333334,4406.666666666667,4804.102564102564,4414.871794871796,4293.333333333334,4252.307692307693,4358.974358974359
520.5802,0.06181609,0.27202034,0.3591493,0.7659348,0,0.0,0.0,0.0,0.0,0.20436712,0,0,0.0,0.0,0,0,49.0,0.0,0.0,4721.538461538462,3974.358974358975,4526.153846153847,4510.256410256411,4296.410256410257,4589.2307692307695,4478.974358974359,4521.538461538462,4446.666666666667,4829.743589743591,4456.923076923077,4312.820512820514,4265.128205128206,4421.538461538462
520.8304,0.06181609,0.27202034,0.3591493,0.7659348,0,0.0,0.0,0.0,0.0,0.39556378,0,0,0.0,0.0,0,0,81.0,0.0,509.0,4667.6923076923085,3958.9743589743593,4490.256410256411,4474.358974358975,4268.717948717949,4556.410256410257,4424.102564102564,4443.076923076924,4365.641025641026,4754.358974358975,4437.948717948719,4248.205128205129,4213.846153846154,4382.564102564103
521.0806,0.053745314,0.2648532,0.35655037,0.7443376,0,0.0,0.0,0.0,0.0,0.19916458,0,0,0.0,0.0,0,0,113.0,0.0,509.0,4660.512820512821,3909.2307692307695,4525.641025641026,4448.205128205129,4274.871794871796,4538.974358974359,4410.769230769231,4462.564102564103,4326.153846153847,4737.435897435898,4424.615384615385,4257.948717948719,4229.74358974359,4458.461538461539
521.20575,0.053745314,0.2648532,0.35655037,0.7443376,0,0.0,0.0,0.0,0.0,0.0,0,0,0.0,0.0,0,0,0.0,0.0,499.0,4614.871794871796,3930.7692307692314,4509.743589743591,4441.538461538462,4281.025641025642,4523.076923076924,4403.589743589744,4447.179487179487,4294.871794871796,4691.282051282052,4382.051282051282,4229.74358974359,4161.538461538462,4411.282051282052
521.58105,0.06405865,0.2568492,0.3542131,0.7249432,0,0.0,0.0,0.0,0.0,1.0,0,0,0.0,0.0,0,0,48.0,0.0,0.0,4472.820512820514,3962.564102564103,4450.256410256411,4493.846153846154,4179.48717948718,4486.666666666667,4394.871794871796,4454.358974358975,4293.846153846154,4722.564102564103,4447.179487179487,4311.282051282052,4180.512820512821,4446.153846153847
521.83124,0.06405865,0.2568492,0.3542131,0.7249432,0,0.0,0.0,0.0,0.0,0.45319757,0,0,0.0,0.0,0,0,80.0,0.0,518.0,4516.923076923077,3936.9230769230776,4451.282051282052,4559.48717948718,4211.794871794872,4514.358974358975,4426.666666666667,4447.6923076923085,4288.205128205129,4713.333333333334,4445.641025641026,4272.307692307693,4204.615384615385,4464.102564102564
522.0815,0.035539374,0.25528154,0.35405135,0.7075051,0,0.0,0.0,0.0,0.0,0.0,0,0,0.42264798,0.0,0,0,112.0,0.0,518.0,4565.641025641026,3844.1025641025644,4459.48717948718,4535.8974358974365,4231.282051282052,4536.923076923077,4443.589743589744,4490.769230769231,4350.769230769231,4740.512820512821,4456.410256410257,4242.051282051282,4245.641025641026,4417.948717948719
522.33167,0.035539374,0.25528154,0.35405135,0.7075051,0,0.0,0.0,0.0,0.0,0.0,0,0,0.6289718,0.0,0,0,15.0,0.0,511.0,4649.2307692307695,3833.8461538461543,4474.358974358975,4430.256410256411,4232.820512820514,4539.48717948718,4413.846153846154,4482.051282051282,4334.358974358975,4701.025641025642,4393.846153846154,4226.666666666667,4177.948717948719,4439.48717948718
522.4568,0.023428587,0.26341256,0.35665506,0.694448,0,0.0,0.0,0.0,0.0,0.0,0,0,0.0,0.0,0,0,31.0,0.0,0.0,4702.564102564103,3876.410256410257,4492.307692307693,4418.974358974359,4272.307692307693,4553.333333333334,4421.538461538462,4489.743589743591,4298.461538461539,4654.358974358975,4371.282051282052,4206.666666666667,4151.282051282052,4500.512820512821
522.70703,0.023428587,0.26341256,0.35665506,0.694448,0,0.0,0.0,0.0,0.0,1.0,0,0,0.0,0.0,0,0,63.0,0.0,0.0,4745.641025641026,3925.6410256410263,4564.615384615385,4490.769230769231,4276.923076923077,4555.8974358974365,4448.717948717949,4490.256410256411,4214.358974358975,4591.282051282052,4404.615384615385,4298.461538461539,4063.076923076924,4617.435897435898
523.08234,0.058233917,0.2704027,0.36297575,0.69020474,0,0.0,0.0,0.0,0.0,0.11731575,0,0,0.0,0.0,0,0,111.0,0.0,507.0,4729.743589743591,3970.7692307692314,4644.615384615385,4702.564102564103,4313.333333333334,4632.820512820514,4600.512820512821,4586.153846153847,4170.769230769231,4654.871794871796,4560.000000000001,4409.2307692307695,4018.461538461539,4667.6923076923085
523.3326,0.058233917,0.2704027,0.36297575,0.69020474,0,0.0,0.0,0.0,0.0,0.0,0,0,0.0,0.047596388,0,0,14.0,0.0,530.0,4699.48717948718,4054.358974358975,4677.948717948719,4826.666666666667,4392.307692307693,4713.333333333334,4687.179487179488,4635.384615384616,4202.564102564103,4688.717948717949,4630.769230769231,4473.846153846154,4109.2307692307695,4804.615384615386
523.58276,0.22960658,0.27669385,0.3710629,0.69226897,0,0.0,0.0,0.0,0.0,0.0,0,0,0.0,0.15892608,0,0,46.0,0.0,0.0,4727.179487179488,4088.205128205129,4701.538461538462,4868.205128205129,4411.282051282052,4740.000000000001,4779.48717948718,4680.512820512821,4264.102564102564,4754.358974358975,4695.384615384616,4487.6923076923085,4169.2307692307695,4928.717948717949
523.833,0.22960658,0.27669385,0.3710629,0.69226897,0,0.0,0.0,0.0,0.0,0.0,0,0,0.0,0.14325917,0,0,78.0,0.0,530.0,4696.923076923077,4098.974358974359,4677.435897435898,4841.025641025642,4382.564102564103,4701.538461538462,4778.974358974359,4624.102564102564,4282.564102564103,4703.076923076924,4648.205128205129,4476.410256410257,4119.48717948718,4961.538461538462
524.0832,0.29583877,0.2823559,0.3783394,0.6890502,0,0.0,0.0,0.0,0.0,0.0,0,0,0.0,0.0,0,0,110.0,0.0,530.0,4693.846153846154,4030.2564102564106,4672.307692307693,4791.794871794872,4363.076923076924,4689.2307692307695,4769.2307692307695,4571.282051282052,4336.410256410257,4699.48717948718,4610.256410256411,4441.538461538462,4073.333333333334,4861.025641025642
524.0832,0.29583877,0.2823559,0.3783394,0.6890502,0,0.0,0.0,0.0,0.0,0.0,0,0,0.0,0.0,0,0,110.0,0.0,530.0,4693.846153846154,4030.2564102564106,4672.307692307693,4791.794871794872,4363.076923076924,4689.2307692307695,4769.2307692307695,4571.282051282052,4336.410256410257,4699.48717948718,4610.256410256411,4441.538461538462,4073.333333333334,4861.025641025642
524.5836,0.4477105,0.2874517,0.38488594,0.68126106,0,0.0,0.0,0.0,0.0,0.70048326,0,0,0.0,0.0,0,0,45.0,0.0,0.0,4611.794871794872,3894.8717948717954,4576.410256410257,4642.051282051282,4216.410256410257,4549.743589743591,4636.923076923077,4488.717948717949,4364.102564102564,4618.461538461539,4475.384615384616,4348.205128205129,4021.538461538462,4791.794871794872
524.83386,0.4477105,0.2874517,0.38488594,0.68126106,0,0.0,0.0,0.0,0.0,0.27444416,0,0,0.0,0.0,0,0,77.0,0.0,502.0,4627.179487179488,3871.7948717948725,4544.615384615385,4593.333333333334,4199.48717948718,4528.717948717949,4593.333333333334,4495.8974358974365,4412.820512820514,4635.8974358974365,4431.794871794872,4270.256410256411,4046.666666666667,4756.923076923077
525.08405,0.4795375,0.29203796,0.3904432,0.67425007,0,0.0,0.0,0.0,0.0,0.1647318,0,0,0.0,0.0,0,0,109.0,0.0,502.0,4592.307692307693,3881.538461538462,4510.256410256411,4554.358974358975,4172.820512820514,4507.179487179488,4511.794871794872,4449.743589743591,4379.48717948718,4634.358974358975,4374.358974358975,4234.358974358975,4063.589743589744,4681.025641025642
525.20917,0.4795375,0.29203796,0.3904432,0.67425007,0,0.0,0.0,0.0,0.0,0.0,0,0,0.0,0.0,0,0,125.0,0.0,502.0,4585.128205128206,3876.9230769230776,4516.410256410257,4537.435897435898,4234.871794871796,4555.8974358974365,4504.615384615385,4456.923076923077,4417.435897435898,4644.102564102564,4352.307692307693,4236.923076923077,4080.0000000000005,4651.282051282052
525.4594,0.39826033,0.2961656,0.39544183,0.6685297,0,0.0,0.0,0.0,0.0,0.0,0,0,0.0,0.0,0,0,28.0,0.0,0.0,4609.2307692307695,3873.8461538461543,4518.974358974359,4536.923076923077,4279.48717948718,4569.2307692307695,4491.794871794872,4481.538461538462,4473.333333333334,4689.2307692307695,4339.48717948718,4245.128205128206,4152.307692307693,4627.179487179488
525.4594,0.39826033,0.2961656,0.39544183,0.6685297,0,0.0,0.0,0.0,0.0,0.0,0,0,0.0,0.0,0,0,28.0,0.0,0.0,4609.2307692307695,3873.8461538461543,4518.974358974359,4536.923076923077,4279.48717948718,4569.2307692307695,4491.794871794872,4481.538461538462,4473.333333333334,4689.2307692307695,4339.48717948718,4245.128205128206,4152.307692307693,4627.179487179488
526.0849,0.312481,0.29825327,0.39993736,0.6599023,0,0.0,0.0,0.0,0.0,0.0,0,0,0.75514144,0.0,0,0,108.0,0.0,514.0,4545.128205128206,3842.564102564103,4493.333333333334,4485.128205128206,4267.179487179487,4554.358974358975,4461.538461538462,4482.051282051282,4513.846153846154,4727.179487179488,4357.435897435898,4228.717948717949,4215.8974358974365,4553.846153846154
526.33514,0.312481,0.29825327,0.39993736,0.6599023,0,0.0,0.0,0.0,0.0,1.0,0,0,0.0,0.0,0,0,11.0,0.0,500.0,4542.051282051282,3895.3846153846157,4487.6923076923085,4473.846153846154,4249.2307692307695,4537.435897435898,4449.2307692307695,4457.948717948719,4490.256410256411,4723.589743589744,4334.358974358975,4215.384615384616,4199.48717948718,4462.051282051282
526.46027,0.26934606,0.29432964,0.4027354,0.6485218,0,0.0,0.0,0.0,0.0,1.0,0,0,0.0,0.0,0,0,27.0,0.0,0.0,4532.820512820514,3880.512820512821,4475.8974358974365,4455.8974358974365,4233.333333333334,4525.128205128206,4433.846153846154,4454.871794871796,4500.512820512821,4735.384615384616,4350.256410256411,4213.333333333334,4221.538461538462,4443.589743589744
526.46027,0.26934606,0.29432964,0.4027354,0.6485218,0,0.0,0.0,0.0,0.0,1.0,0,0,0.0,0.0,0,0,27.0,0.0,0.0,4532.820512820514,3880.512820512821,4475.8974358974365,4455.8974358974365,4233.333333333334,4525.128205128206,4433.846153846154,4454.871794871796,4500.512820512821,4735.384615384616,4350.256410256411,4213.333333333334,4221.538461538462,4443.589743589744
527.08575,0.33762515,0.28655717,0.40462387,0.63828015,0,0.0,0.0,0.0,0.0,0.0,0,0,0.0,0.0,0,0,107.0,0.0,502.0,4449.2307692307695,3857.435897435898,4472.820512820514,4403.076923076924,4202.051282051282,4485.128205128206,4432.820512820514,4435.384615384616,4474.358974358975,4746.666666666667,4353.333333333334,4184.102564102564,4215.8974358974365,4392.307692307693
527.336,0.33762515,0.28655717,0.40462387,0.63828015,0,0.0,0.0,0.0,0.0,1.0,0,0,0.0,0.0,0,0,10.0,0.0,530.0,4588.205128205129,3815.3846153846157,4464.615384615385,4395.8974358974365,4200.000000000001,4490.256410256411,4428.205128205129,4444.615384615385,4487.179487179488,4730.769230769231,4314.358974358975,4183.589743589744,4203.589743589744,4384.615384615385
527.4611,0.29616582,0.28003204,0.40631998,0.63268036,0,0.0,0.0,0.0,0.0,1.0,0,0,0.0,0.0,0,0,26.0,0.0,0.0,4591.794871794872,3812.307692307693,4460.000000000001,4395.8974358974365,4194.358974358975,4492.307692307693,4424.102564102564,4431.282051282052,4480.000000000001,4701.538461538462,4290.256410256411,4181.538461538462,4188.717948717949,4386.666666666667
527.8364,0.29616582,0.28003204,0.40631998,0.63268036,0,0.0,0.0,0.0,0.0,0.33286437,0,0,0.0,0.0,0,0,74.0,0.0,530.0,4657.435897435898,3846.666666666667,4482.051282051282,4398.974358974359,4198.974358974359,4508.205128205129,4447.6923076923085,4432.307692307693,4506.666666666667,4727.179487179488,4290.256410256411,4205.641025641026,4198.461538461539,4417.948717948719
528.0867,0.26946634,0.27867082,0.4022445,0.6389243,0,0.0,0.0,0.0,0.0,0.33827612,0,0,0.0,0.0,0,0,106.0,0.0,530.0,4672.307692307693,3833.333333333334,4460.000000000001,4398.974358974359,4188.717948717949,4504.102564102564,4436.923076923077,4400.000000000001,4497.435897435898,4735.8974358974365,4266.666666666667,4188.717948717949,4172.307692307693,4458.974358974359
528.33685,0.26946634,0.27867082,0.4022445,0.6389243,0,0.0,0.0,0.0,0.0,0.28204334,0,0,0.0,0.0,0,0,9.0,0.0,476.0,4648.717948717949,3853.333333333334,4430.256410256411,4401.025641025642,4184.615384615385,4494.358974358975,4422.564102564103,4361.538461538462,4455.384615384616,4708.717948717949,4249.2307692307695,4201.538461538462,4146.153846153847,4450.256410256411
528.5871,0.2541997,0.27592257,0.39458427,0.64916795,0,0.0,0.0,0.0,0.0,0.40761545,0,0,0.0,0.0,0,0,41.0,0.0,0.0,4617.435897435898,3825.6410256410263,4428.205128205129,4382.051282051282,4203.589743589744,4511.282051282052,4416.410256410257,4364.615384615385,4445.128205128206,4716.410256410257,4247.6923076923085,4213.333333333334,4140.000000000001,4518.974358974359
528.71216,0.2541997,0.27592257,0.39458427,0.64916795,0,0.0,0.0,0.0,0.0,1.0,0,0,0.0,0.0,0,0,57.0,0.0,0.0,4605.128205128206,3819.48717948718,4414.358974358975,4369.2307692307695,4201.538461538462,4503.076923076924,4406.153846153847,4348.717948717949,4444.102564102564,4721.538461538462,4249.74358974359,4200.512820512821,4143.076923076924,4556.410256410257
528.9624,0.19911504,0.27134377,0.3876876,0.65837634,0,0.0,0.0,0.0,0.0,1.0,0,0,0.0,0.0,0,0,89.0,0.0,508.0,4576.923076923077,3809.7435897435903,4409.2307692307695,4359.48717948718,4242.564102564103,4533.846153846154,4415.8974358974365,4346.153846153847,4445.128205128206,4731.282051282052,4253.333333333334,4187.6923076923085,4140.512820512821,4603.076923076924
528.9624,0.19911504,0.27134377,0.3876876,0.65837634,0,0.0,0.0,0.0,0.0,1.0,0,0,0.0,0.0,0,0,89.0,0.0,508.0,4576.923076923077,3809.7435897435903,4409.2307692307695,4359.48717948718,4242.564102564103,4533.846153846154,4415.8974358974365,4346.153846153847,4445.128205128206,4731.282051282052,4253.333333333334,4187.6923076923085,4140.512820512821,4603.076923076924
529.4628,0.21050389,0.2625601,0.38147834,0.66665184,0,0.0,0.0,0.0,0.0,1.0,0,0,0.0,0.0,0,0,24.0,0.0,0.0,4495.384615384616,3814.358974358975,4442.051282051282,4376.923076923077,4263.589743589744,4554.358974358975,4430.256410256411,4355.8974358974365,4436.923076923077,4731.794871794872,4249.74358974359,4214.871794871796,4137.948717948719,4710.769230769231
529.83813,0.21050389,0.2625601,0.38147834,0.66665184,0,0.0,0.0,0.0,0.0,0.5003896,0,0,0.0,0.0,0,0,72.0,0.0,479.0,4464.615384615385,3843.076923076924,4445.128205128206,4373.846153846154,4225.641025641026,4522.051282051282,4428.717948717949,4325.128205128206,4390.769230769231,4686.153846153847,4237.948717948719,4210.256410256411,4122.051282051282,4731.794871794872
530.0884,0.18383853,0.25113356,0.37606302,0.66259617,0,0.0,0.0,0.0,0.0,1.0,0,0,0.0,0.0,0,0,104.0,0.0,517.0,4472.820512820514,3818.9743589743593,4457.948717948719,4398.461538461539,4231.794871794872,4524.102564102564,4423.589743589744,4357.948717948719,4432.820512820514,4713.846153846154,4268.205128205129,4227.6923076923085,4168.205128205129,4814.358974358975
530.33856,0.18383853,0.25113356,0.37606302,0.66259617,0,0.0,0.0,0.0,0.0,0.22705916,0,0,0.0,0.0,0,0,7.0,0.0,473.0,4456.410256410257,3804.1025641025644,4468.717948717949,4385.128205128206,4209.2307692307695,4507.179487179488,4408.717948717949,4336.923076923077,4420.512820512821,4710.769230769231,4250.769230769231,4196.410256410257,4151.282051282052,4751.282051282052
530.5888,0.17996171,0.24062623,0.37133926,0.64888763,0,0.0,0.0,0.0,0.0,0.29399693,0,0,0.0,0.0,0,0,39.0,0.0,0.0,4483.076923076924,3864.1025641025644,4489.743589743591,4377.435897435898,4207.179487179487,4507.179487179488,4432.820512820514,4392.820512820514,4431.282051282052,4740.000000000001,4268.717948717949,4240.512820512821,4167.179487179487,4803.589743589744
530.839,0.17996171,0.24062623,0.37133926,0.64888763,0,0.0,0.0,0.0,0.0,0.5041158,0,0,0.0,0.0,0,0,71.0,0.0,473.0,4513.333333333334,3880.0000000000005,4494.358974358975,4399.48717948718,4228.205128205129,4527.179487179488,4437.435897435898,4403.589743589744,4440.512820512821,4767.179487179488,4323.589743589744,4273.846153846154,4217.948717948719,4705.641025641026
530.9641,0.18095551,0.2320942,0.36708623,0.6365518,0,0.0,0.0,0.0,0.0,1.0,0,0,0.0,0.0,0,0,87.0,0.0,502.0,4533.333333333334,3880.0000000000005,4504.615384615385,4412.820512820514,4244.102564102564,4546.153846153847,4454.871794871796,4402.051282051282,4437.948717948719,4750.256410256411,4334.358974358975,4278.461538461539,4227.6923076923085,4649.743589743591
530.9641,0.18095551,0.2320942,0.36708623,0.6365518,0,0.0,0.0,0.0,0.0,1.0,0,0,0.0,0.0,0,0,87.0,0.0,502.0,4533.333333333334,3880.0000000000005,4504.615384615385,4412.820512820514,4244.102564102564,4546.153846153847,4454.871794871796,4402.051282051282,4437.948717948719,4750.256410256411,4334.358974358975,4278.461538461539,4227.6923076923085,4649.743589743591
531.58966,0.102340415,0.22688507,0.36325705,0.6254502,0,0.0,0.0,0.0,0.0,0.6228063,0,0,0.0,0.0,0,0,38.0,0.0,0.0,4606.153846153847,3945.1282051282055,4562.051282051282,4554.871794871796,4307.179487179487,4620.000000000001,4541.538461538462,4504.615384615385,4429.2307692307695,4752.307692307693,4489.743589743591,4424.615384615385,4222.051282051282,4493.846153846154
531.83984,0.102340415,0.22688507,0.36325705,0.6254502,0,0.0,0.0,0.0,0.0,0.38691896,0,0,0.0,0.0,0,0,70.0,0.0,536.0,4653.846153846154,3945.6410256410263,4596.923076923077,4600.000000000001,4351.794871794872,4673.846153846154,4601.538461538462,4546.666666666667,4423.076923076924,4722.051282051282,4520.512820512821,4459.48717948718,4173.846153846154,4485.128205128206
532.0901,0.15044552,0.22623436,0.35980946,0.62441456,0,0.0,0.0,0.0,0.0,1.0,0,0,0.0,0.0,0,0,102.0,0.0,530.0,4618.461538461539,3991.7948717948725,4615.8974358974365,4602.051282051282,4373.333333333334,4698.974358974359,4663.076923076924,4598.461538461539,4425.128205128206,4763.589743589744,4567.179487179488,4500.000000000001,4149.2307692307695,4717.435897435898
532.0901,0.15044552,0.22623436,0.35980946,0.62441456,0,0.0,0.0,0.0,0.0,1.0,0,0,0.0,0.0,0,0,102.0,0.0,530.0,4618.461538461539,3991.7948717948725,4615.8974358974365,4602.051282051282,4373.333333333334,4698.974358974359,4663.076923076924,4598.461538461539,4425.128205128206,4763.589743589744,4567.179487179488,4500.000000000001,4149.2307692307695,4717.435897435898
532.4654,0.12999366,0.22521697,0.35670546,0.6327414,0,0.0,0.0,0.0,0.0,1.0,0,0,0.0,0.0,0,0,21.0,0.0,0.0,4690.769230769231,3981.0256410256416,4624.102564102564,4605.128205128206,4342.564102564103,4680.512820512821,4663.589743589744,4613.333333333334,4457.435897435898,4767.179487179488,4588.205128205129,4491.282051282052,4175.8974358974365,4911.282051282052
532.8407,0.12999366,0.22521697,0.35670546,0.6327414,0,0.0,0.0,0.0,0.0,0.6920908,0,0,0.0,0.0,0,0,69.0,0.0,556.0,4705.641025641026,3989.7435897435903,4585.128205128206,4558.974358974359,4298.461538461539,4627.6923076923085,4615.384615384616,4565.641025641026,4442.564102564103,4751.794871794872,4592.820512820514,4423.076923076924,4169.2307692307695,4811.282051282052
533.09094,0.15223095,0.22430132,0.35581738,0.64288926,0,0.0,0.0,0.0,0.0,0.16697483,0,0,0.0,0.0,0,0,101.0,0.0,508.0,4655.384615384616,3956.410256410257,4548.717948717949,4518.974358974359,4278.461538461539,4606.153846153847,4583.076923076924,4540.000000000001,4438.461538461539,4742.051282051282,4565.128205128206,4366.666666666667,4176.410256410257,4729.743589743591
533.21606,0.15223095,0.22430132,0.35581738,0.64288926,0,0.0,0.0,0.0,0.0,1.0,0,0,0.0,0.0,0,0,117.0,0.0,508.0,4621.025641025642,3950.2564102564106,4514.871794871796,4489.743589743591,4270.256410256411,4598.461538461539,4554.871794871796,4521.538461538462,4440.512820512821,4730.256410256411,4524.102564102564,4318.974358974359,4159.48717948718,4657.435897435898
533.46625,0.19738771,0.22347723,0.3563819,0.65201277,0,0.0,0.0,0.0,0.0,1.0,0,0,0.0,0.0,0,0,20.0,0.0,0.0,4614.358974358975,3987.692307692308,4479.48717948718,4458.461538461539,4261.538461538462,4580.512820512821,4526.666666666667,4489.2307692307695,4403.589743589744,4702.051282051282,4473.846153846154,4258.461538461539,4149.2307692307695,4504.615384615385
533.46625,0.19738771,0.22347723,0.3563819,0.65201277,0,0.0,0.0,0.0,0.0,1.0,0,0,0.0,0.0,0,0,20.0,0.0,0.0,4614.358974358975,3987.692307692308,4479.48717948718,4458.461538461539,4261.538461538462,4580.512820512821,4526.666666666667,4489.2307692307695,4403.589743589744,4702.051282051282,4473.846153846154,4258.461538461539,4149.2307692307695,4504.615384615385
533.9667,0.1289584,0.22273555,0.35688895,0.65755194,0,0.0,0.0,0.0,0.0,1.0,0,0,0.0,0.0,0,0,84.0,0.0,509.0,4574.871794871796,3958.461538461539,4447.179487179487,4435.8974358974365,4247.179487179487,4555.8974358974365,4489.2307692307695,4483.076923076924,4429.743589743591,4740.512820512821,4409.743589743591,4243.076923076924,4244.102564102564,4496.923076923077
533.9667,0.1289584,0.22273555,0.35688895,0.65755194,0,0.0,0.0,0.0,0.0,1.0,0,0,0.0,0.0,0,0,84.0,0.0,509.0,4574.871794871796,3958.461538461539,4447.179487179487,4435.8974358974365,4247.179487179487,4555.8974358974365,4489.2307692307695,4483.076923076924,4429.743589743591,4740.512820512821,4409.743589743591,4243.076923076924,4244.102564102564,4496.923076923077
534.5922,0.12533341,0.22138418,0.3576882,0.6582874,0,0.0,0.0,0.0,0.0,0.5895591,0,0,0.0,0.0,0,0,35.0,0.0,0.0,4596.923076923077,4013.333333333334,4523.076923076924,4527.6923076923085,4277.435897435898,4596.410256410257,4571.794871794872,4521.538461538462,4360.512820512821,4764.615384615386,4455.8974358974365,4354.871794871796,4201.538461538462,4592.820512820514
534.84247,0.12533341,0.22138418,0.3576882,0.6582874,0,0.0,0.0,0.0,0.0,1.0,0,0,0.0,0.0,0,0,67.0,0.0,545.0,4734.358974358975,4039.48717948718,4573.333333333334,4592.820512820514,4295.8974358974365,4621.538461538462,4630.769230769231,4597.948717948719,4398.974358974359,4799.48717948718,4492.307692307693,4415.8974358974365,4202.564102564103,4660.000000000001
535.09265,0.1637054,0.23458157,0.35875428,0.6568989,0,0.0,0.0,0.0,0.0,0.8715872,0,0,0.0,0.0,0,0,99.0,0.0,503.0,4775.384615384616,4025.1282051282055,4577.435897435898,4580.512820512821,4265.641025641026,4610.256410256411,4642.564102564103,4614.871794871796,4392.307692307693,4783.076923076924,4485.641025641026,4382.051282051282,4160.000000000001,4584.615384615385
535.3429,0.1637054,0.23458157,0.35875428,0.6568989,0,0.0,0.0,0.0,0.0,0.8699496,0,0,0.0,0.0,0,0,2.0,0.0,395.0,4895.384615384616,4014.8717948717954,4587.179487179488,4576.410256410257,4255.8974358974365,4585.128205128206,4632.820512820514,4633.333333333334,4460.000000000001,4815.384615384616,4494.358974358975,4367.179487179487,4202.564102564103,4587.179487179488
535.46796,0.099986486,0.25351426,0.36248845,0.6432444,0,0.0,0.0,0.0,0.0,1.0,0,0,0.0,0.0,0,0,18.0,0.0,0.0,4936.923076923077,4002.0512820512827,4569.2307692307695,4570.256410256411,4258.974358974359,4578.974358974359,4607.6923076923085,4615.384615384616,4458.461538461539,4803.589743589744,4464.102564102564,4353.333333333334,4214.358974358975,4584.102564102564
535.46796,0.099986486,0.25351426,0.36248845,0.6432444,0,0.0,0.0,0.0,0.0,1.0,0,0,0.0,0.0,0,0,18.0,0.0,0.0,4936.923076923077,4002.0512820512827,4569.2307692307695,4570.256410256411,4258.974358974359,4578.974358974359,4607.6923076923085,4615.384615384616,4458.461538461539,4803.589743589744,4464.102564102564,4353.333333333334,4214.358974358975,4584.102564102564
536.0935,0.15487975,0.2683983,0.36584786,0.6126362,0,0.0,0.0,0.0,0.0,0.5442827,0,0,0.0,0.0,0,0,98.0,0.0,530.0,5009.2307692307695,3928.717948717949,4546.153846153847,4456.410256410257,4245.641025641026,4552.820512820514,4506.666666666667,4552.307692307693,4461.538461538462,4736.410256410257,4342.051282051282,4208.717948717949,4151.282051282052,4380.000000000001
536.2186,0.15487975,0.2683983,0.36584786,0.6126362,0,0.0,0.0,0.0,0.0,1.0,0,0,0.0,0.0,0,0,114.0,0.0,530.0,4989.743589743591,3898.461538461539,4521.025641025642,4427.6923076923085,4229.74358974359,4538.974358974359,4493.846153846154,4540.000000000001,4474.871794871796,4740.000000000001,4323.589743589744,4169.2307692307695,4136.923076923077,4307.179487179487
536.59393,0.28014216,0.28336662,0.36750224,0.585091,0,0.0,0.0,0.0,0.0,0.2772661,0,0,0.0,0.0,0,0,33.0,0.0,0.0,4917.435897435898,3937.9487179487182,4493.333333333334,4389.743589743591,4215.384615384616,4523.589743589744,4444.102564102564,4461.538461538462,4445.641025641026,4717.948717948719,4264.615384615385,4142.051282051282,4090.2564102564106,4241.025641025642
536.8442,0.28014216,0.28336662,0.36750224,0.585091,0,0.0,0.0,0.0,0.0,0.84366775,0,0,0.0,0.0,0,0,65.0,0.0,512.0,4803.589743589744,3925.6410256410263,4493.846153846154,4395.8974358974365,4216.923076923077,4522.564102564103,4429.2307692307695,4461.538461538462,4489.2307692307695,4751.282051282052,4289.2307692307695,4156.410256410257,4135.8974358974365,4267.6923076923085
536.9693,0.24222827,0.281644,0.36923042,0.5603,0,0.0,0.0,0.0,0.0,1.0,0,0,0.0,0.0,0,0,81.0,0.0,508.0,4765.128205128206,3906.666666666667,4490.769230769231,4393.333333333334,4228.717948717949,4534.871794871796,4426.666666666667,4450.256410256411,4472.307692307693,4735.384615384616,4272.820512820514,4155.8974358974365,4118.974358974359,4257.948717948719
537.3446,0.24222827,0.281644,0.36923042,0.5603,0,0.0,0.0,0.0,0.0,0.16817848,0,0,0.0,0.0,0,0,0.0,0.0,494.0,4748.205128205129,3909.7435897435903,4478.974358974359,4418.461538461539,4241.538461538462,4539.48717948718,4428.205128205129,4474.358974358975,4478.461538461539,4762.564102564103,4280.512820512821,4185.641025641026,4110.256410256411,4297.435897435898
537.5948,0.21810405,0.2727466,0.3731717,0.5407899,0,0.0,0.0,0.0,0.0,0.50304025,0,0,0.0,0.0,0,0,32.0,0.0,0.0,4736.410256410257,3896.410256410257,4489.743589743591,4426.153846153847,4254.871794871796,4555.8974358974365,4443.076923076924,4490.769230769231,4456.923076923077,4747.6923076923085,4289.74358974359,4209.74358974359,4107.6923076923085,4276.923076923077
537.84503,0.21810405,0.2727466,0.3731717,0.5407899,0,0.0,0.0,0.0,0.0,1.0,0,0,0.0,0.0,0,0,64.0,0.0,494.0,4733.846153846154,3923.589743589744,4560.000000000001,4512.820512820514,4310.769230769231,4623.076923076924,4525.128205128206,4562.051282051282,4454.871794871796,4797.948717948719,4412.307692307693,4360.512820512821,4138.461538461539,4494.871794871796
538.0952,0.20788173,0.26451778,0.37838534,0.52323157,0,0.0,0.0,0.0,0.0,0.6877115,0,0,0.0,0.0,0,1,96.0,0.0,515.0,4687.179487179488,3973.8461538461543,4607.179487179488,4593.333333333334,4354.358974358975,4678.461538461539,4632.307692307693,4633.846153846154,4398.461538461539,4797.435897435898,4509.2307692307695,4450.256410256411,4120.000000000001,4569.743589743591
538.34546,0.20788173,0.26451778,0.37838534,0.52323157,0,0.0,0.0,0.0,0.0,0.403574,0,0,0.0,0.0,0,0,128.0,0.0,515.0,4649.2307692307695,3987.692307692308,4676.923076923077,4683.589743589744,4400.512820512821,4717.948717948719,4715.384615384616,4716.410256410257,4415.8974358974365,4814.358974358975,4625.641025641026,4536.923076923077,4180.512820512821,4722.051282051282
538.4706,0.28868103,0.2567966,0.3826781,0.51264274,0,0.0,0.0,0.0,0.0,1.0,0,0,0.0,0.0,0,0,15.0,0.0,506.0,4633.846153846154,4007.1794871794878,4693.333333333334,4722.564102564103,4429.743589743591,4735.8974358974365,4762.051282051282,4736.923076923077,4449.743589743591,4824.102564102564,4656.923076923077,4549.743589743591,4207.179487179487,4770.769230769231
538.8459,0.28868103,0.2567966,0.3826781,0.51264274,0,0.0,0.0,0.0,0.0,0.25658032,0,0,0.0,0.0,0,0,63.0,0.0,0.0,4573.333333333334,4024.1025641025644,4681.538461538462,4714.358974358975,4398.974358974359,4713.333333333334,4762.564102564103,4704.615384615386,4454.871794871796,4813.333333333334,4631.282051282052,4526.153846153847,4182.564102564103,4703.076923076924
539.0961,0.42090073,0.2498475,0.38648903,0.50690275,0,0.0,0.0,0.0,0.0,0.6001446,0,0,0.0,0.0,0,0,95.0,0.0,501.0,4576.410256410257,3992.307692307693,4670.769230769231,4703.589743589744,4368.717948717949,4695.384615384616,4733.333333333334,4677.948717948719,4460.512820512821,4823.589743589744,4624.102564102564,4520.000000000001,4213.846153846154,4660.000000000001
539.3463,0.42090073,0.2498475,0.38648903,0.50690275,0,0.0,0.0,0.0,0.0,0.36908177,0,0,0.0,0.0,0,0,127.0,0.0,501.0,4601.538461538462,3958.461538461539,4657.435897435898,4681.538461538462,4381.025641025642,4680.512820512821,4725.641025641026,4627.179487179488,4461.025641025642,4829.743589743591,4600.000000000001,4505.128205128206,4190.256410256411,4582.564102564103
539.59656,0.4822376,0.24359334,0.38991627,0.50879204,0,0.0,0.0,0.0,0.0,0.774666,0,0,0.0,0.0,0,0,30.0,0.0,0.0,4609.743589743591,3981.0256410256416,4663.589743589744,4667.6923076923085,4374.358974358975,4655.384615384616,4709.743589743591,4622.564102564103,4446.153846153847,4801.025641025642,4596.410256410257,4526.153846153847,4225.641025641026,4575.8974358974365
539.84674,0.4822376,0.24359334,0.38991627,0.50879204,0,0.0,0.0,0.0,0.0,0.20324908,0,0,0.0,0.0,0,0,62.0,0.0,0.0,4604.102564102564,3945.1282051282055,4627.179487179488,4631.282051282052,4349.743589743591,4616.410256410257,4663.589743589744,4570.256410256411,4452.307692307693,4767.179487179488,4541.025641025642,4482.051282051282,4185.128205128206,4571.794871794872
540.097,0.43740657,0.23796457,0.3929981,0.50157857,0,0.0,0.0,0.0,0.0,0.9582055,0,0,0.0,0.0,0,0,94.0,0.0,530.0,4345.128205128206,3831.2820512820517,4541.538461538462,4532.820512820514,4282.564102564103,4556.410256410257,4600.000000000001,4536.923076923077,4476.410256410257,4764.102564102564,4443.589743589744,4359.48717948718,4109.2307692307695,4510.769230769231
540.22205,0.43740657,0.23796457,0.3929981,0.50157857,0,0.0,0.0,0.0,0.0,1.0,0,0,0.0,0.0,0,0,110.0,0.0,530.0,4306.666666666667,3855.8974358974365,4520.000000000001,4458.974358974359,4221.025641025642,4503.589743589744,4538.461538461539,4486.666666666667,4431.282051282052,4713.333333333334,4357.948717948719,4312.307692307693,4057.9487179487182,4500.512820512821
540.5974,0.5193361,0.2328987,0.39576885,0.49508703,0,0.0,0.0,0.0,0.0,0.3709008,0,0,0.0,0.0,0,0,29.0,0.0,0.0,4296.923076923077,3717.9487179487182,4367.179487179487,4230.769230769231,3991.7948717948725,4281.025641025642,4294.871794871796,4248.717948717949,4261.025641025642,4592.820512820514,4153.333333333334,4107.179487179487,3990.2564102564106,4460.512820512821
540.8476,0.5193361,0.2328987,0.39576885,0.49508703,0,0.0,0.0,0.0,0.0,0.27976784,0,0,0.0,0.0,0,0,61.0,0.0,0.0,4212.307692307693,3512.820512820513,4235.8974358974365,4080.0000000000005,3895.8974358974365,4165.641025641026,4136.923076923077,4085.6410256410263,4151.794871794872,4494.358974358975,3957.435897435898,3968.717948717949,3865.1282051282055,4574.358974358975
540.9727,0.6670158,0.2283394,0.3982595,0.49798635,0,0.0,0.0,0.0,0.0,1.0,0,0,0.0,0.0,0,1,77.0,0.0,504.0,4101.538461538462,3485.641025641026,4211.282051282052,3987.692307692308,3863.589743589744,4137.948717948719,4095.3846153846157,4037.9487179487182,4118.974358974359,4460.000000000001,3893.8461538461543,3892.820512820513,3865.1282051282055,4754.358974358975
541.2542,0.6670158,0.2283394,0.3982595,0.49798635,0,0.0,0.0,0.0,0.0,1.0,0,0,0.0,0.0,0,0,113.0,0.0,504.0,4183.076923076924,3492.820512820513,4183.076923076924,4020.5128205128212,3823.076923076924,4125.641025641026,4090.2564102564106,4006.1538461538466,4087.692307692308,4449.2307692307695,3956.410256410257,3842.564102564103,3928.205128205129,5041.025641025642
541.59827,0.79697394,0.22423603,0.40093753,0.50784856,0,0.0,0.0,0.0,0.0,0.26200843,0,0,0.0,0.0,0,0,28.0,0.0,0.0,4476.923076923077,3803.076923076924,4367.179487179487,4247.6923076923085,3947.1794871794878,4280.512820512821,4157.948717948719,4085.6410256410263,4088.205128205129,4558.974358974359,4145.641025641026,4002.0512820512827,4108.717948717949,5026.666666666667
541.7234,0.79697394,0.22423603,0.40093753,0.50784856,0,0.0,0.0,0.0,0.0,1.0,0,0,0.0,0.0,0,0,44.0,0.0,0.0,4492.307692307693,3808.717948717949,4427.6923076923085,4393.333333333334,4005.1282051282055,4353.333333333334,4308.205128205129,4202.564102564103,4152.820512820514,4678.974358974359,4261.025641025642,4132.820512820514,4158.461538461539,4980.512820512821
542.0987,0.911337,0.220543,0.4018611,0.5144087,0,0.0,0.0,0.0,0.0,0.50449544,0,0,0.0,0.0,0,0,92.0,0.0,515.0,4544.102564102564,3945.1282051282055,4577.435897435898,4684.615384615386,4126.666666666667,4510.256410256411,4520.512820512821,4394.871794871796,4268.717948717949,4778.461538461539,4490.769230769231,4315.384615384616,4357.948717948719,4890.769230769231
542.3489,0.911337,0.220543,0.4018611,0.5144087,0,0.0,0.0,0.0,0.0,0.5288158,0,0,0.0,0.0,0,0,124.0,0.0,515.0,4588.205128205129,3990.7692307692314,4599.48717948718,4858.974358974359,4204.102564102564,4570.769230769231,4577.435897435898,4396.410256410257,4336.410256410257,4802.051282051282,4634.871794871796,4366.153846153847,4412.307692307693,5072.820512820514
542.5991,0.9646147,0.21721928,0.40209946,0.5182043,0,0.0,0.0,0.16177198,0.0,0.0,0,0,0.0,0.0,0,0,27.0,0.0,0.0,4616.923076923077,4084.1025641025644,4609.2307692307695,4917.435897435898,4277.948717948719,4607.179487179488,4585.641025641026,4413.333333333334,4386.153846153847,4782.564102564103,4677.948717948719,4364.615384615385,4426.153846153847,4901.538461538462
542.72424,0.9646147,0.21721928,0.40209946,0.5182043,0,0.0,0.0,0.0,0.0,0.0,0,0,1.0,0.0,0,0,43.0,0.0,0.0,4555.8974358974365,4058.9743589743593,4580.512820512821,4895.8974358974365,4273.846153846154,4580.000000000001,4576.923076923077,4388.717948717949,4391.282051282052,4769.743589743591,4616.923076923077,4301.025641025642,4335.8974358974365,4857.435897435898
543.09955,0.94364715,0.21422793,0.39998996,0.52162135,0,0.0,0.0,0.0,0.0,0.0,0,0,0.477841,0.0,0,0,91.0,0.0,492.0,4564.615384615385,4076.410256410257,4569.2307692307695,4826.666666666667,4215.384615384616,4517.948717948719,4506.153846153847,4375.384615384616,4432.307692307693,4807.179487179488,4558.974358974359,4245.641025641026,4346.666666666667,5024.615384615386
543.34973,0.94364715,0.21422793,0.39998996,0.52162135,0,0.0,0.0,0.0,0.0,0.46830213,0,0,0.0,0.0,0,0,123.0,0.0,492.0,4602.564102564103,4048.717948717949,4570.769230769231,4814.871794871796,4201.025641025642,4513.846153846154,4525.128205128206,4370.769230769231,4477.435897435898,4803.076923076924,4577.948717948719,4155.384615384616,4375.8974358974365,4994.358974358975
543.6,0.89999557,0.2115357,0.3932938,0.52469766,0,0.0,0.0,0.0,0.0,1.0,0,0,0.0,0.0,0,0,26.0,0.0,0.0,4594.871794871796,3961.538461538462,4520.000000000001,4687.6923076923085,4153.846153846154,4472.820512820514,4454.358974358975,4306.153846153847,4416.410256410257,4727.179487179488,4416.410256410257,4072.307692307693,4184.102564102564,4993.846153846154
543.85016,0.89999557,0.2115357,0.3932938,0.52469766,0,0.0,0.0,0.0,0.0,0.23626716,0,0,0.0,0.0,0,0,58.0,0.0,0.0,4478.974358974359,3941.0256410256416,4503.589743589744,4636.410256410257,4178.974358974359,4476.410256410257,4427.179487179487,4323.076923076924,4442.051282051282,4747.179487179488,4381.025641025642,4063.589743589744,4133.846153846154,4887.179487179488
544.1004,0.7901763,0.2091127,0.38726485,0.5274672,0,0.0,0.0,0.0,0.0,0.53607196,0,0,0.0,0.0,0,0,90.0,0.0,524.0,4388.717948717949,3913.8461538461543,4492.820512820514,4597.435897435898,4151.282051282052,4456.410256410257,4388.717948717949,4316.410256410257,4445.641025641026,4712.820512820514,4358.461538461539,4117.435897435898,4137.435897435898,4746.153846153847
544.2255,0.7901763,0.2091127,0.38726485,0.5274672,0,0.0,0.0,0.0,0.0,1.0,0,0,0.0,0.0,0,0,106.0,0.0,524.0,4429.2307692307695,3949.7435897435903,4489.743589743591,4623.076923076924,4157.435897435898,4471.794871794872,4414.871794871796,4296.410256410257,4436.410256410257,4693.333333333334,4344.615384615385,4088.717948717949,4126.666666666667,4653.846153846154
544.4757,0.6853953,0.20693201,0.3818366,0.5299606,0,0.0,0.0,0.0,0.0,1.0,0,0,0.0,0.0,0,0,9.0,0.0,474.0,4468.717948717949,3972.307692307693,4473.846153846154,4570.769230769231,4167.179487179487,4470.769230769231,4428.717948717949,4285.641025641026,4452.307692307693,4698.461538461539,4313.846153846154,4118.461538461539,4141.538461538462,4508.205128205129
544.8511,0.6853953,0.20693201,0.3818366,0.5299606,0,0.0,0.0,0.0,0.0,0.34085432,0,0,0.0,0.0,0,0,57.0,0.0,0.0,4353.846153846154,3886.666666666667,4412.307692307693,4417.435897435898,4168.717948717949,4474.871794871796,4327.179487179487,4242.051282051282,4373.846153846154,4713.846153846154,4294.358974358975,4062.564102564103,4249.74358974359,4508.717948717949
545.10126,0.584622,0.20496939,0.37946242,0.54160845,0,0.0,0.0,0.08981964,0.0,0.0,0,0,0.0,0.0,0,0,89.0,0.0,506.0,4391.282051282052,3881.0256410256416,4411.282051282052,4375.384615384616,4206.666666666667,4503.589743589744,4313.333333333334,4225.641025641026,4350.769230769231,4716.923076923077,4311.282051282052,4062.0512820512827,4332.820512820514,4515.8974358974365
545.3515,0.584622,0.20496939,0.37946242,0.54160845,0,0.0,0.0,0.0,0.0,0.6659599,0,0,0.0,0.0,0,0,121.0,0.0,506.0,4285.641025641026,3802.564102564103,4408.205128205129,4334.358974358975,4186.666666666667,4477.948717948719,4294.358974358975,4221.538461538462,4382.564102564103,4739.48717948718,4271.282051282052,4057.9487179487182,4344.102564102564,4658.461538461539
545.47656,0.54626197,0.21444625,0.3784107,0.55453444,0,0.0,0.0,0.0,0.0,1.0,0,0,0.0,0.0,0,0,8.0,0.0,477.0,4328.717948717949,3830.7692307692314,4415.8974358974365,4342.051282051282,4176.410256410257,4474.358974358975,4299.48717948718,4219.48717948718,4358.461538461539,4742.564102564103,4325.641025641026,4086.1538461538466,4379.48717948718,4782.564102564103
545.47656,0.54626197,0.21444625,0.3784107,0.55453444,0,0.0,0.0,0.0,0.0,1.0,0,0,0.0,0.0,0,0,8.0,0.0,477.0,4328.717948717949,3830.7692307692314,4415.8974358974365,4342.051282051282,4176.410256410257,4474.358974358975,4299.48717948718,4219.48717948718,4358.461538461539,4742.564102564103,4325.641025641026,4086.1538461538466,4379.48717948718,4782.564102564103
546.1021,0.5865809,0.22576536,0.3791989,0.5739248,0,0.0,0.0,0.0,0.0,0.10590663,0,0,0.0,0.0,0,0,88.0,0.0,513.0,4420.000000000001,3800.0000000000005,4437.435897435898,4235.384615384616,4166.153846153847,4469.2307692307695,4260.512820512821,4246.153846153847,4383.589743589744,4752.307692307693,4305.641025641026,4135.384615384616,4311.282051282052,4677.435897435898
546.35236,0.5865809,0.22576536,0.3791989,0.5739248,0,0.0,0.0,0.0,0.0,0.44003576,0,0,0.0,0.0,0,0,120.0,0.0,513.0,4422.051282051282,3779.48717948718,4422.051282051282,4217.948717948719,4200.512820512821,4506.666666666667,4292.820512820514,4271.794871794872,4395.8974358974365,4776.410256410257,4261.538461538462,4166.666666666667,4289.74358974359,4522.564102564103
546.60254,0.4895444,0.23584512,0.381672,0.59256685,0,0.0,0.0,0.0,0.0,0.93471843,0,0,0.0,0.0,0,0,23.0,0.0,0.0,4571.794871794872,3792.307692307693,4444.102564102564,4267.6923076923085,4223.076923076924,4524.615384615385,4327.179487179487,4296.923076923077,4435.384615384616,4758.974358974359,4308.717948717949,4179.48717948718,4341.538461538462,4561.025641025642
546.72766,0.4895444,0.23584512,0.381672,0.59256685,0,0.0,0.0,0.0,0.0,1.0,0,0,0.0,0.0,0,0,39.0,0.0,0.0,4615.8974358974365,3813.8461538461543,4467.6923076923085,4287.6923076923085,4258.974358974359,4544.615384615385,4352.820512820514,4315.8974358974365,4446.153846153847,4806.666666666667,4312.820512820514,4209.2307692307695,4355.384615384616,4631.794871794872
547.10297,0.56528425,0.2577411,0.38447276,0.6103982,0,0.0,0.0,0.0,0.0,0.7066793,0,0,0.0,0.0,0,0,87.0,0.0,499.0,4597.948717948719,3835.8974358974365,4467.179487179487,4274.358974358975,4251.794871794872,4536.923076923077,4365.128205128206,4342.051282051282,4468.205128205129,4780.000000000001,4305.641025641026,4216.923076923077,4349.743589743591,4753.333333333334
547.3532,0.56528425,0.2577411,0.38447276,0.6103982,0,0.0,0.0,0.0,0.0,0.2316575,0,0,0.0,0.0,0,0,119.0,0.0,499.0,4537.948717948719,3832.307692307693,4448.205128205129,4275.8974358974365,4224.615384615385,4520.512820512821,4348.205128205129,4359.48717948718,4445.128205128206,4828.205128205129,4262.051282051282,4200.000000000001,4305.641025641026,4858.461538461539
547.6034,0.43794253,0.26521024,0.3918057,0.6253824,0,0.0,0.0,0.0,0.0,1.0,0,0,0.0,0.0,0,0,22.0,0.0,0.0,4630.769230769231,3876.410256410257,4474.871794871796,4271.282051282052,4246.666666666667,4541.538461538462,4375.384615384616,4371.282051282052,4416.923076923077,4764.102564102564,4257.948717948719,4205.128205128206,4249.74358974359,4926.666666666667
547.85364,0.43794253,0.26521024,0.3918057,0.6253824,0,0.0,0.0,0.0,0.0,1.0,0,0,0.0,0.0,0,0,54.0,0.0,0.0,4740.512820512821,3926.666666666667,4489.2307692307695,4339.48717948718,4251.794871794872,4549.743589743591,4394.871794871796,4373.846153846154,4442.051282051282,4783.589743589744,4353.333333333334,4216.410256410257,4342.564102564103,4954.358974358975
548.1038,0.475588,0.2719753,0.39852077,0.6310956,0,0.0,0.0,0.0,0.0,0.42984366,0,0,0.0,0.0,0,0,86.0,0.0,527.0,4743.076923076924,3948.717948717949,4490.256410256411,4342.051282051282,4227.6923076923085,4535.384615384616,4372.307692307693,4387.179487179487,4423.076923076924,4783.589743589744,4293.333333333334,4229.74358974359,4401.025641025642,4878.461538461539
548.22894,0.475588,0.2719753,0.39852077,0.6310956,0,0.0,0.0,0.0,0.0,1.0,0,0,0.0,0.0,0,0,102.0,0.0,527.0,4893.846153846154,3960.5128205128212,4496.923076923077,4336.923076923077,4231.282051282052,4536.923076923077,4389.743589743591,4380.000000000001,4403.076923076924,4781.025641025642,4318.974358974359,4228.205128205129,4377.435897435898,4875.384615384616
548.4792,0.35176265,0.28658712,0.40456092,0.6376841,0,0.0,0.0,0.0,0.0,1.0,0,0,0.0,0.0,0,0,5.0,0.0,561.0,5105.128205128206,3970.2564102564106,4476.410256410257,4325.128205128206,4230.769230769231,4540.000000000001,4397.948717948719,4381.538461538462,4408.205128205129,4796.923076923077,4325.641025641026,4215.8974358974365,4326.153846153847,4701.538461538462
548.4792,0.35176265,0.28658712,0.40456092,0.6376841,0,0.0,0.0,0.0,0.0,1.0,0,0,0.0,0.0,0,0,5.0,0.0,561.0,5105.128205128206,3970.2564102564106,4476.410256410257,4325.128205128206,4230.769230769231,4540.000000000001,4397.948717948719,4381.538461538462,4408.205128205129,4796.923076923077,4325.641025641026,4215.8974358974365,4326.153846153847,4701.538461538462
549.1047,0.45186085,0.30118775,0.40999338,0.63623595,0,0.0,0.0,0.0,0.0,0.36907163,0,0,0.0,0.0,1,0,85.0,0.0,507.0,5059.487179487181,3947.692307692308,4492.820512820514,4330.256410256411,4276.923076923077,4587.179487179488,4458.974358974359,4458.461538461539,4470.769230769231,4780.512820512821,4294.358974358975,4247.179487179487,4277.948717948719,4446.666666666667
549.3549,0.45186085,0.30118775,0.40999338,0.63623595,0,0.0,0.0,0.0,0.0,0.70141333,0,0,0.0,0.0,0,0,117.0,0.0,507.0,4983.076923076924,3926.1538461538466,4478.974358974359,4304.102564102564,4264.615384615385,4571.794871794872,4443.076923076924,4468.205128205129,4431.794871794872,4723.589743589744,4237.435897435898,4241.538461538462,4139.48717948718,4130.256410256411
549.5113,0.5290873,0.31553632,0.4090381,0.6325527,0,0.0,0.0,0.0,0.0,1.0,0,0,0.0,0.0,0,0,8.0,0.0,477.0,4914.358974358975,3981.538461538462,4474.358974358975,4303.076923076924,4264.615384615385,4570.256410256411,4431.794871794872,4456.410256410257,4422.564102564103,4732.820512820514,4249.2307692307695,4238.461538461539,4124.102564102564,4191.282051282052
549.5113,0.5290873,0.31553632,0.4090381,0.6325527,0,0.0,0.0,0.0,0.0,1.0,0,0,0.0,0.0,0,0,8.0,0.0,477.0,4914.358974358975,3981.538461538462,4474.358974358975,4303.076923076924,4264.615384615385,4570.256410256411,4431.794871794872,4456.410256410257,4422.564102564103,4732.820512820514,4249.2307692307695,4238.461538461539,4124.102564102564,4191.282051282052
550.1056,0.4888722,0.32214224,0.40321848,0.62705547,0,0.0,0.0,0.0,0.0,0.30495992,0,0,0.0,0.0,0,0,84.0,0.0,516.0,4776.923076923077,3946.1538461538466,4458.974358974359,4336.923076923077,4263.589743589744,4566.666666666667,4476.410256410257,4442.564102564103,4428.205128205129,4670.256410256411,4249.2307692307695,4230.256410256411,4100.512820512821,4296.923076923077
550.3558,0.4888722,0.32214224,0.40321848,0.62705547,0,0.0,0.0,0.0,0.0,0.28772485,0,0,0.0,0.0,0,0,116.0,0.0,516.0,4705.128205128206,3929.2307692307695,4450.769230769231,4313.333333333334,4236.923076923077,4536.923076923077,4442.564102564103,4414.871794871796,4372.307692307693,4629.2307692307695,4198.461538461539,4204.102564102564,4012.307692307693,4192.820512820514
550.606,0.606725,0.32099128,0.3962013,0.6210232,0,0.0,0.0,0.0,0.0,0.36720464,0,0,0.0,0.0,0,0,19.0,0.0,0.0,4797.435897435898,3893.8461538461543,4457.948717948719,4307.6923076923085,4226.666666666667,4521.538461538462,4427.179487179487,4408.717948717949,4340.512820512821,4713.846153846154,4263.076923076924,4229.2307692307695,4049.23076923077,4245.128205128206
550.8562,0.606725,0.32099128,0.3962013,0.6210232,0,0.0,0.0,0.0,0.0,0.76582074,0,0,0.0,0.0,0,0,51.0,0.0,0.0,4756.410256410257,3894.8717948717954,4475.384615384616,4355.384615384616,4266.153846153847,4569.743589743591,4490.769230769231,4461.538461538462,4345.641025641026,4702.564102564103,4366.153846153847,4281.025641025642,4211.282051282052,4189.2307692307695
551.10645,0.59822327,0.30423692,0.3898834,0.6141171,0,0.0,0.0,0.0,0.0,0.537329,0,0,0.0,0.0,0,0,83.0,0.0,510.0,4734.358974358975,3972.307692307693,4534.871794871796,4434.871794871796,4332.820512820514,4641.538461538462,4570.769230769231,4537.948717948719,4297.948717948719,4675.8974358974365,4425.128205128206,4393.846153846154,4155.384615384616,4310.256410256411
551.3566,0.59822327,0.30423692,0.3898834,0.6141171,0,0.0,0.0,0.0,0.0,0.29123816,0,0,0.0,0.0,0,0,115.0,0.0,510.0,4718.974358974359,3974.8717948717954,4612.820512820514,4535.384615384616,4413.333333333334,4723.076923076924,4648.717948717949,4586.666666666667,4294.358974358975,4683.076923076924,4477.435897435898,4436.923076923077,4091.7948717948725,4396.410256410257
551.6069,0.55557096,0.2889341,0.384195,0.6079005,0,0.0,0.0,0.0,0.0,0.65533614,0,0,0.0,0.0,0,0,18.0,0.0,0.0,4714.358974358975,4028.205128205129,4680.000000000001,4616.923076923077,4460.000000000001,4783.076923076924,4694.358974358975,4640.512820512821,4342.564102564103,4702.051282051282,4538.461538461539,4486.666666666667,4138.461538461539,4520.512820512821
551.73193,0.55557096,0.2889341,0.384195,0.6079005,0,0.0,0.0,0.0,0.0,1.0,0,0,0.0,0.0,0,0,34.0,0.0,0.0,4685.128205128206,4070.7692307692314,4690.256410256411,4630.256410256411,4473.333333333334,4797.435897435898,4718.461538461539,4642.051282051282,4353.846153846154,4699.48717948718,4545.128205128206,4483.589743589744,4186.666666666667,4566.153846153847
552.1073,0.5947225,0.27516162,0.37907615,0.602302,0,0.0,0.0,0.0,0.0,0.33197197,0,0,0.0,0.0,0,0,82.0,0.0,528.0,4650.256410256411,4021.538461538462,4665.128205128206,4610.769230769231,4442.564102564103,4766.153846153847,4679.48717948718,4581.025641025642,4410.769230769231,4795.8974358974365,4628.205128205129,4431.282051282052,4262.051282051282,4703.076923076924
552.3575,0.5947225,0.27516162,0.37907615,0.602302,0,0.0,0.0,0.0,0.0,0.8659039,0,0,0.0,0.0,0,0,114.0,0.0,528.0,4684.615384615386,4004.1025641025644,4622.051282051282,4553.333333333334,4382.564102564103,4693.333333333334,4626.153846153847,4641.025641025642,4442.051282051282,4764.102564102564,4509.2307692307695,4339.48717948718,4138.461538461539,4760.512820512821
552.6077,0.59528977,0.26276636,0.3744673,0.5972645,0,0.0,0.0,0.0,0.0,0.2163484,0,0,0.0,0.0,0,0,17.0,0.0,0.0,4786.666666666667,4053.333333333334,4615.8974358974365,4551.794871794872,4386.666666666667,4692.307692307693,4626.153846153847,4641.025641025642,4368.717948717949,4748.717948717949,4476.923076923077,4351.282051282052,4110.256410256411,4766.666666666667
552.8579,0.59528977,0.26276636,0.3744673,0.5972645,0,0.0,0.0,0.0,0.0,0.61612153,0,0,0.0,0.0,0,0,49.0,0.0,0.0,4782.051282051282,4009.23076923077,4635.384615384616,4582.564102564103,4366.153846153847,4661.538461538462,4668.205128205129,4650.769230769231,4414.871794871796,4781.025641025642,4556.410256410257,4348.205128205129,4187.179487179487,4613.846153846154
553.10815,0.47169673,0.25161064,0.3703229,0.5927297,0,0.0,0.0,0.0,0.0,0.6964756,0,0,0.0,0.0,0,0,81.0,0.0,507.0,4733.846153846154,3959.48717948718,4619.48717948718,4584.102564102564,4334.871794871796,4636.410256410257,4667.179487179488,4654.871794871796,4462.564102564103,4734.871794871796,4526.153846153847,4321.538461538462,4120.512820512821,4714.871794871796
553.2333,0.47169673,0.25161064,0.3703229,0.5927297,0,0.0,0.0,0.0,0.0,1.0,0,0,0.0,0.0,0,0,97.0,0.0,507.0,4821.538461538462,4022.0512820512827,4621.025641025642,4602.564102564103,4326.666666666667,4626.153846153847,4655.384615384616,4641.538461538462,4423.076923076924,4705.641025641026,4495.8974358974365,4324.102564102564,4065.6410256410263,4751.794871794872
553.6086,0.43260106,0.24157049,0.36659732,0.5856934,0,0.0,0.0,0.0,0.0,0.26895767,0,0,0.0,0.0,0,0,16.0,0.0,0.0,4700.000000000001,3941.0256410256416,4587.179487179488,4602.564102564103,4280.512820512821,4586.153846153847,4641.538461538462,4554.871794871796,4421.025641025642,4747.6923076923085,4471.794871794872,4267.179487179487,3970.7692307692314,4604.615384615385
553.85876,0.43260106,0.24157049,0.36659732,0.5856934,0,0.0,0.0,0.0,0.0,0.1522921,0,0,0.0,0.0,0,0,48.0,0.0,0.0,4734.358974358975,3910.7692307692314,4565.128205128206,4573.846153846154,4231.282051282052,4541.025641025642,4577.948717948719,4481.025641025642,4478.974358974359,4782.564102564103,4424.102564102564,4204.615384615385,3936.410256410257,4554.358974358975
554.109,0.450746,0.23253435,0.3660642,0.5714437,0,0.0,0.0,0.0,0.0,0.1852986,0,0,0.0,0.0,0,0,80.0,0.0,511.0,4767.179487179488,3878.9743589743593,4555.384615384616,4537.948717948719,4188.205128205129,4506.666666666667,4550.256410256411,4452.820512820514,4460.512820512821,4803.076923076924,4397.948717948719,4164.615384615385,3989.23076923077,4620.512820512821
554.3592,0.450746,0.23253435,0.3660642,0.5714437,0,0.0,0.0,0.0,0.0,0.3609906,0,0,0.0,0.0,0,0,112.0,0.0,511.0,4882.564102564103,3868.717948717949,4555.8974358974365,4511.282051282052,4185.128205128206,4506.666666666667,4524.615384615385,4442.051282051282,4503.589743589744,4778.461538461539,4402.564102564103,4186.153846153847,4072.820512820513,4648.205128205129
554.60944,0.3702344,0.2352193,0.36558297,0.5586184,0,0.0,0.0,0.0,0.0,0.75581133,0,0,0.0,0.0,0,0,15.0,0.0,503.0,4936.410256410257,3798.9743589743593,4533.333333333334,4470.256410256411,4167.179487179487,4502.564102564103,4507.6923076923085,4430.769230769231,4538.461538461539,4784.102564102564,4355.8974358974365,4165.641025641026,4120.000000000001,4647.179487179488
554.8596,0.3702344,0.2352193,0.36558297,0.5586184,0,0.0,0.0,0.0,0.0,1.0,0,0,0.0,0.0,0,0,47.0,0.0,0.0,5004.102564102564,3864.1025641025644,4523.589743589744,4457.948717948719,4181.025641025642,4510.769230769231,4522.051282051282,4441.538461538462,4535.8974358974365,4846.666666666667,4375.8974358974365,4222.051282051282,4274.871794871796,4887.179487179488
555.10986,0.48965976,0.23861983,0.36153662,0.55043864,0,0.0,0.0,0.0,0.0,0.97993594,0,0,0.0,0.0,0,0,79.0,0.0,501.0,4843.076923076924,3832.820512820513,4503.076923076924,4414.358974358975,4178.974358974359,4487.179487179488,4458.974358974359,4363.076923076924,4499.48717948718,4785.641025641026,4350.769230769231,4195.384615384616,4213.846153846154,4927.6923076923085
555.3601,0.48965976,0.23861983,0.36153662,0.55043864,0,0.0,0.0,0.0,0.0,1.0,0,0,0.0,0.0,0,0,111.0,0.0,501.0,4793.846153846154,3845.1282051282055,4444.102564102564,4397.435897435898,4188.205128205129,4496.923076923077,4428.717948717949,4342.564102564103,4493.846153846154,4751.282051282052,4311.282051282052,4195.384615384616,4168.205128205129,4812.307692307693
555.48517,0.52817935,0.23998706,0.3545922,0.55273,0,0.0,0.0,0.0,0.0,1.0,0,0,0.0,0.0,0,0,127.0,0.0,501.0,4813.846153846154,3880.512820512821,4428.717948717949,4384.102564102564,4201.025641025642,4509.743589743591,4431.282051282052,4342.051282051282,4472.307692307693,4805.641025641026,4291.794871794872,4204.615384615385,4204.102564102564,4742.564102564103
555.48517,0.52817935,0.23998706,0.3545922,0.55273,0,0.0,0.0,0.0,0.0,1.0,0,0,0.0,0.0,0,0,127.0,0.0,501.0,4813.846153846154,3880.512820512821,4428.717948717949,4384.102564102564,4201.025641025642,4509.743589743591,4431.282051282052,4342.051282051282,4472.307692307693,4805.641025641026,4291.794871794872,4204.615384615385,4204.102564102564,4742.564102564103
555.9856,0.47750935,0.23979753,0.34907094,0.57114786,0,0.0,0.0,0.0,0.0,1.0,0,0,0.0,0.0,0,0,62.0,0.0,0.0,4648.205128205129,3831.2820512820517,4464.102564102564,4345.128205128206,4234.871794871796,4527.6923076923085,4412.820512820514,4328.717948717949,4466.666666666667,4807.6923076923085,4332.820512820514,4211.282051282052,4315.8974358974365,4646.153846153847
555.9856,0.47750935,0.23979753,0.34907094,0.57114786,0,0.0,0.0,0.0,0.0,1.0,0,0,0.0,0.0,0,0,62.0,0.0,0.0,4648.205128205129,3831.2820512820517,4464.102564102564,4345.128205128206,4234.871794871796,4527.6923076923085,4412.820512820514,4328.717948717949,4466.666666666667,4807.6923076923085,4332.820512820514,4211.282051282052,4315.8974358974365,4646.153846153847
556.486,0.45142204,0.23399015,0.34151483,0.5877226,0,0.0,0.0,0.0,0.0,1.0,0,0,0.0,0.0,0,0,126.0,0.0,528.0,4590.256410256411,3893.333333333334,4488.205128205129,4390.256410256411,4243.589743589744,4537.435897435898,4414.871794871796,4355.384615384616,4425.128205128206,4813.333333333334,4366.666666666667,4218.461538461539,4399.48717948718,4506.666666666667
556.8614,0.45142204,0.23399015,0.34151483,0.5877226,0,0.0,0.0,0.0,0.0,0.36963066,0,0,0.0,0.0,0,0,45.0,0.0,0.0,4712.820512820514,3933.333333333334,4555.8974358974365,4480.000000000001,4262.564102564103,4571.282051282052,4497.948717948719,4407.179487179487,4377.948717948719,4758.974358974359,4405.128205128206,4303.076923076924,4234.871794871796,4323.076923076924
557.1116,0.33169168,0.22827074,0.334714,0.602637,0,0.0,0.0,0.0,0.0,0.15104572,0,0,0.0,0.0,0,0,77.0,0.0,507.0,4750.256410256411,4003.076923076924,4632.820512820514,4575.384615384616,4306.666666666667,4632.307692307693,4601.025641025642,4521.538461538462,4369.743589743591,4764.102564102564,4474.871794871796,4381.538461538462,4199.48717948718,4311.794871794872
557.3618,0.33169168,0.22827074,0.334714,0.602637,0,0.0,0.0,0.0,0.0,0.2440192,0,0,0.0,0.0,0,0,109.0,0.0,507.0,4883.589743589744,4022.564102564103,4677.435897435898,4629.2307692307695,4293.846153846154,4631.282051282052,4622.564102564103,4508.205128205129,4365.128205128206,4766.153846153847,4577.435897435898,4402.564102564103,4409.2307692307695,4330.769230769231
557.612,0.40627134,0.22271574,0.33289424,0.6128588,0,0.0,0.0,0.0,0.0,0.85316616,0,0,0.0,0.0,0,1,12.0,0.0,513.0,4912.820512820514,3985.6410256410263,4662.051282051282,4600.000000000001,4309.743589743591,4647.6923076923085,4627.179487179488,4506.666666666667,4391.794871794872,4747.6923076923085,4554.871794871796,4352.820512820514,4366.153846153847,4250.256410256411
557.86224,0.40627134,0.22271574,0.33289424,0.6128588,0,0.0,0.0,0.0,0.0,1.0,0,0,0.0,0.0,0,0,44.0,0.0,0.0,4940.512820512821,4032.820512820513,4660.000000000001,4628.717948717949,4349.2307692307695,4664.102564102564,4629.2307692307695,4510.256410256411,4394.871794871796,4734.871794871796,4520.512820512821,4336.923076923077,4217.435897435898,4100.000000000001
558.1124,0.39215076,0.21771623,0.33270222,0.61881906,0,0.0,0.0,0.0,0.0,0.49067426,0,0,0.0,0.0,0,0,76.0,0.0,513.0,4969.2307692307695,3968.205128205129,4636.923076923077,4599.48717948718,4301.025641025642,4621.025641025642,4611.282051282052,4530.256410256411,4425.641025641026,4737.948717948719,4472.307692307693,4294.358974358975,4283.589743589744,4217.948717948719
558.3627,0.39215076,0.21771623,0.33270222,0.61881906,0,0.0,0.0,0.0,0.0,0.32533827,0,0,0.0,0.0,0,0,108.0,0.0,513.0,4959.48717948718,4026.666666666667,4598.461538461539,4585.641025641026,4266.153846153847,4593.846153846154,4563.589743589744,4500.000000000001,4457.948717948719,4784.102564102564,4445.641025641026,4265.641025641026,4322.051282051282,4213.846153846154
558.61285,0.30071917,0.21321669,0.33348784,0.6200261,0,0.0,0.0,0.0,0.0,0.41520452,0,0,0.0,0.0,0,0,11.0,0.0,509.0,4936.923076923077,4173.333333333334,4585.641025641026,4553.846153846154,4293.846153846154,4615.8974358974365,4542.051282051282,4473.333333333334,4464.102564102564,4813.333333333334,4474.358974358975,4296.410256410257,4325.128205128206,4289.2307692307695
558.8631,0.30071917,0.21321669,0.33348784,0.6200261,0,0.0,0.0,0.0,0.0,0.23136753,0,0,0.0,0.0,0,0,43.0,0.0,0.0,4978.974358974359,4014.358974358975,4509.2307692307695,4425.128205128206,4231.282051282052,4544.615384615385,4459.48717948718,4444.102564102564,4425.641025641026,4796.410256410257,4455.8974358974365,4213.846153846154,4367.179487179487,4312.307692307693
559.1133,0.236453,0.2091671,0.3341949,0.6103921,0,0.0,0.0,0.0,0.0,0.52263695,0,0,0.0,0.0,0,0,75.0,0.0,509.0,4912.820512820514,3974.8717948717954,4462.564102564103,4367.179487179487,4214.358974358975,4520.512820512821,4384.615384615385,4380.512820512821,4426.666666666667,4764.102564102564,4381.538461538462,4166.666666666667,4303.076923076924,4313.846153846154
559.3635,0.236453,0.2091671,0.3341949,0.6103921,0,0.0,0.0,0.0,0.0,0.49966702,0,0,0.0,0.0,0,0,107.0,0.0,509.0,4866.666666666667,3926.666666666667,4457.948717948719,4363.589743589744,4238.461538461539,4540.000000000001,4395.8974358974365,4410.256410256411,4475.384615384616,4830.256410256411,4400.512820512821,4198.974358974359,4380.512820512821,4233.333333333334
559.48865,0.20032924,0.21712433,0.33497044,0.6010523,0,0.0,0.0,0.0,0.0,1.0,0,0,0.0,0.0,0,0,123.0,0.0,509.0,4861.025641025642,3956.410256410257,4469.2307692307695,4381.538461538462,4260.512820512821,4555.8974358974365,4428.717948717949,4424.102564102564,4505.641025641026,4854.871794871796,4416.410256410257,4228.717948717949,4380.512820512821,4190.256410256411
559.48865,0.20032924,0.21712433,0.33497044,0.6010523,0,0.0,0.0,0.0,0.0,1.0,0,0,0.0,0.0,0,0,123.0,0.0,509.0,4861.025641025642,3956.410256410257,4469.2307692307695,4381.538461538462,4260.512820512821,4555.8974358974365,4428.717948717949,4424.102564102564,4505.641025641026,4854.871794871796,4416.410256410257,4228.717948717949,4380.512820512821,4190.256410256411
560.11414,0.20673434,0.21477403,0.3400004,0.57984847,0,0.0,0.0,0.0,0.0,0.7533948,0,0,0.0,0.0,0,0,74.0,0.0,528.0,4662.564102564103,3846.1538461538466,4377.435897435898,4327.6923076923085,4217.435897435898,4521.025641025642,4368.205128205129,4435.384615384616,4434.871794871796,4782.051282051282,4354.871794871796,4169.74358974359,4357.948717948719,4530.256410256411
560.3644,0.20673434,0.21477403,0.3400004,0.57984847,0,0.0,0.0,0.0,0.0,0.23169495,0,0,0.0,0.0,0,0,106.0,0.0,528.0,4707.6923076923085,3867.692307692308,4412.307692307693,4345.128205128206,4203.076923076924,4516.923076923077,4378.974358974359,4454.358974358975,4415.384615384616,4752.307692307693,4356.410256410257,4202.051282051282,4249.74358974359,4537.435897435898
560.61456,0.16477728,0.21465337,0.3496491,0.56076455,0,0.0,0.0,0.0,0.0,0.13717324,0,0,0.0,0.0,0,0,9.0,0.0,474.0,4724.102564102564,3877.435897435898,4427.6923076923085,4358.974358974359,4201.025641025642,4512.820512820514,4388.205128205129,4434.871794871796,4422.564102564103,4783.076923076924,4346.153846153847,4207.6923076923085,4266.153846153847,4528.205128205129
560.8648,0.16477728,0.21465337,0.3496491,0.56076455,0,0.0,0.0,0.0,0.0,0.38186035,0,0,0.0,0.0,0,0,41.0,0.0,0.0,4592.820512820514,3866.1538461538466,4427.6923076923085,4347.6923076923085,4189.2307692307695,4508.205128205129,4392.820512820514,4398.974358974359,4433.333333333334,4788.717948717949,4364.615384615385,4214.358974358975,4307.179487179487,4610.256410256411
561.11505,0.13781358,0.21156207,0.35833222,0.5511665,0,0.0,0.0,0.0,0.0,1.0,0,0,0.0,0.0,0,0,73.0,0.0,474.0,4611.282051282052,3909.2307692307695,4411.282051282052,4325.641025641026,4198.461538461539,4495.8974358974365,4384.102564102564,4398.974358974359,4428.205128205129,4782.051282051282,4362.564102564103,4193.333333333334,4315.384615384616,4586.666666666667
561.36523,0.13781358,0.21156207,0.35833222,0.5511665,0,0.0,0.0,0.0,0.0,1.0,0,0,0.0,0.0,0,0,105.0,0.0,507.0,4558.974358974359,3924.1025641025644,4428.205128205129,4306.153846153847,4202.564102564103,4508.205128205129,4387.6923076923085,4393.846153846154,4455.384615384616,4796.923076923077,4381.538461538462,4199.48717948718,4350.256410256411,4515.8974358974365
561.6155,0.19348486,0.21057123,0.362187,0.55778027,0,0.0,0.0,0.0,0.0,0.7389446,0,0,0.0,0.0,0,0,8.0,0.0,478.0,4570.769230769231,3878.9743589743593,4434.871794871796,4327.6923076923085,4202.564102564103,4493.846153846154,4374.358974358975,4421.025641025642,4445.641025641026,4767.179487179488,4363.589743589744,4203.076923076924,4322.051282051282,4510.256410256411
561.86566,0.19348486,0.21057123,0.362187,0.55778027,0,0.0,0.0,0.0,0.0,0.09423388,0,0,0.0,0.0,0,0,40.0,0.0,0.0,4560.512820512821,3896.9230769230776,4445.641025641026,4345.641025641026,4231.794871794872,4525.128205128206,4428.205128205129,4477.948717948719,4426.153846153847,4714.871794871796,4341.025641025642,4242.564102564103,4263.589743589744,4547.179487179488
562.1159,0.14723583,0.2128395,0.36780924,0.5662999,0,0.0,0.0,0.0,0.0,0.5960975,0,0,0.0,0.0,0,0,72.0,0.0,478.0,4642.564102564103,3862.0512820512827,4443.076923076924,4359.48717948718,4248.717948717949,4538.974358974359,4438.461538461539,4521.025641025642,4428.205128205129,4752.307692307693,4350.769230769231,4232.307692307693,4272.307692307693,4674.358974358975
562.3661,0.14723583,0.2128395,0.36780924,0.5662999,0,0.0,0.0,0.0,0.0,0.27365646,0,0,0.0,0.0,0,0,104.0,0.0,513.0,4640.512820512821,3849.2307692307695,4445.128205128206,4343.589743589744,4250.256410256411,4526.153846153847,4418.461538461539,4453.846153846154,4416.923076923077,4771.282051282052,4360.000000000001,4215.8974358974365,4289.74358974359,4624.102564102564
562.61633,0.13050327,0.21867272,0.37594086,0.57523656,0,0.0,0.0,0.0,0.0,0.059898198,0,0,0.0,0.0,0,0,7.0,0.0,474.0,4602.564102564103,3917.435897435898,4467.179487179487,4367.6923076923085,4282.564102564103,4558.461538461539,4433.846153846154,4447.179487179487,4392.307692307693,4766.153846153847,4387.179487179487,4258.974358974359,4328.717948717949,4641.025641025642
562.8665,0.13050327,0.21867272,0.37594086,0.57523656,0,0.0,0.0,0.0,0.0,0.28591183,0,0,0.0,0.0,0,0,39.0,0.0,0.0,4615.8974358974365,3913.333333333334,4521.025641025642,4429.2307692307695,4323.076923076924,4598.461538461539,4489.743589743591,4495.384615384616,4384.102564102564,4717.435897435898,4377.435897435898,4325.641025641026,4169.74358974359,4585.128205128206
563.11676,0.071455956,0.22341968,0.37813336,0.5832784,0,0.0,0.0,0.0,0.0,0.10524082,0,0,0.0,0.0,0,0,71.0,0.0,474.0,4628.205128205129,3878.9743589743593,4534.871794871796,4443.589743589744,4327.179487179487,4616.410256410257,4522.051282051282,4506.153846153847,4354.358974358975,4695.384615384616,4395.384615384616,4339.48717948718,4203.589743589744,4569.2307692307695
563.36694,0.071455956,0.22341968,0.37813336,0.5832784,0,0.0,0.0,0.0,0.0,0.3911703,0,0,0.0,0.0,0,0,103.0,0.0,507.0,4559.48717948718,3908.717948717949,4565.641025641026,4487.6923076923085,4363.589743589744,4660.000000000001,4584.615384615385,4533.846153846154,4371.794871794872,4718.461538461539,4491.282051282052,4378.461538461539,4198.461538461539,4595.384615384616
563.6172,0.07885601,0.23011048,0.37667197,0.5905145,0,0.0,0.0,0.0,0.0,0.47013372,0,0,0.0,0.0,0,0,6.0,0.0,536.0,4509.2307692307695,3863.076923076924,4584.615384615385,4506.153846153847,4357.948717948719,4666.666666666667,4613.846153846154,4521.025641025642,4338.974358974359,4655.384615384616,4489.743589743591,4381.538461538462,4122.051282051282,4659.48717948718
563.8674,0.07885601,0.23011048,0.37667197,0.5905145,0,0.0,0.0,0.0,0.0,0.085004516,0,0,0.0,0.0,0,0,38.0,0.0,0.0,4491.794871794872,3863.589743589744,4618.974358974359,4557.435897435898,4373.846153846154,4702.051282051282,4666.666666666667,4552.820512820514,4367.6923076923085,4657.948717948719,4488.205128205129,4400.512820512821,4063.076923076924,4673.846153846154
564.1176,0.14939192,0.23291644,0.37398273,0.59007335,0,0.0,0.0,0.0,0.0,0.062015094,0,0,0.0,0.0,0,0,70.0,0.0,534.0,4504.615384615385,3931.7948717948725,4654.358974358975,4628.717948717949,4372.820512820514,4703.076923076924,4727.179487179488,4585.641025641026,4391.282051282052,4683.076923076924,4562.051282051282,4443.076923076924,4065.6410256410263,4684.102564102564
564.3678,0.14939192,0.23291644,0.37398273,0.59007335,0,0.0,0.0,0.0,0.0,0.8996919,0,0,0.0,0.0,0,0,102.0,0.0,529.0,4450.769230769231,3929.7435897435903,4675.8974358974365,4662.051282051282,4362.564102564103,4671.282051282052,4740.000000000001,4593.846153846154,4428.717948717949,4721.538461538462,4607.6923076923085,4461.025641025642,4135.384615384616,4679.48717948718
564.4929,0.19128793,0.23505358,0.3742005,0.5843241,0,0.0,0.0,0.0,0.0,1.0,0,0,0.0,0.0,0,0,118.0,0.0,529.0,4474.871794871796,3928.205128205129,4662.051282051282,4660.000000000001,4348.717948717949,4654.358974358975,4722.051282051282,4578.974358974359,4444.615384615385,4726.153846153847,4612.307692307693,4425.641025641026,4173.846153846154,4608.205128205129
564.8682,0.19128793,0.23505358,0.3742005,0.5843241,0,0.0,0.0,0.0,0.0,0.27390546,0,0,0.0,0.0,0,0,37.0,0.0,0.0,4574.871794871796,3949.7435897435903,4600.512820512821,4601.538461538462,4307.6923076923085,4629.743589743591,4635.8974358974365,4524.102564102564,4457.435897435898,4777.948717948719,4556.410256410257,4342.051282051282,4214.358974358975,4590.769230769231
565.11847,0.07378884,0.236977,0.3743947,0.579149,0,0.0,0.0,0.0,0.0,0.2923466,0,0,0.0,0.0,0,0,69.0,0.0,554.0,4524.615384615385,3990.2564102564106,4571.794871794872,4580.000000000001,4300.000000000001,4617.948717948719,4616.923076923077,4492.307692307693,4473.846153846154,4778.461538461539,4519.48717948718,4326.666666666667,4215.8974358974365,4675.8974358974365
565.36865,0.07378884,0.236977,0.3743947,0.579149,0,0.0,0.0,0.0,0.0,1.0,0,0,0.0,0.0,0,0,101.0,0.0,507.0,4593.333333333334,3986.1538461538466,4568.205128205129,4563.589743589744,4254.358974358975,4570.769230769231,4600.000000000001,4501.025641025642,4521.538461538462,4808.717948717949,4468.717948717949,4332.307692307693,4198.974358974359,4734.871794871796
565.6189,0.0,0.23870808,0.37456775,0.57294667,0,0.0,0.0,0.0,0.0,0.0,0,0,0.0,0.0,0,0,4.0,0.0,560.0,4664.615384615386,3962.0512820512827,4535.8974358974365,4538.974358974359,4213.846153846154,4524.615384615385,4554.358974358975,4498.461538461539,4558.974358974359,4861.538461538462,4462.564102564103,4296.923076923077,4268.717948717949,4681.025641025642
565.6189,0.0,0.23870808,0.37456775,0.57294667,0,0.0,0.0,0.0,0.0,0.0,0,0,0.0,0.0,0,0,4.0,0.0,560.0,4664.615384615386,3962.0512820512827,4535.8974358974365,4538.974358974359,4213.846153846154,4524.615384615385,4554.358974358975,4498.461538461539,4558.974358974359,4861.538461538462,4462.564102564103,4296.923076923077,4268.717948717949,4681.025641025642
566.1193,0.0,0.24026605,0.37634882,0.56067306,0,0.0,0.0,0.0,0.0,0.27460185,0,0,0.0,0.0,0,0,68.0,0.0,560.0,4574.871794871796,3994.8717948717954,4514.871794871796,4492.307692307693,4185.128205128206,4503.076923076924,4506.666666666667,4539.48717948718,4557.435897435898,4814.358974358975,4363.589743589744,4302.564102564103,4204.102564102564,4664.102564102564
566.36957,0.0,0.24026605,0.37634882,0.56067306,0,0.0,0.0,0.0,0.0,0.15023784,0,0,0.0,0.0,0,0,100.0,0.0,511.0,4587.6923076923085,3980.0000000000005,4497.948717948719,4490.769230769231,4171.282051282052,4493.333333333334,4476.923076923077,4555.384615384616,4542.564102564103,4837.435897435898,4382.051282051282,4271.282051282052,4264.615384615385,4641.538461538462
566.61975,0.0,0.24268605,0.38308728,0.54717356,0,0.0,0.0,0.0,0.0,1.0,0,0,0.0,0.0,0,0,3.0,0.0,545.0,4635.384615384616,3951.2820512820517,4492.307692307693,4468.717948717949,4166.666666666667,4486.153846153847,4460.512820512821,4521.025641025642,4543.589743589744,4846.153846153847,4421.025641025642,4281.025641025642,4287.179487179487,4460.000000000001
566.87,0.0,0.24268605,0.38308728,0.54717356,0,0.0,0.0,0.0,0.0,0.8180458,0,0,0.0,0.0,0,0,35.0,0.0,0.0,4606.666666666667,3983.589743589744,4505.641025641026,4458.461538461539,4165.128205128206,4479.48717948718,4457.948717948719,4509.743589743591,4500.000000000001,4796.923076923077,4391.282051282052,4290.769230769231,4304.102564102564,4431.794871794872
567.1202,0.0,0.24330129,0.38982046,0.52111655,0,0.0,0.0,0.0,0.0,0.17833787,0,0,0.0,0.0,0,0,67.0,0.0,545.0,4553.846153846154,3941.538461538462,4497.435897435898,4444.615384615385,4192.307692307693,4505.641025641026,4467.179487179487,4456.923076923077,4505.641025641026,4828.717948717949,4382.051282051282,4289.74358974359,4319.48717948718,4409.743589743591
567.3704,0.0,0.24330129,0.38982046,0.52111655,0,0.0,0.0,0.0,0.0,0.19633283,0,0,0.0,0.0,0,0,99.0,0.0,507.0,4616.923076923077,3981.538461538462,4522.564102564103,4460.000000000001,4196.410256410257,4500.512820512821,4447.6923076923085,4455.384615384616,4535.384615384616,4841.025641025642,4376.410256410257,4295.8974358974365,4366.153846153847,4430.769230769231
567.6206,0.020722428,0.24225013,0.39587754,0.48888507,0,0.0,0.0,0.0,0.0,1.0,0,0,0.0,0.0,0,0,2.0,0.0,392.0,4691.282051282052,4014.358974358975,4491.794871794872,4410.256410256411,4204.615384615385,4509.2307692307695,4454.871794871796,4449.743589743591,4504.102564102564,4825.641025641026,4334.871794871796,4258.974358974359,4263.589743589744,4432.820512820514
567.83954,0.020722428,0.24225013,0.39587754,0.48888507,1,0.0,0.0,0.0,0.0,1.0,0,0,0.0,0.0,0,0,30.0,0.0,0.0,4672.307692307693,3925.1282051282055,4448.717948717949,4348.717948717949,4216.410256410257,4507.6923076923085,4425.641025641026,4448.717948717949,4447.179487179487,4744.102564102564,4248.717948717949,4205.128205128206,4166.153846153847,4533.333333333334
567.9959,0.0,0.24507086,0.40132585,0.45988914,0,0.0,0.0,0.0,0.0,1.0,0,0,0.0,0.0,0,0,50.0,0.0,0.0,4622.564102564103,3892.820512820513,4426.153846153847,4341.538461538462,4187.6923076923085,4490.256410256411,4411.794871794872,4444.102564102564,4428.717948717949,4735.384615384616,4233.333333333334,4183.076923076924,4131.794871794872,4528.205128205129
568.3713,0.0,0.24507086,0.40132585,0.45988914,0,0.0,0.0,0.0,0.0,1.0,0,0,0.0,0.0,0,0,98.0,0.0,529.0,4490.256410256411,3830.7692307692314,4414.871794871796,4285.128205128206,4184.615384615385,4474.871794871796,4336.923076923077,4365.641025641026,4341.025641025642,4661.025641025642,4273.846153846154,4138.461538461539,4145.641025641026,4381.025641025642
568.49634,0.09331188,0.24297585,0.40081197,0.4338138,0,0.0,0.0,0.0,0.0,1.0,0,0,0.0,0.0,0,0,114.0,0.0,529.0,4460.000000000001,3889.2307692307695,4428.717948717949,4301.025641025642,4216.923076923077,4505.641025641026,4345.641025641026,4380.512820512821,4343.589743589744,4664.102564102564,4287.179487179487,4169.2307692307695,4094.8717948717954,4399.48717948718
568.8717,0.09331188,0.24297585,0.40081197,0.4338138,0,0.0,0.0,0.0,0.0,0.7691342,0,0,0.0,0.0,0,0,33.0,0.0,0.0,4562.564102564103,3864.615384615385,4461.538461538462,4365.128205128206,4263.589743589744,4547.6923076923085,4405.128205128206,4411.794871794872,4350.769230769231,4660.000000000001,4250.256410256411,4198.974358974359,4000.5128205128212,4422.051282051282
568.9968,0.18839194,0.24555153,0.39938927,0.41778946,0,0.0,0.0,0.0,0.0,1.0,0,0,0.0,0.0,0,0,49.0,0.0,0.0,4565.641025641026,3851.7948717948725,4472.820512820514,4368.717948717949,4260.512820512821,4550.256410256411,4406.153846153847,4407.6923076923085,4364.102564102564,4650.256410256411,4253.846153846154,4192.820512820514,4002.564102564103,4382.051282051282
569.37213,0.18839194,0.24555153,0.39938927,0.41778946,0,0.0,0.0,0.0,0.0,0.4350402,0,0,0.0,0.0,0,0,97.0,0.0,507.0,4643.589743589744,3894.8717948717954,4474.358974358975,4386.153846153847,4283.589743589744,4576.923076923077,4444.102564102564,4491.282051282052,4367.179487179487,4684.615384615386,4261.025641025642,4231.282051282052,3971.7948717948725,4334.358974358975
569.6223,0.21320535,0.24788551,0.398106,0.40339294,0,0.0,0.0,0.0,0.0,1.0,0,0,0.0,0.0,0,0,0.0,0.0,495.0,4750.769230769231,3908.717948717949,4491.794871794872,4402.051282051282,4263.076923076924,4558.974358974359,4455.8974358974365,4485.128205128206,4387.179487179487,4729.743589743591,4247.179487179487,4232.820512820514,4007.692307692308,4354.871794871796
569.6223,0.21320535,0.24788551,0.398106,0.40339294,0,0.0,0.0,0.0,0.0,1.0,0,0,0.0,0.0,0,0,0.0,0.0,495.0,4750.769230769231,3908.717948717949,4491.794871794872,4402.051282051282,4263.076923076924,4558.974358974359,4455.8974358974365,4485.128205128206,4387.179487179487,4729.743589743591,4247.179487179487,4232.820512820514,4007.692307692308,4354.871794871796
569.9977,0.22031023,0.24860622,0.3965646,0.39046472,0,0.0,0.0,0.0,0.0,1.0,0,0,0.0,0.0,0,0,48.0,0.0,0.0,4670.256410256411,3892.307692307693,4486.666666666667,4407.6923076923085,4232.820512820514,4536.410256410257,4444.102564102564,4448.717948717949,4409.2307692307695,4702.051282051282,4264.615384615385,4203.076923076924,4022.564102564103,4257.435897435898
570.373,0.22031023,0.24860622,0.3965646,0.39046472,0,0.0,0.0,0.0,0.0,0.5884795,0,0,0.0,0.0,0,0,96.0,0.0,514.0,4704.102564102564,3935.3846153846157,4503.589743589744,4433.333333333334,4253.333333333334,4553.333333333334,4461.025641025642,4453.333333333334,4452.307692307693,4751.794871794872,4327.6923076923085,4246.153846153847,4169.2307692307695,4281.538461538462
570.62317,0.16071396,0.2487937,0.39298135,0.38765457,0,0.0,0.0,0.0,0.0,0.21135987,0,0,0.0,0.0,0,0,128.0,0.0,514.0,4709.2307692307695,3892.820512820513,4489.743589743591,4428.205128205129,4214.871794871796,4522.564102564103,4473.846153846154,4471.282051282052,4446.153846153847,4759.48717948718,4341.538461538462,4229.2307692307695,4199.48717948718,4294.358974358975
570.8734,0.16071396,0.2487937,0.39298135,0.38765457,0,0.0,0.0,0.0,0.0,0.04035073,0,0,0.0,0.0,0,0,31.0,0.0,0.0,4761.538461538462,3947.1794871794878,4508.717948717949,4455.384615384616,4253.333333333334,4556.410256410257,4476.923076923077,4494.871794871796,4463.076923076924,4832.307692307693,4412.307692307693,4283.589743589744,4283.076923076924,4350.769230769231
571.1236,0.19027872,0.24686933,0.38878858,0.3864215,0,0.0,0.0,0.0,0.0,0.21862058,0,0,0.0,0.0,0,0,63.0,0.0,0.0,4673.846153846154,3891.2820512820517,4476.410256410257,4422.564102564103,4247.6923076923085,4542.564102564103,4458.974358974359,4508.717948717949,4467.179487179487,4844.102564102564,4354.871794871796,4249.2307692307695,4231.794871794872,4318.974358974359
571.2487,0.19027872,0.24686933,0.38878858,0.3864215,0,0.0,0.0,0.0,0.0,0.0,0,0,0.0,0.0,0,0,79.0,0.0,512.0,4666.153846153847,3882.564102564103,4475.8974358974365,4412.820512820514,4246.666666666667,4539.48717948718,4442.564102564103,4505.641025641026,4455.8974358974365,4824.615384615386,4327.179487179487,4248.717948717949,4188.205128205129,4368.205128205129
571.49896,0.13695267,0.24172167,0.38683975,0.37932694,0,0.0,0.0,0.0,0.0,1.0,0,0,0.0,0.0,0,0,111.0,0.0,512.0,4651.794871794872,3869.7435897435903,4477.435897435898,4412.307692307693,4248.717948717949,4543.076923076924,4441.538461538462,4531.794871794872,4429.743589743591,4750.769230769231,4313.846153846154,4256.410256410257,4126.153846153847,4479.48717948718
571.87427,0.13695267,0.24172167,0.38683975,0.37932694,0,0.0,0.0,0.0,0.0,0.053639647,0,0,0.0,0.0,0,0,30.0,0.0,0.0,4687.6923076923085,3964.615384615385,4509.743589743591,4478.461538461539,4242.564102564103,4554.358974358975,4453.846153846154,4483.589743589744,4391.282051282052,4741.538461538462,4343.076923076924,4263.589743589744,4234.358974358975,4506.666666666667
572.1245,0.07512975,0.23592712,0.38762793,0.3729674,0,0.0,0.0,0.0,0.0,0.41354305,0,0,0.0,0.0,0,1,62.0,0.0,0.0,4735.384615384616,3970.7692307692314,4539.48717948718,4492.820512820514,4245.128205128206,4567.179487179488,4491.794871794872,4501.538461538462,4423.589743589744,4720.512820512821,4347.6923076923085,4302.051282051282,4245.128205128206,4615.8974358974365
572.3747,0.07512975,0.23592712,0.38762793,0.3729674,0,0.0,0.0,0.0,0.0,0.34089667,0,0,0.0,0.0,0,1,94.0,0.0,529.0,4630.769230769231,3963.589743589744,4544.102564102564,4507.179487179488,4263.076923076924,4588.205128205129,4505.641025641026,4480.512820512821,4435.8974358974365,4734.358974358975,4390.769230769231,4292.820512820514,4277.948717948719,4608.717948717949
572.62494,0.053799517,0.23203065,0.38396114,0.3732663,0,0.0,0.0,0.0,0.0,1.0,0,0,0.0,0.0,0,0,126.0,0.0,529.0,4546.666666666667,3937.435897435898,4528.717948717949,4478.974358974359,4274.358974358975,4590.769230769231,4509.743589743591,4476.410256410257,4414.358974358975,4751.794871794872,4427.6923076923085,4290.256410256411,4342.051282051282,4585.128205128206
572.8751,0.053799517,0.23203065,0.38396114,0.3732663,0,0.0,0.0,0.0,0.0,0.9059109,0,0,0.0,0.0,0,0,29.0,0.0,0.0,4575.8974358974365,3928.205128205129,4523.589743589744,4480.000000000001,4282.051282051282,4602.051282051282,4522.051282051282,4491.282051282052,4430.769230769231,4814.358974358975,4493.333333333334,4278.461538461539,4400.000000000001,4629.743589743591
573.12537,0.045611676,0.22756587,0.3791431,0.37956354,0,0.0,0.0,0.0,0.0,0.53245693,0,0,0.0,0.0,0,0,61.0,0.0,0.0,4463.076923076924,3843.589743589744,4468.717948717949,4406.153846153847,4231.282051282052,4538.461538461539,4456.923076923077,4394.871794871796,4378.974358974359,4694.871794871796,4381.538461538462,4196.410256410257,4276.923076923077,4663.076923076924
573.2504,0.045611676,0.22756587,0.3791431,0.37956354,0,0.0,0.0,0.0,0.0,1.0,0,0,0.0,0.0,0,0,77.0,0.0,508.0,4498.974358974359,3872.307692307693,4461.025641025642,4395.384615384616,4214.871794871796,4524.615384615385,4420.512820512821,4370.769230769231,4356.410256410257,4657.948717948719,4329.2307692307695,4210.769230769231,4191.794871794872,4670.256410256411
573.6258,0.14023326,0.22910234,0.37857965,0.39187625,0,0.0,0.0,0.0,0.0,0.6638974,0,0,0.0,0.0,0,0,125.0,0.0,508.0,4583.076923076924,3883.589743589744,4466.666666666667,4396.923076923077,4229.74358974359,4537.948717948719,4453.846153846154,4396.410256410257,4422.051282051282,4780.000000000001,4384.102564102564,4208.717948717949,4309.2307692307695,4660.000000000001
573.876,0.14023326,0.22910234,0.37857965,0.39187625,0,0.0,0.0,0.0,0.0,1.0,0,0,0.0,0.0,0,0,28.0,0.0,0.0,6861.025641025642,5192.820512820514,4522.051282051282,4521.538461538462,4223.589743589744,4524.615384615385,4404.102564102564,4396.410256410257,4385.641025641026,4781.538461538462,4385.128205128206,4196.410256410257,4487.6923076923085,4709.743589743591
574.1262,0.05472889,0.23009428,0.38067207,0.40337223,0,0.0,0.0,0.0,0.0,1.0,0,0,0.0,0.0,1,0,60.0,0.0,0.0,7030.769230769231,4493.846153846154,4563.589743589744,4535.8974358974365,4266.153846153847,4555.384615384616,4396.410256410257,4394.871794871796,4355.8974358974365,4794.358974358975,4380.000000000001,4183.076923076924,4568.205128205129,4774.871794871796
574.3764,0.05472889,0.23009428,0.38067207,0.40337223,0,0.0,0.0,0.0,0.0,0.3565723,0,0,0.0,0.0,1,0,92.0,0.0,514.0,6450.769230769231,3891.7948717948725,4504.102564102564,4428.205128205129,4290.256410256411,4571.794871794872,4414.871794871796,4389.743589743591,4381.538461538462,4746.666666666667,4309.743589743591,4152.307692307693,4288.717948717949,4665.128205128206
574.62665,0.06860682,0.23098704,0.37865314,0.4174649,0,0.0,0.0,0.0,0.0,1.0,0,0,0.0,0.0,0,0,124.0,0.0,514.0,5948.717948717949,3808.717948717949,4492.307692307693,4426.153846153847,4291.282051282052,4578.974358974359,4411.282051282052,4410.256410256411,4415.8974358974365,4756.410256410257,4353.846153846154,4172.307692307693,4401.025641025642,4601.538461538462
574.62665,0.06860682,0.23098704,0.37865314,0.4174649,0,0.0,0.0,0.0,0.0,1.0,0,0,0.0,0.0,0,0,124.0,0.0,514.0,5948.717948717949,3808.717948717949,4492.307692307693,4426.153846153847,4291.282051282052,4578.974358974359,4411.282051282052,4410.256410256411,4415.8974358974365,4756.410256410257,4353.846153846154,4172.307692307693,4401.025641025642,4601.538461538462
575.00195,0.0,0.23179053,0.3741037,0.43101016,0,0.0,0.0,0.0,0.0,1.0,0,0,0.0,0.0,0,0,43.0,0.0,0.0,5563.589743589744,3881.0256410256416,4495.384615384616,4424.102564102564,4341.538461538462,4609.743589743591,4395.8974358974365,4368.205128205129,4336.923076923077,4681.025641025642,4381.538461538462,4210.256410256411,4272.307692307693,4660.000000000001
575.00195,0.0,0.23179053,0.3741037,0.43101016,0,0.0,0.0,0.0,0.0,1.0,0,0,0.0,0.0,0,0,43.0,0.0,0.0,5563.589743589744,3881.0256410256416,4495.384615384616,4424.102564102564,4341.538461538462,4609.743589743591,4395.8974358974365,4368.205128205129,4336.923076923077,4681.025641025642,4381.538461538462,4210.256410256411,4272.307692307693,4660.000000000001
575.5024,0.023657193,0.23251367,0.37000927,0.44319344,0,0.0,0.0,0.0,0.0,1.0,0,0,0.0,0.0,0,0,107.0,0.0,504.0,5196.923076923077,3848.717948717949,4490.769230769231,4456.410256410257,4363.589743589744,4640.000000000001,4477.948717948719,4411.282051282052,4355.384615384616,4725.128205128206,4470.256410256411,4234.358974358975,4347.6923076923085,4915.8974358974365
575.5024,0.023657193,0.23251367,0.37000927,0.44319344,0,0.0,0.0,0.0,0.0,1.0,0,0,0.0,0.0,0,0,107.0,0.0,504.0,5196.923076923077,3848.717948717949,4490.769230769231,4456.410256410257,4363.589743589744,4640.000000000001,4477.948717948719,4411.282051282052,4355.384615384616,4725.128205128206,4470.256410256411,4234.358974358975,4347.6923076923085,4915.8974358974365
576.0028,0.059509113,0.22352333,0.3663261,0.4541567,0,0.0,0.0,0.0,0.0,1.0,0,0,0.0,0.0,0,0,42.0,0.0,0.0,5073.333333333334,4037.9487179487182,4568.717948717949,4523.589743589744,4396.923076923077,4662.051282051282,4487.179487179488,4407.6923076923085,4381.538461538462,4796.410256410257,4490.769230769231,4247.179487179487,4375.8974358974365,5081.025641025642
576.0028,0.059509113,0.22352333,0.3663261,0.4541567,0,0.0,0.0,0.0,0.0,1.0,0,0,0.0,0.0,0,0,42.0,0.0,0.0,5073.333333333334,4037.9487179487182,4568.717948717949,4523.589743589744,4396.923076923077,4662.051282051282,4487.179487179488,4407.6923076923085,4381.538461538462,4796.410256410257,4490.769230769231,4247.179487179487,4375.8974358974365,5081.025641025642
576.50323,0.08193535,0.21256183,0.3630099,0.46401522,0,0.0,0.0,0.0,0.0,1.0,0,0,0.0,0.0,0,0,106.0,0.0,524.0,4831.282051282052,3958.9743589743593,4524.102564102564,4488.205128205129,4332.820512820514,4597.948717948719,4427.179487179487,4370.769230769231,4371.282051282052,4736.923076923077,4433.333333333334,4217.948717948719,4348.205128205129,5171.282051282052
576.87854,0.08193535,0.21256183,0.3630099,0.46401522,0,0.0,0.0,0.0,0.0,1.0,0,0,0.0,0.0,0,0,25.0,0.0,0.0,4915.8974358974365,3969.2307692307695,4518.974358974359,4489.743589743591,4296.410256410257,4569.743589743591,4444.615384615385,4392.820512820514,4368.205128205129,4730.256410256411,4374.358974358975,4216.410256410257,4295.384615384616,4976.923076923077
577.00366,0.038771205,0.20777921,0.3600241,0.47288802,0,0.0,0.0,0.0,0.0,1.0,0,0,0.0,0.0,0,0,41.0,0.0,0.0,4904.102564102564,3968.717948717949,4512.307692307693,4484.102564102564,4295.8974358974365,4569.743589743591,4445.128205128206,4378.461538461539,4371.794871794872,4707.6923076923085,4387.6923076923085,4212.307692307693,4250.256410256411,4925.641025641026
577.379,0.038771205,0.20777921,0.3600241,0.47288802,0,0.0,0.0,0.0,0.0,0.7185349,0,0,0.0,0.0,0,0,89.0,0.0,508.0,4783.076923076924,3944.1025641025644,4494.358974358975,4474.871794871796,4308.717948717949,4583.589743589744,4443.076923076924,4424.102564102564,4416.410256410257,4735.384615384616,4321.538461538462,4208.717948717949,4144.102564102564,4678.461538461539
577.6292,0.009321765,0.20522265,0.3606105,0.4800416,0,0.0,0.0,0.0,0.0,1.0,0,0,0.0,0.0,0,0,121.0,0.0,508.0,4706.153846153847,4010.7692307692314,4492.307692307693,4434.871794871796,4273.333333333334,4553.846153846154,4422.051282051282,4388.205128205129,4366.153846153847,4655.384615384616,4280.000000000001,4215.384615384616,4170.769230769231,4517.948717948719
577.6292,0.009321765,0.20522265,0.3606105,0.4800416,0,0.0,0.0,0.0,0.0,1.0,0,0,0.0,0.0,0,0,121.0,0.0,508.0,4706.153846153847,4010.7692307692314,4492.307692307693,4434.871794871796,4273.333333333334,4553.846153846154,4422.051282051282,4388.205128205129,4366.153846153847,4655.384615384616,4280.000000000001,4215.384615384616,4170.769230769231,4517.948717948719
578.12964,0.038903832,0.20171775,0.3641123,0.48648092,0,0.0,0.0,0.0,0.0,0.63101035,0,0,0.0,0.0,0,0,56.0,0.0,0.0,4642.051282051282,3960.5128205128212,4480.512820512821,4425.128205128206,4256.923076923077,4540.512820512821,4428.717948717949,4391.282051282052,4408.205128205129,4730.256410256411,4295.384615384616,4170.256410256411,4235.8974358974365,4413.333333333334
578.3799,0.038903832,0.20171775,0.3641123,0.48648092,0,0.0,0.0,0.0,0.0,0.0,0,0,0.0,0.0,0,0,88.0,0.0,514.0,4537.435897435898,3947.1794871794878,4473.846153846154,4397.948717948719,4235.8974358974365,4523.076923076924,4393.846153846154,4350.256410256411,4388.205128205129,4711.282051282052,4263.076923076924,4167.179487179487,4166.666666666667,4365.641025641026
578.50494,0.074596554,0.20021918,0.36726257,0.4922775,0,0.0,0.0,0.0,0.0,0.0,0,0,0.0,0.0,0,0,104.0,0.0,514.0,4505.641025641026,3983.076923076924,4465.128205128206,4413.333333333334,4248.717948717949,4539.48717948718,4408.205128205129,4365.641025641026,4380.000000000001,4705.128205128206,4277.948717948719,4172.307692307693,4122.564102564103,4379.48717948718
578.8803,0.074596554,0.20021918,0.36726257,0.4922775,0,0.0,0.0,0.0,0.0,0.25471124,0,0,0.0,0.0,0,0,23.0,0.0,0.0,4566.153846153847,3960.0000000000005,4470.256410256411,4430.769230769231,4257.435897435898,4555.8974358974365,4446.153846153847,4410.769230769231,4439.48717948718,4732.307692307693,4281.538461538462,4195.384615384616,4126.666666666667,4335.384615384616
579.1305,0.1118123,0.19654386,0.37009636,0.4959047,0,0.0,0.0,0.0,0.0,0.9781225,0,0,0.0,0.0,0,0,55.0,0.0,0.0,4544.102564102564,3883.076923076924,4444.615384615385,4407.179487179487,4202.051282051282,4495.384615384616,4416.923076923077,4359.48717948718,4402.051282051282,4725.641025641026,4235.8974358974365,4170.256410256411,4079.48717948718,4191.282051282052
579.2556,0.1118123,0.19654386,0.37009636,0.4959047,0,0.0,0.0,0.0,0.0,1.0,0,0,0.0,0.0,0,0,71.0,0.0,474.0,4517.435897435898,3886.666666666667,4438.974358974359,4395.384615384616,4187.6923076923085,4494.358974358975,4411.794871794872,4360.512820512821,4381.538461538462,4693.333333333334,4217.435897435898,4170.256410256411,4046.1538461538466,4136.410256410257
579.6309,0.30839488,0.19439067,0.37264517,0.50155634,0,0.0,0.0,0.0,0.0,0.8960838,0,0,0.0,0.0,0,0,119.0,0.0,509.0,4484.102564102564,3851.7948717948725,4428.717948717949,4398.461538461539,4218.974358974359,4515.8974358974365,4446.666666666667,4392.307692307693,4375.8974358974365,4705.128205128206,4243.589743589744,4173.333333333334,4109.2307692307695,4242.564102564103
579.75604,0.30839488,0.19439067,0.37264517,0.50155634,0,0.0,0.0,0.0,0.0,1.0,0,0,0.0,0.0,0,0,6.0,0.0,535.0,4445.641025641026,3816.410256410257,4420.512820512821,4373.333333333334,4205.128205128206,4490.256410256411,4412.307692307693,4358.974358974359,4357.435897435898,4682.564102564103,4215.8974358974365,4136.923076923077,4101.025641025642,4272.307692307693
580.13135,0.25342718,0.19115978,0.37288335,0.5066439,0,0.0,0.0,0.0,0.0,0.37599304,0,0,0.0,0.0,0,0,54.0,0.0,0.0,4479.48717948718,3914.8717948717954,4447.6923076923085,4429.2307692307695,4265.641025641026,4551.794871794872,4441.538461538462,4398.461538461539,4368.717948717949,4766.153846153847,4266.153846153847,4171.794871794872,4219.48717948718,4388.205128205129
580.3816,0.25342718,0.19115978,0.37288335,0.5066439,0,0.0,0.0,0.0,0.0,0.3016478,0,0,0.0,0.0,0,0,86.0,0.0,527.0,4438.461538461539,3892.307692307693,4461.538461538462,4430.769230769231,4280.000000000001,4568.205128205129,4461.025641025642,4445.128205128206,4396.923076923077,4754.358974358975,4333.333333333334,4217.948717948719,4187.6923076923085,4444.102564102564
580.6318,0.36277634,0.19066472,0.37099218,0.5123718,0,0.0,0.0,0.0,0.0,1.0,0,0,0.0,0.0,0,0,118.0,0.0,527.0,4378.974358974359,3881.0256410256416,4474.358974358975,4426.666666666667,4279.48717948718,4569.2307692307695,4451.794871794872,4424.102564102564,4398.461538461539,4734.871794871796,4322.564102564103,4201.025641025642,4142.051282051282,4546.666666666667
580.882,0.36277634,0.19066472,0.37099218,0.5123718,0,0.0,0.0,0.0,0.0,0.5336543,0,0,0.0,0.0,0,0,21.0,0.0,0.0,4394.358974358975,3896.9230769230776,4495.8974358974365,4430.769230769231,4287.6923076923085,4570.256410256411,4427.179487179487,4410.769230769231,4394.871794871796,4800.000000000001,4421.538461538462,4219.48717948718,4326.153846153847,4540.000000000001
581.1322,0.27670306,0.1866822,0.3692886,0.51513994,0,0.0,0.0,0.0,0.0,0.3475531,0,0,0.0,0.0,0,0,53.0,0.0,0.0,4421.025641025642,3907.692307692308,4494.871794871796,4426.153846153847,4290.769230769231,4585.641025641026,4461.538461538462,4420.512820512821,4398.461538461539,4768.717948717949,4395.8974358974365,4248.717948717949,4240.512820512821,4575.8974358974365
581.38245,0.27670306,0.1866822,0.3692886,0.51513994,0,0.0,0.0,0.0,0.0,0.16116957,0,0,0.0,0.0,0,0,85.0,0.0,508.0,4443.589743589744,3877.9487179487182,4507.179487179488,4416.923076923077,4262.051282051282,4554.871794871796,4433.333333333334,4455.384615384616,4408.717948717949,4830.256410256411,4471.794871794872,4221.025641025642,4345.128205128206,4551.794871794872
581.6326,0.24012548,0.18879093,0.37057596,0.51469684,0,0.0,0.0,0.0,0.0,0.1461197,0,0,0.0,0.0,0,0,117.0,0.0,508.0,4416.923076923077,3887.1794871794878,4510.256410256411,4428.205128205129,4265.641025641026,4556.923076923077,4447.179487179487,4496.410256410257,4431.794871794872,4803.076923076924,4462.051282051282,4218.974358974359,4303.076923076924,4693.846153846154
581.8829,0.24012548,0.18879093,0.37057596,0.51469684,0,0.0,0.0,0.0,0.0,1.0,0,0,0.0,0.0,0,0,20.0,0.0,0.0,4414.871794871796,3954.8717948717954,4505.128205128206,4415.8974358974365,4228.205128205129,4533.846153846154,4442.564102564103,4506.666666666667,4387.179487179487,4726.666666666667,4378.461538461539,4236.410256410257,4193.333333333334,4657.435897435898
582.13306,0.15034117,0.19222194,0.3729358,0.5162113,0,0.0,0.0,0.0,0.0,0.22471316,0,0,0.0,0.0,0,0,52.0,0.0,0.0,4510.769230769231,3938.9743589743593,4488.205128205129,4414.871794871796,4229.74358974359,4536.923076923077,4460.000000000001,4601.538461538462,4428.205128205129,4789.2307692307695,4364.102564102564,4232.820512820514,4231.282051282052,4535.8974358974365
582.3833,0.15034117,0.19222194,0.3729358,0.5162113,0,0.0,0.0,0.0,0.0,0.51033115,0,0,0.0,0.0,0,0,84.0,0.0,514.0,4493.846153846154,3930.2564102564106,4481.025641025642,4427.179487179487,4248.205128205129,4553.333333333334,4436.923076923077,4520.512820512821,4387.6923076923085,4772.820512820514,4369.743589743591,4247.179487179487,4203.076923076924,4474.871794871796
582.63354,0.13827431,0.196672,0.37223354,0.5132453,0,0.0,0.0,0.0,0.0,0.9152352,0,0,0.0,0.0,0,0,116.0,0.0,514.0,4410.256410256411,3920.0000000000005,4443.076923076924,4383.076923076924,4229.2307692307695,4523.589743589744,4372.820512820514,4417.948717948719,4346.666666666667,4767.6923076923085,4380.512820512821,4186.666666666667,4241.538461538462,4279.48717948718
582.8837,0.13827431,0.196672,0.37223354,0.5132453,0,0.0,0.0,0.0,0.0,0.4139125,0,0,0.0,0.0,0,0,19.0,0.0,0.0,4396.923076923077,3928.717948717949,4443.589743589744,4379.48717948718,4266.666666666667,4540.000000000001,4398.461538461539,4414.358974358975,4326.666666666667,4675.8974358974365,4341.025641025642,4181.025641025642,4212.820512820514,4230.769230769231
583.134,0.12350333,0.19830053,0.3715908,0.5101202,0,0.0,0.0,0.0,0.0,1.0,0,0,0.0,0.0,0,0,51.0,0.0,0.0,4576.923076923077,3966.1538461538466,4444.102564102564,4397.435897435898,4281.025641025642,4555.384615384616,4402.564102564103,4464.615384615385,4347.179487179487,4668.717948717949,4320.512820512821,4192.307692307693,4155.8974358974365,4239.48717948718
583.134,0.12350333,0.19830053,0.3715908,0.5101202,0,0.0,0.0,0.0,0.0,1.0,0,0,0.0,0.0,0,0,51.0,0.0,0.0,4576.923076923077,3966.1538461538466,4444.102564102564,4397.435897435898,4281.025641025642,4555.384615384616,4402.564102564103,4464.615384615385,4347.179487179487,4668.717948717949,4320.512820512821,4192.307692307693,4155.8974358974365,4239.48717948718
583.6344,0.09780783,0.2068533,0.37134245,0.5047547,0,0.0,0.0,0.0,0.0,0.43755516,0,0,0.0,0.0,0,0,115.0,0.0,510.0,4541.538461538462,4081.538461538462,4441.538461538462,4449.2307692307695,4292.820512820514,4569.743589743591,4413.333333333334,4457.435897435898,4348.205128205129,4668.205128205129,4281.538461538462,4172.307692307693,4100.000000000001,4248.205128205129
583.8846,0.09780783,0.2068533,0.37134245,0.5047547,0,0.0,0.0,0.0,0.0,0.6569888,0,0,0.0,0.0,0,0,18.0,0.0,0.0,4510.256410256411,4092.820512820513,4473.846153846154,4473.333333333334,4293.333333333334,4581.025641025642,4425.128205128206,4479.48717948718,4384.102564102564,4714.871794871796,4297.948717948719,4221.025641025642,4108.717948717949,4276.923076923077
584.1348,0.17515747,0.21442167,0.3695535,0.50177974,0,0.0,0.0,0.0,0.0,0.77423495,0,0,0.0,0.0,0,0,50.0,0.0,0.0,4536.410256410257,4030.7692307692314,4493.333333333334,4464.615384615385,4282.051282051282,4571.794871794872,4412.307692307693,4476.410256410257,4385.641025641026,4729.2307692307695,4346.153846153847,4249.74358974359,4185.128205128206,4353.846153846154
584.385,0.17515747,0.21442167,0.3695535,0.50177974,0,0.0,0.0,0.0,0.0,0.47976997,0,0,0.0,0.0,0,0,82.0,0.0,527.0,4456.410256410257,3928.205128205129,4449.743589743591,4410.769230769231,4220.000000000001,4522.564102564103,4387.6923076923085,4435.8974358974365,4337.435897435898,4682.051282051282,4291.794871794872,4190.769230769231,4170.256410256411,4355.8974358974365
584.63525,0.1282846,0.22385725,0.36794198,0.49481604,0,0.0,0.0,0.0,0.0,0.34065956,0,0,0.0,0.0,0,0,114.0,0.0,527.0,4458.461538461539,3941.0256410256416,4442.051282051282,4399.48717948718,4216.410256410257,4521.025641025642,4403.589743589744,4441.025641025642,4341.025641025642,4694.871794871796,4277.435897435898,4183.589743589744,4111.282051282052,4207.6923076923085
584.7603,0.1282846,0.22385725,0.36794198,0.49481604,0,0.0,0.0,0.0,0.0,1.0,0,0,0.0,0.0,0,0,1.0,0.0,513.0,4477.435897435898,3926.1538461538466,4449.2307692307695,4409.743589743591,4230.256410256411,4534.871794871796,4403.589743589744,4433.333333333334,4351.794871794872,4699.48717948718,4279.48717948718,4197.948717948719,4101.538461538462,4184.615384615385
