timestamp,excitement,frustration,meditation,engagementBoredom,blink,clench,laugh,smile,eyebrow,furrowBrow,lookLeft,lookRight,smirkLeft,smirkRight,winkLeft,winkRight,eeg0,eeg1,eeg2,eeg3,eeg4,eeg5,eeg6,eeg7,eeg8,eeg9,eeg10,eeg11,eeg12,eeg13,eeg14,eeg15,eeg16
1456.4156,0.53658426,0.46522543,0.33333334,0.5522388,0,0.0,0.0,0.0,0.052857384,0.0,0,0,0.0,0.0,0,0,84.0,0.0,517.0,4552.307692307693,3874.358974358975,4963.589743589744,4434.358974358975,4189.2307692307695,4513.333333333334,4389.743589743591,4365.641025641026,4328.205128205129,4652.820512820514,4283.589743589744,4286.153846153847,4144.615384615385,4536.923076923077
1456.6659,0.53658426,0.46522543,0.33333334,0.5522388,0,0.0,0.0,0.0,0.06210416,0.0,0,0,0.0,0.0,0,0,116.0,0.0,517.0,4586.153846153847,3900.0000000000005,4531.282051282052,4479.48717948718,4243.076923076924,4561.025641025642,4447.179487179487,4433.333333333334,4400.000000000001,4708.717948717949,4384.102564102564,4333.333333333334,4222.564102564103,4556.923076923077
1456.9474,0.49070036,0.46955502,0.33333334,0.5522388,1,0.0,0.0,0.0,0.049898528,0.0,0,0,0.0,0.0,0,0,23.0,0.0,0.0,4536.923076923077,3868.717948717949,4864.102564102564,4407.179487179487,4164.102564102564,4478.974358974359,4356.923076923077,4347.179487179487,4300.000000000001,4629.743589743591,4285.641025641026,4222.564102564103,4127.179487179487,4449.2307692307695
1457.1664,0.49070036,0.46955502,0.33333334,0.5522388,0,0.0,0.0,0.0,0.061373103,0.0,0,0,0.0,0.0,0,0,51.0,0.0,0.0,4559.48717948718,3845.1282051282055,4887.6923076923085,4411.282051282052,4182.564102564103,4500.512820512821,4391.794871794872,4367.6923076923085,4310.256410256411,4636.923076923077,4285.128205128206,4235.8974358974365,4137.948717948719,4461.025641025642
1457.4165,0.4815628,0.47345164,0.33333334,0.5522388,0,0.0,0.0,0.0,0.052918807,0.0,0,0,0.0,0.0,0,1,83.0,0.0,506.0,4669.743589743591,4048.717948717949,2889.7435897435903,4618.461538461539,4394.358974358975,4685.641025641026,4588.717948717949,4570.256410256411,4510.256410256411,4857.948717948719,4511.282051282052,4423.589743589744,4354.358974358975,4685.641025641026
1457.698,0.4815628,0.47345164,0.33333334,0.5522388,0,0.0,0.0,0.0,0.04896729,0.0,0,0,0.0,0.0,0,0,119.0,0.0,506.0,4552.307692307693,3816.9230769230776,4816.923076923077,4390.256410256411,4211.794871794872,4523.076923076924,4412.307692307693,4382.051282051282,4324.102564102564,4647.6923076923085,4280.000000000001,4159.48717948718,4100.000000000001,4458.461538461539
1457.917,0.5259858,0.47695863,0.33333334,0.5522388,0,0.0,0.0,0.0,0.04858821,0.0,0,0,0.0,0.0,0,0,18.0,0.0,0.0,4587.6923076923085,3788.205128205129,5049.743589743591,4375.8974358974365,4204.102564102564,4508.717948717949,4390.769230769231,4366.153846153847,4306.153846153847,4630.256410256411,4278.974358974359,4153.846153846154,4105.128205128206,4471.794871794872
1458.1672,0.5259858,0.47695863,0.33333334,0.5522388,0,0.0,0.0,0.0,0.10243764,0.0,0,0,0.0,0.0,0,0,50.0,0.0,0.0,4576.923076923077,3799.48717948718,4943.076923076924,4350.769230769231,4192.307692307693,4492.820512820514,4394.871794871796,4346.666666666667,4291.282051282052,4609.743589743591,4269.74358974359,4150.256410256411,4085.6410256410263,4487.179487179488
1458.4174,0.4384948,0.4801149,0.33333334,0.5522388,0,0.0,0.0,0.0,0.086061575,0.0,0,0,0.0,0.0,0,0,82.0,0.0,529.0,4583.589743589744,3825.1282051282055,4709.743589743591,4381.025641025642,4209.74358974359,4503.076923076924,4416.923076923077,4387.179487179487,4333.846153846154,4667.6923076923085,4302.564102564103,4165.641025641026,4118.461538461539,4487.179487179488
1458.6676,0.4384948,0.4801149,0.33333334,0.5522388,0,0.0,0.0,0.0,0.03980086,0.0,0,0,0.0,0.0,0,0,114.0,0.0,529.0,4566.666666666667,3802.564102564103,4742.051282051282,4344.102564102564,4190.769230769231,4500.512820512821,4401.538461538462,4345.128205128206,4291.794871794872,4602.564102564103,4264.615384615385,4124.615384615385,4050.2564102564106,4449.743589743591
1458.9178,0.33687848,0.48295555,0.33333334,0.5522388,0,0.0,0.0,0.0,0.11342937,0.0,0,0,0.0,0.0,0,0,17.0,0.0,0.0,4620.000000000001,3875.3846153846157,4570.769230769231,4399.48717948718,4220.512820512821,4522.564102564103,4433.846153846154,4390.256410256411,4338.974358974359,4681.025641025642,4349.743589743591,4218.461538461539,4152.820512820514,4550.769230769231
1459.1681,0.33687848,0.48295555,0.33333334,0.5522388,0,0.0,0.0,0.0,0.05493958,0.0,0,0,0.0,0.0,0,0,49.0,0.0,0.0,4609.743589743591,3873.8461538461543,4510.769230769231,4395.384615384616,4222.564102564103,4526.153846153847,4451.794871794872,4408.717948717949,4348.205128205129,4677.435897435898,4342.051282051282,4216.923076923077,4162.564102564103,4511.794871794872
1459.4182,0.33847788,0.48551214,0.33333334,0.5522388,0,0.0,0.0,0.0,0.056430217,0.0,0,0,0.0,0.0,0,0,81.0,0.0,510.0,4744.615384615386,4121.025641025642,2615.3846153846157,4603.076923076924,4393.333333333334,4671.282051282052,4622.051282051282,4606.666666666667,4532.820512820514,4869.2307692307695,4530.769230769231,4441.538461538462,4347.179487179487,4698.974358974359
1459.6685,0.33847788,0.48551214,0.33333334,0.5522388,0,0.0,0.0,0.0,0.036114708,0.0,0,0,0.0,0.0,0,0,113.0,0.0,510.0,4657.435897435898,3991.7948717948725,3787.692307692308,4472.820512820514,4309.743589743591,4596.923076923077,4548.205128205129,4518.974358974359,4443.589743589744,4775.384615384616,4415.384615384616,4334.871794871796,4244.102564102564,4566.153846153847
1459.9187,0.45330265,0.48781306,0.33333334,0.5522388,0,0.0,0.0,0.0,0.049358215,0.0,0,0,0.0,0.0,0,0,16.0,0.0,0.0,4612.307692307693,3911.7948717948725,4760.512820512821,4355.384615384616,4187.6923076923085,4490.256410256411,4416.923076923077,4384.102564102564,4318.974358974359,4644.615384615385,4277.435897435898,4220.000000000001,4122.564102564103,4426.153846153847
1460.169,0.45330265,0.48781306,0.33333334,0.5522388,0,0.0,0.0,0.0,0.025496371,0.0,0,0,0.0,0.0,0,0,48.0,0.0,0.0,4567.6923076923085,3860.512820512821,5096.410256410257,4300.512820512821,4136.923076923077,4436.410256410257,4380.000000000001,4360.000000000001,4285.128205128206,4620.000000000001,4268.205128205129,4211.282051282052,4104.102564102564,4387.6923076923085
1460.4191,0.4113495,0.4898839,0.33333334,0.5522388,0,0.0,0.0,0.0,0.056106657,0.0,0,0,0.0,0.0,0,0,80.0,0.0,515.0,4591.282051282052,3883.076923076924,4896.923076923077,4333.333333333334,4164.102564102564,4470.256410256411,4409.2307692307695,4388.205128205129,4318.974358974359,4650.769230769231,4286.666666666667,4253.846153846154,4141.538461538462,4421.025641025642
1460.6693,0.4113495,0.4898839,0.33333334,0.5522388,0,0.0,0.0,0.0,0.04426155,0.0,0,0,0.0,0.0,0,0,112.0,0.0,515.0,4593.846153846154,3892.820512820513,4986.666666666667,4333.333333333334,4167.6923076923085,4476.923076923077,4419.48717948718,4408.717948717949,4326.666666666667,4655.384615384616,4276.923076923077,4252.820512820514,4144.615384615385,4409.2307692307695
1460.9196,0.37183064,0.49174765,0.33333334,0.5522388,0,0.0,0.0,0.0,0.011131517,0.0,0,0,0.0,0.0,0,0,15.0,0.0,508.0,4578.461538461539,3895.3846153846157,4695.384615384616,4344.615384615385,4195.8974358974365,4502.051282051282,4427.179487179487,4406.153846153847,4345.641025641026,4678.974358974359,4281.538461538462,4241.538461538462,4124.615384615385,4390.256410256411
1461.1698,0.37183064,0.49174765,0.33333334,0.5522388,0,0.0,0.0,0.0,0.020288605,0.0,0,0,0.0,0.0,0,0,47.0,0.0,0.0,4589.2307692307695,3900.0000000000005,4620.512820512821,4348.205128205129,4223.076923076924,4530.256410256411,4450.769230769231,4409.2307692307695,4353.333333333334,4687.6923076923085,4283.076923076924,4260.512820512821,4130.769230769231,4416.923076923077
1461.4199,0.29306126,0.493425,0.33333334,0.5522388,0,0.0,0.0,0.0,0.07887723,0.0,0,0,0.0,0.0,0,0,79.0,0.0,508.0,4545.641025641026,3878.461538461539,4631.282051282052,4314.871794871796,4199.48717948718,4494.358974358975,4424.615384615385,4378.974358974359,4327.179487179487,4663.589743589744,4251.794871794872,4201.538461538462,4106.666666666667,4312.820512820514
1461.6702,0.29306126,0.493425,0.33333334,0.5522388,0,0.0,0.0,0.0,0.23046312,0.0,0,0,0.0,0.0,0,0,111.0,0.0,508.0,4549.2307692307695,3897.9487179487182,4698.974358974359,4333.333333333334,4219.48717948718,4512.820512820514,4429.2307692307695,4385.128205128206,4331.282051282052,4681.538461538462,4280.512820512821,4215.8974358974365,4110.256410256411,4356.923076923077
1461.9517,0.23751466,0.49493465,0.33333334,0.5522388,1,0.0,0.0,0.0,0.27607635,0.0,0,0,0.0,0.0,0,0,18.0,0.0,0.0,4603.076923076924,3938.461538461539,4515.384615384616,4400.512820512821,4242.051282051282,4545.128205128206,4476.923076923077,4438.461538461539,4382.051282051282,4735.8974358974365,4342.051282051282,4282.051282051282,4180.000000000001,4468.205128205129
1462.1707,0.23751466,0.49493465,0.33333334,0.5522388,0,0.0,0.0,0.0,0.12125803,0.0,0,0,0.0,0.0,0,0,46.0,0.0,0.0,4609.743589743591,3957.9487179487182,4509.2307692307695,4417.435897435898,4258.974358974359,4555.384615384616,4472.820512820514,4449.743589743591,4382.564102564103,4733.846153846154,4339.48717948718,4288.205128205129,4192.820512820514,4474.358974358975
1462.4208,0.2785605,0.49629334,0.33333334,0.5522388,0,0.0,0.0,0.0,0.12113173,0.0,0,0,0.0,0.0,0,0,78.0,0.0,532.0,4613.333333333334,3941.538461538462,4583.589743589744,4414.871794871796,4264.102564102564,4559.48717948718,4484.102564102564,4489.743589743591,4411.794871794872,4764.615384615386,4351.282051282052,4292.820512820514,4216.923076923077,4427.179487179487
1462.671,0.2785605,0.49629334,0.33333334,0.5522388,0,0.0,0.0,0.0,0.33188385,0.0,0,0,0.0,0.0,0,0,110.0,0.0,532.0,4646.153846153847,3943.076923076924,4649.743589743591,4414.871794871796,4262.564102564103,4558.461538461539,4502.564102564103,4477.948717948719,4379.48717948718,4722.051282051282,4311.794871794872,4297.435897435898,4170.256410256411,4468.205128205129
1462.9213,0.26261967,0.48890972,0.33333334,0.5522388,0,0.0,0.0,0.0,0.17199257,0.0,0,0,0.0,0.0,0,0,13.0,0.0,510.0,4656.923076923077,3969.2307692307695,4624.102564102564,4442.564102564103,4291.282051282052,4587.179487179488,4515.8974358974365,4513.846153846154,4420.000000000001,4754.871794871796,4353.333333333334,4350.769230769231,4214.871794871796,4506.153846153847
1463.0464,0.26261967,0.48890972,0.33333334,0.5522388,0,0.0,0.0,0.0,0.0,0.0,0,0,0.0,0.0,0,0,29.0,0.0,0.0,4653.333333333334,3972.820512820513,4687.6923076923085,4437.948717948719,4280.000000000001,4573.333333333334,4491.282051282052,4502.564102564103,4410.256410256411,4752.820512820514,4354.871794871796,4336.923076923077,4221.538461538462,4505.128205128206
1463.3279,0.30491027,0.4779766,0.33333334,0.5522388,0,0.0,0.0,0.0,0.0,0.0,0,0,0.0,0.0,0,0,65.0,0.0,521.0,4683.076923076924,3974.8717948717954,4570.769230769231,4446.153846153847,4270.256410256411,4570.769230769231,4492.307692307693,4499.48717948718,4395.8974358974365,4738.974358974359,4361.025641025642,4351.794871794872,4227.6923076923085,4529.2307692307695
1463.6719,0.30491027,0.4779766,0.33333334,0.5522388,0,0.0,0.0,0.0,0.04454867,0.0,0,0,0.0,0.0,0,0,109.0,0.0,510.0,4687.179487179488,4011.2820512820517,3860.0000000000005,4463.589743589744,4324.102564102564,4618.461538461539,4553.846153846154,4546.153846153847,4458.974358974359,4795.384615384616,4383.589743589744,4335.384615384616,4266.153846153847,4571.282051282052
1463.9221,0.36800078,0.47238088,0.33333334,0.5522388,0,0.0,0.0,0.0,0.11376745,0.0,0,0,0.0,0.0,0,0,12.0,0.0,515.0,4633.846153846154,3903.589743589744,3683.589743589744,4398.974358974359,4247.6923076923085,4538.461538461539,4469.2307692307695,4452.820512820514,4362.564102564103,4740.512820512821,4351.794871794872,4251.794871794872,4204.615384615385,4504.102564102564
1464.1724,0.36800078,0.47238088,0.33333334,0.5522388,0,0.0,0.0,0.0,0.41786277,0.0,0,0,0.0,0.0,0,0,44.0,0.0,0.0,4656.410256410257,3909.2307692307695,3714.358974358975,4457.948717948719,4298.461538461539,4571.282051282052,4523.589743589744,4425.128205128206,4330.769230769231,4741.538461538462,4316.410256410257,4244.615384615385,4222.051282051282,4689.743589743591
1464.4226,0.38011152,0.4621727,0.33333334,0.5522388,0,0.0,0.0,0.0,0.09713865,0.0,0,0,0.0,0.0,0,0,76.0,0.0,515.0,4631.282051282052,3891.2820512820517,4283.589743589744,4624.615384615385,4348.205128205129,4604.102564102564,4447.179487179487,4461.025641025642,4489.743589743591,4776.923076923077,4335.384615384616,4249.2307692307695,4222.564102564103,4732.307692307693
1464.6727,0.38011152,0.4621727,0.33333334,0.5522388,0,0.0,0.0,0.0,0.0056492616,0.0,0,0,0.0,0.0,0,0,108.0,0.0,515.0,4647.179487179488,3940.0000000000005,4204.615384615385,4537.948717948719,4401.538461538462,4687.6923076923085,4235.8974358974365,4671.794871794872,4990.256410256411,4748.205128205129,4314.358974358975,4201.538461538462,4231.282051282052,4773.333333333334
1464.923,0.3874804,0.45297378,0.33333334,0.5522388,0,0.0,0.0,0.0,0.0050540897,0.0,0,0,0.0,0.0,0,0,11.0,0.0,504.0,4621.025641025642,3858.461538461539,4916.410256410257,4377.948717948719,4366.666666666667,4720.000000000001,4132.307692307693,4744.102564102564,5391.282051282052,4633.333333333334,4163.076923076924,4118.974358974359,4104.102564102564,4675.384615384616
1465.1732,0.3874804,0.45297378,0.33333334,0.5522388,0,0.0,0.0,0.0,0.0123693505,0.0,0,0,0.0,0.0,0,0,43.0,0.0,0.0,4592.820512820514,3807.692307692308,4954.358974358975,4289.74358974359,4416.410256410257,4845.641025641026,4047.1794871794878,4864.615384615386,5361.538461538462,4596.410256410257,4146.153846153847,4089.7435897435903,4073.333333333334,4649.2307692307695
1465.4235,0.49474394,0.44469476,0.33333334,0.5522388,0,0.0,0.0,0.0,0.004833083,0.0,0,0,0.0,0.0,0,0,75.0,0.0,503.0,4545.641025641026,3799.48717948718,4698.974358974359,4258.461538461539,4490.769230769231,4938.974358974359,4172.820512820514,4908.205128205129,5151.794871794872,4603.589743589744,4169.74358974359,4083.076923076924,4057.9487179487182,4607.6923076923085
1465.6736,0.49474394,0.44469476,0.33333334,0.5522388,0,0.0,0.0,0.0,3.030053E-4,0.0,0,0,0.0,0.0,0,0,107.0,0.0,503.0,4543.589743589744,3777.9487179487182,4555.384615384616,4246.666666666667,4475.384615384616,4937.948717948719,4281.025641025642,4836.410256410257,4896.410256410257,4617.435897435898,4188.205128205129,4124.615384615385,4074.358974358975,4617.948717948719
1465.9238,0.4884449,0.43724364,0.33333334,0.5522388,0,0.0,0.0,0.0,7.0595526E-4,0.0,0,0,0.0,0.0,0,0,10.0,0.0,532.0,4509.743589743591,3768.717948717949,4513.846153846154,4247.179487179487,4436.923076923077,4886.153846153847,4346.666666666667,4735.384615384616,4721.538461538462,4612.307692307693,4180.512820512821,4105.128205128206,4062.564102564103,4566.666666666667
1466.1741,0.4884449,0.43724364,0.33333334,0.5522388,0,0.0,0.0,0.0,0.0027987843,0.0,0,0,0.0,0.0,0,0,42.0,0.0,0.0,4491.282051282052,3773.333333333334,4372.820512820514,4280.512820512821,4408.205128205129,4829.743589743591,4487.179487179488,4674.871794871796,4641.025641025642,4613.846153846154,4194.358974358975,4107.6923076923085,4065.1282051282055,4553.846153846154
1466.4243,0.5441972,0.43053764,0.33333334,0.5522388,0,0.0,0.0,0.0,0.009299367,0.0,0,0,0.0,0.0,0,0,74.0,0.0,532.0,4537.948717948719,3836.410256410257,3887.1794871794878,4373.846153846154,4399.48717948718,4772.307692307693,4631.794871794872,4656.923076923077,4477.435897435898,4674.871794871796,4256.410256410257,4204.102564102564,4110.769230769231,4671.794871794872
1466.6744,0.5441972,0.43053764,0.33333334,0.5522388,0,0.0,0.0,0.0,0.036215737,0.0,0,0,0.0,0.0,0,0,106.0,0.0,532.0,4485.641025641026,3787.1794871794878,4283.589743589744,4344.102564102564,4307.6923076923085,4650.769230769231,4520.512820512821,4593.333333333334,4553.333333333334,4615.384615384616,4210.769230769231,4131.794871794872,4052.820512820513,4571.282051282052
1466.9247,0.5315659,0.42450222,0.33333334,0.5522388,0,0.0,0.0,0.0,0.007955077,0.0,0,0,0.0,0.0,0,0,9.0,0.0,478.0,4483.076923076924,3828.205128205129,4279.48717948718,4393.333333333334,4283.076923076924,4601.538461538462,4476.923076923077,4611.794871794872,4570.256410256411,4649.2307692307695,4248.205128205129,4173.846153846154,4093.333333333334,4571.794871794872
1467.1749,0.5315659,0.42450222,0.33333334,0.5522388,0,0.0,0.0,0.0,0.14269094,0.0,0,0,0.0,0.0,0,0,41.0,0.0,0.0,4528.205128205129,3867.1794871794878,4203.076923076924,4488.205128205129,4263.076923076924,4561.025641025642,4490.769230769231,4563.589743589744,4411.282051282052,4685.641025641026,4289.2307692307695,4230.256410256411,4164.615384615385,4651.282051282052
1467.4252,0.47003716,0.41907036,0.33333334,0.5522388,0,0.0,0.0,0.0,0.089817196,0.0,0,0,0.0,0.0,0,0,73.0,0.0,478.0,4551.794871794872,3896.410256410257,4199.48717948718,4501.025641025642,4249.74358974359,4538.974358974359,4475.8974358974365,4506.666666666667,4415.384615384616,4690.256410256411,4308.205128205129,4228.205128205129,4181.538461538462,4690.769230769231
1467.6753,0.47003716,0.41907036,0.33333334,0.5522388,0,0.0,0.0,0.0,0.03073042,0.0,0,0,0.0,0.0,0,0,105.0,0.0,510.0,4560.512820512821,3914.8717948717954,4132.307692307693,4513.333333333334,4221.025641025642,4506.666666666667,4458.461538461539,4472.307692307693,4398.974358974359,4691.282051282052,4328.205128205129,4266.153846153847,4203.589743589744,4688.205128205129
1467.9255,0.45989493,0.41418168,0.33333334,0.5522388,0,0.0,0.0,0.0,0.01800404,0.0,0,0,0.0,0.0,0,0,8.0,0.0,468.0,4535.8974358974365,3861.0256410256416,4400.512820512821,4451.282051282052,4151.282051282052,4428.717948717949,4387.6923076923085,4338.974358974359,4275.8974358974365,4611.282051282052,4266.666666666667,4272.820512820514,4151.794871794872,4600.000000000001
1468.1758,0.45989493,0.41418168,0.33333334,0.5522388,0,0.0,0.0,0.0,0.028071944,0.0,0,0,0.0,0.0,0,0,40.0,0.0,0.0,4535.8974358974365,3884.615384615385,4482.564102564103,4448.717948717949,4137.435897435898,4422.051282051282,4376.410256410257,4310.256410256411,4270.256410256411,4634.358974358975,4280.000000000001,4282.564102564103,4155.384615384616,4566.153846153847
1468.426,0.48125696,0.41497093,0.33333334,0.5522388,0,0.0,0.0,0.0,0.05266183,0.0,0,0,0.0,0.0,0,0,72.0,0.0,471.0,4524.615384615385,3921.538461538462,4494.358974358975,4482.051282051282,4140.512820512821,4425.128205128206,4378.461538461539,4262.564102564103,4196.923076923077,4629.2307692307695,4280.512820512821,4253.333333333334,4130.256410256411,4534.871794871796
1468.6763,0.48125696,0.41497093,0.33333334,0.5522388,0,0.0,0.0,0.0,0.03880838,0.0,0,0,0.0,0.0,0,0,104.0,0.0,517.0,4576.923076923077,3911.2820512820517,4468.717948717949,4478.461538461539,4151.794871794872,4415.384615384616,4415.384615384616,4250.769230769231,4201.025641025642,4683.589743589744,4355.384615384616,4308.717948717949,4212.820512820514,4609.743589743591
1468.9264,0.49892107,0.41283387,0.33333334,0.5522388,0,0.0,0.0,0.0,0.08942569,0.0,0,0,0.0,0.0,0,0,7.0,0.0,472.0,4575.8974358974365,3921.538461538462,4542.051282051282,4472.307692307693,4135.8974358974365,4398.461538461539,4401.538461538462,4213.846153846154,4183.076923076924,4685.641025641026,4354.871794871796,4293.333333333334,4193.333333333334,4616.923076923077
1469.1766,0.49892107,0.41283387,0.33333334,0.5522388,0,0.0,0.0,0.0,0.12423529,0.0,0,0,0.0,0.0,0,0,39.0,0.0,0.0,4680.512820512821,4076.9230769230776,3147.692307692308,4635.384615384616,4251.794871794872,4506.666666666667,4528.205128205129,4321.025641025642,4295.384615384616,4827.179487179488,4504.102564102564,4418.974358974359,4345.641025641026,4792.820512820514
1469.4269,0.60547334,0.41088688,0.33333334,0.5522388,0,0.0,0.0,0.0,0.07541811,0.0,0,0,0.0,0.0,0,0,71.0,0.0,474.0,4624.615384615385,3925.6410256410263,4274.871794871796,4495.8974358974365,4151.282051282052,4403.589743589744,4442.051282051282,4204.615384615385,4180.000000000001,4709.743589743591,4371.282051282052,4289.2307692307695,4184.615384615385,4625.128205128206
1469.6771,0.60547334,0.41088688,0.33333334,0.5522388,0,0.0,0.0,0.0,0.074325226,0.0,0,0,0.0,0.0,0,0,103.0,0.0,503.0,4630.256410256411,3951.7948717948725,4343.589743589744,4519.48717948718,4180.512820512821,4429.2307692307695,4423.589743589744,4181.538461538462,4207.6923076923085,4710.769230769231,4391.794871794872,4274.358974358975,4193.333333333334,4595.384615384616
1469.9272,0.69614744,0.4091346,0.33333334,0.5522388,1,0.0,0.0,0.0,0.057793185,0.0,0,0,0.0,0.0,0,0,6.0,0.0,536.0,4609.2307692307695,3963.076923076924,4489.743589743591,4507.179487179488,4186.153846153847,4432.820512820514,4410.256410256411,4183.589743589744,4182.051282051282,4678.461538461539,4337.948717948719,4244.102564102564,4133.333333333334,4550.256410256411
1470.1775,0.69614744,0.4091346,0.33333334,0.5522388,0,0.0,0.0,0.0,0.06761421,0.0,0,0,0.0,0.0,0,0,38.0,0.0,0.0,4637.435897435898,3943.076923076924,4358.461538461539,4496.923076923077,4170.769230769231,4433.846153846154,4430.256410256411,4225.641025641026,4216.923076923077,4727.179487179488,4365.128205128206,4299.48717948718,4199.48717948718,4596.410256410257
1470.4277,0.6609425,0.40755755,0.33333334,0.5522388,0,0.0,0.0,0.0,0.08460203,0.0,0,0,0.0,0.0,0,0,70.0,0.0,536.0,4630.256410256411,3960.0000000000005,4573.846153846154,4479.48717948718,4160.512820512821,4433.333333333334,4430.769230769231,4214.358974358975,4185.128205128206,4710.256410256411,4343.589743589744,4310.769230769231,4195.384615384616,4571.282051282052
1470.678,0.6609425,0.40755755,0.33333334,0.5522388,1,0.0,0.0,0.0,0.040201023,0.0,0,0,0.0,0.0,0,0,102.0,0.0,532.0,4619.48717948718,3974.358974358975,4522.051282051282,4472.307692307693,4162.564102564103,4446.153846153847,4442.564102564103,4219.48717948718,4167.179487179487,4704.102564102564,4339.48717948718,4350.769230769231,4202.051282051282,4545.641025641026
1470.9281,0.6936938,0.40613818,0.33333334,0.5522388,0,0.0,0.0,0.0,0.05242784,0.0,0,0,0.0,0.0,0,0,5.0,0.0,558.0,4615.384615384616,3974.8717948717954,4668.205128205129,4470.256410256411,4151.282051282052,4444.102564102564,4414.871794871796,4228.717948717949,4165.641025641026,4693.846153846154,4350.769230769231,4380.512820512821,4213.846153846154,4561.025641025642
1471.1783,0.6936938,0.40613818,0.33333334,0.5522388,0,0.0,0.0,0.0,0.08395141,0.0,0,0,0.0,0.0,0,0,37.0,0.0,0.0,4627.179487179488,3957.435897435898,4623.076923076924,4446.666666666667,4153.333333333334,4452.307692307693,4435.8974358974365,4246.666666666667,4179.48717948718,4706.153846153847,4361.538461538462,4414.358974358975,4218.461538461539,4588.717948717949
1471.4286,0.59400725,0.40486076,0.33333334,0.5522388,0,0.0,0.0,0.0,0.043601237,0.0,0,0,0.0,0.0,0,0,69.0,0.0,558.0,4588.205128205129,3910.7692307692314,4997.948717948719,4390.256410256411,4144.615384615385,4443.076923076924,4398.461538461539,4211.282051282052,4132.307692307693,4655.8974358974365,4295.384615384616,4327.6923076923085,4149.2307692307695,4521.025641025642
1471.6788,0.59400725,0.40486076,0.33333334,0.5522388,1,0.0,0.0,0.0,0.015623103,0.0,0,0,0.0,0.0,0,0,101.0,0.0,510.0,4672.820512820514,4026.666666666667,3662.564102564103,4511.794871794872,4266.153846153847,4552.307692307693,4522.564102564103,4384.615384615385,4271.794871794872,4800.000000000001,4436.923076923077,4442.564102564103,4276.410256410257,4632.307692307693
1471.929,0.6088201,0.4037111,0.33333334,0.5522388,0,0.0,0.0,0.0,0.019644111,0.0,0,0,0.0,0.0,0,0,4.0,0.0,559.0,4711.282051282052,4051.2820512820517,3666.1538461538466,4537.948717948719,4246.666666666667,4536.923076923077,4541.025641025642,4409.2307692307695,4278.461538461539,4817.948717948719,4481.538461538462,4426.153846153847,4279.48717948718,4651.794871794872
1472.1792,0.6088201,0.4037111,0.33333334,0.5522388,0,0.0,0.0,0.0,0.04890504,0.0,0,0,0.0,0.0,0,0,36.0,0.0,0.0,4626.666666666667,3946.1538461538466,3903.076923076924,4467.6923076923085,4195.384615384616,4487.6923076923085,4451.794871794872,4300.512820512821,4164.615384615385,4731.794871794872,4384.615384615385,4309.2307692307695,4196.923076923077,4565.641025641026
1472.4294,0.66249907,0.4026764,0.33333334,0.5522388,0,0.0,0.0,0.0,0.017728541,0.0,0,0,0.0,0.0,0,0,68.0,0.0,559.0,4632.820512820514,3984.615384615385,4365.641025641026,4466.153846153847,4194.871794871796,4470.256410256411,4454.358974358975,4288.205128205129,4076.410256410257,4713.846153846154,4407.179487179487,4277.948717948719,4151.794871794872,4551.282051282052
1472.6797,0.66249907,0.4026764,0.33333334,0.5522388,0,0.0,0.0,0.0,0.012150767,0.0,0,0,0.0,0.0,0,0,100.0,0.0,517.0,4714.871794871796,4057.435897435898,3596.9230769230776,4539.48717948718,4297.948717948719,4574.358974358975,4576.923076923077,4418.461538461539,4194.871794871796,4845.128205128206,4540.512820512821,4421.538461538462,4266.666666666667,4651.794871794872
1472.9298,0.66905695,0.40174514,0.33333334,0.5522388,0,0.0,0.0,0.0,0.06469016,0.0,0,0,0.0,0.0,0,0,3.0,0.0,545.0,4664.615384615386,4007.1794871794878,4569.2307692307695,4457.948717948719,4250.769230769231,4536.410256410257,4512.307692307693,4395.8974358974365,4156.410256410257,4765.641025641026,4470.769230769231,4345.641025641026,4198.974358974359,4587.179487179488
1473.18,0.66905695,0.40174514,0.33333334,0.5522388,0,0.0,0.0,0.0,0.09162248,0.0,0,0,0.0,0.0,0,0,35.0,0.0,0.0,4640.000000000001,3963.589743589744,4680.512820512821,4389.2307692307695,4250.256410256411,4538.974358974359,4507.6923076923085,4396.410256410257,4195.384615384616,4755.384615384616,4458.461538461539,4322.051282051282,4229.74358974359,4620.000000000001
1473.4303,0.5777618,0.40090704,0.33333334,0.5522388,0,0.0,0.0,0.0,0.043471623,0.0,0,0,0.0,0.0,0,0,67.0,0.0,545.0,4691.282051282052,3975.3846153846157,5027.6923076923085,4366.666666666667,4216.410256410257,4524.102564102564,4489.743589743591,4380.512820512821,4177.435897435898,4688.717948717949,4385.128205128206,4383.589743589744,4216.923076923077,4656.923076923077
1473.6805,0.5777618,0.40090704,0.33333334,0.5522388,0,0.0,0.0,0.0,0.038552005,0.0,0,0,0.0,0.0,0,0,99.0,0.0,503.0,4676.923076923077,4016.410256410257,4954.358974358975,4376.923076923077,4233.846153846154,4544.615384615385,4492.307692307693,4409.743589743591,4232.820512820514,4712.307692307693,4375.384615384616,4362.564102564103,4220.000000000001,4614.358974358975
1473.9308,0.48052543,0.40289208,0.33333334,0.5522388,0,0.0,0.0,0.0,0.12560959,0.0,0,0,0.0,0.0,0,0,2.0,0.0,339.0,4633.333333333334,3981.0256410256416,4797.435897435898,4368.205128205129,4236.923076923077,4554.358974358975,4493.846153846154,4444.615384615385,4268.205128205129,4735.8974358974365,4385.128205128206,4345.128205128206,4238.974358974359,4572.307692307693
1474.1809,0.48052543,0.40289208,0.33333334,0.5522388,0,0.0,0.0,0.0,0.050445493,0.0,0,0,0.0,0.0,0,0,34.0,0.0,0.0,4648.205128205129,3972.307692307693,4750.256410256411,4355.8974358974365,4231.794871794872,4537.435897435898,4489.743589743591,4429.743589743591,4281.538461538462,4743.589743589744,4388.205128205129,4334.871794871796,4234.358974358975,4584.102564102564
1474.4312,0.35500956,0.40421072,0.33333334,0.5522388,0,0.0,0.0,0.0,0.0,0.0,0,0,0.0,0.0,0,0,66.0,0.0,339.0,4626.666666666667,3945.6410256410263,4901.025641025642,4341.538461538462,4221.538461538462,4540.512820512821,4478.974358974359,4426.666666666667,4278.974358974359,4717.435897435898,4344.102564102564,4256.410256410257,4185.641025641026,4535.384615384616
1474.6814,0.35500956,0.40421072,0.33333334,0.5522388,0,0.0,0.0,0.0,0.038622867,0.0,0,0,0.0,0.0,0,0,98.0,0.0,532.0,4657.435897435898,3940.0000000000005,4863.589743589744,4377.948717948719,4214.871794871796,4534.871794871796,4468.717948717949,4438.974358974359,4302.564102564103,4736.923076923077,4393.846153846154,4276.923076923077,4246.666666666667,4595.384615384616
1474.9316,0.32868192,0.40386993,0.33333334,0.5522388,0,0.0,0.0,0.0,0.066159405,0.0,0,0,0.0,0.0,0,0,1.0,0.0,515.0,4643.076923076924,3878.9743589743593,4826.666666666667,4357.435897435898,4214.358974358975,4522.051282051282,4464.615384615385,4440.512820512821,4291.282051282052,4708.205128205129,4358.974358974359,4230.769230769231,4189.74358974359,4501.538461538462
1475.1818,0.32868192,0.40386993,0.33333334,0.5522388,0,0.0,0.0,0.0,0.20200065,0.0,0,0,0.0,0.0,0,0,33.0,0.0,0.0,4614.871794871796,3841.538461538462,4818.974358974359,4335.8974358974365,4187.179487179487,4481.538461538462,4434.358974358975,4393.333333333334,4265.641025641026,4673.333333333334,4321.538461538462,4170.256410256411,4127.6923076923085,4446.153846153847
1475.432,0.3902789,0.4010936,0.33333334,0.5522388,0,0.0,0.0,0.0,0.0,0.0,0,0,0.0,0.0,0,0,65.0,0.0,515.0,4602.051282051282,3846.1538461538466,4589.743589743591,4326.666666666667,4200.512820512821,4491.794871794872,4456.410256410257,4440.000000000001,4301.025641025642,4700.000000000001,4329.743589743591,4171.282051282052,4126.666666666667,4456.923076923077
1475.6823,0.3902789,0.4010936,0.33333334,0.5522388,0,0.0,0.0,0.0,0.08285056,0.0,0,0,0.0,0.0,0,0,97.0,0.0,509.0,4612.820512820514,3792.307692307693,4864.615384615386,4347.179487179487,4174.871794871796,4473.846153846154,4454.871794871796,4423.076923076924,4295.384615384616,4689.743589743591,4343.589743589744,4193.333333333334,4153.333333333334,4399.48717948718
1475.9325,0.3949756,0.39819252,0.33333334,0.5522388,0,0.0,0.0,0.0,0.18348624,0.0,0,0,0.0,0.0,0,0,0.0,0.0,487.0,4607.6923076923085,3800.0000000000005,4689.2307692307695,4340.512820512821,4170.769230769231,4476.410256410257,4458.461538461539,4441.538461538462,4297.435897435898,4691.282051282052,4336.923076923077,4168.717948717949,4140.512820512821,4412.307692307693
1476.1826,0.3949756,0.39819252,0.33333334,0.5522388,0,0.0,0.0,0.0,0.05383606,0.0,0,0,0.0,0.0,0,0,32.0,0.0,0.0,4627.179487179488,3854.8717948717954,4557.948717948719,4387.6923076923085,4198.974358974359,4500.000000000001,4465.641025641026,4448.717948717949,4301.538461538462,4689.2307692307695,4341.025641025642,4191.282051282052,4132.820512820514,4445.128205128206
1476.4329,0.31022987,0.39610654,0.33333334,0.5522388,0,0.0,0.0,0.0,0.087874025,0.0,0,0,0.0,0.0,0,0,64.0,0.0,495.0,4629.743589743591,3932.307692307693,4033.333333333334,4450.256410256411,4276.923076923077,4563.589743589744,4510.256410256411,4492.307692307693,4342.564102564103,4732.307692307693,4336.410256410257,4185.128205128206,4107.179487179487,4444.102564102564
1476.6831,0.31022987,0.39610654,0.33333334,0.5522388,1,0.0,0.0,0.0,0.03831057,0.0,0,0,0.0,0.0,0,0,96.0,0.0,516.0,4642.051282051282,3965.1282051282055,3906.1538461538466,4474.871794871796,4309.2307692307695,4593.846153846154,4534.871794871796,4521.025641025642,4381.538461538462,4749.743589743591,4362.564102564103,4213.333333333334,4130.256410256411,4449.743589743591
1476.9333,0.3908,0.3956072,0.33333334,0.5522388,0,0.0,0.0,0.0,0.07404769,0.0,0,0,0.0,0.0,0,0,128.0,0.0,516.0,4620.000000000001,3907.692307692308,4829.743589743591,4416.923076923077,4249.2307692307695,4540.000000000001,4487.179487179488,4472.307692307693,4326.153846153847,4692.820512820514,4318.461538461539,4183.589743589744,4116.923076923077,4389.2307692307695
1477.1835,0.3908,0.3956072,0.33333334,0.5522388,1,0.0,0.0,0.0,0.04860937,0.0,0,0,0.0,0.0,0,0,31.0,0.0,0.0,4676.410256410257,3940.5128205128212,4690.256410256411,4448.205128205129,4217.435897435898,4481.538461538462,4409.743589743591,4386.666666666667,4257.435897435898,4605.128205128206,4261.538461538462,4167.179487179487,4093.333333333334,4389.743589743591
1477.4337,0.3652232,0.40766293,0.33333334,0.5522388,0,0.0,0.0,0.0,0.0887868,0.0,0,0,0.0,0.0,0,0,63.0,0.0,0.0,4614.358974358975,3839.48717948718,4445.641025641026,4369.2307692307695,4235.384615384616,4510.769230769231,4414.871794871796,4371.794871794872,4279.48717948718,4606.153846153847,4220.000000000001,4136.923076923077,4083.076923076924,4377.435897435898
1477.684,0.3652232,0.40766293,0.33333334,0.5522388,0,0.0,0.0,0.0,1.0,0.0,0,0,0.0,0.0,0,0,95.0,0.0,513.0,4593.333333333334,3838.9743589743593,4488.717948717949,4372.820512820514,4224.102564102564,4519.48717948718,4407.6923076923085,4395.384615384616,4283.589743589744,4602.051282051282,4210.769230769231,4112.820512820514,4086.1538461538466,3973.8461538461543
1477.8403,0.33841288,0.4164241,0.33333334,0.5522388,0,0.0,0.0,0.0,1.0,0.0,0,0,0.0,0.0,0,0,115.0,0.0,513.0,4590.256410256411,3847.692307692308,4373.333333333334,4390.256410256411,4235.384615384616,4531.282051282052,4412.820512820514,4414.358974358975,4300.000000000001,4623.589743589744,4232.307692307693,4134.871794871796,4105.641025641026,4020.5128205128212
1478.1843,0.33841288,0.4164241,0.33333334,0.5522388,0,0.0,0.0,0.0,0.3429831,0.0,0,0,0.0,0.0,0,1,30.0,0.0,0.0,4608.205128205129,3891.2820512820517,4518.461538461539,4426.153846153847,4240.000000000001,4549.2307692307695,4417.948717948719,4391.282051282052,4322.564102564103,4650.769230769231,4258.974358974359,4196.410256410257,4165.128205128206,4171.282051282052
1478.4346,0.42881325,0.4240908,0.33333334,0.5522388,0,0.0,0.0,0.0,0.15698893,0.0,0,0,0.0,0.0,0,0,62.0,0.0,0.0,4589.2307692307695,3880.0000000000005,4556.923076923077,4381.538461538462,4218.461538461539,4534.358974358975,4405.128205128206,4374.871794871796,4326.666666666667,4644.102564102564,4247.6923076923085,4238.974358974359,4169.2307692307695,4246.153846153847
1478.6848,0.42881325,0.4240908,0.33333334,0.5522388,0,0.0,0.0,0.0,0.45013866,0.0,0,0,0.0,0.0,0,0,94.0,0.0,532.0,4606.153846153847,3941.538461538462,4498.461538461539,4402.564102564103,4248.717948717949,4557.948717948719,4444.615384615385,4430.256410256411,4353.846153846154,4703.076923076924,4344.615384615385,4342.051282051282,4259.48717948718,4222.051282051282
1478.8412,0.38828963,0.4229401,0.33333334,0.5522388,0,0.0,0.0,0.0,1.0,0.0,0,0,0.0,0.0,0,0,114.0,0.0,532.0,4631.794871794872,3910.2564102564106,4445.128205128206,4382.564102564103,4246.153846153847,4557.435897435898,4446.153846153847,4426.153846153847,4328.717948717949,4686.153846153847,4363.589743589744,4412.307692307693,4307.6923076923085,4229.2307692307695
1479.1853,0.38828963,0.4229401,0.33333334,0.5522388,0,0.0,0.0,0.0,0.116752975,0.0,0,0,0.0,0.0,0,0,29.0,0.0,0.0,4601.025641025642,3927.692307692308,4454.358974358975,4381.025641025642,4229.74358974359,4536.923076923077,4414.871794871796,4411.282051282052,4302.564102564103,4673.333333333334,4336.410256410257,4387.6923076923085,4268.205128205129,4235.8974358974365
1479.4354,0.3605821,0.41630635,0.33333334,0.5522388,0,0.0,0.0,0.0,0.0,0.0,0,0,0.0,0.1172641,0,0,61.0,0.0,0.0,4618.461538461539,3961.538461538462,4406.153846153847,4445.641025641026,4250.769230769231,4556.923076923077,4427.6923076923085,4464.102564102564,4301.538461538462,4680.512820512821,4381.538461538462,4371.794871794872,4288.205128205129,4272.820512820514
1479.6857,0.3605821,0.41630635,0.33333334,0.5522388,0,0.0,0.0,0.0,0.0,0.0,0,0,0.0,0.14681935,0,0,93.0,0.0,509.0,4641.025641025642,3930.7692307692314,4656.923076923077,4446.666666666667,4246.666666666667,4554.871794871796,4477.435897435898,4494.358974358975,4310.256410256411,4717.435897435898,4430.769230769231,4384.615384615385,4267.179487179487,4343.589743589744
1479.9359,0.3263278,0.41086975,0.33333334,0.5522388,0,0.0,0.0,0.0,0.0,0.17624912,0,0,0.0,0.0,0,0,125.0,0.0,509.0,4623.076923076924,3923.076923076924,4589.2307692307695,4461.538461538462,4260.000000000001,4557.435897435898,4472.820512820514,4458.974358974359,4320.000000000001,4699.48717948718,4393.333333333334,4309.2307692307695,4212.820512820514,4344.102564102564
1480.1862,0.3263278,0.41086975,0.33333334,0.5522388,0,0.0,0.0,0.0,0.22981225,0.0,0,0,0.0,0.0,0,0,28.0,0.0,0.0,4644.615384615385,3917.9487179487182,4565.641025641026,4458.974358974359,4262.564102564103,4554.871794871796,4472.820512820514,4446.666666666667,4332.820512820514,4723.076923076924,4401.538461538462,4281.538461538462,4189.74358974359,4395.384615384616
1480.4363,0.24914758,0.40559998,0.33333334,0.5522388,0,0.0,0.0,0.0,0.098811895,0.0,0,0,0.0,0.0,0,0,60.0,0.0,0.0,4615.384615384616,3862.564102564103,4716.410256410257,4406.153846153847,4255.384615384616,4552.820512820514,4447.6923076923085,4430.769230769231,4332.307692307693,4685.641025641026,4358.974358974359,4247.179487179487,4131.282051282052,4381.538461538462
1480.6865,0.24914758,0.40559998,0.33333334,0.5522388,0,0.0,0.0,0.0,0.25940213,0.0,0,0,0.0,0.0,0,0,92.0,0.0,516.0,4605.128205128206,3828.205128205129,4934.871794871796,4394.358974358975,4188.205128205129,4487.6923076923085,4432.820512820514,4414.358974358975,4323.589743589744,4675.384615384616,4369.743589743591,4185.128205128206,4109.74358974359,4409.2307692307695
1480.9368,0.23600331,0.4006303,0.33333334,0.5522388,0,0.0,0.0,0.0,0.23341092,0.0,0,0,0.0,0.0,0,0,124.0,0.0,516.0,4658.461538461539,3891.7948717948725,4650.769230769231,4456.410256410257,4216.923076923077,4509.2307692307695,4427.6923076923085,4400.512820512821,4288.205128205129,4645.641025641026,4335.8974358974365,4170.256410256411,4054.8717948717954,4465.128205128206
1481.187,0.23600331,0.4006303,0.33333334,0.5522388,0,0.0,0.0,0.0,0.08341007,0.0,0,0,0.0,0.0,0,0,27.0,0.0,0.0,4625.128205128206,3876.410256410257,4591.794871794872,4442.564102564103,4215.8974358974365,4522.051282051282,4460.000000000001,4409.743589743591,4328.717948717949,4656.410256410257,4309.743589743591,4152.820512820514,4040.5128205128212,4433.846153846154
1481.4371,0.15411048,0.39926347,0.33333334,0.5522388,0,0.0,0.0,0.0,0.14262132,0.0,0,0,0.0,0.0,0,0,59.0,0.0,0.0,4600.000000000001,3863.589743589744,4559.48717948718,4443.076923076924,4217.948717948719,4513.333333333334,4433.333333333334,4388.205128205129,4330.769230769231,4642.051282051282,4316.410256410257,4138.461538461539,4032.820512820513,4365.641025641026
1481.6874,0.15411048,0.39926347,0.33333334,0.5522388,0,0.0,0.0,0.0,0.18134591,0.0,0,0,0.0,0.0,0,0,91.0,0.0,513.0,4620.512820512821,3860.0000000000005,4727.179487179488,4429.743589743591,4229.74358974359,4528.717948717949,4436.410256410257,4409.2307692307695,4354.358974358975,4667.179487179488,4347.179487179487,4153.846153846154,4068.205128205129,4452.307692307693
1481.9376,0.16861905,0.39892754,0.33333334,0.5522388,0,0.0,0.0,0.0,0.45366466,0.0,0,0,0.0,0.0,0,1,123.0,0.0,513.0,4646.153846153847,3884.1025641025644,4723.589743589744,4474.871794871796,4250.256410256411,4529.2307692307695,4475.384615384616,4466.153846153847,4397.948717948719,4696.410256410257,4393.333333333334,4236.410256410257,4105.128205128206,4527.6923076923085
1482.0627,0.16861905,0.39892754,0.33333334,0.5522388,0,0.0,0.0,0.0,0.0,0.0,0,0,0.0,0.0,0,0,10.0,0.0,532.0,4633.333333333334,3878.461538461539,4689.743589743591,4425.128205128206,4242.564102564103,4524.102564102564,4473.333333333334,4466.153846153847,4387.6923076923085,4702.051282051282,4390.769230769231,4223.589743589744,4102.564102564103,4521.538461538462
1482.438,0.19106075,0.40109724,0.33333334,0.5522388,0,0.0,0.0,0.0,0.12621944,0.0,0,0,0.0,0.0,0,0,58.0,0.0,0.0,4632.820512820514,3891.7948717948725,4483.076923076924,4431.282051282052,4266.153846153847,4556.410256410257,4522.051282051282,4513.333333333334,4446.666666666667,4758.974358974359,4426.666666666667,4296.410256410257,4155.384615384616,4532.820512820514
1482.6882,0.19106075,0.40109724,0.33333334,0.5522388,0,0.0,0.0,0.0,1.0,0.0,0,0,0.0,0.0,0,0,90.0,0.0,532.0,4641.538461538462,3899.48717948718,4622.051282051282,4429.2307692307695,4245.128205128206,4540.000000000001,4488.205128205129,4470.769230769231,4410.769230769231,4727.179487179488,4375.8974358974365,4272.307692307693,4170.256410256411,4305.641025641026
1482.9385,0.15814656,0.40305936,0.33333334,0.5522388,0,0.0,0.0,0.0,0.17197275,0.0,0,0,0.0,0.0,0,0,122.0,0.0,532.0,4670.256410256411,3976.9230769230776,3704.615384615385,4497.435897435898,4296.923076923077,4588.717948717949,4536.410256410257,4525.641025641026,4462.051282051282,4784.102564102564,4424.615384615385,4328.205128205129,4217.435897435898,4237.435897435898
1483.1887,0.15814656,0.40305936,0.33333334,0.5522388,0,0.0,0.0,0.0,0.062511645,0.0,0,0,0.0,0.0,0,0,25.0,0.0,0.0,4645.128205128206,3894.358974358975,4517.948717948719,4415.384615384616,4223.076923076924,4520.512820512821,4458.974358974359,4442.051282051282,4377.435897435898,4700.512820512821,4350.256410256411,4263.589743589744,4155.384615384616,4185.641025641026
1483.4388,0.2230797,0.40479946,0.33333334,0.5522388,0,0.0,0.0,0.0,0.072681405,0.0,0,0,0.0,0.0,0,0,57.0,0.0,0.0,4630.769230769231,3915.3846153846157,4575.384615384616,4429.743589743591,4223.589743589744,4521.538461538462,4458.974358974359,4446.153846153847,4390.256410256411,4704.615384615386,4351.794871794872,4254.871794871796,4152.820512820514,4248.717948717949
1483.6891,0.2230797,0.40479946,0.33333334,0.5522388,0,0.0,0.0,0.0,0.5677903,0.0,0,0,0.0,0.0,0,1,89.0,0.0,510.0,4634.358974358975,3923.589743589744,4407.179487179487,4447.179487179487,4242.564102564103,4541.538461538462,4481.538461538462,4466.153846153847,4415.384615384616,4733.333333333334,4383.589743589744,4289.74358974359,4197.948717948719,4391.794871794872
1483.9393,0.18849708,0.40636554,0.33333334,0.5522388,0,0.0,0.0,0.0,0.4365165,0.0,0,0,0.0,0.0,0,0,121.0,0.0,510.0,4644.102564102564,3899.48717948718,4565.128205128206,4430.256410256411,4230.256410256411,4536.410256410257,4457.948717948719,4438.461538461539,4401.025641025642,4719.48717948718,4407.179487179487,4282.051282051282,4218.461538461539,4334.871794871796
1484.1896,0.18849708,0.40636554,0.33333334,0.5522388,0,0.0,0.0,0.0,0.19041438,0.0,0,0,0.0,0.0,0,0,24.0,0.0,0.0,4604.102564102564,3876.9230769230776,4541.025641025642,4408.717948717949,4234.358974358975,4535.384615384616,4490.769230769231,4450.256410256411,4405.641025641026,4717.948717948719,4375.8974358974365,4247.6923076923085,4162.564102564103,4306.153846153847
1484.4398,0.12808868,0.40777504,0.33333334,0.5522388,0,0.0,0.0,0.0,0.24374525,0.0,0,0,0.0,0.0,0,0,56.0,0.0,0.0,4734.871794871796,3879.48717948718,4500.512820512821,4420.000000000001,4227.6923076923085,4535.384615384616,4490.769230769231,4453.333333333334,4417.435897435898,4726.666666666667,4394.871794871796,4277.435897435898,4169.74358974359,4322.564102564103
1484.69,0.12808868,0.40777504,0.33333334,0.5522388,0,0.0,0.0,0.0,0.36279353,0.0,0,0,0.0,0.0,0,0,88.0,0.0,516.0,4746.666666666667,3896.9230769230776,4495.384615384616,4450.769230769231,4186.153846153847,4495.384615384616,4445.128205128206,4407.6923076923085,4381.538461538462,4689.743589743591,4384.615384615385,4280.000000000001,4190.256410256411,4382.564102564103
1484.9402,0.08019111,0.40904358,0.33333334,0.5522388,0,0.0,0.0,0.0,0.12976235,0.0,0,0,0.0,0.0,0,0,120.0,0.0,516.0,4707.179487179488,3889.2307692307695,4672.307692307693,4456.923076923077,4198.461538461539,4507.6923076923085,4458.974358974359,4392.820512820514,4363.076923076924,4663.076923076924,4334.358974358975,4259.48717948718,4136.410256410257,4341.025641025642
1485.1904,0.08019111,0.40904358,0.33333334,0.5522388,0,0.0,0.0,0.0,0.22873168,0.0,0,0,0.0,0.0,0,0,23.0,0.0,0.0,4650.256410256411,3851.2820512820517,4799.48717948718,4408.717948717949,4175.384615384616,4491.282051282052,4441.538461538462,4413.846153846154,4386.153846153847,4691.282051282052,4375.384615384616,4277.435897435898,4178.974358974359,4393.333333333334
1485.4407,0.047780365,0.42508417,0.33333334,0.5522388,0,0.0,0.0,0.0,0.21397698,0.0,0,0,0.0,0.0,0,0,55.0,0.0,0.0,4684.615384615386,3952.820512820513,3989.23076923077,4517.948717948719,4264.102564102564,4572.307692307693,4509.2307692307695,4484.615384615385,4456.410256410257,4773.846153846154,4470.769230769231,4348.717948717949,4280.000000000001,4413.846153846154
1485.6908,0.047780365,0.42508417,0.33333334,0.5522388,0,0.0,0.0,0.0,0.32481074,0.0,0,0,0.0,0.0,0,0,87.0,0.0,513.0,4608.717948717949,3862.564102564103,4612.307692307693,4411.794871794872,4200.000000000001,4510.256410256411,4460.000000000001,4412.307692307693,4384.102564102564,4693.333333333334,4368.717948717949,4264.615384615385,4181.538461538462,4229.74358974359
1485.941,0.055179372,0.44212604,0.33333334,0.5522388,0,0.0,0.0,0.0,0.18059729,0.0,0,0,0.0,0.0,0,0,119.0,0.0,513.0,4538.974358974359,3825.1282051282055,5110.769230769231,4371.282051282052,4165.641025641026,4481.025641025642,4426.153846153847,4361.025641025642,4344.102564102564,4643.589743589744,4321.025641025642,4216.410256410257,4143.076923076924,4209.74358974359
1486.1913,0.055179372,0.44212604,0.33333334,0.5522388,0,0.0,0.0,0.0,0.104758106,0.0,0,0,0.0,0.0,0,0,22.0,0.0,0.0,4556.923076923077,3876.410256410257,4677.435897435898,4417.948717948719,4200.512820512821,4508.717948717949,4447.6923076923085,4400.000000000001,4384.615384615385,4694.871794871796,4359.48717948718,4261.025641025642,4202.564102564103,4277.948717948719
1486.4415,0.047837734,0.4592366,0.33333334,0.5522388,0,0.0,0.0,0.0,0.11746195,0.0,0,0,0.0,0.0,0,0,54.0,0.0,0.0,4540.000000000001,3873.333333333334,4790.769230769231,4412.820512820514,4190.769230769231,4497.435897435898,4424.615384615385,4371.282051282052,4362.051282051282,4674.871794871796,4359.48717948718,4257.948717948719,4208.205128205129,4324.102564102564
1486.6917,0.047837734,0.4592366,0.33333334,0.5522388,0,0.0,0.0,0.0,0.23502433,0.0,0,0,0.0,0.0,0,0,86.0,0.0,532.0,4528.205128205129,3911.2820512820517,4328.205128205129,4494.358974358975,4280.512820512821,4563.589743589744,4527.179487179488,4493.846153846154,4475.8974358974365,4804.615384615386,4474.358974358975,4298.461538461539,4313.333333333334,4474.871794871796
1486.9419,0.0828317,0.46097594,0.33333334,0.5522388,0,0.0,0.0,0.0,0.5375103,0.0,0,0,0.0,0.0,0,0,118.0,0.0,532.0,4490.769230769231,3860.0000000000005,4741.538461538462,4399.48717948718,4227.179487179487,4519.48717948718,4457.948717948719,4434.358974358975,4381.025641025642,4734.358974358975,4382.051282051282,4223.076923076924,4230.256410256411,4202.564102564103
1487.1921,0.0828317,0.46097594,0.33333334,0.5522388,1,0.0,0.0,0.0,0.48066065,0.0,0,0,0.0,0.0,0,0,21.0,0.0,0.0,4517.435897435898,3873.8461538461543,4447.179487179487,4396.923076923077,4241.025641025642,4532.307692307693,4464.102564102564,4461.538461538462,4403.589743589744,4743.589743589744,4372.820512820514,4260.000000000001,4206.666666666667,4407.179487179487
1487.4424,0.06764418,0.46606082,0.33333334,0.5522388,1,0.0,0.0,0.0,0.4669104,0.0,0,0,0.0,0.0,0,0,53.0,0.0,0.0,4514.871794871796,3876.9230769230776,4305.641025641026,4392.307692307693,4230.769230769231,4536.410256410257,4481.538461538462,4457.948717948719,4406.153846153847,4737.948717948719,4364.102564102564,4265.641025641026,4169.74358974359,4413.846153846154
1487.6925,0.06764418,0.46606082,0.33333334,0.5522388,0,0.0,0.0,0.0,0.12123653,0.0,0,0,0.0,0.0,0,0,85.0,0.0,510.0,4552.820512820514,3916.410256410257,4431.794871794872,4393.846153846154,4202.051282051282,4509.2307692307695,4458.461538461539,4427.179487179487,4372.307692307693,4701.538461538462,4349.2307692307695,4260.512820512821,4156.410256410257,4502.564102564103
1487.9427,0.016583191,0.46534523,0.33333334,0.5522388,0,0.0,0.0,0.0,0.5834746,0.0,0,0,0.0,0.0,0,0,117.0,0.0,510.0,4552.820512820514,3942.0512820512827,4521.025641025642,4413.333333333334,4202.564102564103,4517.948717948719,4460.000000000001,4427.179487179487,4370.256410256411,4681.025641025642,4316.923076923077,4244.102564102564,4109.2307692307695,4517.435897435898
1488.193,0.016583191,0.46534523,0.33333334,0.5522388,0,0.0,0.0,0.0,0.7226999,0.0,0,0,0.0,0.0,0,0,20.0,0.0,0.0,4574.871794871796,3945.6410256410263,4548.205128205129,4413.333333333334,4217.948717948719,4524.102564102564,4472.307692307693,4406.666666666667,4371.282051282052,4682.051282051282,4334.871794871796,4249.74358974359,4132.820512820514,4719.48717948718
1488.4432,0.024502385,0.46471015,0.33333334,0.5522388,0,0.0,0.0,0.0,1.0,0.0,0,0,0.0,0.0,0,0,52.0,0.0,0.0,4535.384615384616,3895.3846153846157,5167.6923076923085,4359.48717948718,4154.871794871796,4475.8974358974365,4399.48717948718,4368.205128205129,4307.6923076923085,4616.923076923077,4262.051282051282,4186.153846153847,4052.820512820513,3429.7435897435903
1488.6934,0.024502385,0.46471015,0.33333334,0.5522388,0,0.0,0.0,0.0,1.0,0.0,0,0,0.0,0.0,0,0,84.0,0.0,516.0,4559.48717948718,3927.1794871794878,4916.410256410257,4394.871794871796,4200.000000000001,4507.6923076923085,4428.717948717949,4399.48717948718,4346.153846153847,4655.8974358974365,4295.8974358974365,4213.333333333334,4089.23076923077,3579.48717948718
1488.9436,0.1300164,0.45957267,0.33333334,0.5522388,0,0.0,0.0,0.0,0.46510655,0.0,0,0,0.0,0.0,0,0,116.0,0.0,516.0,4563.589743589744,3925.1282051282055,4935.8974358974365,4368.717948717949,4180.512820512821,4491.282051282052,4431.794871794872,4401.025641025642,4338.974358974359,4628.717948717949,4252.820512820514,4221.025641025642,4058.461538461539,3662.564102564103
1489.1938,0.1300164,0.45957267,0.33333334,0.5522388,0,0.0,0.0,0.0,1.0,0.0,0,0,0.0,0.0,0,1,19.0,0.0,0.0,4558.974358974359,3891.2820512820517,5044.102564102564,4329.2307692307695,4156.410256410257,4468.205128205129,4392.820512820514,4398.461538461539,4344.102564102564,4642.564102564103,4265.128205128206,4272.307692307693,4123.076923076924,3923.589743589744
1489.3502,0.124525905,0.45088917,0.33333334,0.5522388,0,0.0,0.0,0.0,1.0,0.0,0,0,0.0,0.0,0,1,39.0,0.0,0.0,4564.615384615385,3926.1538461538466,4968.205128205129,4361.025641025642,4176.923076923077,4489.2307692307695,4412.307692307693,4418.974358974359,4369.743589743591,4677.435897435898,4303.589743589744,4318.974358974359,4173.846153846154,4067.692307692308
1489.4753,0.124525905,0.45088917,0.33333334,0.5522388,0,0.0,0.0,0.0,1.0,0.0,0,0,0.0,0.0,0,0,55.0,0.0,0.0,4579.48717948718,3930.7692307692314,4893.333333333334,4366.666666666667,4185.128205128206,4494.871794871796,4410.769230769231,4422.051282051282,4373.846153846154,4687.6923076923085,4308.717948717949,4325.128205128206,4202.564102564103,4122.564102564103
1489.9445,0.16092543,0.44131282,0.33333334,0.5522388,0,0.0,0.0,0.0,0.48636088,0.0,0,0,0.0,0.0,0,0,115.0,0.0,511.0,4596.923076923077,3926.1538461538466,4777.435897435898,4398.974358974359,4208.205128205129,4521.538461538462,4442.051282051282,4442.051282051282,4373.846153846154,4701.025641025642,4341.538461538462,4382.564102564103,4235.8974358974365,4269.2307692307695
1490.1947,0.16092543,0.44131282,0.33333334,0.5522388,0,0.0,0.0,0.0,0.47611934,0.0,0,0,0.0,0.0,0,0,18.0,0.0,0.0,4583.076923076924,3912.307692307693,4651.794871794872,4387.179487179487,4202.564102564103,4508.717948717949,4428.717948717949,4422.564102564103,4354.871794871796,4672.307692307693,4317.435897435898,4328.717948717949,4201.025641025642,4314.871794871796
1490.445,0.1713598,0.43486214,0.33333334,0.5522388,0,0.0,0.0,0.0,0.23062414,0.0,0,0,0.0,0.0,0,0,50.0,0.0,0.0,4593.333333333334,3888.717948717949,4754.358974358975,4386.666666666667,4208.717948717949,4514.871794871796,4441.025641025642,4419.48717948718,4347.179487179487,4666.666666666667,4312.820512820514,4303.076923076924,4178.974358974359,4322.051282051282
1490.6952,0.1713598,0.43486214,0.33333334,0.5522388,0,0.0,0.0,0.0,0.06533835,0.0,0,0,0.0,0.0,0,0,82.0,0.0,532.0,4593.333333333334,3907.692307692308,4590.769230769231,4409.743589743591,4211.794871794872,4518.461538461539,4444.615384615385,4417.948717948719,4359.48717948718,4688.205128205129,4336.923076923077,4282.564102564103,4188.205128205129,4362.564102564103
1490.9453,0.13078403,0.4313692,0.33333334,0.5522388,0,0.0,0.0,0.0,0.24460785,0.0,0,0,0.0,0.0,0,0,114.0,0.0,532.0,4576.923076923077,3899.48717948718,4721.538461538462,4393.846153846154,4195.8974358974365,4505.128205128206,4432.307692307693,4415.8974358974365,4342.564102564103,4669.2307692307695,4330.256410256411,4216.923076923077,4161.025641025642,4374.358974358975
1491.1956,0.13078403,0.4313692,0.33333334,0.5522388,0,0.0,0.0,0.0,0.48239157,0.0,0,0,0.0,0.0,0,0,17.0,0.0,0.0,4576.923076923077,3894.358974358975,4663.589743589744,4397.948717948719,4199.48717948718,4508.717948717949,4454.871794871796,4427.179487179487,4352.307692307693,4677.948717948719,4328.205128205129,4221.025641025642,4154.871794871796,4406.666666666667
1491.4458,0.092195824,0.42609605,0.33333334,0.5522388,0,0.0,0.0,0.0,0.37396777,0.0,0,0,0.0,0.0,0,0,49.0,0.0,0.0,4570.769230769231,3888.205128205129,4593.333333333334,4377.435897435898,4194.871794871796,4503.076923076924,4438.974358974359,4402.051282051282,4345.128205128206,4667.6923076923085,4325.128205128206,4187.6923076923085,4141.025641025642,4445.641025641026
1491.696,0.092195824,0.42609605,0.33333334,0.5522388,0,0.0,0.0,0.0,0.6385597,0.0,0,0,0.0,0.0,0,0,81.0,0.0,510.0,4569.2307692307695,3893.333333333334,4531.794871794872,4380.512820512821,4200.000000000001,4506.666666666667,4441.538461538462,4399.48717948718,4341.025641025642,4661.025641025642,4324.615384615385,4185.128205128206,4136.923076923077,4633.333333333334
1491.9462,0.085617445,0.41948345,0.33333334,0.5522388,0,0.0,0.0,0.0,0.55544454,0.0,0,0,0.0,0.0,0,0,113.0,0.0,510.0,4569.2307692307695,3905.6410256410263,4532.820512820514,4404.102564102564,4214.871794871796,4516.410256410257,4428.205128205129,4410.769230769231,4342.564102564103,4670.769230769231,4307.6923076923085,4168.717948717949,4140.512820512821,4510.769230769231
1492.1964,0.085617445,0.41948345,0.33333334,0.5522388,0,0.0,0.0,0.0,0.26190633,0.0,0,0,0.0,0.0,0,0,16.0,0.0,0.0,4562.564102564103,3863.076923076924,4597.948717948719,4376.923076923077,4229.74358974359,4531.282051282052,4441.025641025642,4429.2307692307695,4377.435897435898,4716.923076923077,4364.615384615385,4217.435897435898,4214.871794871796,4570.769230769231
1492.4467,0.09820011,0.41395923,0.33333334,0.5522388,0,0.0,0.0,0.0,0.34814665,0.0,0,0,0.0,0.0,0,0,48.0,0.0,0.0,4564.102564102564,3892.820512820513,4525.641025641026,4396.923076923077,4240.000000000001,4543.589743589744,4444.102564102564,4442.564102564103,4394.871794871796,4722.051282051282,4372.820512820514,4215.384615384616,4197.435897435898,4540.512820512821
1492.6969,0.09820011,0.41395923,0.33333334,0.5522388,0,0.0,0.0,0.0,0.16065557,0.0,0,0,0.0,0.0,0,0,80.0,0.0,516.0,4571.794871794872,3893.333333333334,4564.615384615385,4389.2307692307695,4232.307692307693,4535.8974358974365,4425.128205128206,4435.8974358974365,4401.025641025642,4729.2307692307695,4378.974358974359,4228.717948717949,4223.589743589744,4531.794871794872
1492.947,0.109962426,0.40822846,0.33333334,0.5522388,0,0.0,0.0,0.0,0.11269502,0.0,0,0,0.0,0.0,0,0,112.0,0.0,516.0,4591.794871794872,3893.8461538461543,4563.076923076924,4405.641025641026,4246.153846153847,4553.333333333334,4442.564102564103,4422.051282051282,4386.666666666667,4712.820512820514,4361.538461538462,4257.948717948719,4213.333333333334,4520.000000000001
1493.1973,0.109962426,0.40822846,0.33333334,0.5522388,0,0.0,0.0,0.0,0.3599307,0.0,0,0,0.0,0.0,0,0,15.0,0.0,510.0,4580.512820512821,3910.2564102564106,4571.794871794872,4406.153846153847,4250.769230769231,4557.948717948719,4444.102564102564,4443.589743589744,4403.076923076924,4735.8974358974365,4376.410256410257,4275.8974358974365,4228.205128205129,4522.564102564103
1493.4475,0.14454663,0.40166548,0.33333334,0.5522388,0,0.0,0.0,0.0,0.13326475,0.0,0,0,0.0,0.0,0,0,47.0,0.0,0.0,4591.794871794872,3926.666666666667,4498.461538461539,4430.256410256411,4227.6923076923085,4536.923076923077,4426.153846153847,4412.820512820514,4369.2307692307695,4708.205128205129,4372.307692307693,4305.128205128206,4214.871794871796,4561.025641025642
1493.6978,0.14454663,0.40166548,0.33333334,0.5522388,0,0.0,0.0,0.0,0.6839458,0.0,0,0,0.0,0.0,0,0,79.0,0.0,509.0,4604.615384615385,3905.1282051282055,4575.8974358974365,4425.641025641026,4214.358974358975,4534.871794871796,4431.794871794872,4407.179487179487,4363.589743589744,4716.923076923077,4383.076923076924,4335.384615384616,4229.74358974359,4621.538461538462
1493.9479,0.09232217,0.39683345,0.33333334,0.5522388,0,0.0,0.0,0.0,0.13151553,0.0,0,0,0.0,0.0,0,0,111.0,0.0,509.0,4606.153846153847,3925.1282051282055,4528.717948717949,4445.641025641026,4229.74358974359,4548.205128205129,4430.256410256411,4411.282051282052,4358.974358974359,4713.846153846154,4393.333333333334,4341.538461538462,4216.923076923077,4643.589743589744
1494.1981,0.09232217,0.39683345,0.33333334,0.5522388,0,0.0,0.0,0.0,0.4531748,0.0,0,0,0.0,0.0,0,0,14.0,0.0,532.0,4586.666666666667,3909.7435897435903,4514.358974358975,4423.589743589744,4221.025641025642,4537.435897435898,4428.205128205129,4420.512820512821,4353.846153846154,4713.333333333334,4369.743589743591,4310.769230769231,4189.74358974359,4536.923076923077
1494.4484,0.14858377,0.38964626,0.33333334,0.5522388,0,0.0,0.0,0.0,0.4769436,0.0,0,0,0.0,0.0,0,0,46.0,0.0,0.0,4636.410256410257,3942.564102564103,4435.384615384616,4479.48717948718,4232.307692307693,4550.769230769231,4457.435897435898,4409.2307692307695,4344.102564102564,4704.102564102564,4379.48717948718,4327.179487179487,4195.8974358974365,4490.256410256411
1494.6986,0.14858377,0.38964626,0.33333334,0.5522388,0,0.0,0.0,0.0,0.36255455,0.0,0,0,0.0,0.0,0,0,78.0,0.0,532.0,4656.410256410257,4004.615384615385,4163.076923076924,4548.717948717949,4271.794871794872,4583.589743589744,4491.794871794872,4417.435897435898,4380.000000000001,4706.153846153847,4363.589743589744,4346.153846153847,4163.589743589744,4382.564102564103
1494.9487,0.08079559,0.38818154,0.33333334,0.5522388,0,0.0,0.0,0.0,0.41084257,0.0,0,0,0.0,0.0,0,0,110.0,0.0,532.0,4791.794871794872,4064.615384615385,4488.717948717949,4572.820512820514,4227.6923076923085,4535.8974358974365,4435.384615384616,4378.974358974359,4301.538461538462,4654.871794871796,4305.641025641026,4311.794871794872,4121.025641025642,4283.076923076924
1495.199,0.08079559,0.38818154,0.33333334,0.5522388,0,0.0,0.0,0.0,0.19987227,0.0,0,0,0.0,0.0,0,0,13.0,0.0,510.0,4766.666666666667,4092.307692307693,4406.666666666667,4617.948717948719,4232.307692307693,4545.641025641026,4444.615384615385,4400.512820512821,4309.2307692307695,4666.666666666667,4335.8974358974365,4396.410256410257,4200.512820512821,4365.128205128206
1495.4492,0.07659495,0.38683182,0.33333334,0.5522388,0,0.0,0.0,0.0,1.0,0.0,0,0,0.0,0.0,0,0,45.0,0.0,0.0,4761.538461538462,4083.076923076924,4400.000000000001,4607.179487179488,4230.769230769231,4545.641025641026,4441.538461538462,4424.102564102564,4328.205128205129,4678.461538461539,4365.128205128206,4412.307692307693,4251.282051282052,4433.333333333334
1495.6995,0.07659495,0.38683182,0.33333334,0.5522388,0,0.0,0.0,0.0,0.35455042,0.0,0,0,0.0,0.0,0,0,77.0,0.0,510.0,4718.461538461539,4106.666666666667,4316.410256410257,4617.948717948719,4236.923076923077,4537.948717948719,4436.410256410257,4399.48717948718,4329.2307692307695,4663.076923076924,4348.205128205129,4407.6923076923085,4234.358974358975,4445.128205128206
1495.9497,0.09993337,0.3856171,0.33333334,0.5522388,0,0.0,0.0,0.0,0.09808446,0.0,0,0,0.0,0.0,0,0,109.0,0.0,510.0,4722.051282051282,4107.179487179487,4172.307692307693,4634.358974358975,4256.923076923077,4553.846153846154,4452.307692307693,4414.871794871796,4352.820512820514,4664.615384615386,4354.871794871796,4377.435897435898,4264.615384615385,4474.358974358975
1496.1998,0.09993337,0.3856171,0.33333334,0.5522388,0,0.0,0.0,0.0,0.2948123,0.0,0,0,0.0,0.0,0,0,12.0,0.0,516.0,4695.384615384616,4108.205128205129,4358.461538461539,4632.307692307693,4245.641025641026,4537.435897435898,4430.769230769231,4364.102564102564,4328.717948717949,4648.717948717949,4342.564102564103,4336.923076923077,4280.000000000001,4242.564102564103
1496.3562,0.06394073,0.38452384,0.33333334,0.5522388,0,0.0,0.0,0.0,1.0,0.0,0,0,0.0,0.0,0,0,32.0,0.0,0.0,4666.666666666667,4025.6410256410263,4457.948717948719,4583.076923076924,4242.564102564103,4537.948717948719,4449.2307692307695,4393.846153846154,4354.871794871796,4696.923076923077,4398.974358974359,4332.307692307693,4345.641025641026,3537.435897435898
1496.7003,0.06394073,0.38452384,0.33333334,0.5522388,0,0.0,0.0,0.0,0.89270645,0.0,0,0,0.0,0.0,0,0,73.0,0.0,478.0,4663.589743589744,3988.205128205129,4427.179487179487,4566.666666666667,4249.2307692307695,4541.025641025642,4444.615384615385,4403.589743589744,4348.717948717949,4687.6923076923085,4381.025641025642,4338.974358974359,4316.410256410257,3604.615384615385
1496.9506,0.04490575,0.38353992,0.33333334,0.5522388,0,0.0,0.0,0.0,0.997118,0.0,0,0,0.0,0.0,0,0,108.0,0.0,516.0,4740.000000000001,4037.435897435898,4540.000000000001,4589.2307692307695,4241.538461538462,4533.333333333334,4442.564102564103,4365.128205128206,4307.179487179487,4630.769230769231,4323.076923076924,4368.205128205129,4260.512820512821,3802.564102564103
1497.0756,0.04490575,0.38353992,0.33333334,0.5522388,0,0.0,0.0,0.0,1.0,0.0,0,0,0.0,0.0,0,0,124.0,0.0,516.0,4710.769230769231,4022.564102564103,4421.538461538462,4585.128205128206,4257.948717948719,4551.282051282052,4477.948717948719,4406.153846153847,4329.743589743591,4641.538461538462,4317.435897435898,4366.666666666667,4280.000000000001,3847.692307692308
1497.357,0.095457666,0.38897574,0.33333334,0.5522388,0,0.0,0.0,0.0,1.0,0.0,0,0,0.0,0.0,0,0,31.0,0.0,0.0,4729.2307692307695,4057.435897435898,4398.974358974359,4603.589743589744,4260.000000000001,4558.461538461539,4473.333333333334,4412.820512820514,4343.589743589744,4675.8974358974365,4364.615384615385,4391.282051282052,4352.307692307693,4021.0256410256416
1497.357,0.095457666,0.38897574,0.33333334,0.5522388,0,0.0,0.0,0.0,1.0,0.0,0,0,0.0,0.0,0,0,31.0,0.0,0.0,4729.2307692307695,4057.435897435898,4398.974358974359,4603.589743589744,4260.000000000001,4558.461538461539,4473.333333333334,4412.820512820514,4343.589743589744,4675.8974358974365,4364.615384615385,4391.282051282052,4352.307692307693,4021.0256410256416
1497.8575,0.046940487,0.39285666,0.33333334,0.5522388,0,0.0,0.0,0.0,1.0,0.0,0,0,0.0,0.0,0,0,95.0,0.0,514.0,4716.923076923077,4034.8717948717954,4504.102564102564,4581.538461538462,4238.974358974359,4537.948717948719,4473.846153846154,4409.2307692307695,4345.128205128206,4680.000000000001,4403.076923076924,4313.333333333334,4378.461538461539,4389.743589743591
1498.2015,0.046940487,0.39285666,0.33333334,0.5522388,0,0.0,0.0,0.0,0.72049135,0.0,0,0,0.0,0.0,0,0,7.0,0.0,474.0,4707.179487179488,4053.333333333334,4548.717948717949,4570.769230769231,4245.128205128206,4535.384615384616,4472.820512820514,4442.051282051282,4396.923076923077,4701.025641025642,4408.717948717949,4283.076923076924,4373.333333333334,4443.076923076924
1498.4518,0.0,0.39843386,0.33333334,0.5522388,0,0.0,0.0,0.0,1.0,0.0,0,0,0.0,0.0,0,0,42.0,0.0,0.0,4685.128205128206,4020.0000000000005,4466.153846153847,4553.846153846154,4246.153846153847,4537.435897435898,4493.333333333334,4397.948717948719,4373.333333333334,4686.153846153847,4378.974358974359,4247.179487179487,4340.000000000001,4494.358974358975
1498.702,0.0,0.39843386,0.33333334,0.5522388,0,0.0,0.0,0.0,0.5131076,0.0,0,0,0.0,0.0,0,0,74.0,0.0,532.0,4667.6923076923085,4026.1538461538466,4350.256410256411,4560.000000000001,4249.74358974359,4544.102564102564,4489.2307692307695,4411.794871794872,4377.435897435898,4689.743589743591,4412.307692307693,4214.871794871796,4345.641025641026,4368.205128205129
1498.9523,0.0,0.40247837,0.33333334,0.5522388,0,0.0,0.0,0.0,0.1433354,0.0,0,0,0.0,0.0,0,0,106.0,0.0,532.0,4651.794871794872,4019.48717948718,4483.076923076924,4543.589743589744,4243.076923076924,4536.410256410257,4473.333333333334,4427.179487179487,4381.538461538462,4707.179487179488,4410.256410256411,4179.48717948718,4342.564102564103,4469.743589743591
1499.2024,0.0,0.40247837,0.33333334,0.5522388,0,0.0,0.0,0.0,0.35097417,0.0,0,0,0.0,0.0,0,0,9.0,0.0,478.0,4648.205128205129,3988.717948717949,4598.461538461539,4521.538461538462,4220.512820512821,4523.589743589744,4476.410256410257,4429.743589743591,4371.794871794872,4681.538461538462,4380.512820512821,4186.153846153847,4329.2307692307695,4574.358974358975
1499.4526,0.0,0.40265623,0.33333334,0.5522388,0,0.0,0.0,0.0,0.4994066,0.0,0,0,0.0,0.0,0,0,41.0,0.0,0.0,4623.076923076924,3975.8974358974365,4560.000000000001,4507.6923076923085,4233.333333333334,4522.051282051282,4461.025641025642,4423.589743589744,4355.384615384616,4673.333333333334,4367.6923076923085,4149.74358974359,4305.641025641026,4426.153846153847
1499.7029,0.0,0.40265623,0.33333334,0.5522388,0,0.0,0.0,0.0,0.27164245,0.0,0,0,0.0,0.0,0,0,73.0,0.0,478.0,4581.538461538462,3925.6410256410263,4490.256410256411,4458.461538461539,4205.641025641026,4494.871794871796,4449.743589743591,4443.589743589744,4347.6923076923085,4658.461538461539,4316.410256410257,4106.153846153847,4247.6923076923085,4397.435897435898
1499.9531,0.06281642,0.4028526,0.33333334,0.5522388,0,0.0,0.0,0.0,0.11157851,0.0,0,0,0.0,0.0,0,0,105.0,0.0,510.0,4603.589743589744,3946.1538461538466,4510.769230769231,4471.794871794872,4201.538461538462,4486.153846153847,4429.743589743591,4432.307692307693,4330.256410256411,4657.435897435898,4328.205128205129,4154.871794871796,4271.794871794872,4434.358974358975
1500.2032,0.06281642,0.4028526,0.33333334,0.5522388,0,0.0,0.0,0.0,1.0,0.0,0,0,0.0,0.0,0,0,8.0,0.0,475.0,4574.358974358975,3946.1538461538466,4413.333333333334,4436.410256410257,4236.923076923077,4528.717948717949,4447.6923076923085,4444.102564102564,4351.794871794872,4677.435897435898,4327.6923076923085,4185.128205128206,4263.076923076924,4493.333333333334
1500.4535,0.06199296,0.40056598,0.33333334,0.5522388,1,0.0,0.0,0.0,0.07438257,0.0,0,0,0.0,0.0,0,0,40.0,0.0,0.0,4554.358974358975,3911.2820512820517,4967.179487179488,4383.589743589744,4181.538461538462,4474.358974358975,4363.076923076924,4324.615384615385,4277.948717948719,4600.000000000001,4287.6923076923085,4246.666666666667,4243.589743589744,4577.948717948719
1500.7037,0.06199296,0.40056598,0.33333334,0.5522388,0,0.0,0.0,0.0,0.04610974,0.0,0,0,0.0,0.0,0,0,72.0,0.0,475.0,4558.974358974359,3926.1538461538466,4816.410256410257,4398.461538461539,4203.589743589744,4507.6923076923085,4397.948717948719,4361.025641025642,4297.435897435898,4622.051282051282,4282.564102564103,4356.410256410257,4260.512820512821,4585.641025641026
1500.954,0.14394458,0.40419638,0.33333334,0.5522388,0,0.0,0.0,0.0,0.37315223,0.0,0,0,0.0,0.0,0,0,104.0,0.0,516.0,4557.948717948719,3951.2820512820517,4747.6923076923085,4410.256410256411,4232.820512820514,4538.461538461539,4428.205128205129,4369.743589743591,4310.256410256411,4632.820512820514,4316.410256410257,4432.307692307693,4276.410256410257,4694.871794871796
1501.2042,0.14394458,0.40419638,0.33333334,0.5522388,0,0.0,0.0,0.0,0.964622,0.0,0,0,0.0,0.0,0,0,7.0,0.0,474.0,4562.051282051282,3976.9230769230776,4838.974358974359,4428.205128205129,4247.179487179487,4555.384615384616,4446.666666666667,4375.8974358974365,4328.205128205129,4648.717948717949,4360.512820512821,4496.410256410257,4264.615384615385,4795.8974358974365
1501.4543,0.21315333,0.4094236,0.33333334,0.5522388,1,0.0,0.0,0.0,1.0,0.0,0,0,0.0,0.0,0,0,39.0,0.0,0.0,4560.512820512821,3950.2564102564106,4545.128205128206,4425.641025641026,4280.000000000001,4592.307692307693,4480.000000000001,4431.794871794872,4369.743589743591,4685.128205128206,4411.794871794872,4546.153846153847,4285.641025641026,4923.076923076924
1501.7046,0.21315333,0.4094236,0.33333334,0.5522388,0,0.0,0.0,0.0,0.1893909,0.0,0,0,0.0,0.0,0,0,71.0,0.0,474.0,4572.307692307693,3952.820512820513,4788.717948717949,4451.282051282052,4277.948717948719,4586.666666666667,4489.743589743591,4417.435897435898,4360.000000000001,4692.307692307693,4426.666666666667,4534.871794871796,4275.384615384616,4926.666666666667
1501.9548,0.25006276,0.4143368,0.33333334,0.5522388,0,0.0,0.0,0.0,0.11280047,0.0,0,0,0.0,0.0,0,0,103.0,0.0,497.0,4608.205128205129,3978.9743589743593,4366.153846153847,4498.461538461539,4311.794871794872,4624.102564102564,4523.589743589744,4460.000000000001,4401.025641025642,4717.948717948719,4477.435897435898,4526.153846153847,4266.153846153847,4857.948717948719
1502.2051,0.25006276,0.4143368,0.33333334,0.5522388,0,0.0,0.0,0.0,1.0,0.0,0,0,0.0,0.0,0,0,6.0,0.0,535.0,4607.6923076923085,3961.538461538462,4371.282051282052,4508.717948717949,4310.256410256411,4613.333333333334,4525.128205128206,4459.48717948718,4395.384615384616,4732.307692307693,4476.410256410257,4491.282051282052,4229.74358974359,3775.8974358974365
1502.3615,0.25693557,0.41975066,0.33333334,0.5522388,0,0.0,0.0,0.0,1.0,0.0,0,0,0.0,0.0,0,0,26.0,0.0,0.0,4621.538461538462,3960.5128205128212,4457.948717948719,4507.179487179488,4290.769230769231,4591.794871794872,4537.948717948719,4480.000000000001,4407.179487179487,4742.564102564103,4496.410256410257,4473.846153846154,4236.923076923077,3685.1282051282055
1502.7054,0.25693557,0.41975066,0.33333334,0.5522388,0,0.0,0.0,0.0,0.38543144,0.0,0,0,0.0,0.0,0,0,70.0,0.0,535.0,4607.6923076923085,3939.48717948718,4432.307692307693,4490.769230769231,4263.076923076924,4566.153846153847,4522.564102564103,4457.948717948719,4385.641025641026,4708.717948717949,4437.948717948719,4373.333333333334,4169.2307692307695,3617.9487179487182
1502.9557,0.36611116,0.4240135,0.33333334,0.5522388,0,0.0,0.0,0.0,0.27166316,0.0,0,0,0.0,0.0,0,0,102.0,0.0,532.0,4611.794871794872,3929.2307692307695,4532.307692307693,4461.538461538462,4226.666666666667,4523.076923076924,4473.333333333334,4428.205128205129,4373.846153846154,4695.8974358974365,4431.282051282052,4324.102564102564,4166.666666666667,3740.512820512821
1503.2059,0.36611116,0.4240135,0.33333334,0.5522388,0,0.0,0.0,0.0,1.0,0.0,0,0,0.0,0.0,0,0,5.0,0.0,558.0,4632.820512820514,3942.0512820512827,4505.641025641026,4488.717948717949,4264.102564102564,4565.128205128206,4509.743589743591,4435.8974358974365,4398.974358974359,4713.333333333334,4422.051282051282,4310.256410256411,4183.589743589744,3998.9743589743593
1503.3623,0.4257337,0.42643484,0.33333334,0.5522388,0,0.0,0.0,0.0,1.0,0.0,0,0,0.0,0.0,0,0,25.0,0.0,0.0,4617.435897435898,3929.7435897435903,4450.769230769231,4490.769230769231,4245.128205128206,4542.051282051282,4503.589743589744,4427.179487179487,4377.948717948719,4694.358974358975,4415.384615384616,4262.051282051282,4175.8974358974365,4082.0512820512827
1503.3623,0.4257337,0.42643484,0.33333334,0.5522388,0,0.0,0.0,0.0,1.0,0.0,0,0,0.0,0.0,0,0,25.0,0.0,0.0,4617.435897435898,3929.7435897435903,4450.769230769231,4490.769230769231,4245.128205128206,4542.051282051282,4503.589743589744,4427.179487179487,4377.948717948719,4694.358974358975,4415.384615384616,4262.051282051282,4175.8974358974365,4082.0512820512827
1503.8939,0.48673388,0.42761305,0.33333334,0.5522388,1,0.0,0.0,0.0,1.0,0.0,0,0,0.0,0.0,0,0,93.0,0.0,505.0,4635.384615384616,3947.1794871794878,4057.9487179487182,4491.282051282052,4339.48717948718,4615.8974358974365,4544.102564102564,4480.512820512821,4439.48717948718,4776.410256410257,4432.307692307693,4250.769230769231,4206.153846153847,4398.974358974359
1504.2068,0.48673388,0.42761305,0.33333334,0.5522388,0,0.0,0.0,0.0,0.46533737,0.0,0,0,0.0,0.0,0,0,4.0,0.0,562.0,4615.384615384616,3965.6410256410263,4211.282051282052,4479.48717948718,4293.333333333334,4584.102564102564,4506.666666666667,4487.179487179488,4441.538461538462,4782.564102564103,4417.948717948719,4214.871794871796,4204.615384615385,4460.512820512821
1504.4569,0.5019964,0.4266821,0.33333334,0.5522388,0,0.0,0.0,0.0,0.054807253,0.0,0,0,0.0,0.0,0,0,36.0,0.0,0.0,4604.615384615385,3967.692307692308,4162.564102564103,4475.8974358974365,4282.051282051282,4585.128205128206,4508.205128205129,4501.025641025642,4435.384615384616,4771.794871794872,4402.564102564103,4202.564102564103,4207.179487179487,4463.076923076924
1504.7072,0.5019964,0.4266821,0.33333334,0.5522388,0,0.0,0.0,0.0,0.20607899,0.0,0,0,0.0,0.0,0,0,68.0,0.0,562.0,4625.641025641026,3952.307692307693,4194.358974358975,4447.6923076923085,4266.666666666667,4573.846153846154,4505.128205128206,4477.948717948719,4405.128205128206,4736.923076923077,4366.666666666667,4187.179487179487,4183.076923076924,4476.410256410257
1504.9574,0.4631632,0.43057024,0.33333334,0.5522388,0,0.0,0.0,0.0,0.072081506,0.0,0,0,0.0,0.0,0,0,100.0,0.0,513.0,4631.794871794872,3937.9487179487182,4284.102564102564,4421.538461538462,4232.820512820514,4540.512820512821,4471.794871794872,4423.589743589744,4363.589743589744,4702.564102564103,4370.769230769231,4164.615384615385,4167.6923076923085,4491.794871794872
1505.2076,0.4631632,0.43057024,0.33333334,0.5522388,0,0.0,0.0,0.0,0.13528354,0.0,0,0,0.0,0.0,0,0,3.0,0.0,545.0,4592.307692307693,3911.7948717948725,4330.256410256411,4393.846153846154,4229.2307692307695,4529.743589743591,4475.384615384616,4419.48717948718,4351.794871794872,4690.769230769231,4342.051282051282,4148.717948717949,4137.435897435898,4487.6923076923085
1505.4578,0.41735706,0.43297192,0.33333334,0.5522388,0,0.0,0.0,0.0,0.06327525,0.0,0,0,0.0,0.0,0,0,35.0,0.0,0.0,4591.282051282052,3895.3846153846157,4269.74358974359,4386.666666666667,4233.333333333334,4541.025641025642,4493.333333333334,4423.589743589744,4360.000000000001,4696.410256410257,4341.025641025642,4145.641025641026,4136.410256410257,4475.8974358974365
1505.708,0.41735706,0.43297192,0.33333334,0.5522388,0,0.0,0.0,0.0,0.078082055,0.0,0,0,0.0,0.0,0,0,67.0,0.0,545.0,4612.307692307693,3889.7435897435903,4222.564102564103,4400.000000000001,4229.2307692307695,4532.820512820514,4508.205128205129,4421.538461538462,4346.666666666667,4705.128205128206,4355.384615384616,4163.076923076924,4151.282051282052,4510.769230769231
1505.9583,0.39671144,0.44347906,0.33333334,0.5522388,0,0.0,0.0,0.0,0.040828828,0.0,0,0,0.0,0.0,0,0,99.0,0.0,506.0,4564.102564102564,3880.0000000000005,4345.641025641026,4348.205128205129,4221.025641025642,4511.794871794872,4455.8974358974365,4371.794871794872,4326.153846153847,4676.923076923077,4316.923076923077,4121.538461538462,4094.358974358975,4494.358974358975
1506.2085,0.39671144,0.44347906,0.33333334,0.5522388,0,0.0,0.0,0.0,0.10519359,0.0,0,0,0.0,0.0,0,0,2.0,0.0,337.0,4596.410256410257,3904.1025641025644,4429.2307692307695,4390.256410256411,4256.923076923077,4548.717948717949,4476.410256410257,4368.205128205129,4331.282051282052,4674.871794871796,4325.641025641026,4138.461538461539,4109.74358974359,4551.794871794872
1506.4587,0.4067554,0.4540729,0.33333334,0.5522388,0,0.0,0.0,0.0,1.0,0.0,0,0,0.0,0.0,0,0,34.0,0.0,0.0,4602.051282051282,3924.615384615385,4475.384615384616,4395.8974358974365,4260.000000000001,4555.384615384616,4489.743589743591,4412.307692307693,4378.461538461539,4717.948717948719,4366.666666666667,4184.102564102564,4154.871794871796,4800.000000000001
1506.4587,0.4067554,0.4540729,0.33333334,0.5522388,0,0.0,0.0,0.0,1.0,0.0,0,0,0.0,0.0,0,0,34.0,0.0,0.0,4602.051282051282,3924.615384615385,4475.384615384616,4395.8974358974365,4260.000000000001,4555.384615384616,4489.743589743591,4412.307692307693,4378.461538461539,4717.948717948719,4366.666666666667,4184.102564102564,4154.871794871796,4800.000000000001
1506.9591,0.38760433,0.46036035,0.33333334,0.5522388,0,0.0,0.0,0.0,0.0,0.28867316,0,0,0.0,0.0,0,0,98.0,0.0,533.0,4593.333333333334,3916.410256410257,4466.666666666667,4405.641025641026,4252.820512820514,4555.384615384616,4490.769230769231,4427.179487179487,4384.615384615385,4716.923076923077,4341.538461538462,4204.102564102564,4151.282051282052,4817.948717948719
1507.2094,0.38760433,0.46036035,0.33333334,0.5522388,0,0.0,0.0,0.0,1.0,0.0,0,0,0.0,0.0,0,0,1.0,0.0,515.0,4596.923076923077,3911.7948717948725,4576.923076923077,4390.769230769231,4244.615384615385,4553.333333333334,4473.846153846154,4419.48717948718,4375.384615384616,4693.333333333334,4338.974358974359,4164.102564102564,4135.384615384616,4731.282051282052
1507.3657,0.32802767,0.4701068,0.33333334,0.5522388,0,0.0,0.0,0.0,1.0,0.0,0,0,0.0,0.0,0,0,21.0,0.0,0.0,4587.179487179488,3941.0256410256416,4518.461538461539,4427.179487179487,4246.666666666667,4545.641025641026,4475.8974358974365,4405.641025641026,4357.435897435898,4686.153846153847,4329.743589743591,4175.384615384616,4153.846153846154,4675.384615384616
1507.7097,0.32802767,0.4701068,0.33333334,0.5522388,0,0.0,0.0,0.0,0.8282121,0.0,0,0,0.0,0.0,0,0,65.0,0.0,515.0,4565.641025641026,3877.435897435898,4984.615384615386,4350.256410256411,4178.461538461539,4489.2307692307695,4428.205128205129,4340.000000000001,4292.307692307693,4606.666666666667,4276.923076923077,4125.128205128206,4107.179487179487,4427.179487179487
1507.8661,0.38497147,0.47688353,0.33333334,0.5522388,0,0.0,0.0,0.0,1.0,0.0,0,0,0.0,0.0,0,0,85.0,0.0,509.0,4541.538461538462,3895.3846153846157,4851.282051282052,4367.6923076923085,4186.666666666667,4497.948717948719,4434.871794871796,4366.153846153847,4308.717948717949,4625.128205128206,4281.025641025642,4124.102564102564,4125.641025641026,4347.6923076923085
1507.8661,0.38497147,0.47688353,0.33333334,0.5522388,0,0.0,0.0,0.0,1.0,0.0,0,0,0.0,0.0,0,0,85.0,0.0,509.0,4541.538461538462,3895.3846153846157,4851.282051282052,4367.6923076923085,4186.666666666667,4497.948717948719,4434.871794871796,4366.153846153847,4308.717948717949,4625.128205128206,4281.025641025642,4124.102564102564,4125.641025641026,4347.6923076923085
1508.4604,0.3887173,0.4804303,0.33333334,0.5522388,0,0.0,0.0,0.0,0.83319634,0.0,0,0,0.0,0.0,0,0,32.0,0.0,0.0,4552.820512820514,3899.48717948718,4728.205128205129,4386.666666666667,4214.871794871796,4527.6923076923085,4462.051282051282,4364.102564102564,4324.102564102564,4623.076923076924,4256.410256410257,4173.333333333334,4137.948717948719,4228.205128205129
1508.7106,0.3887173,0.4804303,0.33333334,0.5522388,0,0.0,0.0,0.0,0.68755186,0.0,0,0,0.0,0.0,0,0,64.0,0.0,489.0,4586.153846153847,3936.410256410257,4623.589743589744,4423.589743589744,4232.307692307693,4538.974358974359,4471.794871794872,4386.666666666667,4354.871794871796,4668.205128205129,4304.615384615385,4195.8974358974365,4197.948717948719,4377.948717948719
1508.867,0.46680292,0.48987433,0.33333334,0.5522388,0,0.0,0.0,0.0,1.0,0.0,0,0,0.0,0.0,0,0,84.0,0.0,519.0,4587.179487179488,3940.0000000000005,4648.717948717949,4426.153846153847,4221.538461538462,4535.384615384616,4462.051282051282,4385.128205128206,4359.48717948718,4655.384615384616,4293.333333333334,4201.538461538462,4198.974358974359,4432.820512820514
1508.867,0.46680292,0.48987433,0.33333334,0.5522388,0,0.0,0.0,0.0,1.0,0.0,0,0,0.0,0.0,0,0,84.0,0.0,519.0,4587.179487179488,3940.0000000000005,4648.717948717949,4426.153846153847,4221.538461538462,4535.384615384616,4462.051282051282,4385.128205128206,4359.48717948718,4655.384615384616,4293.333333333334,4201.538461538462,4198.974358974359,4432.820512820514
1509.4613,0.4666252,0.4890778,0.33333334,0.5522388,0,0.0,0.0,0.0,0.3560469,0.0,0,0,0.0,0.0,0,0,31.0,0.0,0.0,4581.538461538462,3940.5128205128212,4599.48717948718,4444.615384615385,4241.025641025642,4554.871794871796,4494.358974358975,4457.435897435898,4395.8974358974365,4696.410256410257,4330.256410256411,4212.307692307693,4231.282051282052,4151.794871794872
1509.7114,0.4666252,0.4890778,0.33333334,0.5522388,0,0.0,0.0,0.0,0.09135832,0.0,0,0,0.0,0.0,0,0,63.0,0.0,0.0,4588.205128205129,3927.1794871794878,4620.512820512821,4431.282051282052,4238.461538461539,4550.769230769231,4492.307692307693,4442.051282051282,4381.025641025642,4694.358974358975,4332.307692307693,4218.461538461539,4234.871794871796,4153.333333333334
1509.9617,0.46871296,0.48970082,0.33333334,0.5522388,0,0.0,0.0,0.0,0.14754997,0.0,0,0,0.0,0.0,0,0,95.0,0.0,513.0,4605.641025641026,3944.1025641025644,4380.000000000001,4447.6923076923085,4264.615384615385,4557.435897435898,4488.717948717949,4446.153846153847,4394.871794871796,4716.410256410257,4351.794871794872,4241.025641025642,4242.051282051282,4203.076923076924
1510.2119,0.46871296,0.48970082,0.33333334,0.5522388,0,0.0,0.0,0.0,1.0,0.0,0,0,0.0,0.0,0,0,127.0,0.0,513.0,4589.743589743591,3923.589743589744,4453.846153846154,4408.717948717949,4262.051282051282,4561.025641025642,4503.589743589744,4434.871794871796,4383.589743589744,4700.512820512821,4323.589743589744,4217.435897435898,4208.205128205129,4289.74358974359
1510.4622,0.3288311,0.4905383,0.33333334,0.5522388,0,0.0,0.0,0.0,0.7534355,0.0,0,0,0.0,0.0,0,0,30.0,0.0,0.0,4577.948717948719,3913.333333333334,4580.000000000001,4410.256410256411,4252.307692307693,4548.717948717949,4483.589743589744,4412.820512820514,4373.846153846154,4691.794871794872,4313.333333333334,4196.410256410257,4205.128205128206,4378.974358974359
1510.7123,0.3288311,0.4905383,0.33333334,0.5522388,0,0.0,0.0,0.0,0.5440559,0.0,0,0,0.0,0.0,0,0,62.0,0.0,0.0,4575.384615384616,3906.666666666667,4728.717948717949,4390.769230769231,4246.153846153847,4552.307692307693,4475.8974358974365,4428.717948717949,4375.384615384616,4692.307692307693,4308.717948717949,4211.794871794872,4194.358974358975,4409.2307692307695
1510.9625,0.2757632,0.49090195,0.33333334,0.5522388,0,0.0,0.0,0.0,0.54751986,0.0,0,0,0.0,0.0,0,0,94.0,0.0,533.0,4576.923076923077,3908.205128205129,4772.307692307693,4389.2307692307695,4232.820512820514,4542.564102564103,4487.6923076923085,4422.564102564103,4367.179487179487,4680.000000000001,4312.820512820514,4190.769230769231,4199.48717948718,4403.589743589744
1511.2128,0.2757632,0.49090195,0.33333334,0.5522388,0,0.0,0.0,0.0,0.2884759,0.0,0,0,0.0,0.0,0,0,126.0,0.0,533.0,4595.384615384616,3925.1282051282055,4694.871794871796,4395.384615384616,4245.641025641026,4553.333333333334,4492.307692307693,4442.051282051282,4379.48717948718,4700.512820512821,4333.846153846154,4201.025641025642,4196.923076923077,4409.743589743591
1511.463,0.21479489,0.49165842,0.33333334,0.5522388,0,0.0,0.0,0.0,1.0,0.0,0,0,0.0,0.0,0,0,29.0,0.0,0.0,4595.384615384616,3945.6410256410263,4530.256410256411,4425.128205128206,4270.256410256411,4575.8974358974365,4492.307692307693,4460.512820512821,4415.384615384616,4737.948717948719,4369.743589743591,4237.435897435898,4221.025641025642,4551.282051282052
1511.7133,0.21479489,0.49165842,0.33333334,0.5522388,0,0.0,0.0,0.0,0.22688371,0.0,0,0,0.0,0.0,0,0,61.0,0.0,0.0,4609.743589743591,3926.1538461538466,4877.435897435898,4396.923076923077,4235.8974358974365,4547.6923076923085,4461.538461538462,4414.871794871796,4373.846153846154,4697.948717948719,4315.384615384616,4194.871794871796,4158.461538461539,4611.282051282052
1511.9634,0.16599782,0.48851988,0.33333334,0.5522388,0,0.0,0.0,0.0,0.46403706,0.0,0,0,0.0,0.0,0,0,93.0,0.0,509.0,4620.512820512821,3946.1538461538466,4598.461538461539,4416.923076923077,4250.256410256411,4557.948717948719,4476.410256410257,4428.205128205129,4381.538461538462,4712.820512820514,4341.538461538462,4208.717948717949,4197.948717948719,4705.128205128206
1512.2136,0.16599782,0.48851988,0.33333334,0.5522388,0,0.0,0.0,0.0,0.15193263,0.0,0,0,0.0,0.0,0,0,125.0,0.0,509.0,4603.076923076924,3925.1282051282055,4650.769230769231,4415.384615384616,4244.615384615385,4550.769230769231,4478.461538461539,4462.051282051282,4429.2307692307695,4752.820512820514,4379.48717948718,4266.153846153847,4245.641025641026,4720.000000000001
1512.4639,0.122284964,0.4891883,0.33333334,0.5522388,0,0.0,0.0,0.0,0.7779935,0.0,0,0,0.0,0.0,0,0,28.0,0.0,0.0,4612.820512820514,3914.8717948717954,4644.615384615385,4381.538461538462,4251.282051282052,4560.512820512821,4476.923076923077,4434.358974358975,4422.051282051282,4743.076923076924,4357.435897435898,4275.8974358974365,4248.717948717949,4616.923076923077
1512.7141,0.122284964,0.4891883,0.33333334,0.5522388,0,0.0,0.0,0.0,0.4072603,0.0,0,0,0.0,0.0,0,0,60.0,0.0,0.0,4608.205128205129,3911.2820512820517,4716.923076923077,4373.846153846154,4245.641025641026,4556.410256410257,4456.410256410257,4442.051282051282,4410.256410256411,4732.820512820514,4356.410256410257,4370.256410256411,4236.410256410257,4786.666666666667
1512.9642,0.120095044,0.487154,0.33333334,0.5522388,0,0.0,0.0,0.0,0.62027395,0.0,0,0,0.0,0.0,0,0,92.0,0.0,517.0,4594.871794871796,3924.615384615385,4775.8974358974365,4394.358974358975,4232.820512820514,4553.333333333334,4424.102564102564,4443.076923076924,4391.794871794872,4733.846153846154,4361.025641025642,4427.6923076923085,4254.871794871796,4923.076923076924
1513.2145,0.120095044,0.487154,0.33333334,0.5522388,0,0.0,0.0,0.0,0.28768185,0.0,0,0,0.0,0.0,0,0,124.0,0.0,517.0,4640.000000000001,3850.7692307692314,4742.051282051282,4387.179487179487,4247.179487179487,4566.666666666667,4472.820512820514,4487.179487179488,4388.205128205129,4751.282051282052,4400.512820512821,4424.102564102564,4238.461538461539,4954.871794871796
1513.4647,0.1650791,0.4916779,0.33333334,0.5522388,0,0.0,0.0,0.0,0.07126155,0.0,0,0,0.0,0.0,0,0,27.0,0.0,0.0,4632.820512820514,3828.205128205129,4716.410256410257,4388.205128205129,4258.461538461539,4572.307692307693,4461.025641025642,4462.564102564103,4357.948717948719,4755.384615384616,4399.48717948718,4441.025641025642,4195.8974358974365,4932.820512820514
1513.5898,0.1650791,0.4916779,0.33333334,0.5522388,0,0.0,0.0,0.0,0.12036757,0.0,0,0,0.0,0.0,0,0,43.0,0.0,0.0,4634.871794871796,3841.538461538462,4863.589743589744,4398.974358974359,4266.666666666667,4570.769230769231,4456.410256410257,4461.025641025642,4378.974358974359,4776.410256410257,4415.8974358974365,4474.358974358975,4185.641025641026,4953.333333333334
1513.8713,0.112776324,0.49917763,0.33333334,0.5522388,0,0.0,0.0,0.0,0.109543405,0.0,0,0,0.0,0.0,0,0,79.0,0.0,496.0,4645.641025641026,3830.7692307692314,4908.205128205129,4388.717948717949,4273.846153846154,4572.820512820514,4489.2307692307695,4466.666666666667,4357.948717948719,4747.6923076923085,4411.794871794872,4456.410256410257,4154.358974358975,4960.000000000001
1514.0902,0.112776324,0.49917763,0.33333334,0.5522388,0,0.0,0.0,0.0,0.40114614,0.0,0,0,0.0,0.0,0,0,107.0,0.0,496.0,4803.076923076924,3894.8717948717954,4756.410256410257,4426.666666666667,4296.410256410257,4587.179487179488,4507.179487179488,4456.923076923077,4382.051282051282,4748.205128205129,4414.358974358975,4452.820512820514,4219.48717948718,4954.358974358975
1514.3717,0.08649754,0.52220994,0.33333334,0.5522388,0,0.0,0.0,0.0,0.66639894,0.0,0,0,0.0,0.0,0,0,14.0,0.0,533.0,4781.538461538462,3922.0512820512827,4523.589743589744,4442.051282051282,4295.384615384616,4586.153846153847,4490.256410256411,4442.051282051282,4391.794871794872,4744.102564102564,4427.179487179487,4370.769230769231,4228.205128205129,4907.6923076923085
1514.5907,0.08649754,0.52220994,0.33333334,0.5522388,0,0.0,0.0,0.0,0.033230383,0.0,0,0,0.0,0.0,0,0,42.0,0.0,0.0,4795.8974358974365,3943.589743589744,4277.435897435898,4475.8974358974365,4312.307692307693,4601.025641025642,4507.6923076923085,4467.179487179487,4437.435897435898,4784.615384615386,4479.48717948718,4400.000000000001,4321.025641025642,4939.48717948718
1514.8722,0.04767683,0.54341847,0.33333334,0.5522388,0,0.0,0.0,0.0,0.0829233,0.0,0,0,0.0,0.0,0,0,78.0,0.0,533.0,4742.564102564103,3905.1282051282055,4417.948717948719,4450.256410256411,4285.128205128206,4580.000000000001,4524.102564102564,4484.102564102564,4447.6923076923085,4788.717948717949,4503.076923076924,4328.205128205129,4315.8974358974365,4947.6923076923085
1515.0911,0.04767683,0.54341847,0.33333334,0.5522388,0,0.0,0.0,0.0,0.070655726,0.0,0,0,0.0,0.0,0,0,106.0,0.0,533.0,4723.076923076924,3911.2820512820517,4503.076923076924,4446.666666666667,4270.769230769231,4564.615384615385,4499.48717948718,4455.8974358974365,4429.743589743591,4770.769230769231,4490.256410256411,4256.923076923077,4278.974358974359,4906.153846153847
1515.3726,0.15505362,0.5594816,0.33333334,0.5522388,0,0.0,0.0,0.0,0.13345572,0.0,0,0,0.0,0.0,0,0,13.0,0.0,508.0,4713.846153846154,3881.0256410256416,4752.820512820514,4421.025641025642,4239.48717948718,4536.410256410257,4476.410256410257,4439.48717948718,4396.410256410257,4730.769230769231,4443.589743589744,4215.384615384616,4227.179487179487,4905.641025641026
1515.5916,0.15505362,0.5594816,0.33333334,0.5522388,0,0.0,0.0,0.0,1.0,0.0,0,0,0.0,0.0,0,0,41.0,0.0,0.0,4716.410256410257,3910.2564102564106,4433.333333333334,4445.641025641026,4263.589743589744,4556.923076923077,4506.153846153847,4471.794871794872,4424.615384615385,4756.410256410257,4433.846153846154,4230.769230769231,4243.589743589744,3064.615384615385
1515.873,0.24975884,0.5630052,0.33333334,0.5522388,0,0.0,0.0,0.0,1.0,0.0,0,0,0.0,0.0,0,0,77.0,0.0,508.0,4686.153846153847,3894.358974358975,4749.743589743591,4409.743589743591,4203.589743589744,4492.820512820514,4434.358974358975,4387.179487179487,4345.641025641026,4683.589743589744,4342.564102564103,4155.384615384616,4120.512820512821,2513.3333333333335
1515.873,0.24975884,0.5630052,0.33333334,0.5522388,0,0.0,0.0,0.0,1.0,0.0,0,0,0.0,0.0,0,0,77.0,0.0,508.0,4686.153846153847,3894.358974358975,4749.743589743591,4409.743589743591,4203.589743589744,4492.820512820514,4434.358974358975,4387.179487179487,4345.641025641026,4683.589743589744,4342.564102564103,4155.384615384616,4120.512820512821,2513.3333333333335
1516.3734,0.42978778,0.5546026,0.33333334,0.5522388,0,0.0,0.0,0.0,1.0,0.0,0,0,0.0,0.0,0,0,12.0,0.0,516.0,4661.025641025642,3872.820512820513,4665.128205128206,4403.076923076924,4217.948717948719,4517.435897435898,4474.358974358975,4424.615384615385,4365.128205128206,4696.410256410257,4362.564102564103,4154.358974358975,4137.948717948719,2841.538461538462
1516.4673,0.42978778,0.5546026,0.33333334,0.5522388,0,0.0,0.0,0.0,1.0,0.0,0,0,0.0,0.0,0,0,24.0,0.0,0.0,4650.256410256411,3877.435897435898,4683.076923076924,4400.000000000001,4214.358974358975,4507.179487179488,4461.538461538462,4424.615384615385,4363.589743589744,4700.512820512821,4358.974358974359,4151.282051282052,4133.333333333334,2918.461538461539
1516.8739,0.37896964,0.5413807,0.33333334,0.5522388,0,0.0,0.0,0.0,1.0,0.0,0,0,0.0,0.0,0,0,76.0,0.0,516.0,4632.307692307693,3859.48717948718,4769.743589743591,4384.615384615385,4189.74358974359,4494.358974358975,4453.846153846154,4410.256410256411,4334.358974358975,4662.051282051282,4320.000000000001,4169.2307692307695,4133.333333333334,3284.615384615385
1516.8739,0.37896964,0.5413807,0.33333334,0.5522388,0,0.0,0.0,0.0,1.0,0.0,0,0,0.0,0.0,0,0,76.0,0.0,516.0,4632.307692307693,3859.48717948718,4769.743589743591,4384.615384615385,4189.74358974359,4494.358974358975,4453.846153846154,4410.256410256411,4334.358974358975,4662.051282051282,4320.000000000001,4169.2307692307695,4133.333333333334,3284.615384615385
1517.3743,0.45550606,0.53193647,0.33333334,0.5522388,0,0.0,0.0,0.0,1.0,0.0,0,0,0.0,0.0,0,0,11.0,0.0,513.0,4671.282051282052,3995.3846153846157,4189.2307692307695,4494.871794871796,4254.358974358975,4555.384615384616,4505.128205128206,4451.282051282052,4396.923076923077,4717.948717948719,4362.051282051282,4215.384615384616,4172.307692307693,3588.205128205129
1517.5933,0.45550606,0.53193647,0.33333334,0.5522388,0,0.0,0.0,0.0,0.7644561,0.0,0,0,0.0,0.0,0,0,39.0,0.0,0.0,4684.615384615386,3983.076923076924,4263.589743589744,4470.769230769231,4251.282051282052,4553.333333333334,4488.717948717949,4457.435897435898,4396.410256410257,4723.076923076924,4356.410256410257,4215.384615384616,4180.512820512821,3741.0256410256416
1517.8748,0.4043673,0.5248786,0.33333334,0.5522388,0,0.0,0.0,0.0,0.5921106,0.0,0,0,0.0,0.0,0,0,75.0,0.0,512.0,4653.846153846154,3953.8461538461543,4528.205128205129,4460.512820512821,4227.6923076923085,4533.333333333334,4492.820512820514,4429.2307692307695,4371.282051282052,4694.871794871796,4346.153846153847,4207.179487179487,4183.076923076924,3887.1794871794878
1518.1875,0.4043673,0.5248786,0.33333334,0.5522388,0,0.0,0.0,0.0,0.53344005,0.0,0,0,0.0,0.0,0,0,115.0,0.0,512.0,4645.128205128206,3957.435897435898,4398.461538461539,4460.000000000001,4229.74358974359,4522.564102564103,4492.820512820514,4437.435897435898,4393.846153846154,4716.410256410257,4344.615384615385,4200.000000000001,4188.717948717949,3943.589743589744
1518.3751,0.34630334,0.5193795,0.33333334,0.5522388,0,0.0,0.0,0.0,0.3520911,0.0,0,0,0.0,0.0,0,0,10.0,0.0,535.0,4611.794871794872,3931.2820512820517,4487.6923076923085,4438.461538461539,4213.333333333334,4511.794871794872,4475.8974358974365,4397.948717948719,4362.564102564103,4686.666666666667,4290.256410256411,4162.564102564103,4166.666666666667,4012.820512820513
1518.6254,0.34630334,0.5193795,0.33333334,0.5522388,1,0.0,0.0,0.0,1.0,0.0,0,0,0.0,0.0,0,0,42.0,0.0,0.0,4617.948717948719,3933.8461538461543,4441.538461538462,4446.153846153847,4217.435897435898,4519.48717948718,4475.8974358974365,4420.512820512821,4367.6923076923085,4684.102564102564,4309.2307692307695,4174.871794871796,4184.102564102564,4137.435897435898
1518.8756,0.2712706,0.521165,0.33333334,0.5522388,0,0.0,0.0,0.0,1.0,0.0,0,0,0.0,0.0,0,0,74.0,0.0,535.0,4603.589743589744,3925.1282051282055,4586.666666666667,4427.6923076923085,4234.358974358975,4529.743589743591,4490.256410256411,4445.128205128206,4388.717948717949,4706.666666666667,4307.6923076923085,4191.282051282052,4184.615384615385,4208.205128205129
1519.0945,0.2712706,0.521165,0.33333334,0.5522388,0,0.0,0.0,0.0,0.29175958,0.0,0,0,0.0,0.0,0,0,102.0,0.0,535.0,4622.051282051282,3945.6410256410263,4626.666666666667,4455.384615384616,4246.666666666667,4539.48717948718,4476.923076923077,4426.666666666667,4384.615384615385,4705.641025641026,4303.076923076924,4204.102564102564,4186.153846153847,4138.974358974359
1519.376,0.25566354,0.52323157,0.33333334,0.5522388,0,0.0,0.0,0.0,0.23430197,0.0,0,0,0.0,0.0,0,0,9.0,0.0,478.0,4607.6923076923085,3943.589743589744,4661.538461538462,4449.2307692307695,4250.256410256411,4556.923076923077,4499.48717948718,4429.743589743591,4398.974358974359,4715.8974358974365,4325.128205128206,4194.358974358975,4220.000000000001,4271.282051282052
1519.595,0.25566354,0.52323157,0.33333334,0.5522388,0,0.0,0.0,0.0,1.0,0.0,0,0,0.0,0.0,0,0,37.0,0.0,0.0,4599.48717948718,3927.692307692308,4685.128205128206,4441.025641025642,4236.410256410257,4549.2307692307695,4491.794871794872,4428.205128205129,4396.410256410257,4702.051282051282,4301.538461538462,4185.641025641026,4196.410256410257,4284.615384615385
1519.8765,0.24954484,0.5223339,0.33333334,0.5522388,0,0.0,0.0,0.0,0.31379235,0.0,0,0,0.0,0.0,0,0,73.0,0.0,478.0,4598.974358974359,3944.1025641025644,4528.717948717949,4453.333333333334,4250.256410256411,4556.923076923077,4477.948717948719,4411.794871794872,4370.256410256411,4690.769230769231,4309.743589743591,4205.128205128206,4218.974358974359,4337.435897435898
1520.0955,0.24954484,0.5223339,0.33333334,0.5522388,0,0.0,0.0,0.0,0.35669255,0.0,0,0,0.0,0.0,0,0,101.0,0.0,510.0,4583.589743589744,3930.2564102564106,4659.48717948718,4443.589743589744,4240.000000000001,4546.153846153847,4493.846153846154,4429.743589743591,4368.717948717949,4690.769230769231,4308.205128205129,4182.051282051282,4210.769230769231,4373.846153846154
1520.377,0.22777392,0.52511936,0.33333334,0.5522388,0,0.0,0.0,0.0,0.067593664,0.0,0,0,0.0,0.0,0,0,8.0,0.0,475.0,4595.384615384616,3945.1282051282055,4597.435897435898,4448.205128205129,4230.769230769231,4534.358974358975,4477.435897435898,4433.846153846154,4376.923076923077,4702.564102564103,4317.948717948719,4207.6923076923085,4223.589743589744,4404.615384615385
1520.5958,0.22777392,0.52511936,0.33333334,0.5522388,0,0.0,0.0,0.0,0.29482055,0.0,0,0,0.0,0.0,0,0,36.0,0.0,0.0,4565.641025641026,3933.8461538461543,4569.743589743591,4416.410256410257,4229.74358974359,4523.076923076924,4455.8974358974365,4410.256410256411,4365.128205128206,4683.076923076924,4289.2307692307695,4217.948717948719,4207.179487179487,4326.153846153847
1520.8773,0.16503692,0.52788854,0.33333334,0.5522388,0,0.0,0.0,0.0,0.6397489,0.0,0,0,0.0,0.0,0,0,72.0,0.0,475.0,4568.205128205129,3957.9487179487182,4573.333333333334,4440.000000000001,4227.179487179487,4535.384615384616,4457.948717948719,4411.282051282052,4369.2307692307695,4689.2307692307695,4314.871794871796,4260.512820512821,4246.153846153847,4425.128205128206
1521.0963,0.16503692,0.52788854,0.33333334,0.5522388,0,0.0,0.0,0.0,0.40532762,0.0,0,0,0.0,0.0,0,0,100.0,0.0,516.0,4567.179487179488,3971.7948717948725,4611.794871794872,4451.282051282052,4230.769230769231,4536.923076923077,4460.000000000001,4445.641025641026,4390.256410256411,4698.461538461539,4310.256410256411,4286.153846153847,4244.102564102564,4455.8974358974365
1521.3778,0.1700684,0.52820754,0.33333334,0.5522388,0,0.0,0.0,0.0,0.102763385,0.0,0,0,0.0,0.0,0,0,7.0,0.0,474.0,4596.923076923077,3983.589743589744,4565.641025641026,4455.384615384616,4233.846153846154,4539.48717948718,4457.948717948719,4424.102564102564,4365.128205128206,4680.000000000001,4321.538461538462,4291.794871794872,4231.282051282052,4480.000000000001
1521.5967,0.1700684,0.52820754,0.33333334,0.5522388,0,0.0,0.0,0.0,0.04318027,0.0,0,0,0.0,0.0,0,0,35.0,0.0,0.0,4601.025641025642,3981.538461538462,4360.000000000001,4478.461538461539,4252.820512820514,4553.846153846154,4474.871794871796,4416.923076923077,4371.282051282052,4702.564102564103,4346.153846153847,4287.179487179487,4265.128205128206,4490.769230769231
1521.8782,0.12192114,0.5193111,0.33333334,0.5522388,0,0.0,0.0,0.0,0.018869696,0.0,0,0,0.0,0.0,0,0,71.0,0.0,474.0,4569.743589743591,3971.2820512820517,4318.461538461539,4452.820512820514,4235.384615384616,4524.102564102564,4474.358974358975,4380.000000000001,4330.256410256411,4662.564102564103,4314.871794871796,4245.641025641026,4201.025641025642,4360.512820512821
1522.0972,0.12192114,0.5193111,0.33333334,0.5522388,0,0.0,0.0,0.0,1.0,0.0,0,0,0.0,0.0,0,0,99.0,0.0,512.0,4598.974358974359,4013.8461538461543,4469.743589743591,4483.589743589744,4248.205128205129,4540.512820512821,4480.000000000001,4415.384615384616,4360.000000000001,4689.743589743591,4352.820512820514,4262.051282051282,4216.923076923077,4372.820512820514
1522.3787,0.120743826,0.5173051,0.33333334,0.5522388,0,0.0,0.0,0.0,0.54911375,0.0,0,0,0.0,0.0,0,0,6.0,0.0,535.0,4597.948717948719,3958.9743589743593,4771.794871794872,4425.128205128206,4228.717948717949,4526.153846153847,4470.256410256411,4355.384615384616,4323.589743589744,4649.2307692307695,4301.538461538462,4205.641025641026,4178.461538461539,4410.256410256411
1522.5975,0.120743826,0.5173051,0.33333334,0.5522388,0,0.0,0.0,0.0,0.1636186,0.0,0,0,0.0,0.0,0,0,34.0,0.0,0.0,4578.461538461539,3931.7948717948725,4672.820512820514,4428.205128205129,4238.974358974359,4533.333333333334,4475.8974358974365,4395.384615384616,4378.974358974359,4677.435897435898,4310.769230769231,4184.615384615385,4171.794871794872,4311.282051282052
1522.879,0.14176533,0.5216079,0.33333334,0.5522388,0,0.0,0.0,0.0,0.245327,0.0,0,0,0.0,0.0,0,0,70.0,0.0,535.0,4605.641025641026,3969.7435897435903,4452.307692307693,4472.307692307693,4251.794871794872,4538.974358974359,4476.923076923077,4406.666666666667,4385.641025641026,4691.282051282052,4326.666666666667,4213.333333333334,4177.948717948719,4386.153846153847
1523.098,0.14176533,0.5216079,0.33333334,0.5522388,0,0.0,0.0,0.0,0.43495488,0.0,0,0,0.0,0.0,0,0,98.0,0.0,535.0,4597.948717948719,3960.5128205128212,4475.8974358974365,4449.2307692307695,4255.8974358974365,4548.205128205129,4493.333333333334,4419.48717948718,4398.461538461539,4698.461538461539,4329.2307692307695,4187.179487179487,4169.74358974359,4381.538461538462
1523.3795,0.096709624,0.5245306,0.33333334,0.5522388,0,0.0,0.0,0.0,0.093825586,0.0,0,0,0.0,0.0,0,0,5.0,0.0,558.0,4586.153846153847,3960.5128205128212,4723.076923076924,4445.641025641026,4243.076923076924,4540.000000000001,4465.641025641026,4412.820512820514,4383.076923076924,4691.794871794872,4328.205128205129,4206.153846153847,4166.153846153847,4425.641025641026
1523.5984,0.096709624,0.5245306,0.33333334,0.5522388,0,0.0,0.0,0.0,0.2247687,0.0,0,0,0.0,0.0,0,0,33.0,0.0,0.0,4604.615384615385,3992.307692307693,4574.358974358975,4464.615384615385,4249.2307692307695,4543.589743589744,4476.410256410257,4431.794871794872,4402.564102564103,4720.000000000001,4356.923076923077,4245.128205128206,4203.076923076924,4489.2307692307695
1523.8799,0.15883854,0.5297186,0.33333334,0.5522388,0,0.0,0.0,0.0,0.47237998,0.0,0,0,0.0,0.0,0,0,69.0,0.0,558.0,4625.641025641026,4006.1538461538466,4436.923076923077,4495.8974358974365,4261.025641025642,4554.358974358975,4490.256410256411,4437.948717948719,4414.358974358975,4734.871794871796,4363.589743589744,4244.102564102564,4226.666666666667,4565.128205128206
1524.0989,0.15883854,0.5297186,0.33333334,0.5522388,0,0.0,0.0,0.0,0.24995875,0.0,0,0,0.0,0.0,0,0,97.0,0.0,510.0,4640.000000000001,4026.1538461538466,4601.025641025642,4502.564102564103,4277.948717948719,4582.564102564103,4513.333333333334,4478.974358974359,4444.615384615385,4763.076923076924,4380.000000000001,4276.923076923077,4244.102564102564,4643.076923076924
1524.3804,0.2835308,0.5340862,0.33333334,0.5522388,0,0.0,0.0,0.0,0.08620653,0.0,0,0,0.0,0.0,0,0,4.0,0.0,562.0,4634.871794871796,4021.0256410256416,4401.538461538462,4512.307692307693,4275.384615384616,4572.307692307693,4507.6923076923085,4492.820512820514,4460.000000000001,4768.205128205129,4391.794871794872,4263.589743589744,4242.051282051282,4657.948717948719
1524.5992,0.2835308,0.5340862,0.33333334,0.5522388,0,0.0,0.0,0.0,0.10916056,0.0,0,0,0.0,0.0,0,0,32.0,0.0,0.0,4649.743589743591,4008.205128205129,4325.641025641026,4517.435897435898,4272.820512820514,4572.820512820514,4525.641025641026,4489.743589743591,4444.615384615385,4766.153846153847,4390.769230769231,4272.820512820514,4250.769230769231,4671.282051282052
1524.8807,0.36709937,0.5305114,0.33333334,0.5522388,0,0.0,0.0,0.0,0.09509848,0.0,0,0,0.0,0.0,0,0,68.0,0.0,562.0,4657.948717948719,4001.538461538462,4408.717948717949,4503.076923076924,4262.051282051282,4572.307692307693,4510.256410256411,4478.974358974359,4437.435897435898,4772.307692307693,4395.8974358974365,4283.076923076924,4264.102564102564,4660.000000000001
1525.0997,0.36709937,0.5305114,0.33333334,0.5522388,0,0.0,0.0,0.0,0.08897447,0.0,0,0,0.0,0.0,0,0,96.0,0.0,516.0,4648.205128205129,3992.307692307693,4378.974358974359,4490.256410256411,4261.025641025642,4561.025641025642,4495.384615384616,4460.000000000001,4445.128205128206,4767.6923076923085,4387.179487179487,4285.128205128206,4267.179487179487,4703.076923076924
1525.3812,0.4053703,0.5259683,0.33333334,0.5522388,0,0.0,0.0,0.0,0.21085072,0.0,0,0,0.0,0.0,0,0,3.0,0.0,545.0,4634.871794871796,3956.410256410257,4551.282051282052,4478.461538461539,4242.051282051282,4545.641025641026,4503.076923076924,4443.076923076924,4411.282051282052,4742.051282051282,4367.6923076923085,4279.48717948718,4250.769230769231,4674.871794871796
1525.6001,0.4053703,0.5259683,0.33333334,0.5522388,0,0.0,0.0,0.0,0.12667146,0.0,0,0,0.0,0.0,0,0,31.0,0.0,0.0,4641.538461538462,3976.410256410257,4480.512820512821,4498.461538461539,4260.000000000001,4557.435897435898,4509.743589743591,4477.948717948719,4433.333333333334,4764.102564102564,4367.179487179487,4283.589743589744,4261.025641025642,4666.666666666667
1525.8816,0.3561248,0.51935005,0.33333334,0.5522388,0,0.0,0.0,0.0,0.07695974,0.0,0,0,0.0,0.0,0,0,67.0,0.0,545.0,4628.717948717949,3955.8974358974365,4499.48717948718,4474.871794871796,4240.000000000001,4538.974358974359,4476.410256410257,4445.641025641026,4408.717948717949,4751.282051282052,4362.051282051282,4280.512820512821,4232.820512820514,4674.871794871796
1526.1006,0.3561248,0.51935005,0.33333334,0.5522388,0,0.0,0.0,0.0,0.060074653,0.0,0,0,0.0,0.0,0,0,95.0,0.0,501.0,4659.48717948718,3947.1794871794878,4481.025641025642,4479.48717948718,4231.282051282052,4529.743589743591,4477.948717948719,4414.358974358975,4381.025641025642,4714.358974358975,4357.435897435898,4276.410256410257,4217.435897435898,4676.410256410257
1526.3821,0.36215168,0.5106449,0.33333334,0.5522388,0,0.0,0.0,0.0,0.0,0.0,0,0,0.0,0.0,0,0,2.0,0.0,339.0,4629.743589743591,3907.1794871794878,4464.615384615385,4447.6923076923085,4223.076923076924,4521.538461538462,4440.000000000001,4399.48717948718,4374.358974358975,4705.128205128206,4328.717948717949,4224.615384615385,4187.6923076923085,4592.307692307693
1526.3821,0.36215168,0.5106449,0.33333334,0.5522388,0,0.0,0.0,0.0,0.0,0.0,0,0,0.0,0.0,0,0,2.0,0.0,339.0,4629.743589743591,3907.1794871794878,4464.615384615385,4447.6923076923085,4223.076923076924,4521.538461538462,4440.000000000001,4399.48717948718,4374.358974358975,4705.128205128206,4328.717948717949,4224.615384615385,4187.6923076923085,4592.307692307693
1526.8824,0.31430727,0.50429034,0.33333334,0.5522388,0,0.0,0.0,0.0,0.1429807,0.0,0,0,0.0,0.0,0,0,66.0,0.0,339.0,4624.102564102564,3900.5128205128212,4509.743589743591,4425.641025641026,4259.48717948718,4544.615384615385,4466.153846153847,4435.384615384616,4376.923076923077,4705.128205128206,4336.410256410257,4232.820512820514,4186.153846153847,4544.615384615385
1527.1014,0.31430727,0.50429034,0.33333334,0.5522388,0,0.0,0.0,0.0,0.09586502,0.0,0,0,0.0,0.0,0,0,94.0,0.0,535.0,4610.769230769231,3914.358974358975,4432.820512820514,4427.6923076923085,4272.820512820514,4563.589743589744,4491.794871794872,4445.641025641026,4394.358974358975,4717.948717948719,4351.794871794872,4216.923076923077,4196.410256410257,4538.974358974359
1527.3517,0.27093887,0.50006914,0.33333334,0.5522388,0,0.0,0.0,0.0,0.10572595,0.0,0,0,0.0,0.0,0,0,126.0,0.0,535.0,4588.717948717949,3908.205128205129,4529.743589743591,4424.615384615385,4254.871794871796,4541.025641025642,4451.794871794872,4408.205128205129,4362.564102564103,4689.743589743591,4345.128205128206,4201.538461538462,4173.846153846154,4503.589743589744
1527.6018,0.27093887,0.50006914,0.33333334,0.5522388,0,0.0,0.0,0.0,0.047528043,0.0,0,0,0.0,0.0,0,0,29.0,0.0,0.0,4626.153846153847,3944.615384615385,4493.333333333334,4458.974358974359,4252.307692307693,4541.025641025642,4467.6923076923085,4428.717948717949,4400.512820512821,4719.48717948718,4367.6923076923085,4267.6923076923085,4222.051282051282,4547.179487179488
1527.852,0.22486874,0.49943107,0.33333334,0.5522388,0,0.0,0.0,0.0,0.19415924,0.0,0,0,0.0,0.0,0,0,61.0,0.0,0.0,4596.410256410257,3929.2307692307695,4495.384615384616,4427.179487179487,4230.769230769231,4524.615384615385,4458.974358974359,4407.179487179487,4384.615384615385,4700.512820512821,4343.076923076924,4243.076923076924,4201.538461538462,4473.846153846154
1528.1023,0.22486874,0.49943107,0.33333334,0.5522388,0,0.0,0.0,0.0,0.17075337,0.0,0,0,0.0,0.0,0,0,93.0,0.0,510.0,4590.769230769231,3923.076923076924,4451.282051282052,4406.666666666667,4229.2307692307695,4534.358974358975,4443.589743589744,4397.435897435898,4364.102564102564,4689.2307692307695,4346.666666666667,4273.846153846154,4182.564102564103,4472.820512820514
1528.3838,0.20613872,0.49568862,0.33333334,0.5522388,0,0.0,0.0,0.0,0.31703424,0.0,0,0,0.0,0.0,0,0,0.0,0.0,502.0,4589.2307692307695,3933.8461538461543,4504.615384615385,4431.794871794872,4281.025641025642,4572.820512820514,4444.102564102564,4412.307692307693,4368.717948717949,4698.461538461539,4348.717948717949,4281.025641025642,4186.153846153847,4474.358974358975
1528.6027,0.20613872,0.49568862,0.33333334,0.5522388,0,0.0,0.0,0.0,1.0,0.0,0,0,0.0,0.0,0,0,28.0,0.0,0.0,4585.641025641026,3928.717948717949,4492.820512820514,4425.128205128206,4288.205128205129,4581.538461538462,4456.923076923077,4416.410256410257,4358.974358974359,4697.948717948719,4349.2307692307695,4278.974358974359,4198.974358974359,4556.410256410257
1528.8529,0.1884542,0.4918894,0.33333334,0.5522388,0,0.0,0.0,0.0,0.39063174,0.0,0,0,0.0,0.0,0,0,60.0,0.0,0.0,4595.384615384616,3955.8974358974365,4371.794871794872,4451.794871794872,4309.2307692307695,4601.025641025642,4470.769230769231,4439.48717948718,4377.435897435898,4720.000000000001,4380.512820512821,4285.128205128206,4210.256410256411,4522.051282051282
1529.1031,0.1884542,0.4918894,0.33333334,0.5522388,0,0.0,0.0,0.0,0.10363966,0.0,0,0,0.0,0.0,0,1,92.0,0.0,516.0,4636.410256410257,3976.410256410257,4111.794871794872,4494.871794871796,4320.000000000001,4615.384615384616,4495.8974358974365,4484.102564102564,4421.538461538462,4760.000000000001,4412.820512820514,4297.435897435898,4234.871794871796,4545.128205128206
1529.3846,0.21411,0.49076217,0.33333334,0.5522388,0,0.0,0.0,0.0,0.04769962,0.0,0,0,0.0,0.0,0,0,128.0,0.0,516.0,4591.794871794872,3941.0256410256416,4590.256410256411,4443.589743589744,4273.333333333334,4576.410256410257,4459.48717948718,4430.256410256411,4353.846153846154,4700.512820512821,4349.2307692307695,4223.589743589744,4173.333333333334,4554.358974358975
1529.6035,0.21411,0.49076217,0.33333334,0.5522388,0,0.0,0.0,0.0,0.06357706,0.0,0,0,0.0,0.0,0,0,27.0,0.0,0.0,4622.564102564103,3977.9487179487182,4358.974358974359,4482.564102564103,4294.871794871796,4596.923076923077,4480.000000000001,4461.538461538462,4372.820512820514,4723.076923076924,4385.128205128206,4222.564102564103,4205.128205128206,4581.538461538462
1529.885,0.18073232,0.4893142,0.33333334,0.5522388,1,0.0,0.0,0.0,0.25295943,0.0,0,0,0.0,0.0,0,0,63.0,0.0,0.0,4592.307692307693,3944.1025641025644,4762.051282051282,4450.256410256411,4240.512820512821,4542.051282051282,4412.307692307693,4419.48717948718,4343.076923076924,4695.8974358974365,4340.000000000001,4189.74358974359,4169.74358974359,4552.307692307693
1530.104,0.18073232,0.4893142,0.33333334,0.5522388,0,0.0,0.0,0.0,0.1424409,0.0,0,0,0.0,0.0,0,0,91.0,0.0,502.0,4588.717948717949,3925.1282051282055,4848.205128205129,4420.000000000001,4230.256410256411,4537.435897435898,4423.589743589744,4412.307692307693,4329.2307692307695,4675.384615384616,4315.8974358974365,4204.615384615385,4169.74358974359,4465.128205128206
1530.3855,0.17625394,0.48949713,0.33333334,0.5522388,0,0.0,0.0,0.0,0.5950422,0.0,0,0,0.0,0.0,0,0,127.0,0.0,502.0,4590.769230769231,3940.5128205128212,4746.666666666667,4420.000000000001,4231.794871794872,4536.410256410257,4421.025641025642,4410.769230769231,4348.717948717949,4692.307692307693,4315.384615384616,4288.205128205129,4198.461538461539,4550.256410256411
1530.6045,0.17625394,0.48949713,0.33333334,0.5522388,0,0.0,0.0,0.0,0.12606569,0.0,0,0,0.0,0.0,0,0,26.0,0.0,0.0,4607.6923076923085,3955.3846153846157,4631.794871794872,4440.512820512821,4245.641025641026,4554.871794871796,4428.205128205129,4419.48717948718,4364.102564102564,4697.948717948719,4344.615384615385,4361.538461538462,4226.666666666667,4571.794871794872
1530.8859,0.15885967,0.49614704,0.33333334,0.5522388,0,0.0,0.0,0.0,0.17437299,0.0,0,0,0.0,0.0,0,0,62.0,0.0,0.0,4631.282051282052,3978.461538461539,4524.102564102564,4469.743589743591,4294.358974358975,4590.769230769231,4464.615384615385,4464.615384615385,4371.794871794872,4722.564102564103,4371.794871794872,4413.846153846154,4266.666666666667,4589.2307692307695
1531.1049,0.15885967,0.49614704,0.33333334,0.5522388,0,0.0,0.0,0.0,0.2007443,0.0,0,0,0.0,0.0,0,0,90.0,0.0,535.0,4640.512820512821,3985.6410256410263,4499.48717948718,4435.8974358974365,4287.6923076923085,4586.666666666667,4456.410256410257,4485.128205128206,4378.461538461539,4742.564102564103,4393.333333333334,4445.641025641026,4281.538461538462,4635.8974358974365
1531.3864,0.19007133,0.5013092,0.33333334,0.5522388,0,0.0,0.0,0.0,0.10515105,0.0,0,0,0.0,0.0,0,0,126.0,0.0,535.0,4648.717948717949,4018.461538461539,4295.8974358974365,4464.102564102564,4304.615384615385,4602.564102564103,4490.256410256411,4496.923076923077,4392.307692307693,4776.923076923077,4429.743589743591,4483.076923076924,4292.307692307693,4667.6923076923085
1531.6053,0.19007133,0.5013092,0.33333334,0.5522388,0,0.0,0.0,0.0,0.27410063,0.0,0,0,0.0,0.0,0,0,25.0,0.0,0.0,4682.564102564103,4009.7435897435903,4421.025641025642,4467.6923076923085,4276.923076923077,4579.48717948718,4489.743589743591,4475.384615384616,4375.384615384616,4754.871794871796,4442.564102564103,4474.358974358975,4280.000000000001,4718.974358974359
1531.8868,0.17223659,0.5050235,0.33333334,0.5522388,0,0.0,0.0,0.0,0.08003448,0.0,0,0,0.0,0.0,0,0,61.0,0.0,0.0,4653.333333333334,3985.6410256410263,4738.461538461539,4457.435897435898,4254.358974358975,4557.948717948719,4474.871794871796,4465.128205128206,4329.743589743591,4726.153846153847,4409.2307692307695,4383.076923076924,4212.307692307693,4687.6923076923085
1532.1057,0.17223659,0.5050235,0.33333334,0.5522388,0,0.0,0.0,0.0,0.032602746,0.0,0,0,0.0,0.0,0,0,89.0,0.0,508.0,4654.871794871796,3993.333333333334,4623.589743589744,4501.538461538462,4233.333333333334,4524.615384615385,4461.538461538462,4464.102564102564,4312.820512820514,4718.461538461539,4394.871794871796,4357.435897435898,4196.923076923077,4671.282051282052
1532.3872,0.19984575,0.51261586,0.33333334,0.5522388,0,0.0,0.0,0.0,0.031190371,0.0,0,0,0.0,0.0,0,0,125.0,0.0,508.0,4654.871794871796,3987.1794871794878,4777.435897435898,4489.743589743591,4246.666666666667,4538.974358974359,4471.794871794872,4448.205128205129,4342.051282051282,4720.512820512821,4386.153846153847,4357.948717948719,4215.384615384616,4700.000000000001
1532.6062,0.19984575,0.51261586,0.33333334,0.5522388,0,0.0,0.0,0.0,0.049508646,0.0,0,0,0.0,0.0,0,0,24.0,0.0,0.0,4663.589743589744,3999.48717948718,4356.410256410257,4472.307692307693,4263.589743589744,4570.769230769231,4508.717948717949,4481.025641025642,4365.128205128206,4746.666666666667,4417.435897435898,4430.256410256411,4253.333333333334,4727.6923076923085
1532.8877,0.21296257,0.5179104,0.33333334,0.5522388,0,0.0,0.0,0.0,0.05913167,0.0,0,0,0.0,0.0,0,0,60.0,0.0,0.0,4626.153846153847,3963.589743589744,4710.769230769231,4432.307692307693,4211.794871794872,4520.512820512821,4443.076923076924,4405.128205128206,4337.435897435898,4696.410256410257,4386.666666666667,4382.051282051282,4200.512820512821,4680.000000000001
1533.1066,0.21296257,0.5179104,0.33333334,0.5522388,0,0.0,0.0,0.0,0.04086232,0.0,0,0,0.0,0.0,0,0,88.0,0.0,516.0,4644.615384615385,3949.2307692307695,4811.794871794872,4423.076923076924,4217.435897435898,4523.589743589744,4444.102564102564,4438.461538461539,4335.8974358974365,4703.076923076924,4382.051282051282,4391.794871794872,4216.923076923077,4683.076923076924
1533.3881,0.2213178,0.5264039,0.33333334,0.5522388,0,0.0,0.0,0.0,0.025668854,0.0,0,0,0.0,0.0,0,0,124.0,0.0,516.0,4705.128205128206,4044.615384615385,3973.8461538461543,4543.589743589744,4298.974358974359,4602.564102564103,4543.589743589744,4520.000000000001,4416.923076923077,4804.102564102564,4480.000000000001,4427.6923076923085,4323.076923076924,4741.025641025642
1533.607,0.2213178,0.5264039,0.33333334,0.5522388,0,0.0,0.0,0.0,0.050086297,0.0,0,0,0.0,0.0,0,0,23.0,0.0,0.0,4609.2307692307695,3951.7948717948725,4674.871794871796,4434.358974358975,4204.615384615385,4520.000000000001,4457.435897435898,4429.2307692307695,4341.538461538462,4715.384615384616,4403.076923076924,4302.564102564103,4221.025641025642,4647.6923076923085
1533.9198,0.23424654,0.53812855,0.33333334,0.5522388,1,0.0,0.0,0.0,0.05432064,0.0,0,0,0.0,0.0,0,0,63.0,0.0,0.0,4651.282051282052,3985.1282051282055,4285.128205128206,4487.179487179488,4250.256410256411,4562.564102564103,4490.769230769231,4466.666666666667,4385.128205128206,4750.256410256411,4415.384615384616,4305.128205128206,4233.846153846154,4663.589743589744
1534.1074,0.23424654,0.53812855,0.33333334,0.5522388,0,0.0,0.0,0.0,0.055152435,0.0,0,0,0.0,0.0,0,0,87.0,0.0,501.0,4631.282051282052,3936.9230769230776,4755.384615384616,4441.538461538462,4212.307692307693,4533.846153846154,4458.974358974359,4423.589743589744,4339.48717948718,4700.512820512821,4358.461538461539,4216.923076923077,4176.410256410257,4604.615384615385
1534.3889,0.249787,0.55395347,0.33333334,0.5522388,0,0.0,0.0,0.0,0.09502641,0.0,0,0,0.0,0.0,0,0,123.0,0.0,501.0,4634.871794871796,3950.7692307692314,4643.589743589744,4452.307692307693,4210.256410256411,4522.564102564103,4446.666666666667,4412.307692307693,4336.923076923077,4683.076923076924,4334.358974358975,4173.846153846154,4170.769230769231,4589.2307692307695
1534.6079,0.249787,0.55395347,0.33333334,0.5522388,0,0.0,0.0,0.0,0.07412696,0.0,0,0,0.0,0.0,0,0,22.0,0.0,0.0,4626.153846153847,3923.589743589744,4701.025641025642,4428.205128205129,4197.948717948719,4507.6923076923085,4427.6923076923085,4390.256410256411,4322.564102564103,4673.333333333334,4318.974358974359,4154.871794871796,4154.358974358975,4558.974358974359
1534.8894,0.2709592,0.56694007,0.33333334,0.5522388,0,0.0,0.0,0.0,0.080073304,0.0,0,0,0.0,0.0,0,0,58.0,0.0,0.0,4627.179487179488,3945.6410256410263,4625.641025641026,4458.974358974359,4217.948717948719,4536.410256410257,4442.051282051282,4409.2307692307695,4358.974358974359,4711.794871794872,4350.256410256411,4177.948717948719,4170.256410256411,4605.641025641026
1535.1083,0.2709592,0.56694007,0.33333334,0.5522388,0,0.0,0.0,0.0,0.1002577,0.0,0,0,0.0,0.0,0,0,86.0,0.0,535.0,4605.641025641026,3942.0512820512827,4604.615384615385,4442.564102564103,4213.846153846154,4523.076923076924,4446.153846153847,4395.8974358974365,4334.871794871796,4668.717948717949,4309.2307692307695,4143.076923076924,4137.435897435898,4580.512820512821
1535.3898,0.2669893,0.57445806,0.33333334,0.5522388,0,0.0,0.0,0.0,0.059601795,0.0,0,0,0.0,0.0,0,0,122.0,0.0,535.0,4580.512820512821,3887.1794871794878,4568.717948717949,4398.974358974359,4183.589743589744,4490.256410256411,4427.179487179487,4369.743589743591,4332.307692307693,4630.769230769231,4277.435897435898,4154.871794871796,4116.410256410257,4562.564102564103
1535.6088,0.2669893,0.57445806,0.33333334,0.5522388,0,0.0,0.0,0.0,0.07365904,0.0,0,0,0.0,0.0,0,0,21.0,0.0,0.0,4607.179487179488,3915.8974358974365,4588.717948717949,4424.102564102564,4201.025641025642,4504.102564102564,4423.076923076924,4362.051282051282,4330.256410256411,4662.051282051282,4311.794871794872,4200.000000000001,4168.717948717949,4586.666666666667
1535.8903,0.24063985,0.5728079,0.33333334,0.5522388,0,0.0,0.0,0.0,0.13345544,0.0,0,0,0.0,0.0,0,0,57.0,0.0,0.0,4603.076923076924,3933.8461538461543,4533.333333333334,4432.820512820514,4219.48717948718,4523.589743589744,4444.102564102564,4404.615384615385,4374.871794871796,4698.974358974359,4350.256410256411,4278.461538461539,4214.871794871796,4621.025641025642
1536.1091,0.24063985,0.5728079,0.33333334,0.5522388,0,0.0,0.0,0.0,0.242041,0.0,0,0,0.0,0.0,0,0,85.0,0.0,508.0,4613.846153846154,3944.1025641025644,4513.846153846154,4442.564102564103,4218.461538461539,4524.615384615385,4435.8974358974365,4398.974358974359,4373.846153846154,4688.205128205129,4362.051282051282,4289.74358974359,4214.358974358975,4600.000000000001
1536.3906,0.23558646,0.5705778,0.33333334,0.5522388,0,0.0,0.0,0.0,0.09008337,0.0,0,0,0.0,0.0,0,0,121.0,0.0,508.0,4620.512820512821,3951.7948717948725,4321.538461538462,4468.205128205129,4249.74358974359,4551.282051282052,4477.435897435898,4431.794871794872,4396.923076923077,4733.846153846154,4390.769230769231,4311.282051282052,4232.307692307693,4666.666666666667
1536.6096,0.23558646,0.5705778,0.33333334,0.5522388,0,0.0,0.0,0.0,0.05076029,0.0,0,0,0.0,0.0,0,0,20.0,0.0,0.0,4600.512820512821,3939.48717948718,4346.153846153847,4476.923076923077,4250.769230769231,4556.410256410257,4493.846153846154,4447.6923076923085,4388.205128205129,4721.025641025642,4365.128205128206,4295.8974358974365,4200.512820512821,4660.000000000001
1536.8911,0.19350207,0.5697294,0.33333334,0.5522388,0,0.0,0.0,0.0,0.042966023,0.0,0,0,0.0,0.0,0,0,56.0,0.0,0.0,4591.282051282052,3910.2564102564106,4526.153846153847,4457.435897435898,4231.282051282052,4539.48717948718,4445.128205128206,4419.48717948718,4373.333333333334,4694.358974358975,4352.820512820514,4230.769230769231,4166.666666666667,4633.846153846154
1537.11,0.19350207,0.5697294,0.33333334,0.5522388,0,0.0,0.0,0.0,0.029479932,0.0,0,0,0.0,0.0,0,0,84.0,0.0,515.0,4602.564102564103,3897.9487179487182,4580.000000000001,4437.435897435898,4230.256410256411,4526.666666666667,4443.589743589744,4395.8974358974365,4350.256410256411,4669.743589743591,4332.307692307693,4213.846153846154,4154.871794871796,4642.564102564103
1537.3915,0.1706059,0.5662842,0.33333334,0.5522388,0,0.0,0.0,0.0,0.037947223,0.0,0,0,0.0,0.0,0,0,120.0,0.0,515.0,4596.410256410257,3899.48717948718,4443.076923076924,4444.102564102564,4247.179487179487,4551.794871794872,4476.923076923077,4432.820512820514,4390.769230769231,4697.948717948719,4343.589743589744,4198.461538461539,4135.8974358974365,4604.615384615385
1537.6105,0.1706059,0.5662842,0.33333334,0.5522388,0,0.0,0.0,0.0,0.07240735,0.0,0,0,0.0,0.0,0,0,19.0,0.0,0.0,4572.307692307693,3877.435897435898,4667.6923076923085,4431.282051282052,4219.48717948718,4527.179487179488,4443.076923076924,4409.2307692307695,4370.256410256411,4689.2307692307695,4312.820512820514,4147.179487179487,4120.512820512821,4577.948717948719
1537.892,0.1830944,0.56063944,0.33333334,0.5522388,0,0.0,0.0,0.0,0.13495024,0.0,0,0,0.0,0.0,0,0,55.0,0.0,0.0,4573.333333333334,3861.538461538462,4571.794871794872,4401.025641025642,4212.820512820514,4518.974358974359,4426.153846153847,4396.410256410257,4356.923076923077,4689.743589743591,4294.358974358975,4135.8974358974365,4104.102564102564,4598.461538461539
1538.1108,0.1830944,0.56063944,0.33333334,0.5522388,0,0.0,0.0,0.0,0.22602695,0.0,0,0,0.0,0.0,0,0,83.0,0.0,501.0,4587.179487179488,3862.0512820512827,4570.769230769231,4401.025641025642,4217.435897435898,4526.666666666667,4442.564102564103,4394.358974358975,4357.948717948719,4686.666666666667,4272.820512820514,4104.615384615385,4086.1538461538466,4594.871794871796
1538.3611,0.20138271,0.5520451,0.33333334,0.5522388,0,0.0,0.0,0.0,0.120332904,0.0,0,0,0.0,0.0,0,0,115.0,0.0,501.0,4588.205128205129,3886.666666666667,4540.512820512821,4410.256410256411,4219.48717948718,4523.589743589744,4424.615384615385,4386.666666666667,4371.794871794872,4714.871794871796,4298.461538461539,4116.410256410257,4117.948717948719,4627.6923076923085
