timestamp,excitement,frustration,meditation,engagementBoredom,blink,clench,laugh,smile,eyebrow,furrowBrow,lookLeft,lookRight,smirkLeft,smirkRight,winkLeft,winkRight,eeg0,eeg1,eeg2,eeg3,eeg4,eeg5,eeg6,eeg7,eeg8,eeg9,eeg10,eeg11,eeg12,eeg13,eeg14,eeg15,eeg16
13.136289,0.72582114,0.0,0.33011115,0.5695433,0,0.0,0.0,0.0,0.26649338,0.0,0,0,0.0,0.0,0,0,63.0,0.0,0.0,4581.025641025642,4036.9230769230776,4675.8974358974365,4461.025641025642,4176.410256410257,4513.333333333334,4521.538461538462,4444.102564102564,4397.435897435898,4722.051282051282,3963.076923076924,4188.205128205129,4192.307692307693,4328.717948717949
13.417781,0.72582114,0.0,0.33011115,0.5695433,1,0.0,0.0,0.0,0.09024475,0.0,0,0,0.0,0.0,0,0,99.0,0.0,513.0,4628.717948717949,4045.6410256410263,4704.102564102564,4473.333333333334,4223.076923076924,4530.769230769231,4506.666666666667,4443.076923076924,4384.102564102564,4723.076923076924,3990.7692307692314,4256.410256410257,4216.410256410257,4423.589743589744
13.636719,0.7078527,0.0,0.33043337,0.5678128,0,0.0,0.0,0.0,0.11408037,0.0,0,0,0.0,0.0,0,0,127.0,0.0,513.0,4610.256410256411,4035.3846153846157,4607.179487179488,4458.974358974359,4197.948717948719,4520.000000000001,4473.846153846154,4433.333333333334,4382.051282051282,4662.051282051282,3985.1282051282055,4214.358974358975,4168.717948717949,4381.025641025642
13.886934,0.7078527,0.0,0.33043337,0.5678128,0,0.0,0.0,0.0,0.16034335,0.0,0,0,0.0,0.0,0,0,30.0,0.0,0.0,4621.538461538462,3998.9743589743593,4471.282051282052,4507.179487179488,4184.102564102564,4512.307692307693,4475.384615384616,4433.333333333334,4370.769230769231,4644.615384615385,4036.9230769230776,4250.769230769231,4180.000000000001,4440.512820512821
14.137149,0.6931318,0.0,0.33072338,0.56625545,0,0.0,0.0,0.0,0.04662557,0.0,0,0,0.0,0.0,0,0,62.0,0.0,0.0,4596.923076923077,3998.461538461539,4278.461538461539,4511.794871794872,4185.641025641026,4521.538461538462,4443.076923076924,4406.666666666667,4367.6923076923085,4623.589743589744,4021.538461538462,4200.512820512821,4118.461538461539,4397.435897435898
14.387364,0.6931318,0.0,0.33072338,0.56625545,0,0.0,0.0,0.0,0.14696604,0.0,0,0,0.0,0.0,0,0,94.0,0.0,530.0,4604.615384615385,3984.1025641025644,3807.692307692308,4521.538461538462,4169.2307692307695,4521.538461538462,4464.102564102564,4450.256410256411,4427.179487179487,4731.794871794872,4027.1794871794878,4244.102564102564,4169.74358974359,4457.435897435898
14.637579,0.65744,0.7305789,0.33098435,0.5648538,0,0.0,0.0,0.0,0.04509629,0.0,0,0,0.0,0.0,0,0,126.0,0.0,530.0,4578.974358974359,3880.512820512821,4370.256410256411,4465.641025641026,4047.692307692308,4459.48717948718,4473.846153846154,4444.615384615385,4415.384615384616,4764.102564102564,4022.0512820512827,4206.153846153847,4144.615384615385,4426.666666666667
14.8877945,0.65744,0.7305789,0.33098435,0.5648538,0,0.0,0.0,0.0,0.039344646,0.0,0,0,0.0,0.0,0,0,29.0,0.0,0.0,4573.333333333334,3836.9230769230776,4648.717948717949,4424.102564102564,4045.6410256410263,4441.025641025642,4448.717948717949,4447.6923076923085,4410.769230769231,4736.410256410257,4090.2564102564106,4198.461538461539,4139.48717948718,4436.923076923077
15.138009,0.6847682,0.79802,0.33121926,0.56359226,0,0.0,0.0,0.0,0.022028077,0.0,0,0,0.0,0.0,0,0,61.0,0.0,0.0,4603.589743589744,3864.1025641025644,4732.820512820514,4412.820512820514,4076.410256410257,4445.128205128206,4428.717948717949,4417.435897435898,4364.102564102564,4699.48717948718,4131.794871794872,4205.641025641026,4123.076923076924,4454.871794871796
15.388225,0.6847682,0.79802,0.33121926,0.56359226,0,0.0,0.0,0.0,0.09502978,0.0,0,0,0.0,0.0,0,0,93.0,0.0,509.0,4594.871794871796,3896.9230769230776,4604.102564102564,4441.025641025642,4094.8717948717954,4464.102564102564,4440.000000000001,4427.179487179487,4387.179487179487,4727.6923076923085,4144.102564102564,4165.128205128206,4118.461538461539,4414.358974358975
15.638439,0.66490775,0.8012862,0.33143067,0.5624569,0,0.0,0.0,0.0,0.04144807,0.0,0,0,0.0,0.0,0,0,125.0,0.0,509.0,4616.923076923077,3915.3846153846157,4560.000000000001,4450.256410256411,4129.2307692307695,4476.410256410257,4427.179487179487,4429.743589743591,4403.076923076924,4734.358974358975,4246.153846153847,4218.974358974359,4158.974358974359,4476.410256410257
15.888655,0.66490775,0.8012862,0.33143067,0.5624569,0,0.0,0.0,0.0,0.074098684,0.0,0,0,0.0,0.0,0,0,28.0,0.0,0.0,4631.794871794872,3874.358974358975,4672.307692307693,4424.102564102564,4118.461538461539,4468.717948717949,4412.307692307693,4387.6923076923085,4356.923076923077,4678.461538461539,4207.6923076923085,4202.051282051282,4132.820512820514,4456.410256410257
16.13887,0.6236478,0.823443,0.33162093,0.5614351,0,0.0,0.0,0.0,0.08614246,0.0,0,0,0.0,0.0,0,0,60.0,0.0,0.0,4626.153846153847,3910.2564102564106,4474.871794871796,4428.717948717949,4102.564102564103,4460.512820512821,4433.333333333334,4415.384615384616,4386.153846153847,4710.769230769231,4211.282051282052,4192.307692307693,4176.410256410257,4443.076923076924
16.389084,0.6236478,0.823443,0.33162093,0.5614351,0,0.0,0.0,0.0,0.023855194,0.0,0,0,0.0,0.0,0,0,92.0,0.0,512.0,4611.794871794872,3914.8717948717954,4412.820512820514,4441.538461538462,4125.641025641026,4477.435897435898,4425.641025641026,4406.666666666667,4376.410256410257,4708.717948717949,4214.871794871796,4200.000000000001,4164.615384615385,4463.076923076924
16.6393,0.6098617,0.82472515,0.33179218,0.56051546,0,0.0,0.0,0.0,0.16476873,0.0,0,0,0.0,0.0,0,0,124.0,0.0,512.0,4623.076923076924,3985.6410256410263,4457.948717948719,4443.589743589744,4070.2564102564106,4451.282051282052,4446.666666666667,4428.205128205129,4396.923076923077,4692.820512820514,4234.358974358975,4215.384615384616,4207.6923076923085,4482.564102564103
16.764406,0.6098617,0.82472515,0.33179218,0.56051546,0,0.0,0.0,0.0,0.0,0.0,0,0,0.0,1.0,0,0,11.0,0.0,511.0,4610.769230769231,3929.2307692307695,4634.358974358975,4447.6923076923085,4084.615384615385,4459.48717948718,4449.2307692307695,4426.153846153847,4401.025641025642,4693.846153846154,4180.000000000001,4221.025641025642,4188.205128205129,4482.564102564103
17.13973,0.5982503,0.82805747,0.33194628,0.5596878,0,0.0,0.0,0.0,0.0,0.0,0,0,0.0,0.53016406,0,0,59.0,0.0,0.0,4624.102564102564,3892.820512820513,4606.666666666667,4420.512820512821,4143.589743589744,4487.179487179488,4399.48717948718,4404.102564102564,4358.461538461539,4685.641025641026,4176.410256410257,4205.128205128206,4148.717948717949,4493.333333333334
17.452497,0.5982503,0.82805747,0.33194628,0.5596878,0,0.0,0.0,0.0,0.0,0.0,0,0,0.0,0.115668975,0,1,99.0,0.0,511.0,4665.128205128206,3925.6410256410263,4596.923076923077,4407.6923076923085,4162.051282051282,4477.435897435898,4389.743589743591,4378.461538461539,4322.051282051282,4694.871794871796,4169.2307692307695,4230.769230769231,4196.923076923077,4550.769230769231
17.515053,0.57631016,0.8588921,0.33208802,0.5589363,0,0.0,0.0,0.0,0.0,0.0,0,0,0.0,0.0,0,1,107.0,0.0,511.0,4655.8974358974365,3939.48717948718,4609.2307692307695,4403.589743589744,4154.358974358975,4474.358974358975,4424.102564102564,4404.615384615385,4337.435897435898,4714.358974358975,4176.923076923077,4227.6923076923085,4212.307692307693,4554.358974358975
17.796543,0.57631016,0.8588921,0.33208802,0.5589363,0,0.0,0.0,0.0,0.0,0.0,0,0,0.0,0.0,0,0,14.0,0.0,530.0,4645.641025641026,4057.435897435898,4584.615384615385,4409.743589743591,4185.641025641026,4491.282051282052,4394.358974358975,4372.307692307693,4326.153846153847,4685.641025641026,4164.102564102564,4200.000000000001,4145.641025641026,4521.025641025642
18.140589,0.5605094,0.83562666,0.33221585,0.55825925,0,0.0,0.0,0.0,0.0,0.3648162,0,0,0.0,0.0,0,0,58.0,0.0,0.0,4618.461538461539,4094.8717948717954,4467.6923076923085,4373.846153846154,4201.538461538462,4509.2307692307695,4429.2307692307695,4398.461538461539,4356.410256410257,4710.769230769231,4209.74358974359,4209.2307692307695,4114.871794871796,4478.974358974359
18.390804,0.5605094,0.83562666,0.33221585,0.55825925,0,0.0,0.0,0.0,0.0,0.5354399,0,0,0.0,0.0,0,0,90.0,0.0,530.0,4597.435897435898,4074.8717948717954,4601.538461538462,4406.666666666667,4201.025641025642,4507.179487179488,4410.769230769231,4397.435897435898,4352.307692307693,4745.128205128206,4384.102564102564,4205.128205128206,4142.564102564103,4449.2307692307695
18.64102,0.52710426,0.82078284,0.33232874,0.5576547,0,0.0,0.0,0.0,0.0,0.0,0,0,0.0,0.3360092,0,0,122.0,0.0,530.0,4581.538461538462,4019.48717948718,4456.410256410257,4457.435897435898,4220.000000000001,4523.076923076924,4413.846153846154,4401.025641025642,4370.256410256411,4760.512820512821,4371.794871794872,4210.769230769231,4148.205128205129,4460.000000000001
18.891235,0.52710426,0.82078284,0.33232874,0.5576547,0,0.0,0.0,0.0,0.0,0.0,0,0,0.0,0.85322547,0,0,25.0,0.0,0.0,4590.256410256411,3936.410256410257,4502.051282051282,4443.076923076924,4232.820512820514,4524.615384615385,4413.333333333334,4400.512820512821,4366.153846153847,4751.282051282052,4311.282051282052,4229.74358974359,4150.769230769231,4486.153846153847
19.047619,0.5064459,0.79376066,0.33243006,0.55711126,0,0.0,0.0,0.0,0.0,0.0,0,0,0.0,0.0,0,0,45.0,0.0,0.0,4596.410256410257,3943.589743589744,4504.615384615385,4453.846153846154,4233.333333333334,4522.564102564103,4418.974358974359,4413.333333333334,4367.179487179487,4775.8974358974365,4327.179487179487,4246.666666666667,4172.307692307693,4499.48717948718
19.047619,0.5064459,0.79376066,0.33243006,0.55711126,0,0.0,0.0,0.0,0.0,0.0,0,0,0.0,0.0,0,0,45.0,0.0,0.0,4596.410256410257,3943.589743589744,4504.615384615385,4453.846153846154,4233.333333333334,4522.564102564103,4418.974358974359,4413.333333333334,4367.179487179487,4775.8974358974365,4327.179487179487,4246.666666666667,4172.307692307693,4499.48717948718
19.64188,0.5021967,0.7507541,0.33252066,0.5566234,0,0.0,0.0,0.0,0.0,0.0,0,0,0.0,0.30012777,0,0,121.0,0.0,509.0,4597.948717948719,3909.7435897435903,4451.282051282052,4459.48717948718,4262.564102564103,4551.282051282052,4436.923076923077,4415.384615384616,4376.410256410257,4779.48717948718,4343.589743589744,4242.564102564103,4181.538461538462,4477.948717948719
19.892096,0.5021967,0.7507541,0.33252066,0.5566234,0,0.0,0.0,0.0,0.0,0.0,0,0,0.0,0.0,0,0,24.0,0.0,0.0,4591.794871794872,3930.7692307692314,4388.717948717949,4469.2307692307695,4251.282051282052,4538.974358974359,4417.948717948719,4418.974358974359,4386.666666666667,4781.538461538462,4325.641025641026,4236.410256410257,4189.74358974359,4459.48717948718
20.14231,0.51396114,0.71483237,0.33260193,0.55618495,0,0.0,0.0,0.0,0.044881333,0.0,0,0,0.0,0.0,0,0,56.0,0.0,0.0,4576.923076923077,3912.307692307693,4567.179487179488,4459.48717948718,4233.846153846154,4525.128205128206,4404.615384615385,4422.051282051282,4370.769230769231,4753.846153846154,4288.717948717949,4216.923076923077,4171.282051282052,4431.282051282052
20.392525,0.51396114,0.71483237,0.33260193,0.55618495,0,0.0,0.0,0.0,0.06348807,0.0,0,0,0.0,0.0,0,0,88.0,0.0,514.0,4588.205128205129,3860.0000000000005,4793.333333333334,4427.6923076923085,4211.282051282052,4501.025641025642,4400.000000000001,4410.769230769231,4344.615384615385,4729.743589743591,4244.102564102564,4207.179487179487,4164.615384615385,4424.102564102564
20.64274,0.52069235,0.6863108,0.33267507,0.55579036,0,0.0,0.0,0.0,0.052059844,0.0,0,0,0.0,0.0,0,0,120.0,0.0,514.0,4589.2307692307695,3879.48717948718,4572.307692307693,4440.000000000001,4240.000000000001,4522.051282051282,4409.2307692307695,4446.153846153847,4372.307692307693,4743.076923076924,4250.256410256411,4228.717948717949,4169.2307692307695,4441.538461538462
20.892956,0.52069235,0.6863108,0.33267507,0.55579036,0,0.0,0.0,0.0,0.025571164,0.0,0,0,0.0,0.0,0,0,23.0,0.0,0.0,4573.846153846154,3890.7692307692314,4423.589743589744,4437.435897435898,4246.666666666667,4525.641025641026,4407.179487179487,4446.666666666667,4388.717948717949,4749.2307692307695,4265.128205128206,4226.666666666667,4168.205128205129,4442.564102564103
21.14317,0.51569474,0.66501755,0.3327409,0.5554352,0,0.0,0.0,0.0,0.05390914,0.0,0,0,0.0,0.0,0,0,55.0,0.0,0.0,4600.512820512821,3870.2564102564106,4432.820512820514,4429.2307692307695,4247.6923076923085,4538.974358974359,4414.871794871796,4442.051282051282,4382.051282051282,4738.461538461539,4262.051282051282,4232.820512820514,4170.256410256411,4451.794871794872
21.393385,0.51569474,0.66501755,0.3327409,0.5554352,0,0.0,0.0,0.0,0.12549998,0.0,0,0,0.0,0.0,0,0,87.0,0.0,509.0,4585.641025641026,3851.7948717948725,4415.8974358974365,4395.384615384616,4235.384615384616,4524.615384615385,4400.000000000001,4426.153846153847,4369.743589743591,4714.358974358975,4237.948717948719,4214.358974358975,4146.666666666667,4427.179487179487
21.54977,0.5324854,0.6506676,0.33280012,0.5551155,0,0.0,0.0,0.0,0.0,0.0,0,0,0.0,0.0,0,0,107.0,0.0,509.0,4577.435897435898,3862.0512820512827,4380.000000000001,4395.384615384616,4241.538461538462,4526.666666666667,4410.769230769231,4426.666666666667,4369.2307692307695,4702.051282051282,4226.153846153847,4199.48717948718,4124.615384615385,4395.8974358974365
21.893816,0.5324854,0.6506676,0.33280012,0.5551155,0,0.0,0.0,0.0,0.14785337,0.0,0,0,0.0,0.0,0,0,22.0,0.0,0.0,4586.153846153847,3881.0256410256416,4458.974358974359,4424.102564102564,4264.102564102564,4545.641025641026,4413.846153846154,4423.589743589744,4388.717948717949,4719.48717948718,4258.461538461539,4232.820512820514,4182.564102564103,4468.205128205129
22.14403,0.5287207,0.634797,0.33285347,0.55482787,0,0.0,0.0,0.0,0.20261955,0.0,0,0,0.0,0.0,0,0,54.0,0.0,0.0,4595.384615384616,3884.615384615385,4388.717948717949,4420.512820512821,4245.641025641026,4525.641025641026,4418.974358974359,4436.923076923077,4399.48717948718,4736.923076923077,4281.538461538462,4257.435897435898,4214.871794871796,4490.769230769231
22.394245,0.5287207,0.634797,0.33285347,0.55482787,0,0.0,0.0,0.0,0.0,0.0,0,0,0.0,0.0,0,0,86.0,0.0,530.0,4594.358974358975,3911.7948717948725,4347.6923076923085,4426.666666666667,4262.051282051282,4542.051282051282,4427.6923076923085,4436.410256410257,4408.717948717949,4726.153846153847,4287.6923076923085,4263.589743589744,4211.794871794872,4493.333333333334
22.550629,0.52560735,0.61870676,0.33290145,0.55456895,0,0.0,0.0,0.0,0.0,0.0,0,0,0.0,0.0,0,0,106.0,0.0,530.0,4585.641025641026,3910.2564102564106,4323.076923076924,4412.820512820514,4254.871794871796,4541.538461538462,4418.461538461539,4431.282051282052,4410.256410256411,4717.948717948719,4286.153846153847,4246.153846153847,4210.256410256411,4468.205128205129
22.550629,0.52560735,0.61870676,0.33290145,0.55456895,0,0.0,0.0,0.0,0.0,0.0,0,0,0.0,0.0,0,0,106.0,0.0,530.0,4585.641025641026,3910.2564102564106,4323.076923076924,4412.820512820514,4254.871794871796,4541.538461538462,4418.461538461539,4431.282051282052,4410.256410256411,4717.948717948719,4286.153846153847,4246.153846153847,4210.256410256411,4468.205128205129
23.05106,0.49043664,0.60611343,0.33294463,0.55433595,0,0.0,0.0,0.0,0.0,0.0,0,0,0.0,0.0,0,0,41.0,0.0,0.0,4605.128205128206,3908.205128205129,4410.769230769231,4428.205128205129,4260.000000000001,4553.333333333334,4433.333333333334,4427.6923076923085,4399.48717948718,4733.333333333334,4309.743589743591,4280.000000000001,4229.74358974359,4491.282051282052
23.05106,0.49043664,0.60611343,0.33294463,0.55433595,0,0.0,0.0,0.0,0.0,0.0,0,0,0.0,0.0,0,0,41.0,0.0,0.0,4605.128205128206,3908.205128205129,4410.769230769231,4428.205128205129,4260.000000000001,4553.333333333334,4433.333333333334,4427.6923076923085,4399.48717948718,4733.333333333334,4309.743589743591,4280.000000000001,4229.74358974359,4491.282051282052
23.551489,0.49701014,0.5958337,0.3329835,0.55412626,0,0.0,0.0,0.0,0.0,0.0,0,0,0.0,0.0,0,0,105.0,0.0,509.0,4626.666666666667,3951.2820512820517,4323.589743589744,4446.666666666667,4270.256410256411,4564.615384615385,4458.461538461539,4444.102564102564,4400.512820512821,4733.333333333334,4326.153846153847,4280.512820512821,4220.000000000001,4536.923076923077
23.551489,0.49701014,0.5958337,0.3329835,0.55412626,0,0.0,0.0,0.0,0.0,0.0,0,0,0.0,0.0,0,0,105.0,0.0,509.0,4626.666666666667,3951.2820512820517,4323.589743589744,4446.666666666667,4270.256410256411,4564.615384615385,4458.461538461539,4444.102564102564,4400.512820512821,4733.333333333334,4326.153846153847,4280.512820512821,4220.000000000001,4536.923076923077
24.14575,0.49389017,0.58689255,0.33301848,0.5539375,0,0.0,0.0,0.0,0.12024974,0.0,0,0,0.0,0.0,0,0,52.0,0.0,0.0,4600.512820512821,3990.7692307692314,4390.769230769231,4442.564102564103,4267.179487179487,4556.410256410257,4443.076923076924,4428.205128205129,4380.000000000001,4721.025641025642,4303.076923076924,4231.282051282052,4171.794871794872,4470.256410256411
24.395966,0.49389017,0.58689255,0.33301848,0.5539375,0,0.0,0.0,0.0,0.049460974,0.0,0,0,0.0,0.0,0,0,84.0,0.0,514.0,4622.564102564103,3967.1794871794878,4383.589743589744,4425.641025641026,4260.512820512821,4551.794871794872,4459.48717948718,4445.641025641026,4386.153846153847,4732.307692307693,4336.410256410257,4270.256410256411,4210.769230769231,4477.435897435898
24.55235,0.48051777,0.5806376,0.33304998,0.5537676,0,0.0,0.0,0.0,0.0,0.0,0,0,0.0,0.0,0,0,104.0,0.0,514.0,4609.2307692307695,3955.3846153846157,4480.512820512821,4426.666666666667,4249.74358974359,4551.282051282052,4442.564102564103,4416.410256410257,4378.461538461539,4707.6923076923085,4312.820512820514,4247.179487179487,4196.410256410257,4444.102564102564
24.896395,0.48051777,0.5806376,0.33304998,0.5537676,0,0.0,0.0,0.0,0.05676609,0.0,0,0,0.0,0.0,0,0,19.0,0.0,0.0,4599.48717948718,3943.076923076924,4486.153846153847,4403.076923076924,4250.256410256411,4540.512820512821,4424.102564102564,4399.48717948718,4373.333333333334,4711.282051282052,4312.820512820514,4225.128205128206,4187.179487179487,4440.000000000001
25.170069,0.47820482,0.5654441,0.3330783,0.55361474,0,0.0,0.0,0.0,0.11892392,0.0,0,0,0.0,0.0,0,0,51.0,0.0,0.0,4623.076923076924,3956.410256410257,4473.333333333334,4398.461538461539,4220.000000000001,4520.000000000001,4427.179487179487,4405.641025641026,4358.974358974359,4703.076923076924,4305.128205128206,4246.153846153847,4185.128205128206,4478.974358974359
25.420282,0.47820482,0.5654441,0.3330783,0.55361474,0,0.0,0.0,0.0,0.084740475,0.0,0,0,0.0,0.0,0,0,83.0,0.0,509.0,4609.2307692307695,3969.7435897435903,4573.333333333334,4397.948717948719,4218.974358974359,4512.820512820514,4409.2307692307695,4387.179487179487,4351.282051282052,4708.717948717949,4305.641025641026,4217.948717948719,4189.2307692307695,4460.512820512821
25.670498,0.44956136,0.55328774,0.3331038,0.55347717,0,0.0,0.0,0.0,0.043698777,0.0,0,0,0.0,0.0,0,0,115.0,0.0,509.0,4611.794871794872,3989.7435897435903,4589.2307692307695,4406.153846153847,4216.410256410257,4518.461538461539,4412.307692307693,4405.128205128206,4366.666666666667,4704.615384615386,4297.435897435898,4246.666666666667,4184.102564102564,4458.461538461539
25.920713,0.44956136,0.55328774,0.3331038,0.55347717,0,0.0,0.0,0.0,0.09154582,0.0,0,0,0.0,0.0,0,0,18.0,0.0,0.0,4628.205128205129,3991.7948717948725,4463.589743589744,4429.743589743591,4231.794871794872,4522.051282051282,4416.923076923077,4413.333333333334,4381.538461538462,4717.948717948719,4317.948717948719,4308.717948717949,4215.8974358974365,4504.102564102564
26.170929,0.4564484,0.5455874,0.33312675,0.5533533,0,0.0,0.0,0.0,0.16265905,0.0,0,0,0.0,0.0,0,0,50.0,0.0,0.0,4628.717948717949,3983.589743589744,4579.48717948718,4439.48717948718,4232.820512820514,4533.846153846154,4423.076923076924,4417.948717948719,4389.743589743591,4734.358974358975,4329.2307692307695,4313.846153846154,4248.717948717949,4512.820512820514
26.421143,0.4564484,0.5455874,0.33312675,0.5533533,0,0.0,0.0,0.0,0.239099,0.0,0,0,0.0,0.0,0,0,82.0,0.0,530.0,4622.564102564103,4013.333333333334,4466.666666666667,4461.025641025642,4253.333333333334,4556.410256410257,4438.461538461539,4432.820512820514,4400.512820512821,4755.8974358974365,4342.564102564103,4309.743589743591,4250.769230769231,4494.871794871796
26.671358,0.44483256,0.53904337,0.3331474,0.55324185,0,0.0,0.0,0.0,0.07738429,0.0,0,0,0.0,0.0,0,0,114.0,0.0,530.0,4623.076923076924,4024.615384615385,4496.923076923077,4465.128205128206,4254.358974358975,4549.743589743591,4439.48717948718,4442.051282051282,4411.794871794872,4771.794871794872,4366.153846153847,4306.666666666667,4262.051282051282,4508.205128205129
26.796465,0.44483256,0.53904337,0.3331474,0.55324185,0,0.0,0.0,0.0,0.0,0.0,0,0,0.0,0.0,0,0,1.0,0.0,515.0,4676.410256410257,4008.205128205129,4429.743589743591,4475.8974358974365,4244.615384615385,4540.000000000001,4445.128205128206,4437.948717948719,4385.641025641026,4749.743589743591,4352.820512820514,4325.641025641026,4272.820512820514,4562.564102564103
27.195246,0.43142828,0.54825145,0.333166,0.55314153,0,0.0,0.0,0.0,0.34087577,0.0,0,0,0.0,0.0,0,1,53.0,0.0,0.0,4644.102564102564,3943.589743589744,4235.384615384616,4450.769230769231,4230.256410256411,4521.538461538462,4442.564102564103,4443.076923076924,4391.794871794872,4751.282051282052,4340.000000000001,4280.000000000001,4233.333333333334,4643.076923076924
27.414185,0.43142828,0.54825145,0.333166,0.55314153,0,0.0,0.0,0.0,0.75417393,0.0,0,0,0.0,0.0,0,0,81.0,0.0,509.0,4622.564102564103,3909.7435897435903,4434.358974358975,4425.641025641026,4211.794871794872,4505.641025641026,4393.846153846154,4390.256410256411,4339.48717948718,4706.153846153847,4294.358974358975,4236.410256410257,4182.564102564103,4602.051282051282
27.6644,0.43719846,0.5572899,0.33318275,0.5530513,0,0.0,0.0,0.0,0.19306266,0.0,0,0,0.0,0.0,0,0,113.0,0.0,509.0,4638.461538461539,3914.358974358975,4368.717948717949,4445.641025641026,4238.974358974359,4536.923076923077,4444.615384615385,4423.589743589744,4375.384615384616,4729.743589743591,4311.794871794872,4233.333333333334,4187.179487179487,4616.410256410257
27.914614,0.43719846,0.5572899,0.33318275,0.5530513,0,0.0,0.0,0.0,0.025199521,0.0,0,0,0.0,0.0,0,0,16.0,0.0,0.0,4625.128205128206,3911.7948717948725,4364.615384615385,4449.2307692307695,4244.102564102564,4537.948717948719,4450.769230769231,4411.282051282052,4371.794871794872,4723.589743589744,4311.794871794872,4248.205128205129,4171.282051282052,4608.717948717949
28.071,0.4287739,0.56875455,0.3331978,0.55297005,0,0.0,0.0,0.0,0.0,0.0,0,0,0.0,0.0,0,0,36.0,0.0,0.0,4610.769230769231,3903.076923076924,4431.794871794872,4430.769230769231,4251.282051282052,4542.564102564103,4446.153846153847,4414.871794871796,4395.8974358974365,4748.205128205129,4334.358974358975,4232.820512820514,4183.589743589744,4578.461538461539
28.071,0.4287739,0.56875455,0.3331978,0.55297005,0,0.0,0.0,0.0,0.0,0.0,0,0,0.0,0.0,0,0,36.0,0.0,0.0,4610.769230769231,3903.076923076924,4431.794871794872,4430.769230769231,4251.282051282052,4542.564102564103,4446.153846153847,4414.871794871796,4395.8974358974365,4748.205128205129,4334.358974358975,4232.820512820514,4183.589743589744,4578.461538461539
28.665258,0.43629402,0.58425874,0.33321136,0.5528969,0,0.0,0.0,0.0,0.047706828,0.0,0,0,0.0,0.0,0,0,112.0,0.0,514.0,4608.205128205129,3902.564102564103,4302.051282051282,4424.615384615385,4242.051282051282,4538.461538461539,4442.564102564103,4408.717948717949,4354.358974358975,4677.948717948719,4276.923076923077,4213.846153846154,4131.794871794872,4523.589743589744
28.915474,0.43629402,0.58425874,0.33321136,0.5528969,0,0.0,0.0,0.0,0.055087138,0.0,0,0,0.0,0.0,0,0,15.0,0.0,507.0,4591.282051282052,3907.1794871794878,4381.538461538462,4417.435897435898,4237.948717948719,4529.743589743591,4416.923076923077,4403.589743589744,4348.717948717949,4683.076923076924,4281.025641025642,4195.8974358974365,4137.948717948719,4520.000000000001
29.16569,0.42764738,0.575507,0.33322355,0.5528311,0,0.0,0.0,0.0,0.052180376,0.0,0,0,0.0,0.0,0,0,47.0,0.0,0.0,4624.102564102564,3939.48717948718,4360.512820512821,4445.641025641026,4255.8974358974365,4542.051282051282,4441.025641025642,4427.179487179487,4356.410256410257,4692.307692307693,4323.589743589744,4230.769230769231,4138.461538461539,4523.076923076924
29.415905,0.42764738,0.575507,0.33322355,0.5528311,0,0.0,0.0,0.0,0.1811619,0.0,0,0,0.0,0.0,0,0,79.0,0.0,507.0,4600.000000000001,3922.0512820512827,4407.6923076923085,4431.794871794872,4244.102564102564,4537.435897435898,4443.076923076924,4447.6923076923085,4371.794871794872,4714.871794871796,4333.846153846154,4207.6923076923085,4148.205128205129,4492.307692307693
29.572289,0.42371544,0.56370395,0.33323452,0.55277187,0,0.0,0.0,0.0,0.0,0.0,0,0,0.0,0.0,0,0,99.0,0.0,507.0,4609.743589743591,3936.410256410257,4428.205128205129,4443.589743589744,4248.205128205129,4538.461538461539,4428.717948717949,4437.948717948719,4381.538461538462,4719.48717948718,4337.435897435898,4233.333333333334,4168.717948717949,4513.333333333334
29.572289,0.42371544,0.56370395,0.33323452,0.55277187,0,0.0,0.0,0.0,0.0,0.0,0,0,0.0,0.0,0,0,99.0,0.0,507.0,4609.743589743591,3936.410256410257,4428.205128205129,4443.589743589744,4248.205128205129,4538.461538461539,4428.717948717949,4437.948717948719,4381.538461538462,4719.48717948718,4337.435897435898,4233.333333333334,4168.717948717949,4513.333333333334
30.16655,0.4075697,0.54986596,0.3332444,0.5527186,0,0.0,0.0,0.0,0.06518523,0.0,0,0,0.0,0.0,0,0,46.0,0.0,0.0,4616.923076923077,3910.7692307692314,4529.2307692307695,4427.179487179487,4252.307692307693,4553.846153846154,4441.538461538462,4456.923076923077,4391.794871794872,4738.974358974359,4323.076923076924,4231.282051282052,4183.076923076924,4503.589743589744
30.291656,0.4075697,0.54986596,0.3332444,0.5527186,0,0.0,0.0,0.0,0.0,0.0,0,0,0.0,0.0,0,0,62.0,0.0,0.0,4632.307692307693,3926.1538461538466,4434.871794871796,4442.564102564103,4261.538461538462,4554.871794871796,4445.641025641026,4457.948717948719,4390.256410256411,4736.410256410257,4325.641025641026,4247.6923076923085,4196.410256410257,4521.025641025642
30.573149,0.39695373,0.5347718,0.3332533,0.5526706,0,0.0,0.0,0.0,0.0,0.0,0,0,0.0,0.0,0,0,98.0,0.0,530.0,4612.307692307693,3924.615384615385,4553.333333333334,4429.743589743591,4231.282051282052,4523.589743589744,4417.435897435898,4431.282051282052,4365.128205128206,4731.282051282052,4312.307692307693,4226.666666666667,4180.512820512821,4495.384615384616
30.573149,0.39695373,0.5347718,0.3332533,0.5526706,0,0.0,0.0,0.0,0.0,0.0,0,0,0.0,0.0,0,0,98.0,0.0,530.0,4612.307692307693,3924.615384615385,4553.333333333334,4429.743589743591,4231.282051282052,4523.589743589744,4417.435897435898,4431.282051282052,4365.128205128206,4731.282051282052,4312.307692307693,4226.666666666667,4180.512820512821,4495.384615384616
31.07358,0.3881292,0.5303253,0.3332613,0.5526274,0,0.0,0.0,0.0,0.0,0.0,0,0,0.0,0.0,0,0,33.0,0.0,0.0,4614.871794871796,3927.1794871794878,4643.076923076924,4408.205128205129,4248.205128205129,4542.564102564103,4395.8974358974365,4412.307692307693,4355.8974358974365,4714.871794871796,4287.6923076923085,4232.307692307693,4171.282051282052,4457.948717948719
31.07358,0.3881292,0.5303253,0.3332613,0.5526274,0,0.0,0.0,0.0,0.0,0.0,0,0,0.0,0.0,0,0,33.0,0.0,0.0,4614.871794871796,3927.1794871794878,4643.076923076924,4408.205128205129,4248.205128205129,4542.564102564103,4395.8974358974365,4412.307692307693,4355.8974358974365,4714.871794871796,4287.6923076923085,4232.307692307693,4171.282051282052,4457.948717948719
31.574009,0.3761157,0.52132493,0.33326852,0.5525885,0,0.0,0.0,0.0,0.0,0.0,0,0,0.0,0.0,0,0,97.0,0.0,509.0,4628.205128205129,3942.564102564103,4622.051282051282,4424.102564102564,4252.307692307693,4544.615384615385,4405.128205128206,4430.769230769231,4362.564102564103,4711.282051282052,4293.333333333334,4256.923076923077,4171.794871794872,4489.743589743591
31.574009,0.3761157,0.52132493,0.33326852,0.5525885,0,0.0,0.0,0.0,0.0,0.0,0,0,0.0,0.0,0,0,97.0,0.0,509.0,4628.205128205129,3942.564102564103,4622.051282051282,4424.102564102564,4252.307692307693,4544.615384615385,4405.128205128206,4430.769230769231,4362.564102564103,4711.282051282052,4293.333333333334,4256.923076923077,4171.794871794872,4489.743589743591
32.043163,0.3694231,0.49952415,0.33327514,0.5525533,0,0.0,0.0,0.0,0.0,0.0,0,0,0.0,0.0,0,0,28.0,0.0,0.0,4597.435897435898,3943.589743589744,4521.025641025642,4385.641025641026,4233.333333333334,4524.615384615385,4382.051282051282,4417.948717948719,4340.000000000001,4680.000000000001,4251.282051282052,4198.461538461539,4123.076923076924,4489.743589743591
32.043163,0.3694231,0.49952415,0.33327514,0.5525533,0,0.0,0.0,0.0,0.0,0.0,0,0,0.0,0.0,0,0,28.0,0.0,0.0,4597.435897435898,3943.589743589744,4521.025641025642,4385.641025641026,4233.333333333334,4524.615384615385,4382.051282051282,4417.948717948719,4340.000000000001,4680.000000000001,4251.282051282052,4198.461538461539,4123.076923076924,4489.743589743591
32.54359,0.37299627,0.48527554,0.3332811,0.55252147,0,0.0,0.0,0.0,0.0,0.0,0,0,0.0,0.0,0,0,92.0,0.0,514.0,4610.769230769231,3943.076923076924,4608.205128205129,4381.538461538462,4229.74358974359,4523.589743589744,4400.000000000001,4424.102564102564,4353.846153846154,4697.948717948719,4291.794871794872,4212.307692307693,4166.666666666667,4504.615384615385
32.54359,0.37299627,0.48527554,0.3332811,0.55252147,0,0.0,0.0,0.0,0.0,0.0,0,0,0.0,0.0,0,0,92.0,0.0,514.0,4610.769230769231,3943.076923076924,4608.205128205129,4381.538461538462,4229.74358974359,4523.589743589744,4400.000000000001,4424.102564102564,4353.846153846154,4697.948717948719,4291.794871794872,4212.307692307693,4166.666666666667,4504.615384615385
33.04402,0.37531665,0.46537966,0.3332865,0.55249286,0,0.0,0.0,0.0,0.0,0.0,0,0,0.0,0.0,0,0,27.0,0.0,0.0,4601.538461538462,3953.8461538461543,4491.282051282052,4427.179487179487,4237.435897435898,4535.384615384616,4425.641025641026,4442.564102564103,4388.205128205129,4735.384615384616,4340.000000000001,4233.333333333334,4176.410256410257,4551.282051282052
33.04402,0.37531665,0.46537966,0.3332865,0.55249286,0,0.0,0.0,0.0,0.0,0.0,0,0,0.0,0.0,0,0,27.0,0.0,0.0,4601.538461538462,3953.8461538461543,4491.282051282052,4427.179487179487,4237.435897435898,4535.384615384616,4425.641025641026,4442.564102564103,4388.205128205129,4735.384615384616,4340.000000000001,4233.333333333334,4176.410256410257,4551.282051282052
33.57573,0.38805923,0.44655612,0.33329123,0.5524673,0,0.0,0.0,0.0,0.0,0.0,0,0,0.0,0.0,0,0,95.0,0.0,507.0,4612.307692307693,3941.0256410256416,4491.282051282052,4441.025641025642,4250.769230769231,4551.282051282052,4442.564102564103,4442.051282051282,4400.000000000001,4764.102564102564,4352.307692307693,4236.410256410257,4195.384615384616,4574.358974358975
33.57573,0.38805923,0.44655612,0.33329123,0.5524673,0,0.0,0.0,0.0,0.0,0.0,0,0,0.0,0.0,0,0,95.0,0.0,507.0,4612.307692307693,3941.0256410256416,4491.282051282052,4441.025641025642,4250.769230769231,4551.282051282052,4442.564102564103,4442.051282051282,4400.000000000001,4764.102564102564,4352.307692307693,4236.410256410257,4195.384615384616,4574.358974358975
34.07616,0.39918777,0.43053588,0.3332955,0.5524444,0,0.0,0.0,0.0,0.0,0.0,0,0,0.0,0.0,0,0,30.0,0.0,0.0,4624.102564102564,3925.1282051282055,4215.8974358974365,4442.564102564103,4245.128205128206,4540.512820512821,4458.974358974359,4437.948717948719,4397.435897435898,4748.717948717949,4349.743589743591,4249.2307692307695,4192.307692307693,4558.974358974359
34.420204,0.39918777,0.43053588,0.3332955,0.5524444,0,0.0,0.0,0.0,0.021785617,0.0,0,0,0.0,0.0,0,0,74.0,0.0,530.0,4604.615384615385,3913.333333333334,4557.435897435898,4415.384615384616,4230.256410256411,4523.589743589744,4414.358974358975,4411.794871794872,4367.179487179487,4728.717948717949,4322.051282051282,4212.820512820514,4180.000000000001,4534.871794871796
34.67042,0.3974907,0.4240872,0.33329928,0.5524238,0,0.0,0.0,0.0,0.027957136,0.0,0,0,0.0,0.0,0,0,106.0,0.0,530.0,4591.282051282052,3926.666666666667,4534.358974358975,4417.948717948719,4246.153846153847,4541.025641025642,4430.256410256411,4429.2307692307695,4381.025641025642,4732.307692307693,4322.051282051282,4203.076923076924,4170.256410256411,4538.461538461539
34.920635,0.3974907,0.4240872,0.33329928,0.5524238,0,0.0,0.0,0.0,0.09531426,0.0,0,0,0.0,0.0,0,0,9.0,0.0,477.0,4610.769230769231,3926.1538461538466,4551.794871794872,4413.333333333334,4249.2307692307695,4536.410256410257,4420.512820512821,4393.846153846154,4363.076923076924,4710.256410256411,4326.666666666667,4215.384615384616,4168.717948717949,4564.615384615385
35.07702,0.37672782,0.42012897,0.33330268,0.5524053,0,0.0,0.0,0.0,0.0,0.0,0,0,0.0,0.0,0,0,29.0,0.0,0.0,4610.256410256411,3941.0256410256416,4432.820512820514,4432.307692307693,4253.846153846154,4542.051282051282,4423.589743589744,4401.538461538462,4363.589743589744,4713.333333333334,4332.820512820514,4227.6923076923085,4175.8974358974365,4551.794871794872
35.07702,0.37672782,0.42012897,0.33330268,0.5524053,0,0.0,0.0,0.0,0.0,0.0,0,0,0.0,0.0,0,0,29.0,0.0,0.0,4610.256410256411,3941.0256410256416,4432.820512820514,4432.307692307693,4253.846153846154,4542.051282051282,4423.589743589744,4401.538461538462,4363.589743589744,4713.333333333334,4332.820512820514,4227.6923076923085,4175.8974358974365,4551.794871794872
35.57745,0.35043842,0.41883165,0.33330575,0.55238867,0,0.0,0.0,0.0,0.0,0.0,0,0,0.0,0.0,0,0,93.0,0.0,509.0,4600.512820512821,3994.8717948717954,4200.512820512821,4449.743589743591,4276.923076923077,4558.461538461539,4446.666666666667,4462.051282051282,4401.538461538462,4742.564102564103,4332.307692307693,4224.102564102564,4170.769230769231,4521.538461538462
35.921494,0.35043842,0.41883165,0.33330575,0.55238867,0,0.0,0.0,0.0,0.024300108,0.0,0,0,0.0,0.0,0,0,8.0,0.0,470.0,4620.512820512821,3994.358974358975,4031.2820512820517,4473.333333333334,4294.871794871796,4585.641025641026,4469.743589743591,4486.666666666667,4418.461538461539,4757.435897435898,4337.435897435898,4260.000000000001,4193.846153846154,4538.461538461539
36.17171,0.3545112,0.42522252,0.33330852,0.55237365,0,0.0,0.0,0.0,0.043950535,0.0,0,0,0.0,0.0,0,0,40.0,0.0,0.0,4635.384615384616,3953.333333333334,4490.769230769231,4442.564102564103,4264.102564102564,4553.846153846154,4450.769230769231,4476.923076923077,4407.179487179487,4750.769230769231,4370.256410256411,4287.6923076923085,4245.128205128206,4588.717948717949
36.421925,0.3545112,0.42522252,0.33330852,0.55237365,0,0.0,0.0,0.0,0.058323096,0.0,0,0,0.0,0.0,0,0,72.0,0.0,470.0,4616.923076923077,3975.3846153846157,4378.974358974359,4459.48717948718,4282.051282051282,4573.846153846154,4457.948717948719,4475.384615384616,4418.461538461539,4748.717948717949,4361.025641025642,4265.128205128206,4216.923076923077,4566.666666666667
36.672142,0.34752178,0.43600664,0.333311,0.5523602,0,0.0,0.0,0.0,0.10425509,0.0,0,0,0.0,0.0,0,0,104.0,0.0,514.0,4635.384615384616,3990.7692307692314,4400.000000000001,4456.410256410257,4274.871794871796,4567.6923076923085,4460.512820512821,4469.743589743591,4413.846153846154,4750.769230769231,4356.923076923077,4274.358974358975,4213.846153846154,4555.8974358974365
36.79725,0.34752178,0.43600664,0.333311,0.5523602,0,0.0,0.0,0.0,0.0,0.0,0,0,0.0,0.0,0,0,120.0,0.0,514.0,4622.564102564103,3975.3846153846157,4420.512820512821,4446.666666666667,4265.641025641026,4557.948717948719,4443.589743589744,4433.333333333334,4380.000000000001,4714.871794871796,4341.025641025642,4261.025641025642,4192.307692307693,4536.410256410257
37.07874,0.36470926,0.44180423,0.33331323,0.552348,0,0.0,0.0,0.0,0.0,0.0,0,0,0.0,0.0,0,0,27.0,0.0,0.0,4620.512820512821,3992.307692307693,4409.743589743591,4455.8974358974365,4265.128205128206,4555.8974358974365,4451.794871794872,4447.179487179487,4403.589743589744,4745.128205128206,4364.615384615385,4264.615384615385,4199.48717948718,4544.102564102564
37.07874,0.36470926,0.44180423,0.33331323,0.552348,0,0.0,0.0,0.0,0.0,0.0,0,0,0.0,0.0,0,0,27.0,0.0,0.0,4620.512820512821,3992.307692307693,4409.743589743591,4455.8974358974365,4265.128205128206,4555.8974358974365,4451.794871794872,4447.179487179487,4403.589743589744,4745.128205128206,4364.615384615385,4264.615384615385,4199.48717948718,4544.102564102564
37.57917,0.3432883,0.44669086,0.33331522,0.5523371,0,0.0,0.0,0.0,0.0,0.0,0,0,0.0,0.0,0,0,91.0,0.0,507.0,4625.128205128206,3988.717948717949,4510.256410256411,4459.48717948718,4263.076923076924,4555.384615384616,4455.384615384616,4441.025641025642,4413.846153846154,4739.48717948718,4362.051282051282,4261.538461538462,4205.128205128206,4537.435897435898
37.57917,0.3432883,0.44669086,0.33331522,0.5523371,0,0.0,0.0,0.0,0.0,0.0,0,0,0.0,0.0,0,0,91.0,0.0,507.0,4625.128205128206,3988.717948717949,4510.256410256411,4459.48717948718,4263.076923076924,4555.384615384616,4455.384615384616,4441.025641025642,4413.846153846154,4739.48717948718,4362.051282051282,4261.538461538462,4205.128205128206,4537.435897435898
38.048325,0.33808985,0.43914124,0.33331707,0.5523272,0,0.0,0.0,0.0,0.0,0.0,0,0,0.0,0.0,0,0,22.0,0.0,0.0,4626.666666666667,4017.9487179487182,4503.589743589744,4458.974358974359,4265.641025641026,4561.025641025642,4459.48717948718,4456.410256410257,4421.538461538462,4726.666666666667,4356.410256410257,4358.461538461539,4245.641025641026,4594.358974358975
38.048325,0.33808985,0.43914124,0.33331707,0.5523272,0,0.0,0.0,0.0,0.0,0.0,0,0,0.0,0.0,0,0,22.0,0.0,0.0,4626.666666666667,4017.9487179487182,4503.589743589744,4458.974358974359,4265.641025641026,4561.025641025642,4459.48717948718,4456.410256410257,4421.538461538462,4726.666666666667,4356.410256410257,4358.461538461539,4245.641025641026,4594.358974358975
38.54875,0.38188648,0.4421438,0.33331874,0.5523183,0,0.0,0.0,0.0,0.0,0.0,0,0,0.0,0.0,0,0,86.0,0.0,530.0,4668.205128205129,4061.0256410256416,4537.435897435898,4483.589743589744,4283.076923076924,4581.538461538462,4472.820512820514,4482.564102564103,4472.820512820514,4733.846153846154,4421.538461538462,4438.974358974359,4357.435897435898,4657.948717948719
38.54875,0.38188648,0.4421438,0.33331874,0.5523183,0,0.0,0.0,0.0,0.0,0.0,0,0,0.0,0.0,0,0,86.0,0.0,530.0,4668.205128205129,4061.0256410256416,4537.435897435898,4483.589743589744,4283.076923076924,4581.538461538462,4472.820512820514,4482.564102564103,4472.820512820514,4733.846153846154,4421.538461538462,4438.974358974359,4357.435897435898,4657.948717948719
39.049183,0.41686943,0.44322172,0.33332026,0.5523102,0,0.0,0.0,0.0,0.0,0.0,0,0,0.0,0.0,0,0,21.0,0.0,0.0,4663.076923076924,3998.9743589743593,4515.384615384616,4463.076923076924,4267.179487179487,4564.102564102564,4457.435897435898,4466.666666666667,4411.794871794872,4723.589743589744,4395.384615384616,4360.512820512821,4307.6923076923085,4589.743589743591
39.049183,0.41686943,0.44322172,0.33332026,0.5523102,0,0.0,0.0,0.0,0.0,0.0,0,0,0.0,0.0,0,0,21.0,0.0,0.0,4663.076923076924,3998.9743589743593,4515.384615384616,4463.076923076924,4267.179487179487,4564.102564102564,4457.435897435898,4466.666666666667,4411.794871794872,4723.589743589744,4395.384615384616,4360.512820512821,4307.6923076923085,4589.743589743591
39.549614,0.47583172,0.43538815,0.3333216,0.55230296,0,0.0,0.0,0.0,0.0,0.0,0,0,0.0,0.0,0,0,85.0,0.0,509.0,4618.974358974359,3969.2307692307695,4425.128205128206,4444.102564102564,4253.846153846154,4550.769230769231,4444.102564102564,4450.769230769231,4381.538461538462,4714.358974358975,4372.307692307693,4249.74358974359,4206.666666666667,4506.153846153847
39.549614,0.47583172,0.43538815,0.3333216,0.55230296,0,0.0,0.0,0.0,0.0,0.0,0,0,0.0,0.0,0,0,85.0,0.0,509.0,4618.974358974359,3969.2307692307695,4425.128205128206,4444.102564102564,4253.846153846154,4550.769230769231,4444.102564102564,4450.769230769231,4381.538461538462,4714.358974358975,4372.307692307693,4249.74358974359,4206.666666666667,4506.153846153847
40.050045,0.48064974,0.43493026,0.33332282,0.55229646,0,0.0,0.0,0.0,0.0,0.0,0,0,0.0,0.0,0,0,20.0,0.0,0.0,4624.615384615385,3927.1794871794878,4489.743589743591,4418.461538461539,4216.923076923077,4522.051282051282,4428.205128205129,4429.2307692307695,4366.153846153847,4717.948717948719,4368.205128205129,4201.025641025642,4167.179487179487,4523.076923076924
40.050045,0.48064974,0.43493026,0.33332282,0.55229646,0,0.0,0.0,0.0,0.0,0.0,0,0,0.0,0.0,0,0,20.0,0.0,0.0,4624.615384615385,3927.1794871794878,4489.743589743591,4418.461538461539,4216.923076923077,4522.051282051282,4428.205128205129,4429.2307692307695,4366.153846153847,4717.948717948719,4368.205128205129,4201.025641025642,4167.179487179487,4523.076923076924
40.58175,0.47195396,0.41255936,0.33332393,0.5522906,0,0.0,0.0,0.0,0.0,0.0,0,0,0.0,0.0,0,0,88.0,0.0,514.0,4633.846153846154,3894.8717948717954,4733.333333333334,4415.8974358974365,4221.025641025642,4523.076923076924,4434.358974358975,4413.333333333334,4346.666666666667,4702.564102564103,4353.333333333334,4188.717948717949,4148.717948717949,4541.538461538462
40.58175,0.47195396,0.41255936,0.33332393,0.5522906,0,0.0,0.0,0.0,0.0,0.0,0,0,0.0,0.0,0,0,88.0,0.0,514.0,4633.846153846154,3894.8717948717954,4733.333333333334,4415.8974358974365,4221.025641025642,4523.076923076924,4434.358974358975,4413.333333333334,4346.666666666667,4702.564102564103,4353.333333333334,4188.717948717949,4148.717948717949,4541.538461538462
41.17601,0.49270344,0.3978562,0.33332488,0.55228543,0,0.0,0.0,0.0,0.07187628,0.0,0,0,0.0,0.0,0,0,35.0,0.0,0.0,4605.128205128206,3931.2820512820517,4446.153846153847,4418.974358974359,4238.461538461539,4535.8974358974365,4412.307692307693,4397.948717948719,4351.794871794872,4699.48717948718,4338.974358974359,4153.333333333334,4115.8974358974365,4503.589743589744
41.426228,0.49270344,0.3978562,0.33332488,0.55228543,0,0.0,0.0,0.0,0.0,0.0,0,0,0.0,0.0,0,0,67.0,0.0,542.0,4624.615384615385,3915.3846153846157,4470.769230769231,4408.205128205129,4230.256410256411,4535.8974358974365,4430.256410256411,4407.179487179487,4356.923076923077,4703.589743589744,4340.000000000001,4193.846153846154,4128.205128205129,4529.2307692307695
41.58261,0.49468067,0.3903399,0.3333257,0.5522808,0,0.0,0.0,0.0,0.0,0.0,0,0,0.0,0.0,0,0,87.0,0.0,507.0,4609.2307692307695,3940.5128205128212,4445.128205128206,4413.846153846154,4245.128205128206,4553.333333333334,4443.076923076924,4424.615384615385,4371.282051282052,4715.8974358974365,4331.282051282052,4182.051282051282,4121.025641025642,4520.512820512821
41.58261,0.49468067,0.3903399,0.3333257,0.5522808,0,0.0,0.0,0.0,0.0,0.0,0,0,0.0,0.0,0,0,87.0,0.0,507.0,4609.2307692307695,3940.5128205128212,4445.128205128206,4413.846153846154,4245.128205128206,4553.333333333334,4443.076923076924,4424.615384615385,4371.282051282052,4715.8974358974365,4331.282051282052,4182.051282051282,4121.025641025642,4520.512820512821
42.05176,0.46991193,0.37184024,0.33332652,0.55227655,0,0.0,0.0,0.0,0.0,0.0,0,0,0.0,0.0,0,0,18.0,0.0,0.0,4631.794871794872,3968.717948717949,4506.666666666667,4419.48717948718,4241.025641025642,4545.641025641026,4441.025641025642,4429.743589743591,4381.025641025642,4740.512820512821,4365.128205128206,4228.717948717949,4172.307692307693,4540.512820512821
42.05176,0.46991193,0.37184024,0.33332652,0.55227655,0,0.0,0.0,0.0,0.0,0.0,0,0,0.0,0.0,0,0,18.0,0.0,0.0,4631.794871794872,3968.717948717949,4506.666666666667,4419.48717948718,4241.025641025642,4545.641025641026,4441.025641025642,4429.743589743591,4381.025641025642,4740.512820512821,4365.128205128206,4228.717948717949,4172.307692307693,4540.512820512821
42.552193,0.46918613,0.36284223,0.3333272,0.55227274,0,0.0,0.0,0.0,0.0,0.0,0,0,0.0,0.0,0,0,82.0,0.0,530.0,4609.743589743591,3924.615384615385,4381.538461538462,4396.923076923077,4226.666666666667,4525.641025641026,4441.025641025642,4415.384615384616,4368.205128205129,4717.435897435898,4322.564102564103,4208.205128205129,4138.461538461539,4448.205128205129
42.552193,0.46918613,0.36284223,0.3333272,0.55227274,0,0.0,0.0,0.0,0.0,0.0,0,0,0.0,0.0,0,0,82.0,0.0,530.0,4609.743589743591,3924.615384615385,4381.538461538462,4396.923076923077,4226.666666666667,4525.641025641026,4441.025641025642,4415.384615384616,4368.205128205129,4717.435897435898,4322.564102564103,4208.205128205129,4138.461538461539,4448.205128205129
43.0839,0.43208,0.35276228,0.33332783,0.55226934,0,0.0,0.0,0.0,0.0,0.0,0,0,0.0,0.0,0,0,21.0,0.0,0.0,4625.641025641026,3910.2564102564106,4320.512820512821,4415.8974358974365,4245.128205128206,4545.641025641026,4455.8974358974365,4435.8974358974365,4390.769230769231,4730.256410256411,4330.256410256411,4224.615384615385,4152.307692307693,4456.410256410257
43.0839,0.43208,0.35276228,0.33332783,0.55226934,0,0.0,0.0,0.0,0.0,0.0,0,0,0.0,0.0,0,0,21.0,0.0,0.0,4625.641025641026,3910.2564102564106,4320.512820512821,4415.8974358974365,4245.128205128206,4545.641025641026,4455.8974358974365,4435.8974358974365,4390.769230769231,4730.256410256411,4330.256410256411,4224.615384615385,4152.307692307693,4456.410256410257
43.58433,0.42031825,0.3567075,0.33332837,0.55226624,0,0.0,0.0,0.0,0.0,0.0,0,0,0.0,0.0,0,0,85.0,0.0,509.0,4604.102564102564,3907.692307692308,4596.923076923077,4386.666666666667,4218.461538461539,4523.076923076924,4410.769230769231,4386.666666666667,4353.333333333334,4690.769230769231,4293.333333333334,4182.051282051282,4121.538461538462,4429.743589743591
43.928375,0.42031825,0.3567075,0.33332837,0.55226624,0,0.0,0.0,0.0,0.0626773,0.0,0,0,0.0,0.0,0,0,0.0,0.0,499.0,4622.564102564103,3910.2564102564106,4368.205128205129,4416.410256410257,4234.871794871796,4537.435897435898,4441.025641025642,4414.871794871796,4380.512820512821,4724.102564102564,4310.769230769231,4217.435897435898,4149.74358974359,4474.871794871796
44.178593,0.43253642,0.36406144,0.33332887,0.5522635,0,0.0,0.0,0.0,0.08326939,0.0,0,0,0.0,0.0,0,0,32.0,0.0,0.0,4604.102564102564,3875.8974358974365,4492.820512820514,4382.564102564103,4231.282051282052,4528.205128205129,4428.717948717949,4413.846153846154,4379.48717948718,4720.512820512821,4309.2307692307695,4198.461538461539,4152.307692307693,4464.615384615385
44.3037,0.43253642,0.36406144,0.33332887,0.5522635,0,0.0,0.0,0.0,0.0,0.0,0,0,0.0,0.0,0,0,48.0,0.0,0.0,4604.102564102564,3880.0000000000005,4378.974358974359,4388.205128205129,4232.820512820514,4540.000000000001,4434.871794871796,4418.461538461539,4385.641025641026,4719.48717948718,4318.974358974359,4196.923076923077,4151.794871794872,4471.282051282052
44.58519,0.4204759,0.36921394,0.33332932,0.55226105,0,0.0,0.0,0.0,0.0,0.0,0,0,0.0,0.0,0,0,84.0,0.0,514.0,4603.589743589744,3892.307692307693,4587.6923076923085,4396.410256410257,4233.333333333334,4535.384615384616,4428.205128205129,4405.128205128206,4369.743589743591,4708.717948717949,4306.666666666667,4185.128205128206,4123.076923076924,4466.153846153847
44.58519,0.4204759,0.36921394,0.33332932,0.55226105,0,0.0,0.0,0.0,0.0,0.0,0,0,0.0,0.0,0,0,84.0,0.0,514.0,4603.589743589744,3892.307692307693,4587.6923076923085,4396.410256410257,4233.333333333334,4535.384615384616,4428.205128205129,4405.128205128206,4369.743589743591,4708.717948717949,4306.666666666667,4185.128205128206,4123.076923076924,4466.153846153847
45.054344,0.42086154,0.38318747,0.33332974,0.5522588,0,0.0,0.0,0.0,0.0,0.0,0,0,0.0,0.0,0,0,15.0,0.0,507.0,4602.564102564103,3909.2307692307695,4430.769230769231,4414.871794871796,4233.333333333334,4540.000000000001,4438.974358974359,4436.923076923077,4401.025641025642,4740.000000000001,4329.2307692307695,4213.846153846154,4160.512820512821,4487.179487179488
45.054344,0.42086154,0.38318747,0.33332974,0.5522588,0,0.0,0.0,0.0,0.0,0.0,0,0,0.0,0.0,0,0,15.0,0.0,507.0,4602.564102564103,3909.2307692307695,4430.769230769231,4414.871794871796,4233.333333333334,4540.000000000001,4438.974358974359,4436.923076923077,4401.025641025642,4740.000000000001,4329.2307692307695,4213.846153846154,4160.512820512821,4487.179487179488
45.586052,0.3969317,0.39530343,0.3333301,0.5522568,0,0.0,0.0,0.0,0.0,0.0,0,0,0.0,0.0,0,0,83.0,0.0,507.0,4627.179487179488,3928.205128205129,4501.025641025642,4436.923076923077,4245.641025641026,4553.846153846154,4445.128205128206,4422.564102564103,4397.435897435898,4738.461538461539,4328.717948717949,4236.410256410257,4156.923076923077,4509.2307692307695
45.930096,0.3969317,0.39530343,0.3333301,0.5522568,0,0.0,0.0,0.0,0.024913542,0.0,0,0,0.0,0.0,0,0,127.0,0.0,507.0,4610.256410256411,3947.692307692308,4414.871794871796,4441.025641025642,4244.615384615385,4551.794871794872,4443.589743589744,4430.769230769231,4405.128205128206,4749.2307692307695,4328.717948717949,4224.615384615385,4160.512820512821,4491.282051282052
46.180313,0.3649953,0.43373382,0.33333042,0.552255,0,0.0,0.0,0.0,0.023583755,0.0,0,0,0.0,0.0,0,0,30.0,0.0,0.0,4623.076923076924,3963.076923076924,4162.564102564103,4463.589743589744,4252.307692307693,4556.410256410257,4491.794871794872,4471.282051282052,4431.282051282052,4765.641025641026,4369.2307692307695,4264.102564102564,4188.205128205129,4518.461538461539
46.430527,0.3649953,0.43373382,0.33333042,0.552255,0,0.0,0.0,0.0,0.02456999,0.0,0,0,0.0,0.0,0,0,62.0,0.0,0.0,4625.128205128206,3929.7435897435903,4467.179487179487,4436.923076923077,4230.256410256411,4538.974358974359,4442.564102564103,4434.871794871796,4409.2307692307695,4761.025641025642,4361.538461538462,4247.179487179487,4185.641025641026,4505.128205128206
46.68074,0.37874788,0.50007176,0.33333072,0.55225337,0,0.0,0.0,0.0,0.032697443,0.0,0,0,0.0,0.0,0,0,94.0,0.0,530.0,4619.48717948718,3923.589743589744,4477.948717948719,4424.102564102564,4215.384615384616,4525.128205128206,4460.000000000001,4441.538461538462,4408.205128205129,4747.6923076923085,4338.461538461539,4213.846153846154,4164.615384615385,4456.410256410257
46.805847,0.37874788,0.50007176,0.33333072,0.55225337,0,0.0,0.0,0.0,0.0,0.0,0,0,0.0,0.0,0,0,110.0,0.0,530.0,4630.769230769231,3942.0512820512827,4488.205128205129,4443.589743589744,4221.538461538462,4524.615384615385,4440.000000000001,4423.076923076924,4393.333333333334,4743.589743589744,4358.974358974359,4230.256410256411,4177.435897435898,4474.358974358975
47.08734,0.3823733,0.6136819,0.33333096,0.55225194,0,0.0,0.0,0.0,0.0,0.0,0,0,0.0,0.0,0,0,17.0,0.0,0.0,4638.461538461539,3937.435897435898,4433.333333333334,4451.282051282052,4227.6923076923085,4532.820512820514,4465.641025641026,4445.641025641026,4411.794871794872,4748.717948717949,4358.461538461539,4249.74358974359,4180.512820512821,4471.794871794872
47.08734,0.3823733,0.6136819,0.33333096,0.55225194,0,0.0,0.0,0.0,0.0,0.0,0,0,0.0,0.0,0,0,17.0,0.0,0.0,4638.461538461539,3937.435897435898,4433.333333333334,4451.282051282052,4227.6923076923085,4532.820512820514,4465.641025641026,4445.641025641026,4411.794871794872,4748.717948717949,4358.461538461539,4249.74358974359,4180.512820512821,4471.794871794872
47.587772,0.36881384,0.7400475,0.3333312,0.5522506,0,0.0,0.0,0.0,0.0,0.0,0,0,0.0,0.0,0,0,81.0,0.0,509.0,4633.846153846154,3929.2307692307695,4495.384615384616,4443.589743589744,4229.2307692307695,4535.8974358974365,4447.6923076923085,4426.666666666667,4398.974358974359,4736.410256410257,4348.717948717949,4248.205128205129,4198.974358974359,4461.538461538462
47.587772,0.36881384,0.7400475,0.3333312,0.5522506,0,0.0,0.0,0.0,0.0,0.0,0,0,0.0,0.0,0,0,81.0,0.0,509.0,4633.846153846154,3929.2307692307695,4495.384615384616,4443.589743589744,4229.2307692307695,4535.8974358974365,4447.6923076923085,4426.666666666667,4398.974358974359,4736.410256410257,4348.717948717949,4248.205128205129,4198.974358974359,4461.538461538462
48.0882,0.38111573,0.85501057,0.33333144,0.55224943,0,0.0,0.0,0.0,0.0,0.0,0,0,0.0,0.0,0,0,16.0,0.0,0.0,4648.205128205129,3955.3846153846157,4413.333333333334,4459.48717948718,4250.769230769231,4556.923076923077,4486.153846153847,4457.948717948719,4428.717948717949,4749.743589743591,4373.333333333334,4276.923076923077,4224.102564102564,4508.717948717949
48.0882,0.38111573,0.85501057,0.33333144,0.55224943,0,0.0,0.0,0.0,0.0,0.0,0,0,0.0,0.0,0,0,16.0,0.0,0.0,4648.205128205129,3955.3846153846157,4413.333333333334,4459.48717948718,4250.769230769231,4556.923076923077,4486.153846153847,4457.948717948719,4428.717948717949,4749.743589743591,4373.333333333334,4276.923076923077,4224.102564102564,4508.717948717949
48.557354,0.39204133,0.95035285,0.3333316,0.55224836,0,0.0,0.0,0.0,0.0,0.0,0,0,0.0,0.0,0,0,76.0,0.0,514.0,4623.589743589744,3937.9487179487182,4383.076923076924,4440.000000000001,4244.615384615385,4550.256410256411,4483.589743589744,4460.000000000001,4427.179487179487,4745.128205128206,4351.794871794872,4253.846153846154,4197.435897435898,4507.6923076923085
48.557354,0.39204133,0.95035285,0.3333316,0.55224836,0,0.0,0.0,0.0,0.0,0.0,0,0,0.0,0.0,0,0,76.0,0.0,514.0,4623.589743589744,3937.9487179487182,4383.076923076924,4440.000000000001,4244.615384615385,4550.256410256411,4483.589743589744,4460.000000000001,4427.179487179487,4745.128205128206,4351.794871794872,4253.846153846154,4197.435897435898,4507.6923076923085
49.057785,0.40103358,0.97174525,0.3333318,0.5522474,0,0.0,0.0,0.0,0.0,0.0,0,0,0.0,0.0,0,0,11.0,0.0,507.0,4633.846153846154,3923.589743589744,4592.307692307693,4424.615384615385,4234.358974358975,4537.435897435898,4457.948717948719,4424.102564102564,4388.205128205129,4727.6923076923085,4327.6923076923085,4240.000000000001,4187.179487179487,4461.538461538462
49.057785,0.40103358,0.97174525,0.3333318,0.5522474,0,0.0,0.0,0.0,0.0,0.0,0,0,0.0,0.0,0,0,11.0,0.0,507.0,4633.846153846154,3923.589743589744,4592.307692307693,4424.615384615385,4234.358974358975,4537.435897435898,4457.948717948719,4424.102564102564,4388.205128205129,4727.6923076923085,4327.6923076923085,4240.000000000001,4187.179487179487,4461.538461538462
49.558216,0.38190904,0.99069804,0.33333194,0.5522465,0,0.0,0.0,0.0,0.0,0.0,0,0,0.0,0.0,0,0,75.0,0.0,507.0,4646.666666666667,3942.0512820512827,4387.6923076923085,4442.051282051282,4246.666666666667,4553.333333333334,4460.512820512821,4418.974358974359,4398.974358974359,4736.410256410257,4353.333333333334,4253.846153846154,4196.410256410257,4475.384615384616
49.558216,0.38190904,0.99069804,0.33333194,0.5522465,0,0.0,0.0,0.0,0.0,0.0,0,0,0.0,0.0,0,0,75.0,0.0,507.0,4646.666666666667,3942.0512820512827,4387.6923076923085,4442.051282051282,4246.666666666667,4553.333333333334,4460.512820512821,4418.974358974359,4398.974358974359,4736.410256410257,4353.333333333334,4253.846153846154,4196.410256410257,4475.384615384616
50.058643,0.36684206,0.98919326,0.3333321,0.55224574,0,0.0,0.0,0.0,0.0,0.0,0,0,0.0,0.0,0,0,10.0,0.0,530.0,4592.307692307693,3941.538461538462,4369.2307692307695,4411.794871794872,4240.512820512821,4537.948717948719,4441.025641025642,4414.871794871796,4393.846153846154,4713.846153846154,4296.410256410257,4173.333333333334,4134.871794871796,4404.615384615385
50.058643,0.36684206,0.98919326,0.3333321,0.55224574,0,0.0,0.0,0.0,0.0,0.0,0,0,0.0,0.0,0,0,10.0,0.0,530.0,4592.307692307693,3941.538461538462,4369.2307692307695,4411.794871794872,4240.512820512821,4537.948717948719,4441.025641025642,4414.871794871796,4393.846153846154,4713.846153846154,4296.410256410257,4173.333333333334,4134.871794871796,4404.615384615385
50.68418,0.36024737,0.97976154,0.3333322,0.552245,0,0.0,0.0,0.0,0.22084568,0.0,0,0,0.0,0.0,0,0,90.0,0.0,530.0,4657.435897435898,3942.564102564103,4412.820512820514,4428.717948717949,4233.333333333334,4534.871794871796,4442.051282051282,4426.153846153847,4409.2307692307695,4736.923076923077,4394.871794871796,4267.6923076923085,4234.871794871796,4461.025641025642
50.9344,0.36024737,0.97976154,0.3333322,0.552245,0,0.0,0.0,0.0,0.17028295,0.0,0,0,0.0,0.0,0,0,122.0,0.0,530.0,4616.923076923077,3924.1025641025644,4394.871794871796,4402.564102564103,4233.846153846154,4535.384615384616,4444.102564102564,4421.025641025642,4392.820512820514,4715.384615384616,4354.871794871796,4231.794871794872,4184.102564102564,4405.641025641026
51.090782,0.34943473,0.9533973,0.33333233,0.5522444,0,0.0,0.0,0.0,0.0,0.0,0,0,0.0,0.0,0,0,13.0,0.0,509.0,4610.256410256411,3943.589743589744,4410.769230769231,4416.923076923077,4249.2307692307695,4544.102564102564,4431.794871794872,4413.333333333334,4391.282051282052,4714.358974358975,4336.410256410257,4217.435897435898,4167.179487179487,4415.8974358974365
51.090782,0.34943473,0.9533973,0.33333233,0.5522444,0,0.0,0.0,0.0,0.0,0.0,0,0,0.0,0.0,0,0,13.0,0.0,509.0,4610.256410256411,3943.589743589744,4410.769230769231,4416.923076923077,4249.2307692307695,4544.102564102564,4431.794871794872,4413.333333333334,4391.282051282052,4714.358974358975,4336.410256410257,4217.435897435898,4167.179487179487,4415.8974358974365
51.591213,0.32778597,0.8995334,0.33333245,0.5522438,0,0.0,0.0,0.0,0.0,0.0,0,0,0.0,0.0,0,0,77.0,0.0,509.0,4594.871794871796,3904.615384615385,4469.2307692307695,4382.564102564103,4230.769230769231,4526.666666666667,4444.102564102564,4437.435897435898,4380.000000000001,4702.051282051282,4305.641025641026,4216.410256410257,4159.48717948718,4427.179487179487
51.591213,0.32778597,0.8995334,0.33333245,0.5522438,0,0.0,0.0,0.0,0.0,0.0,0,0,0.0,0.0,0,0,77.0,0.0,509.0,4594.871794871796,3904.615384615385,4469.2307692307695,4382.564102564103,4230.769230769231,4526.666666666667,4444.102564102564,4437.435897435898,4380.000000000001,4702.051282051282,4305.641025641026,4216.410256410257,4159.48717948718,4427.179487179487
52.18547,0.29541084,0.8801516,0.33333254,0.55224335,1,0.0,0.0,0.0,0.0,0.09183852,0,0,0.0,0.0,0,0,24.0,0.0,0.0,4573.846153846154,3932.820512820513,4408.717948717949,4488.717948717949,4211.794871794872,4508.205128205129,4458.974358974359,4352.820512820514,4345.641025641026,4676.923076923077,4307.6923076923085,4170.256410256411,4110.256410256411,4441.025641025642
52.435688,0.29541084,0.8801516,0.33333254,0.55224335,0,0.0,0.0,0.0,0.0,0.10181498,0,0,0.0,0.0,0,0,56.0,0.0,0.0,4537.435897435898,3804.1025641025644,4478.974358974359,4398.974358974359,4196.923076923077,4498.461538461539,4408.205128205129,4323.589743589744,4328.205128205129,4690.256410256411,4210.769230769231,4175.8974358974365,4119.48717948718,4418.974358974359
52.6859,0.28880453,0.8794735,0.3333326,0.5522429,0,0.0,0.0,0.0,0.0,0.090226576,0,0,0.0,0.0,0,0,88.0,0.0,514.0,4594.358974358975,3858.9743589743593,4394.358974358975,4412.820512820514,4236.923076923077,4527.6923076923085,4416.410256410257,4340.000000000001,4324.615384615385,4676.923076923077,4243.589743589744,4207.179487179487,4104.615384615385,4457.948717948719
52.93612,0.28880453,0.8794735,0.3333326,0.5522429,0,0.0,0.0,0.0,0.04117943,0.0,0,0,0.0,0.0,0,0,120.0,0.0,514.0,4613.846153846154,3982.564102564103,4499.48717948718,4462.051282051282,4222.564102564103,4515.384615384616,4413.333333333334,4359.48717948718,4353.846153846154,4722.051282051282,4318.461538461539,4269.74358974359,4250.769230769231,4527.6923076923085
53.186333,0.31028405,0.89092106,0.3333327,0.55224246,0,0.0,0.0,0.0,0.0,0.0,0,0,0.0,0.33919936,0,0,23.0,0.0,0.0,4604.102564102564,4080.0000000000005,4458.974358974359,4543.076923076924,4200.512820512821,4523.589743589744,4424.102564102564,4418.461538461539,4418.461538461539,4733.846153846154,4409.2307692307695,4284.102564102564,4256.923076923077,4549.2307692307695
53.436546,0.31028405,0.89092106,0.3333327,0.55224246,0,0.0,0.0,0.0,0.0,0.0,0,0,0.0,0.47452796,0,0,55.0,0.0,0.0,4543.589743589744,4113.333333333334,4632.307692307693,5244.102564102564,4165.641025641026,4490.769230769231,4378.461538461539,4365.128205128206,4368.717948717949,4663.589743589744,4836.410256410257,4257.948717948719,4258.461538461539,4405.641025641026
53.686764,0.33131602,0.9086381,0.33333275,0.5522421,0,0.058415912,0.0,0.0,0.0,0.0,0,0,0.0,0.0,0,0,87.0,0.0,506.0,4529.743589743591,4178.461538461539,4820.512820512821,5039.487179487181,4138.974358974359,4459.48717948718,4314.871794871796,4337.435897435898,4344.615384615385,4609.743589743591,4712.307692307693,4246.666666666667,4387.179487179487,4363.076923076924
53.936977,0.33131602,0.9086381,0.33333275,0.5522421,0,0.348475,0.0,0.0,0.0,0.0,0,0,0.0,0.0,0,0,119.0,0.0,506.0,4554.871794871796,4162.051282051282,4816.923076923077,4926.153846153847,4196.410256410257,4511.794871794872,4356.923076923077,4377.948717948719,4375.384615384616,4635.8974358974365,4684.102564102564,4302.564102564103,4396.923076923077,4443.589743589744
54.18719,0.37344092,0.9245835,0.3333328,0.55224174,0,0.122356705,0.0,0.0,0.0,0.0,0,0,0.0,0.0,0,0,22.0,0.0,0.0,4638.974358974359,4127.179487179487,4801.025641025642,4853.846153846154,4245.128205128206,4562.051282051282,4443.589743589744,4450.256410256411,4430.256410256411,4730.256410256411,4701.538461538462,4384.615384615385,4385.128205128206,4562.051282051282
54.43741,0.37344092,0.9245835,0.3333328,0.55224174,0,0.0,0.0,0.0,0.0,0.0,0,0,0.0,0.1550372,0,0,54.0,0.0,0.0,4720.000000000001,4054.358974358975,4855.384615384616,4684.102564102564,4275.384615384616,4580.512820512821,4472.820512820514,4473.846153846154,4442.564102564103,4749.2307692307695,4625.641025641026,4456.923076923077,4397.948717948719,4692.307692307693
54.687622,0.41667166,0.9389343,0.33333287,0.5522415,0,0.0,0.0,0.0,0.0,0.0,0,0,0.0,0.248759,0,0,86.0,0.0,523.0,4628.717948717949,4011.7948717948725,4568.717948717949,4632.307692307693,4311.282051282052,4599.48717948718,4489.2307692307695,4473.333333333334,4446.666666666667,4747.6923076923085,4531.794871794872,4393.333333333334,4309.743589743591,4615.8974358974365
54.937836,0.41667166,0.9389343,0.33333287,0.5522415,0,0.0,0.0,0.0,0.0,0.0,0,0,0.0,0.20943937,0,0,118.0,0.0,523.0,4597.435897435898,3957.435897435898,4675.384615384616,4593.333333333334,4248.205128205129,4551.282051282052,4476.923076923077,4427.179487179487,4387.179487179487,4680.512820512821,4457.435897435898,4323.589743589744,4233.333333333334,4617.948717948719
55.188053,0.4990716,0.95185006,0.3333329,0.5522412,0,0.0,0.0,0.0,0.0,0.0,0,0,0.0,0.40857348,0,0,21.0,0.0,0.0,4604.615384615385,3965.6410256410263,4601.025641025642,4585.641025641026,4265.641025641026,4560.000000000001,4474.871794871796,4445.128205128206,4396.923076923077,4720.000000000001,4458.974358974359,4313.333333333334,4232.307692307693,4605.641025641026
55.438267,0.4990716,0.95185006,0.3333329,0.5522412,0,0.0,0.0,0.0,0.0,0.0,0,0,0.0,0.74763525,0,0,53.0,0.0,0.0,4592.820512820514,3991.7948717948725,4627.6923076923085,4561.538461538462,4250.256410256411,4543.589743589744,4428.205128205129,4407.179487179487,4360.512820512821,4688.205128205129,4378.461538461539,4261.538461538462,4193.846153846154,4552.307692307693
55.688484,0.5051071,0.9634742,0.33333296,0.55224097,0,0.0,0.0,0.0,0.0,0.0,0,0,0.0,0.23133849,0,0,85.0,0.0,506.0,4613.333333333334,3985.6410256410263,4628.717948717949,4534.871794871796,4233.846153846154,4536.410256410257,4425.128205128206,4402.564102564103,4348.717948717949,4673.333333333334,4342.051282051282,4236.410256410257,4176.410256410257,4546.153846153847
55.938698,0.5051071,0.9634742,0.33333296,0.55224097,0,0.0,0.0,0.0,0.0,0.0,0,0,0.0,0.1710814,0,0,117.0,0.0,506.0,4612.307692307693,3952.820512820513,4740.000000000001,4495.384615384616,4197.948717948719,4493.846153846154,4385.128205128206,4389.743589743591,4313.846153846154,4649.743589743591,4280.512820512821,4217.435897435898,4108.205128205129,4523.076923076924
56.18891,0.514172,0.97393596,0.333333,0.5522407,0,0.0,0.0,0.0,0.0,0.0,0,0,0.0,0.19165072,0,0,20.0,0.0,0.0,4621.538461538462,3901.0256410256416,4600.512820512821,4435.384615384616,4221.538461538462,4513.846153846154,4411.794871794872,4414.871794871796,4319.48717948718,4677.948717948719,4235.384615384616,4204.615384615385,4038.461538461539,4498.974358974359
56.43913,0.514172,0.97393596,0.333333,0.5522407,0,0.0,0.0,0.0,0.0,0.0,0,0,0.0,0.3181015,0,0,52.0,0.0,0.0,4621.025641025642,3860.512820512821,4607.179487179488,4407.179487179487,4213.846153846154,4507.6923076923085,4386.153846153847,4397.948717948719,4317.948717948719,4681.025641025642,4150.256410256411,4193.846153846154,4027.1794871794878,4497.435897435898
56.595512,0.497878,0.93682796,0.33333302,0.55224055,0,0.0,0.0,0.0,0.0,0.0,0,0,0.0,0.0,0,0,72.0,0.0,467.0,4620.512820512821,3858.461538461539,4574.358974358975,4384.102564102564,4228.717948717949,4518.974358974359,4404.615384615385,4402.564102564103,4323.076923076924,4697.948717948719,4152.307692307693,4198.461538461539,4049.7435897435903,4524.615384615385
56.595512,0.497878,0.93682796,0.33333302,0.55224055,0,0.0,0.0,0.0,0.0,0.0,0,0,0.0,0.0,0,0,72.0,0.0,467.0,4620.512820512821,3858.461538461539,4574.358974358975,4384.102564102564,4228.717948717949,4518.974358974359,4404.615384615385,4402.564102564103,4323.076923076924,4697.948717948719,4152.307692307693,4198.461538461539,4049.7435897435903,4524.615384615385
57.064667,0.5105993,0.90138537,0.33333305,0.5522404,0,0.0,0.0,0.0,0.0,0.0,0,0,0.0,0.0,0,0,3.0,0.0,544.0,4618.461538461539,3863.076923076924,4502.564102564103,4330.769230769231,4230.256410256411,4527.6923076923085,4396.410256410257,4409.743589743591,4342.564102564103,4703.076923076924,4136.923076923077,4166.153846153847,4044.615384615385,4488.205128205129
57.064667,0.5105993,0.90138537,0.33333305,0.5522404,0,0.0,0.0,0.0,0.0,0.0,0,0,0.0,0.0,0,0,3.0,0.0,544.0,4618.461538461539,3863.076923076924,4502.564102564103,4330.769230769231,4230.256410256411,4527.6923076923085,4396.410256410257,4409.743589743591,4342.564102564103,4703.076923076924,4136.923076923077,4166.153846153847,4044.615384615385,4488.205128205129
57.565094,0.48032972,0.9054746,0.33333308,0.5522402,0,0.0,0.0,0.0,0.0,0.0,0,0,0.0,0.0,0,0,67.0,0.0,544.0,4604.102564102564,3864.1025641025644,4522.564102564103,4294.358974358975,4216.410256410257,4522.051282051282,4411.282051282052,4413.846153846154,4354.358974358975,4711.794871794872,4157.435897435898,4190.769230769231,4088.205128205129,4492.820512820514
57.565094,0.48032972,0.9054746,0.33333308,0.5522402,0,0.0,0.0,0.0,0.0,0.0,0,0,0.0,0.0,0,0,67.0,0.0,544.0,4604.102564102564,3864.1025641025644,4522.564102564103,4294.358974358975,4216.410256410257,4522.051282051282,4411.282051282052,4413.846153846154,4354.358974358975,4711.794871794872,4157.435897435898,4190.769230769231,4088.205128205129,4492.820512820514
58.065525,0.43876922,0.8686688,0.3333331,0.5522401,0,0.0,0.0,0.0,0.0,0.0,0,0,0.0,0.0,0,0,2.0,0.0,300.0,4601.025641025642,3832.820512820513,4486.153846153847,4244.615384615385,4187.6923076923085,4488.205128205129,4400.000000000001,4396.410256410257,4344.615384615385,4708.717948717949,4169.74358974359,4187.179487179487,4136.923076923077,4510.769230769231
58.065525,0.43876922,0.8686688,0.3333331,0.5522401,0,0.0,0.0,0.0,0.0,0.0,0,0,0.0,0.0,0,0,2.0,0.0,300.0,4601.025641025642,3832.820512820513,4486.153846153847,4244.615384615385,4187.6923076923085,4488.205128205129,4400.000000000001,4396.410256410257,4344.615384615385,4708.717948717949,4169.74358974359,4187.179487179487,4136.923076923077,4510.769230769231
58.565956,0.4384539,0.8461361,0.33333313,0.55223995,0,0.0,0.0,0.0,0.0,0.0,0,0,0.0,0.0,0,0,66.0,0.0,300.0,4605.641025641026,3862.0512820512827,4424.615384615385,4281.025641025642,4205.128205128206,4509.2307692307695,4421.025641025642,4412.820512820514,4366.666666666667,4723.589743589744,4215.384615384616,4215.384615384616,4136.923076923077,4491.282051282052
58.565956,0.4384539,0.8461361,0.33333313,0.55223995,0,0.0,0.0,0.0,0.0,0.0,0,0,0.0,0.0,0,0,66.0,0.0,300.0,4605.641025641026,3862.0512820512827,4424.615384615385,4281.025641025642,4205.128205128206,4509.2307692307695,4421.025641025642,4412.820512820514,4366.666666666667,4723.589743589744,4215.384615384616,4215.384615384616,4136.923076923077,4491.282051282052
59.066387,0.41454804,0.8319411,0.33333316,0.55223984,0,0.0,0.0,0.0,0.0,0.0,0,0,0.0,0.0,0,0,1.0,0.0,511.0,4588.205128205129,3877.9487179487182,4449.743589743591,4284.102564102564,4198.974358974359,4502.051282051282,4421.025641025642,4413.846153846154,4366.153846153847,4707.6923076923085,4233.846153846154,4194.871794871796,4119.48717948718,4432.307692307693
59.066387,0.41454804,0.8319411,0.33333316,0.55223984,0,0.0,0.0,0.0,0.0,0.0,0,0,0.0,0.0,0,0,1.0,0.0,511.0,4588.205128205129,3877.9487179487182,4449.743589743591,4284.102564102564,4198.974358974359,4502.051282051282,4421.025641025642,4413.846153846154,4366.153846153847,4707.6923076923085,4233.846153846154,4194.871794871796,4119.48717948718,4432.307692307693
59.69192,0.46465272,0.82354796,0.33333316,0.5522397,0,0.0,0.0,0.0,0.10908716,0.0,0,0,0.0,0.0,0,0,81.0,0.0,506.0,4576.410256410257,3894.8717948717954,4558.461538461539,4305.128205128206,4217.435897435898,4520.512820512821,4440.000000000001,4426.666666666667,4377.435897435898,4735.384615384616,4272.307692307693,4215.8974358974365,4136.410256410257,4471.282051282052
59.94214,0.46465272,0.82354796,0.33333316,0.5522397,0,0.0,0.0,0.0,0.3885168,0.0,0,0,0.0,0.0,0,0,113.0,0.0,506.0,4593.846153846154,3925.1282051282055,4509.2307692307695,4343.589743589744,4232.307692307693,4534.871794871796,4458.974358974359,4445.641025641026,4420.000000000001,4778.461538461539,4327.6923076923085,4260.512820512821,4183.589743589744,4495.8974358974365
60.192352,0.46824333,0.8552483,0.3333332,0.55223966,0,0.0,0.0,0.0,0.0,0.0,0,0,0.0,0.0,0,0,16.0,0.0,0.0,4621.025641025642,3930.7692307692314,4595.384615384616,4352.307692307693,4234.358974358975,4538.974358974359,4445.641025641026,4402.051282051282,4407.6923076923085,4732.820512820514,4306.666666666667,4236.410256410257,4187.6923076923085,4497.948717948719
60.192352,0.46824333,0.8552483,0.3333332,0.55223966,0,0.0,0.0,0.0,0.0,0.0,0,0,0.0,0.0,0,0,16.0,0.0,0.0,4621.025641025642,3930.7692307692314,4595.384615384616,4352.307692307693,4234.358974358975,4538.974358974359,4445.641025641026,4402.051282051282,4407.6923076923085,4732.820512820514,4306.666666666667,4236.410256410257,4187.6923076923085,4497.948717948719
60.692783,0.52628016,0.98781663,0.3333332,0.55223954,0,0.0,0.0,0.0,0.0,0.0,0,0,0.0,0.0,0,0,80.0,0.0,513.0,4692.820512820514,4038.9743589743593,4545.128205128206,4527.6923076923085,4299.48717948718,4609.743589743591,4509.743589743591,4572.307692307693,4520.000000000001,4807.179487179488,4555.384615384616,4428.205128205129,4316.923076923077,4648.205128205129
60.692783,0.52628016,0.98781663,0.3333332,0.55223954,0,0.0,0.0,0.0,0.0,0.0,0,0,0.0,0.0,0,0,80.0,0.0,513.0,4692.820512820514,4038.9743589743593,4545.128205128206,4527.6923076923085,4299.48717948718,4609.743589743591,4509.743589743591,4572.307692307693,4520.000000000001,4807.179487179488,4555.384615384616,4428.205128205129,4316.923076923077,4648.205128205129
61.099384,0.62126946,1.0,0.33333322,0.5522395,0,0.0,0.0,0.0,0.0,0.0,0,0,0.0,0.0,0,0,3.0,0.0,544.0,4733.846153846154,4045.1282051282055,4606.666666666667,4572.307692307693,4328.717948717949,4645.128205128206,4557.435897435898,4614.871794871796,4535.384615384616,4832.307692307693,4610.769230769231,4442.564102564103,4383.589743589744,4729.743589743591
61.099384,0.62126946,1.0,0.33333322,0.5522395,0,0.0,0.0,0.0,0.0,0.0,0,0,0.0,0.0,0,0,3.0,0.0,544.0,4733.846153846154,4045.1282051282055,4606.666666666667,4572.307692307693,4328.717948717949,4645.128205128206,4557.435897435898,4614.871794871796,4535.384615384616,4832.307692307693,4610.769230769231,4442.564102564103,4383.589743589744,4729.743589743591
61.69364,0.75671715,1.0,0.33333322,0.5522394,0,0.0,0.0,0.0,0.09560128,0.0,0,0,0.0,0.0,0,0,79.0,0.0,504.0,4748.717948717949,4072.307692307693,4405.641025641026,4585.128205128206,4391.282051282052,4697.435897435898,4627.179487179488,4637.948717948719,4558.974358974359,4879.48717948718,4575.384615384616,4396.410256410257,4387.179487179487,4796.410256410257
61.94386,0.75671715,1.0,0.33333322,0.5522394,0,0.0,0.0,0.0,0.39846867,0.0,0,0,0.0,0.0,0,0,111.0,0.0,504.0,4694.871794871796,4093.333333333334,4438.461538461539,4567.6923076923085,4362.564102564103,4669.2307692307695,4625.128205128206,4645.128205128206,4560.000000000001,4908.717948717949,4570.769230769231,4380.000000000001,4384.615384615385,4727.179487179488
62.194073,0.8152501,1.0,0.33333322,0.55223936,0,0.0,0.0,0.0,0.0,0.855837,0,0,0.0,0.0,0,0,14.0,0.0,528.0,4736.410256410257,4037.9487179487182,4494.358974358975,4537.435897435898,4345.641025641026,4653.333333333334,4600.512820512821,4631.794871794872,4525.641025641026,4839.48717948718,4553.846153846154,4277.435897435898,4343.589743589744,4645.128205128206
62.44429,0.8152501,1.0,0.33333322,0.55223936,0,0.0,0.0,0.0,0.5207139,0.0,0,0,0.0,0.0,0,0,46.0,0.0,0.0,4735.384615384616,3993.8461538461543,4399.48717948718,4476.923076923077,4307.179487179487,4614.871794871796,4571.282051282052,4588.205128205129,4495.384615384616,4812.820512820514,4457.948717948719,4255.8974358974365,4277.948717948719,4617.435897435898
62.694504,0.8786183,1.0,0.33333325,0.5522393,0,0.0,0.0,0.0,0.25882006,0.0,0,0,0.0,0.0,0,0,78.0,0.0,528.0,4700.000000000001,4008.205128205129,4436.410256410257,4461.538461538462,4295.8974358974365,4606.153846153847,4551.794871794872,4555.384615384616,4487.179487179488,4811.794871794872,4416.410256410257,4248.205128205129,4262.051282051282,4602.051282051282
62.81961,0.8786183,1.0,0.33333325,0.5522393,0,0.0,0.0,0.0,0.0,0.0,0,0,0.0,0.0,0,0,94.0,0.0,528.0,4727.179487179488,4035.8974358974365,3880.0000000000005,4479.48717948718,4322.051282051282,4632.307692307693,4577.435897435898,4575.384615384616,4506.153846153847,4832.820512820514,4430.256410256411,4257.948717948719,4281.025641025642,4620.512820512821
63.194935,0.81795204,1.0,0.33333325,0.55223924,0,0.0,0.0,0.0,0.07234574,0.0,0,0,0.0,0.0,0,0,13.0,0.0,506.0,4709.2307692307695,3954.358974358975,4041.538461538462,4433.846153846154,4273.846153846154,4581.538461538462,4542.564102564103,4520.000000000001,4462.051282051282,4781.025641025642,4388.717948717949,4246.666666666667,4223.076923076924,4554.358974358975
63.44515,0.81795204,1.0,0.33333325,0.55223924,0,0.0,0.0,0.0,0.05611769,0.0,0,0,0.0,0.0,0,0,45.0,0.0,0.0,4709.743589743591,3965.6410256410263,4124.102564102564,4431.794871794872,4285.641025641026,4585.641025641026,4524.102564102564,4504.615384615385,4462.564102564103,4797.948717948719,4405.128205128206,4247.179487179487,4231.794871794872,4547.179487179488
63.601532,0.8140027,1.0,0.33333325,0.5522392,0,0.0,0.0,0.0,0.0,0.0,0,0,0.0,0.0,0,0,65.0,0.0,512.0,4693.846153846154,3954.8717948717954,4133.846153846154,4444.102564102564,4291.282051282052,4587.6923076923085,4522.564102564103,4491.282051282052,4458.974358974359,4799.48717948718,4409.2307692307695,4260.512820512821,4230.769230769231,4549.743589743591
63.94558,0.8140027,1.0,0.33333325,0.5522392,0,0.0,0.0,0.0,0.0,0.0,0,0,0.0,0.0,0,0,109.0,0.0,506.0,4686.153846153847,3948.717948717949,4408.717948717949,4417.948717948719,4274.871794871796,4553.333333333334,4488.717948717949,4459.48717948718,4426.153846153847,4777.948717948719,4408.717948717949,4258.461538461539,4223.076923076924,4528.717948717949
64.19579,0.8442987,1.0,0.33333328,0.5522392,0,0.0,0.0,0.0,0.05714151,0.0,0,0,0.0,0.0,0,0,12.0,0.0,506.0,4674.871794871796,3942.564102564103,4480.000000000001,4412.307692307693,4262.564102564103,4552.820512820514,4476.923076923077,4440.000000000001,4417.435897435898,4752.307692307693,4379.48717948718,4237.948717948719,4191.794871794872,4508.717948717949
64.44601,0.8442987,1.0,0.33333328,0.5522392,0,0.0,0.0,0.0,0.030431787,0.0,0,0,0.0,0.0,0,0,44.0,0.0,0.0,4674.358974358975,3969.7435897435903,4207.179487179487,4424.615384615385,4273.846153846154,4567.6923076923085,4504.102564102564,4455.8974358974365,4428.205128205129,4774.871794871796,4398.461538461539,4274.358974358975,4201.538461538462,4528.205128205129
64.602394,0.8685043,1.0,0.33333328,0.5522391,0,0.0,0.0,0.0,0.0,0.0,0,0,0.0,0.0,0,0,64.0,0.0,500.0,4681.025641025642,3974.358974358975,4296.410256410257,4427.6923076923085,4274.358974358975,4567.6923076923085,4509.743589743591,4476.410256410257,4438.461538461539,4767.6923076923085,4402.564102564103,4276.923076923077,4220.000000000001,4530.769230769231
64.94644,0.8685043,1.0,0.33333328,0.5522391,0,0.0,0.0,0.0,0.08833885,0.0,0,0,0.0,0.0,0,0,108.0,0.0,507.0,4666.153846153847,3983.589743589744,4385.641025641026,4425.641025641026,4259.48717948718,4551.282051282052,4488.205128205129,4470.769230769231,4424.102564102564,4764.102564102564,4390.256410256411,4273.846153846154,4200.000000000001,4520.512820512821
65.10282,0.7783416,1.0,0.33333328,0.5522391,0,0.0,0.0,0.0,0.0,0.0,0,0,0.0,0.0,0,0,128.0,0.0,507.0,4655.384615384616,3981.538461538462,4323.076923076924,4430.769230769231,4274.871794871796,4567.179487179488,4504.615384615385,4481.025641025642,4434.871794871796,4765.128205128206,4383.589743589744,4246.666666666667,4188.205128205129,4498.974358974359
65.44687,0.7783416,1.0,0.33333328,0.5522391,0,0.0,0.0,0.0,0.0,0.0,0,0,0.0,0.35136348,0,0,43.0,0.0,0.0,4661.538461538462,3957.9487179487182,4368.205128205129,4429.743589743591,4253.333333333334,4572.820512820514,4487.179487179488,4460.000000000001,4413.333333333334,4749.743589743591,4371.282051282052,4249.2307692307695,4187.179487179487,4490.256410256411
65.69708,0.7669264,1.0,0.33333328,0.55223906,0,0.0,0.0,0.0,0.0,0.0,0,0,0.0,0.11856903,0,0,75.0,0.0,504.0,4642.564102564103,3954.358974358975,4431.282051282052,4426.153846153847,4245.128205128206,4555.384615384616,4472.820512820514,4442.564102564103,4393.846153846154,4738.461538461539,4356.923076923077,4242.564102564103,4175.8974358974365,4477.948717948719
65.947296,0.7669264,1.0,0.33333328,0.55223906,0,0.0,0.0,0.0,0.032879014,0.0,0,0,0.0,0.0,0,0,107.0,0.0,504.0,4667.179487179488,3941.0256410256416,4550.769230769231,4429.2307692307695,4244.102564102564,4554.871794871796,4475.8974358974365,4458.974358974359,4405.641025641026,4736.410256410257,4360.512820512821,4280.000000000001,4188.717948717949,4506.666666666667
66.19752,0.7881322,0.96312696,0.33333328,0.55223906,0,0.0,0.0,0.0,0.028957922,0.0,0,0,0.0,0.0,0,0,10.0,0.0,531.0,4646.153846153847,3938.461538461539,4498.974358974359,4428.205128205129,4233.846153846154,4545.641025641026,4461.538461538462,4455.384615384616,4409.743589743591,4737.948717948719,4350.256410256411,4263.076923076924,4183.076923076924,4500.000000000001
66.322624,0.7881322,0.96312696,0.33333328,0.55223906,0,0.0,0.0,0.0,0.0,0.0,0,0,0.0,0.0,0,0,26.0,0.0,0.0,4636.410256410257,3925.1282051282055,4470.256410256411,4411.794871794872,4232.307692307693,4546.153846153847,4478.974358974359,4469.743589743591,4408.717948717949,4713.846153846154,4330.769230769231,4242.051282051282,4157.948717948719,4485.641025641026
66.57284,0.8014544,0.8890566,0.33333328,0.552239,0,0.0,0.0,0.0,0.0,0.0,0,0,0.0,0.0,0,0,58.0,0.0,0.0,4635.384615384616,3945.6410256410263,4467.179487179487,4433.333333333334,4232.307692307693,4539.48717948718,4459.48717948718,4451.282051282052,4416.410256410257,4738.974358974359,4360.512820512821,4262.051282051282,4191.282051282052,4513.846153846154
66.94816,0.8014544,0.8890566,0.33333328,0.552239,0,0.0,0.0,0.0,0.0,0.0,0,0,0.0,0.032429837,0,0,106.0,0.0,531.0,4654.358974358975,3967.692307692308,4376.923076923077,4454.871794871796,4249.2307692307695,4551.794871794872,4462.564102564103,4439.48717948718,4403.589743589744,4729.743589743591,4351.282051282052,4294.871794871796,4206.153846153847,4540.512820512821
67.19837,0.79717606,0.85588723,0.3333333,0.552239,0,0.0,0.0,0.0,0.0,0.0,0,0,0.0,0.0,0,0,9.0,0.0,476.0,4637.435897435898,3971.2820512820517,4371.794871794872,4457.948717948719,4274.358974358975,4573.333333333334,4492.820512820514,4464.102564102564,4433.846153846154,4748.205128205129,4347.179487179487,4277.948717948719,4198.974358974359,4517.948717948719
67.19837,0.79717606,0.85588723,0.3333333,0.552239,0,0.0,0.0,0.0,0.0,0.0,0,0,0.0,0.0,0,0,9.0,0.0,476.0,4637.435897435898,3971.2820512820517,4371.794871794872,4457.948717948719,4274.358974358975,4573.333333333334,4492.820512820514,4464.102564102564,4433.846153846154,4748.205128205129,4347.179487179487,4277.948717948719,4198.974358974359,4517.948717948719
67.5737,0.7579574,0.83627146,0.3333333,0.552239,0,0.0,0.0,0.0,0.0,0.0,0,0,0.0,0.0,0,0,57.0,0.0,0.0,4648.717948717949,3954.8717948717954,4453.846153846154,4447.6923076923085,4274.358974358975,4572.820512820514,4498.461538461539,4470.769230769231,4440.000000000001,4757.435897435898,4354.358974358975,4296.923076923077,4222.051282051282,4521.538461538462
67.5737,0.7579574,0.83627146,0.3333333,0.552239,0,0.0,0.0,0.0,0.0,0.0,0,0,0.0,0.0,0,0,57.0,0.0,0.0,4648.717948717949,3954.8717948717954,4453.846153846154,4447.6923076923085,4274.358974358975,4572.820512820514,4498.461538461539,4470.769230769231,4440.000000000001,4757.435897435898,4354.358974358975,4296.923076923077,4222.051282051282,4521.538461538462
68.07413,0.76160043,0.8162641,0.3333333,0.55223894,0,0.0,0.0,0.0,0.0,0.0,0,0,0.0,0.0,0,0,121.0,0.0,506.0,4592.307692307693,3894.8717948717954,4994.358974358975,4389.2307692307695,4219.48717948718,4523.076923076924,4429.743589743591,4412.307692307693,4375.384615384616,4676.923076923077,4287.6923076923085,4220.000000000001,4143.589743589744,4445.128205128206
68.44945,0.76160043,0.8162641,0.3333333,0.55223894,0,0.0,0.0,0.0,0.01818004,0.0,0,0,0.0,0.0,0,0,40.0,0.0,0.0,4620.000000000001,3921.538461538462,4876.410256410257,4424.615384615385,4229.74358974359,4527.6923076923085,4429.743589743591,4428.205128205129,4393.333333333334,4719.48717948718,4328.717948717949,4263.076923076924,4195.384615384616,4506.153846153847
68.605835,0.7984151,0.79598314,0.3333333,0.55223894,0,0.0,0.0,0.0,0.0,0.0,0,0,0.0,0.0,0,0,60.0,0.0,0.0,4607.6923076923085,3910.7692307692314,4818.974358974359,4422.051282051282,4231.794871794872,4535.384615384616,4455.8974358974365,4428.205128205129,4374.358974358975,4701.538461538462,4318.974358974359,4257.435897435898,4169.2307692307695,4502.051282051282
68.605835,0.7984151,0.79598314,0.3333333,0.55223894,0,0.0,0.0,0.0,0.0,0.0,0,0,0.0,0.0,0,0,60.0,0.0,0.0,4607.6923076923085,3910.7692307692314,4818.974358974359,4422.051282051282,4231.794871794872,4535.384615384616,4455.8974358974365,4428.205128205129,4374.358974358975,4701.538461538462,4318.974358974359,4257.435897435898,4169.2307692307695,4502.051282051282
69.10626,0.8136629,0.75814396,0.3333333,0.55223894,0,0.0,0.0,0.0,0.0,0.0,0,0,0.0,0.0,0,0,124.0,0.0,510.0,4633.846153846154,3956.9230769230776,4618.461538461539,4444.615384615385,4239.48717948718,4535.8974358974365,4425.128205128206,4430.769230769231,4397.435897435898,4732.307692307693,4376.410256410257,4286.666666666667,4236.923076923077,4571.282051282052
69.10626,0.8136629,0.75814396,0.3333333,0.55223894,0,0.0,0.0,0.0,0.0,0.0,0,0,0.0,0.0,0,0,124.0,0.0,510.0,4633.846153846154,3956.9230769230776,4618.461538461539,4444.615384615385,4239.48717948718,4535.8974358974365,4425.128205128206,4430.769230769231,4397.435897435898,4732.307692307693,4376.410256410257,4286.666666666667,4236.923076923077,4571.282051282052
69.6067,0.7671425,0.7284847,0.3333333,0.55223894,0,0.0,0.0,0.0,0.0,0.0,0,0,0.0,0.0,0,0,59.0,0.0,0.0,4627.179487179488,4022.0512820512827,4616.923076923077,4444.615384615385,4261.025641025642,4561.025641025642,4424.102564102564,4424.102564102564,4428.717948717949,4734.871794871796,4361.538461538462,4357.435897435898,4275.384615384616,4560.000000000001
69.6067,0.7671425,0.7284847,0.3333333,0.55223894,0,0.0,0.0,0.0,0.0,0.0,0,0,0.0,0.0,0,0,59.0,0.0,0.0,4627.179487179488,4022.0512820512827,4616.923076923077,4444.615384615385,4261.025641025642,4561.025641025642,4424.102564102564,4424.102564102564,4428.717948717949,4734.871794871796,4361.538461538462,4357.435897435898,4275.384615384616,4560.000000000001
70.107124,0.7757832,0.6997491,0.3333333,0.5522389,0,0.0,0.0,0.0,0.0,0.0,0,0,0.0,0.0,0,0,123.0,0.0,504.0,4672.820512820514,4088.205128205129,4646.153846153847,4488.717948717949,4295.8974358974365,4601.538461538462,4487.6923076923085,4461.538461538462,4476.410256410257,4739.48717948718,4396.923076923077,4536.410256410257,4416.410256410257,4678.974358974359
70.107124,0.7757832,0.6997491,0.3333333,0.5522389,0,0.0,0.0,0.0,0.0,0.0,0,0,0.0,0.0,0,0,123.0,0.0,504.0,4672.820512820514,4088.205128205129,4646.153846153847,4488.717948717949,4295.8974358974365,4601.538461538462,4487.6923076923085,4461.538461538462,4476.410256410257,4739.48717948718,4396.923076923077,4536.410256410257,4416.410256410257,4678.974358974359
70.57628,0.85119486,0.70382607,0.3333333,0.5522389,0,0.0,0.0,0.0,0.0,0.0,0,0,0.0,0.0,0,0,54.0,0.0,0.0,4664.102564102564,4109.2307692307695,4534.358974358975,4511.794871794872,4303.076923076924,4621.538461538462,4526.153846153847,4502.564102564103,4471.794871794872,4727.179487179488,4424.615384615385,4508.205128205129,4430.256410256411,4709.743589743591
70.57628,0.85119486,0.70382607,0.3333333,0.5522389,0,0.0,0.0,0.0,0.0,0.0,0,0,0.0,0.0,0,0,54.0,0.0,0.0,4664.102564102564,4109.2307692307695,4534.358974358975,4511.794871794872,4303.076923076924,4621.538461538462,4526.153846153847,4502.564102564103,4471.794871794872,4727.179487179488,4424.615384615385,4508.205128205129,4430.256410256411,4709.743589743591
71.20181,0.8673313,0.7143237,0.3333333,0.5522389,0,0.0,0.0,0.0,0.0,0.0,0,0,0.0,0.038075536,0,0,5.0,0.0,553.0,4656.923076923077,4041.538461538462,4468.205128205129,4508.205128205129,4274.871794871796,4585.641025641026,4505.128205128206,4480.000000000001,4412.307692307693,4712.820512820514,4424.615384615385,4361.025641025642,4318.461538461539,4636.923076923077
71.45203,0.8673313,0.7143237,0.3333333,0.5522389,0,0.0,0.0,0.0,0.0,0.0,0,0,0.0,0.0,0,0,37.0,0.0,0.0,4652.820512820514,4021.0256410256416,4361.025641025642,4513.846153846154,4267.179487179487,4578.461538461539,4506.153846153847,4493.333333333334,4415.8974358974365,4749.743589743591,4474.871794871796,4353.846153846154,4323.589743589744,4676.410256410257
71.60841,0.83491945,0.70688844,0.3333333,0.5522389,0,0.0,0.0,0.0,0.0,0.0,0,0,0.0,0.0,0,0,57.0,0.0,0.0,4653.333333333334,4007.1794871794878,4373.846153846154,4515.384615384616,4261.025641025642,4571.282051282052,4515.8974358974365,4495.384615384616,4413.846153846154,4743.076923076924,4483.076923076924,4336.410256410257,4292.307692307693,4667.6923076923085
71.60841,0.83491945,0.70688844,0.3333333,0.5522389,0,0.0,0.0,0.0,0.0,0.0,0,0,0.0,0.0,0,0,57.0,0.0,0.0,4653.333333333334,4007.1794871794878,4373.846153846154,4515.384615384616,4261.025641025642,4571.282051282052,4515.8974358974365,4495.384615384616,4413.846153846154,4743.076923076924,4483.076923076924,4336.410256410257,4292.307692307693,4667.6923076923085
72.07757,0.80943704,0.68960357,0.3333333,0.5522389,0,0.0,0.0,0.0,0.0,0.0,0,0,0.0,0.0,0,0,117.0,0.0,505.0,4643.076923076924,3942.564102564103,4375.8974358974365,4474.871794871796,4246.666666666667,4554.871794871796,4500.000000000001,4466.666666666667,4414.871794871796,4735.8974358974365,4443.076923076924,4244.102564102564,4201.538461538462,4587.179487179488
72.07757,0.80943704,0.68960357,0.3333333,0.5522389,0,0.0,0.0,0.0,0.0,0.0,0,0,0.0,0.0,0,0,117.0,0.0,505.0,4643.076923076924,3942.564102564103,4375.8974358974365,4474.871794871796,4246.666666666667,4554.871794871796,4500.000000000001,4466.666666666667,4414.871794871796,4735.8974358974365,4443.076923076924,4244.102564102564,4201.538461538462,4587.179487179488
72.577995,0.82946676,0.6507151,0.3333333,0.5522389,0,0.0,0.0,0.0,0.0,0.0,0,0,0.0,0.0,0,0,52.0,0.0,0.0,4611.282051282052,3890.7692307692314,4616.410256410257,4424.102564102564,4201.538461538462,4520.000000000001,4462.051282051282,4423.589743589744,4384.615384615385,4684.102564102564,4362.051282051282,4181.538461538462,4097.948717948719,4501.538461538462
72.577995,0.82946676,0.6507151,0.3333333,0.5522389,0,0.0,0.0,0.0,0.0,0.0,0,0,0.0,0.0,0,0,52.0,0.0,0.0,4611.282051282052,3890.7692307692314,4616.410256410257,4424.102564102564,4201.538461538462,4520.000000000001,4462.051282051282,4423.589743589744,4384.615384615385,4684.102564102564,4362.051282051282,4181.538461538462,4097.948717948719,4501.538461538462
73.07843,0.7923465,0.6143985,0.3333333,0.5522389,0,0.0,0.0,0.0,0.0,0.0,0,0,0.0,0.0,0,0,116.0,0.0,511.0,4583.589743589744,3910.7692307692314,4549.743589743591,4441.025641025642,4211.282051282052,4516.923076923077,4442.564102564103,4430.256410256411,4395.8974358974365,4715.8974358974365,4350.769230769231,4161.025641025642,4094.358974358975,4488.717948717949
73.07843,0.7923465,0.6143985,0.3333333,0.5522389,0,0.0,0.0,0.0,0.0,0.0,0,0,0.0,0.0,0,0,116.0,0.0,511.0,4583.589743589744,3910.7692307692314,4549.743589743591,4441.025641025642,4211.282051282052,4516.923076923077,4442.564102564103,4430.256410256411,4395.8974358974365,4715.8974358974365,4350.769230769231,4161.025641025642,4094.358974358975,4488.717948717949
73.61013,0.77590334,0.5816767,0.3333333,0.5522389,0,0.0,0.0,0.0,0.0,0.0,0,0,0.0,0.0,0,0,55.0,0.0,0.0,4584.102564102564,3910.7692307692314,4547.6923076923085,4438.461538461539,4215.8974358974365,4525.641025641026,4443.076923076924,4405.641025641026,4385.641025641026,4718.461538461539,4315.384615384616,4182.564102564103,4097.948717948719,4444.615384615385
73.61013,0.77590334,0.5816767,0.3333333,0.5522389,0,0.0,0.0,0.0,0.0,0.0,0,0,0.0,0.0,0,0,55.0,0.0,0.0,4584.102564102564,3910.7692307692314,4547.6923076923085,4438.461538461539,4215.8974358974365,4525.641025641026,4443.076923076924,4405.641025641026,4385.641025641026,4718.461538461539,4315.384615384616,4182.564102564103,4097.948717948719,4444.615384615385
74.110565,0.81020504,0.5415229,0.3333333,0.5522388,0,0.0,0.0,0.0,0.0,0.0,0,0,0.0,0.0,0,0,119.0,0.0,504.0,4628.205128205129,3929.7435897435903,4482.564102564103,4457.948717948719,4240.000000000001,4552.820512820514,4471.282051282052,4426.153846153847,4415.8974358974365,4769.2307692307695,4389.2307692307695,4275.8974358974365,4197.948717948719,4523.076923076924
74.110565,0.81020504,0.5415229,0.3333333,0.5522388,0,0.0,0.0,0.0,0.0,0.0,0,0,0.0,0.0,0,0,119.0,0.0,504.0,4628.205128205129,3929.7435897435903,4482.564102564103,4457.948717948719,4240.000000000001,4552.820512820514,4471.282051282052,4426.153846153847,4415.8974358974365,4769.2307692307695,4389.2307692307695,4275.8974358974365,4197.948717948719,4523.076923076924
74.61099,0.7855549,0.52187264,0.3333333,0.5522388,0,0.0,0.0,0.0,0.0,0.0,0,0,0.0,0.0,0,0,54.0,0.0,0.0,4618.461538461539,3954.358974358975,4490.256410256411,4458.974358974359,4238.461538461539,4554.871794871796,4480.000000000001,4458.461538461539,4430.256410256411,4744.615384615386,4370.769230769231,4278.461538461539,4202.051282051282,4517.948717948719
74.61099,0.7855549,0.52187264,0.3333333,0.5522388,0,0.0,0.0,0.0,0.0,0.0,0,0,0.0,0.0,0,0,54.0,0.0,0.0,4618.461538461539,3954.358974358975,4490.256410256411,4458.974358974359,4238.461538461539,4554.871794871796,4480.000000000001,4458.461538461539,4430.256410256411,4744.615384615386,4370.769230769231,4278.461538461539,4202.051282051282,4517.948717948719
75.11143,0.72373444,0.49895027,0.3333333,0.5522388,0,0.0,0.0,0.0,0.0,0.0,0,0,0.0,0.0,0,0,118.0,0.0,530.0,4635.8974358974365,3977.435897435898,4581.538461538462,4460.000000000001,4243.076923076924,4562.051282051282,4493.333333333334,4458.974358974359,4430.256410256411,4735.8974358974365,4364.102564102564,4294.358974358975,4218.974358974359,4523.076923076924
75.11143,0.72373444,0.49895027,0.3333333,0.5522388,0,0.0,0.0,0.0,0.0,0.0,0,0,0.0,0.0,0,0,118.0,0.0,530.0,4635.8974358974365,3977.435897435898,4581.538461538462,4460.000000000001,4243.076923076924,4562.051282051282,4493.333333333334,4458.974358974359,4430.256410256411,4735.8974358974365,4364.102564102564,4294.358974358975,4218.974358974359,4523.076923076924
75.70569,0.665556,0.47074756,0.3333333,0.5522388,0,0.0,0.0,0.0,0.0410272,0.0,0,0,0.0,0.0,0,0,65.0,0.0,512.0,4624.615384615385,3970.2564102564106,4510.256410256411,4454.358974358975,4247.179487179487,4567.179487179488,4476.923076923077,4457.948717948719,4426.666666666667,4748.205128205129,4375.384615384616,4262.564102564103,4201.538461538462,4505.641025641026
75.9559,0.665556,0.47074756,0.3333333,0.5522388,0,0.0,0.0,0.0,0.05792352,0.0,0,0,0.0,0.0,0,0,97.0,0.0,507.0,4630.769230769231,3957.435897435898,4484.615384615385,4445.128205128206,4239.48717948718,4554.871794871796,4489.743589743591,4463.076923076924,4412.820512820514,4738.461538461539,4359.48717948718,4248.205128205129,4198.461538461539,4502.051282051282
76.206116,0.6120399,0.45969638,0.33333334,0.5522388,0,0.0,0.0,0.0,0.07032989,0.0,0,0,0.0,0.0,0,0,0.0,0.0,501.0,4614.871794871796,3929.7435897435903,4524.102564102564,4425.641025641026,4224.102564102564,4535.384615384616,4462.051282051282,4448.205128205129,4394.871794871796,4724.615384615386,4336.923076923077,4240.000000000001,4170.256410256411,4504.615384615385
76.45633,0.6120399,0.45969638,0.33333334,0.5522388,0,0.0,0.0,0.0,0.0,0.0,0,0,0.0,0.0,0,0,32.0,0.0,0.0,4608.717948717949,3923.076923076924,4496.410256410257,4426.153846153847,4216.410256410257,4525.641025641026,4456.923076923077,4453.333333333334,4389.743589743591,4724.615384615386,4339.48717948718,4214.871794871796,4165.641025641026,4487.179487179488
76.61272,0.5949198,0.4342565,0.33333334,0.5522388,0,0.0,0.0,0.0,0.0,0.0,0,0,0.0,0.0,0,0,52.0,0.0,0.0,4636.410256410257,3929.2307692307695,4476.410256410257,4432.307692307693,4223.076923076924,4529.2307692307695,4459.48717948718,4412.820512820514,4381.538461538462,4720.512820512821,4350.769230769231,4242.051282051282,4172.307692307693,4514.871794871796
76.61272,0.5949198,0.4342565,0.33333334,0.5522388,0,0.0,0.0,0.0,0.0,0.0,0,0,0.0,0.0,0,0,52.0,0.0,0.0,4636.410256410257,3929.2307692307695,4476.410256410257,4432.307692307693,4223.076923076924,4529.2307692307695,4459.48717948718,4412.820512820514,4381.538461538462,4720.512820512821,4350.769230769231,4242.051282051282,4172.307692307693,4514.871794871796
77.113144,0.5882122,0.4129323,0.33333334,0.5522388,0,0.0,0.0,0.0,0.0,0.0,0,0,0.0,0.0,0,0,116.0,0.0,511.0,4612.820512820514,3928.717948717949,4441.538461538462,4432.307692307693,4218.461538461539,4526.153846153847,4453.846153846154,4425.128205128206,4383.589743589744,4696.410256410257,4356.923076923077,4230.769230769231,4165.128205128206,4489.743589743591
77.113144,0.5882122,0.4129323,0.33333334,0.5522388,0,0.0,0.0,0.0,0.0,0.0,0,0,0.0,0.0,0,0,116.0,0.0,511.0,4612.820512820514,3928.717948717949,4441.538461538462,4432.307692307693,4218.461538461539,4526.153846153847,4453.846153846154,4425.128205128206,4383.589743589744,4696.410256410257,4356.923076923077,4230.769230769231,4165.128205128206,4489.743589743591
77.61357,0.5741579,0.41564882,0.33333334,0.5522388,0,0.0,0.0,0.0,0.0,0.0,0,0,0.0,0.0,0,0,51.0,0.0,0.0,4634.358974358975,3944.615384615385,4480.512820512821,4437.435897435898,4231.282051282052,4540.512820512821,4457.435897435898,4427.6923076923085,4415.8974358974365,4736.923076923077,4364.102564102564,4261.538461538462,4216.410256410257,4510.769230769231
77.61357,0.5741579,0.41564882,0.33333334,0.5522388,0,0.0,0.0,0.0,0.0,0.0,0,0,0.0,0.0,0,0,51.0,0.0,0.0,4634.358974358975,3944.615384615385,4480.512820512821,4437.435897435898,4231.282051282052,4540.512820512821,4457.435897435898,4427.6923076923085,4415.8974358974365,4736.923076923077,4364.102564102564,4261.538461538462,4216.410256410257,4510.769230769231
78.114006,0.5328534,0.42484477,0.33333334,0.5522388,0,0.0,0.0,0.0,0.0,0.0,0,0,0.0,0.0,0,0,115.0,0.0,504.0,4607.6923076923085,3938.9743589743593,4488.205128205129,4426.153846153847,4217.435897435898,4525.128205128206,4454.871794871796,4410.256410256411,4390.256410256411,4704.615384615386,4331.794871794872,4216.923076923077,4183.589743589744,4489.2307692307695
78.114006,0.5328534,0.42484477,0.33333334,0.5522388,0,0.0,0.0,0.0,0.0,0.0,0,0,0.0,0.0,0,0,115.0,0.0,504.0,4607.6923076923085,3938.9743589743593,4488.205128205129,4426.153846153847,4217.435897435898,4525.128205128206,4454.871794871796,4410.256410256411,4390.256410256411,4704.615384615386,4331.794871794872,4216.923076923077,4183.589743589744,4489.2307692307695
78.61443,0.4839145,0.44851205,0.33333334,0.5522388,0,0.0,0.0,0.0,0.0,0.0,0,0,0.0,0.0,0,0,50.0,0.0,0.0,4616.410256410257,3924.615384615385,4466.153846153847,4429.743589743591,4222.564102564103,4537.435897435898,4476.923076923077,4460.000000000001,4418.974358974359,4731.282051282052,4344.102564102564,4230.769230769231,4188.717948717949,4508.717948717949
78.61443,0.4839145,0.44851205,0.33333334,0.5522388,0,0.0,0.0,0.0,0.0,0.0,0,0,0.0,0.0,0,0,50.0,0.0,0.0,4616.410256410257,3924.615384615385,4466.153846153847,4429.743589743591,4222.564102564103,4537.435897435898,4476.923076923077,4460.000000000001,4418.974358974359,4731.282051282052,4344.102564102564,4230.769230769231,4188.717948717949,4508.717948717949
79.11487,0.43113765,0.49141774,0.33333334,0.5522388,0,0.0,0.0,0.0,0.0,0.0,0,0,0.0,0.0,0,0,114.0,0.0,531.0,4603.589743589744,3898.461538461539,4462.051282051282,4415.8974358974365,4218.461538461539,4528.717948717949,4488.205128205129,4451.282051282052,4414.358974358975,4732.307692307693,4334.358974358975,4228.717948717949,4181.538461538462,4490.256410256411
79.11487,0.43113765,0.49141774,0.33333334,0.5522388,0,0.0,0.0,0.0,0.0,0.0,0,0,0.0,0.0,0,0,114.0,0.0,531.0,4603.589743589744,3898.461538461539,4462.051282051282,4415.8974358974365,4218.461538461539,4528.717948717949,4488.205128205129,4451.282051282052,4414.358974358975,4732.307692307693,4334.358974358975,4228.717948717949,4181.538461538462,4490.256410256411
79.584015,0.33088067,0.53727996,0.33333334,0.5522388,0,0.0,0.0,0.0,0.0,0.0,0,0,0.0,0.0,0,0,45.0,0.0,0.0,4581.025641025642,3915.8974358974365,4510.769230769231,4420.512820512821,4227.6923076923085,4539.48717948718,4469.2307692307695,4463.589743589744,4420.512820512821,4746.153846153847,4338.461538461539,4231.282051282052,4166.666666666667,4494.871794871796
79.584015,0.33088067,0.53727996,0.33333334,0.5522388,0,0.0,0.0,0.0,0.0,0.0,0,0,0.0,0.0,0,0,45.0,0.0,0.0,4581.025641025642,3915.8974358974365,4510.769230769231,4420.512820512821,4227.6923076923085,4539.48717948718,4469.2307692307695,4463.589743589744,4420.512820512821,4746.153846153847,4338.461538461539,4231.282051282052,4166.666666666667,4494.871794871796
80.11572,0.3204271,0.6126632,0.33333334,0.5522388,0,0.0,0.0,0.0,0.0,0.0,0,0,0.0,0.0,0,0,113.0,0.0,508.0,4625.128205128206,3985.6410256410263,4514.871794871796,4456.923076923077,4232.307692307693,4542.564102564103,4458.974358974359,4452.820512820514,4416.410256410257,4747.179487179488,4422.564102564103,4324.102564102564,4250.769230769231,4551.794871794872
80.11572,0.3204271,0.6126632,0.33333334,0.5522388,0,0.0,0.0,0.0,0.0,0.0,0,0,0.0,0.0,0,0,113.0,0.0,508.0,4625.128205128206,3985.6410256410263,4514.871794871796,4456.923076923077,4232.307692307693,4542.564102564103,4458.974358974359,4452.820512820514,4416.410256410257,4747.179487179488,4422.564102564103,4324.102564102564,4250.769230769231,4551.794871794872
80.61616,0.34151894,0.7018262,0.33333334,0.5522388,0,0.0,0.0,0.0,0.0,0.0,0,0,0.0,0.0,0,0,48.0,0.0,0.0,4658.461538461539,4030.2564102564106,4535.8974358974365,4473.333333333334,4254.871794871796,4572.820512820514,4474.358974358975,4499.48717948718,4465.128205128206,4750.769230769231,4400.000000000001,4430.769230769231,4326.153846153847,4602.051282051282
80.61616,0.34151894,0.7018262,0.33333334,0.5522388,0,0.0,0.0,0.0,0.0,0.0,0,0,0.0,0.0,0,0,48.0,0.0,0.0,4658.461538461539,4030.2564102564106,4535.8974358974365,4473.333333333334,4254.871794871796,4572.820512820514,4474.358974358975,4499.48717948718,4465.128205128206,4750.769230769231,4400.000000000001,4430.769230769231,4326.153846153847,4602.051282051282
81.116585,0.39136025,0.77951366,0.33333334,0.5522388,0,0.0,0.0,0.0,0.0,0.0,0,0,0.0,0.0,0,0,112.0,0.0,512.0,4622.564102564103,4005.1282051282055,4586.666666666667,4454.358974358975,4247.6923076923085,4560.000000000001,4493.846153846154,4488.205128205129,4414.358974358975,4679.48717948718,4363.589743589744,4345.128205128206,4278.974358974359,4561.538461538462
81.116585,0.39136025,0.77951366,0.33333334,0.5522388,0,0.0,0.0,0.0,0.0,0.0,0,0,0.0,0.0,0,0,112.0,0.0,512.0,4622.564102564103,4005.1282051282055,4586.666666666667,4454.358974358975,4247.6923076923085,4560.000000000001,4493.846153846154,4488.205128205129,4414.358974358975,4679.48717948718,4363.589743589744,4345.128205128206,4278.974358974359,4561.538461538462
81.58574,0.43857324,0.8628439,0.33333334,0.5522388,0,0.0,0.0,0.0,0.0,0.0,0,0,0.0,0.0,0,0,43.0,0.0,0.0,4634.871794871796,4003.076923076924,4532.307692307693,4473.333333333334,4259.48717948718,4572.307692307693,4511.282051282052,4487.6923076923085,4430.769230769231,4694.871794871796,4391.794871794872,4319.48717948718,4286.666666666667,4576.923076923077
81.58574,0.43857324,0.8628439,0.33333334,0.5522388,0,0.0,0.0,0.0,0.0,0.0,0,0,0.0,0.0,0,0,43.0,0.0,0.0,4634.871794871796,4003.076923076924,4532.307692307693,4473.333333333334,4259.48717948718,4572.307692307693,4511.282051282052,4487.6923076923085,4430.769230769231,4694.871794871796,4391.794871794872,4319.48717948718,4286.666666666667,4576.923076923077
82.11745,0.41977075,0.91794544,0.33333334,0.5522388,0,0.0,0.0,0.0,0.0,0.0,0,0,0.0,0.0,0,0,111.0,0.0,504.0,4617.948717948719,3974.8717948717954,4473.846153846154,4472.307692307693,4242.564102564103,4546.666666666667,4456.410256410257,4422.564102564103,4403.589743589744,4703.076923076924,4387.6923076923085,4263.076923076924,4213.846153846154,4541.025641025642
82.11745,0.41977075,0.91794544,0.33333334,0.5522388,0,0.0,0.0,0.0,0.0,0.0,0,0,0.0,0.0,0,0,111.0,0.0,504.0,4617.948717948719,3974.8717948717954,4473.846153846154,4472.307692307693,4242.564102564103,4546.666666666667,4456.410256410257,4422.564102564103,4403.589743589744,4703.076923076924,4387.6923076923085,4263.076923076924,4213.846153846154,4541.025641025642
82.617874,0.35921952,0.9587054,0.33333334,0.5522388,0,0.0,0.0,0.0,0.0,0.0,0,0,0.0,0.0,0,0,46.0,0.0,0.0,4608.717948717949,3942.0512820512827,4517.948717948719,4453.846153846154,4228.717948717949,4537.435897435898,4474.871794871796,4457.435897435898,4410.769230769231,4724.102564102564,4402.564102564103,4219.48717948718,4198.461538461539,4489.743589743591
82.617874,0.35921952,0.9587054,0.33333334,0.5522388,0,0.0,0.0,0.0,0.0,0.0,0,0,0.0,0.0,0,0,46.0,0.0,0.0,4608.717948717949,3942.0512820512827,4517.948717948719,4453.846153846154,4228.717948717949,4537.435897435898,4474.871794871796,4457.435897435898,4410.769230769231,4724.102564102564,4402.564102564103,4219.48717948718,4198.461538461539,4489.743589743591
83.1183,0.39836514,1.0,0.33333334,0.5522388,0,0.0,0.0,0.0,0.0,0.0,0,0,0.0,0.0,0,0,110.0,0.0,531.0,4597.435897435898,3910.2564102564106,4487.6923076923085,4427.6923076923085,4227.179487179487,4539.48717948718,4488.717948717949,4460.512820512821,4421.538461538462,4719.48717948718,4363.076923076924,4213.846153846154,4150.256410256411,4456.410256410257
83.1183,0.39836514,1.0,0.33333334,0.5522388,0,0.0,0.0,0.0,0.0,0.0,0,0,0.0,0.0,0,0,110.0,0.0,531.0,4597.435897435898,3910.2564102564106,4487.6923076923085,4427.6923076923085,4227.179487179487,4539.48717948718,4488.717948717949,4460.512820512821,4421.538461538462,4719.48717948718,4363.076923076924,4213.846153846154,4150.256410256411,4456.410256410257
83.61874,0.43886426,1.0,0.33333334,0.5522388,0,0.0,0.0,0.0,0.0,0.0,0,0,0.0,0.0,0,0,45.0,0.0,0.0,4586.153846153847,3924.615384615385,4360.512820512821,4441.538461538462,4230.256410256411,4538.461538461539,4478.974358974359,4456.410256410257,4403.589743589744,4715.384615384616,4360.000000000001,4217.948717948719,4133.333333333334,4467.6923076923085
83.61874,0.43886426,1.0,0.33333334,0.5522388,0,0.0,0.0,0.0,0.0,0.0,0,0,0.0,0.0,0,0,45.0,0.0,0.0,4586.153846153847,3924.615384615385,4360.512820512821,4441.538461538462,4230.256410256411,4538.461538461539,4478.974358974359,4456.410256410257,4403.589743589744,4715.384615384616,4360.000000000001,4217.948717948719,4133.333333333334,4467.6923076923085
84.11916,0.4441386,1.0,0.33333334,0.5522388,0,0.0,0.0,0.0,0.0,0.0,0,0,0.0,0.0,0,0,109.0,0.0,508.0,4610.769230769231,3934.8717948717954,4536.410256410257,4434.358974358975,4212.820512820514,4521.538461538462,4474.871794871796,4449.2307692307695,4414.871794871796,4748.205128205129,4388.205128205129,4275.8974358974365,4181.538461538462,4485.641025641026
84.11916,0.4441386,1.0,0.33333334,0.5522388,0,0.0,0.0,0.0,0.0,0.0,0,0,0.0,0.0,0,0,109.0,0.0,508.0,4610.769230769231,3934.8717948717954,4536.410256410257,4434.358974358975,4212.820512820514,4521.538461538462,4474.871794871796,4449.2307692307695,4414.871794871796,4748.205128205129,4388.205128205129,4275.8974358974365,4181.538461538462,4485.641025641026
84.6196,0.40829402,1.0,0.33333334,0.5522388,0,0.0,0.0,0.0,0.0,0.0,0,0,0.0,0.0,0,0,44.0,0.0,0.0,4606.153846153847,3937.9487179487182,4549.743589743591,4423.076923076924,4211.282051282052,4518.974358974359,4436.923076923077,4410.769230769231,4403.589743589744,4742.564102564103,4362.051282051282,4278.974358974359,4169.74358974359,4493.333333333334
84.6196,0.40829402,1.0,0.33333334,0.5522388,0,0.0,0.0,0.0,0.0,0.0,0,0,0.0,0.0,0,0,44.0,0.0,0.0,4606.153846153847,3937.9487179487182,4549.743589743591,4423.076923076924,4211.282051282052,4518.974358974359,4436.923076923077,4410.769230769231,4403.589743589744,4742.564102564103,4362.051282051282,4278.974358974359,4169.74358974359,4493.333333333334
85.120026,0.37897235,1.0,0.33333334,0.5522388,0,0.0,0.0,0.0,0.0,0.0,0,0,0.0,0.0,0,0,108.0,0.0,512.0,4592.820512820514,3929.2307692307695,4491.282051282052,4416.923076923077,4228.717948717949,4540.512820512821,4456.410256410257,4458.461538461539,4425.641025641026,4749.743589743591,4361.538461538462,4286.153846153847,4170.256410256411,4513.333333333334
85.120026,0.37897235,1.0,0.33333334,0.5522388,0,0.0,0.0,0.0,0.0,0.0,0,0,0.0,0.0,0,0,108.0,0.0,512.0,4592.820512820514,3929.2307692307695,4491.282051282052,4416.923076923077,4228.717948717949,4540.512820512821,4456.410256410257,4458.461538461539,4425.641025641026,4749.743589743591,4361.538461538462,4286.153846153847,4170.256410256411,4513.333333333334
85.62045,0.36448318,1.0,0.33333334,0.5522388,0,0.0,0.0,0.0,0.0,0.0,0,0,0.0,0.0,0,0,43.0,0.0,0.0,4600.000000000001,3926.666666666667,4403.076923076924,4427.6923076923085,4231.282051282052,4553.846153846154,4494.871794871796,4492.820512820514,4427.6923076923085,4754.871794871796,4369.743589743591,4262.564102564103,4183.076923076924,4547.179487179488
85.62045,0.36448318,1.0,0.33333334,0.5522388,0,0.0,0.0,0.0,0.0,0.0,0,0,0.0,0.0,0,0,43.0,0.0,0.0,4600.000000000001,3926.666666666667,4403.076923076924,4427.6923076923085,4231.282051282052,4553.846153846154,4494.871794871796,4492.820512820514,4427.6923076923085,4754.871794871796,4369.743589743591,4262.564102564103,4183.076923076924,4547.179487179488
86.12089,0.3800027,1.0,0.33333334,0.5522388,0,0.0,0.0,0.0,0.0,0.0,0,0,0.0,0.0,0,0,107.0,0.0,504.0,4575.384615384616,3909.2307692307695,4462.051282051282,4415.384615384616,4230.769230769231,4544.615384615385,4491.794871794872,4465.641025641026,4401.025641025642,4718.461538461539,4356.923076923077,4220.000000000001,4166.153846153847,4518.461538461539
86.12089,0.3800027,1.0,0.33333334,0.5522388,0,0.0,0.0,0.0,0.0,0.0,0,0,0.0,0.0,0,0,107.0,0.0,504.0,4575.384615384616,3909.2307692307695,4462.051282051282,4415.384615384616,4230.769230769231,4544.615384615385,4491.794871794872,4465.641025641026,4401.025641025642,4718.461538461539,4356.923076923077,4220.000000000001,4166.153846153847,4518.461538461539
86.621315,0.3513934,1.0,0.33333334,0.5522388,0,0.0,0.0,0.0,0.0,0.0,0,0,0.0,0.0,0,0,42.0,0.0,0.0,4587.6923076923085,3913.8461538461543,4472.820512820514,4427.6923076923085,4223.589743589744,4542.051282051282,4494.358974358975,4490.769230769231,4416.923076923077,4731.794871794872,4347.6923076923085,4228.205128205129,4183.589743589744,4535.384615384616
86.621315,0.3513934,1.0,0.33333334,0.5522388,0,0.0,0.0,0.0,0.0,0.0,0,0,0.0,0.0,0,0,42.0,0.0,0.0,4587.6923076923085,3913.8461538461543,4472.820512820514,4427.6923076923085,4223.589743589744,4542.051282051282,4494.358974358975,4490.769230769231,4416.923076923077,4731.794871794872,4347.6923076923085,4228.205128205129,4183.589743589744,4535.384615384616
87.12174,0.34007138,1.0,0.33333334,0.5522388,0,0.0,0.0,0.0,0.0,0.0,0,0,0.0,0.0,0,0,106.0,0.0,531.0,4600.512820512821,3907.692307692308,4517.435897435898,4425.641025641026,4223.076923076924,4536.923076923077,4485.128205128206,4468.717948717949,4392.307692307693,4716.923076923077,4346.153846153847,4247.179487179487,4165.128205128206,4500.512820512821
87.12174,0.34007138,1.0,0.33333334,0.5522388,0,0.0,0.0,0.0,0.0,0.0,0,0,0.0,0.0,0,0,106.0,0.0,531.0,4600.512820512821,3907.692307692308,4517.435897435898,4425.641025641026,4223.076923076924,4536.923076923077,4485.128205128206,4468.717948717949,4392.307692307693,4716.923076923077,4346.153846153847,4247.179487179487,4165.128205128206,4500.512820512821
87.62218,0.28764525,1.0,0.33333334,0.5522388,0,0.0,0.0,0.0,0.0,0.0,0,0,0.0,0.0,0,0,41.0,0.0,0.0,4601.538461538462,3926.666666666667,4506.153846153847,4444.615384615385,4219.48717948718,4539.48717948718,4446.153846153847,4436.410256410257,4380.512820512821,4701.025641025642,4351.282051282052,4244.615384615385,4157.435897435898,4488.205128205129
87.62218,0.28764525,1.0,0.33333334,0.5522388,0,0.0,0.0,0.0,0.0,0.0,0,0,0.0,0.0,0,0,41.0,0.0,0.0,4601.538461538462,3926.666666666667,4506.153846153847,4444.615384615385,4219.48717948718,4539.48717948718,4446.153846153847,4436.410256410257,4380.512820512821,4701.025641025642,4351.282051282052,4244.615384615385,4157.435897435898,4488.205128205129
88.122604,0.28006494,1.0,0.33333334,0.5522388,0,0.0,0.0,0.0,0.0,0.0,0,0,0.0,0.0,0,0,105.0,0.0,508.0,4614.871794871796,3928.717948717949,4456.410256410257,4450.769230769231,4233.333333333334,4548.205128205129,4481.538461538462,4489.2307692307695,4430.256410256411,4728.205128205129,4361.538461538462,4252.820512820514,4187.179487179487,4496.923076923077
88.122604,0.28006494,1.0,0.33333334,0.5522388,0,0.0,0.0,0.0,0.0,0.0,0,0,0.0,0.0,0,0,105.0,0.0,508.0,4614.871794871796,3928.717948717949,4456.410256410257,4450.769230769231,4233.333333333334,4548.205128205129,4481.538461538462,4489.2307692307695,4430.256410256411,4728.205128205129,4361.538461538462,4252.820512820514,4187.179487179487,4496.923076923077
88.62304,0.2647801,1.0,0.33333334,0.5522388,0,0.0,0.0,0.0,0.0,0.0,0,0,0.0,0.0,0,0,40.0,0.0,0.0,4617.435897435898,3912.307692307693,4493.333333333334,4426.666666666667,4216.410256410257,4527.6923076923085,4476.410256410257,4456.923076923077,4402.564102564103,4711.794871794872,4333.333333333334,4246.666666666667,4163.589743589744,4500.000000000001
88.62304,0.2647801,1.0,0.33333334,0.5522388,0,0.0,0.0,0.0,0.0,0.0,0,0,0.0,0.0,0,0,40.0,0.0,0.0,4617.435897435898,3912.307692307693,4493.333333333334,4426.666666666667,4216.410256410257,4527.6923076923085,4476.410256410257,4456.923076923077,4402.564102564103,4711.794871794872,4333.333333333334,4246.666666666667,4163.589743589744,4500.000000000001
89.12347,0.22633635,1.0,0.33333334,0.5522388,0,0.0,0.0,0.0,0.0,0.0,0,0,0.0,0.0,0,0,104.0,0.0,512.0,4607.6923076923085,3942.0512820512827,4379.48717948718,4442.564102564103,4213.846153846154,4523.589743589744,4460.000000000001,4422.564102564103,4383.076923076924,4711.282051282052,4347.6923076923085,4230.256410256411,4190.769230769231,4495.8974358974365
89.12347,0.22633635,1.0,0.33333334,0.5522388,0,0.0,0.0,0.0,0.0,0.0,0,0,0.0,0.0,0,0,104.0,0.0,512.0,4607.6923076923085,3942.0512820512827,4379.48717948718,4442.564102564103,4213.846153846154,4523.589743589744,4460.000000000001,4422.564102564103,4383.076923076924,4711.282051282052,4347.6923076923085,4230.256410256411,4190.769230769231,4495.8974358974365
89.62389,0.22479641,1.0,0.33333334,0.5522388,0,0.0,0.0,0.0,0.0,0.0,0,0,0.0,0.0,0,0,39.0,0.0,0.0,4610.256410256411,3928.205128205129,4511.794871794872,4426.666666666667,4216.923076923077,4525.641025641026,4463.076923076924,4437.948717948719,4377.948717948719,4685.128205128206,4363.076923076924,4220.512820512821,4183.589743589744,4455.384615384616
89.62389,0.22479641,1.0,0.33333334,0.5522388,0,0.0,0.0,0.0,0.0,0.0,0,0,0.0,0.0,0,0,39.0,0.0,0.0,4610.256410256411,3928.205128205129,4511.794871794872,4426.666666666667,4216.923076923077,4525.641025641026,4463.076923076924,4437.948717948719,4377.948717948719,4685.128205128206,4363.076923076924,4220.512820512821,4183.589743589744,4455.384615384616
90.12433,0.19216518,1.0,0.33333334,0.5522388,0,0.0,0.0,0.0,0.0,0.0,0,0,0.0,0.0,0,0,103.0,0.0,504.0,4606.153846153847,3947.692307692308,4478.974358974359,4445.641025641026,4217.435897435898,4522.564102564103,4440.000000000001,4428.205128205129,4399.48717948718,4721.025641025642,4376.410256410257,4260.000000000001,4190.256410256411,4525.641025641026
90.12433,0.19216518,1.0,0.33333334,0.5522388,0,0.0,0.0,0.0,0.0,0.0,0,0,0.0,0.0,0,0,103.0,0.0,504.0,4606.153846153847,3947.692307692308,4478.974358974359,4445.641025641026,4217.435897435898,4522.564102564103,4440.000000000001,4428.205128205129,4399.48717948718,4721.025641025642,4376.410256410257,4260.000000000001,4190.256410256411,4525.641025641026
90.59348,0.21420975,0.9972186,0.33333334,0.5522388,0,0.0,0.0,0.0,0.0,0.0,0,0,0.0,0.0,0,0,34.0,0.0,0.0,4618.974358974359,3961.0256410256416,4468.205128205129,4446.666666666667,4236.923076923077,4545.128205128206,4471.794871794872,4478.461538461539,4422.564102564103,4730.256410256411,4380.000000000001,4255.384615384616,4197.435897435898,4508.205128205129
90.59348,0.21420975,0.9972186,0.33333334,0.5522388,0,0.0,0.0,0.0,0.0,0.0,0,0,0.0,0.0,0,0,34.0,0.0,0.0,4618.974358974359,3961.0256410256416,4468.205128205129,4446.666666666667,4236.923076923077,4545.128205128206,4471.794871794872,4478.461538461539,4422.564102564103,4730.256410256411,4380.000000000001,4255.384615384616,4197.435897435898,4508.205128205129
91.09391,0.21432641,0.933651,0.33333334,0.5522388,0,0.0,0.0,0.0,0.0,0.0,0,0,0.0,0.0,0,0,98.0,0.0,531.0,4621.025641025642,3955.8974358974365,4471.282051282052,4447.6923076923085,4239.48717948718,4545.641025641026,4460.512820512821,4463.589743589744,4414.358974358975,4732.820512820514,4366.153846153847,4231.282051282052,4189.2307692307695,4488.717948717949
91.09391,0.21432641,0.933651,0.33333334,0.5522388,0,0.0,0.0,0.0,0.0,0.0,0,0,0.0,0.0,0,0,98.0,0.0,531.0,4621.025641025642,3955.8974358974365,4471.282051282052,4447.6923076923085,4239.48717948718,4545.641025641026,4460.512820512821,4463.589743589744,4414.358974358975,4732.820512820514,4366.153846153847,4231.282051282052,4189.2307692307695,4488.717948717949
91.59434,0.18376696,0.8692008,0.33333334,0.5522388,0,0.0,0.0,0.0,0.0,0.0,0,0,0.0,0.0,0,0,33.0,0.0,0.0,4609.743589743591,3967.692307692308,4478.974358974359,4456.410256410257,4240.000000000001,4541.025641025642,4461.025641025642,4456.923076923077,4415.8974358974365,4734.871794871796,4385.128205128206,4248.717948717949,4199.48717948718,4538.974358974359
91.59434,0.18376696,0.8692008,0.33333334,0.5522388,0,0.0,0.0,0.0,0.0,0.0,0,0,0.0,0.0,0,0,33.0,0.0,0.0,4609.743589743591,3967.692307692308,4478.974358974359,4456.410256410257,4240.000000000001,4541.025641025642,4461.025641025642,4456.923076923077,4415.8974358974365,4734.871794871796,4385.128205128206,4248.717948717949,4199.48717948718,4538.974358974359
92.09477,0.20663439,0.8065057,0.33333334,0.5522388,0,0.0,0.0,0.0,0.0,0.0,0,0,0.0,0.0,0,0,97.0,0.0,508.0,4608.205128205129,3959.48717948718,4463.589743589744,4459.48717948718,4230.256410256411,4536.410256410257,4462.564102564103,4422.564102564103,4384.615384615385,4697.948717948719,4346.666666666667,4245.128205128206,4168.205128205129,4513.333333333334
92.344986,0.20663439,0.8065057,0.33333334,0.5522388,0,0.0,0.0,0.0,0.0,0.0,0,0,0.0,0.056711365,0,0,0.0,0.0,497.0,4604.615384615385,3958.9743589743593,4514.871794871796,4455.8974358974365,4233.846153846154,4532.307692307693,4446.153846153847,4405.128205128206,4376.923076923077,4705.641025641026,4347.179487179487,4234.358974358975,4168.717948717949,4509.2307692307695
92.5952,0.2070604,0.74573594,0.33333334,0.5522388,0,0.0,0.0,0.0,0.0,0.0,0,0,0.0,0.042928483,0,0,32.0,0.0,0.0,4624.102564102564,3950.2564102564106,4441.538461538462,4444.102564102564,4230.256410256411,4528.205128205129,4433.333333333334,4421.025641025642,4415.8974358974365,4728.717948717949,4366.666666666667,4270.256410256411,4191.794871794872,4531.282051282052
92.72031,0.2070604,0.74573594,0.33333334,0.5522388,0,0.0,0.0,0.0,0.0,0.0,0,0,0.0,0.0,0,0,48.0,0.0,0.0,4620.000000000001,3956.9230769230776,4494.358974358975,4455.8974358974365,4229.2307692307695,4532.307692307693,4461.025641025642,4447.179487179487,4414.871794871796,4731.282051282052,4366.153846153847,4263.589743589744,4195.8974358974365,4506.666666666667
93.09563,0.17839803,0.7030183,0.33855033,0.5522388,0,0.0,0.0,0.0,0.0,0.0,0,0,0.0,0.0,0,0,96.0,0.0,512.0,4610.256410256411,3962.564102564103,4462.051282051282,4448.717948717949,4231.794871794872,4533.333333333334,4450.256410256411,4422.051282051282,4402.564102564103,4709.2307692307695,4360.512820512821,4286.666666666667,4180.000000000001,4507.179487179488
93.09563,0.17839803,0.7030183,0.33855033,0.5522388,0,0.0,0.0,0.0,0.0,0.0,0,0,0.0,0.0,0,0,96.0,0.0,512.0,4610.256410256411,3962.564102564103,4462.051282051282,4448.717948717949,4231.794871794872,4533.333333333334,4450.256410256411,4422.051282051282,4402.564102564103,4709.2307692307695,4360.512820512821,4286.666666666667,4180.000000000001,4507.179487179488
93.59606,0.19802079,0.6737707,0.34849817,0.5463605,0,0.0,0.0,0.0,0.0,0.0,0,0,0.0,0.0,0,0,31.0,0.0,0.0,4606.153846153847,3943.076923076924,4524.102564102564,4431.282051282052,4216.410256410257,4522.564102564103,4437.948717948719,4411.282051282052,4385.128205128206,4694.871794871796,4332.820512820514,4231.282051282052,4171.282051282052,4468.717948717949
93.59606,0.19802079,0.6737707,0.34849817,0.5463605,0,0.0,0.0,0.0,0.0,0.0,0,0,0.0,0.0,0,0,31.0,0.0,0.0,4606.153846153847,3943.076923076924,4524.102564102564,4431.282051282052,4216.410256410257,4522.564102564103,4437.948717948719,4411.282051282052,4385.128205128206,4694.871794871796,4332.820512820514,4231.282051282052,4171.282051282052,4468.717948717949
94.09649,0.20161632,0.6497581,0.36008376,0.5317022,0,0.0,0.0,0.0,0.0,0.0,0,0,0.0,0.0,0,0,95.0,0.0,504.0,4602.051282051282,3952.820512820513,4485.641025641026,4421.025641025642,4218.461538461539,4524.102564102564,4431.794871794872,4419.48717948718,4385.128205128206,4701.025641025642,4272.307692307693,4246.666666666667,4184.102564102564,4475.8974358974365
94.09649,0.20161632,0.6497581,0.36008376,0.5317022,0,0.0,0.0,0.0,0.0,0.0,0,0,0.0,0.0,0,0,95.0,0.0,504.0,4602.051282051282,3952.820512820513,4485.641025641026,4421.025641025642,4218.461538461539,4524.102564102564,4431.794871794872,4419.48717948718,4385.128205128206,4701.025641025642,4272.307692307693,4246.666666666667,4184.102564102564,4475.8974358974365
94.59692,0.18444374,0.6276316,0.37877017,0.51316565,0,0.0,0.0,0.0,0.0,0.0,0,0,0.0,0.0,0,0,30.0,0.0,0.0,4612.307692307693,3973.8461538461543,4544.102564102564,4432.820512820514,4228.717948717949,4535.8974358974365,4440.512820512821,4427.6923076923085,4392.820512820514,4711.794871794872,4310.256410256411,4228.205128205129,4202.564102564103,4457.948717948719
94.59692,0.18444374,0.6276316,0.37877017,0.51316565,0,0.0,0.0,0.0,0.0,0.0,0,0,0.0,0.0,0,0,30.0,0.0,0.0,4612.307692307693,3973.8461538461543,4544.102564102564,4432.820512820514,4228.717948717949,4535.8974358974365,4440.512820512821,4427.6923076923085,4392.820512820514,4711.794871794872,4310.256410256411,4228.205128205129,4202.564102564103,4457.948717948719
95.09735,0.19935727,0.5952429,0.39557648,0.49998176,0,0.0,0.0,0.0,0.0,0.0,0,0,0.0,0.0,0,0,94.0,0.0,531.0,4626.666666666667,3973.333333333334,4451.282051282052,4444.615384615385,4240.000000000001,4548.205128205129,4461.025641025642,4441.025641025642,4411.282051282052,4732.820512820514,4355.384615384616,4256.923076923077,4222.051282051282,4485.641025641026
95.09735,0.19935727,0.5952429,0.39557648,0.49998176,0,0.0,0.0,0.0,0.0,0.0,0,0,0.0,0.0,0,0,94.0,0.0,531.0,4626.666666666667,3973.333333333334,4451.282051282052,4444.615384615385,4240.000000000001,4548.205128205129,4461.025641025642,4441.025641025642,4411.282051282052,4732.820512820514,4355.384615384616,4256.923076923077,4222.051282051282,4485.641025641026
95.62906,0.1730959,0.56639785,0.41084588,0.48805904,0,0.0,0.0,0.0,0.0,0.0,0,0,0.0,0.0,0,0,33.0,0.0,0.0,4625.128205128206,4004.615384615385,4502.564102564103,4437.435897435898,4233.333333333334,4542.051282051282,4456.410256410257,4429.2307692307695,4394.871794871796,4720.512820512821,4355.384615384616,4274.358974358975,4235.384615384616,4493.846153846154
95.62906,0.1730959,0.56639785,0.41084588,0.48805904,0,0.0,0.0,0.0,0.0,0.0,0,0,0.0,0.0,0,0,33.0,0.0,0.0,4625.128205128206,4004.615384615385,4502.564102564103,4437.435897435898,4233.333333333334,4542.051282051282,4456.410256410257,4429.2307692307695,4394.871794871796,4720.512820512821,4355.384615384616,4274.358974358975,4235.384615384616,4493.846153846154
96.09821,0.21394402,0.53978884,0.4234434,0.4832974,0,0.0,0.0,0.0,0.0,0.0,0,0,0.0,0.0,0,0,93.0,0.0,508.0,4648.205128205129,4004.1025641025644,4423.589743589744,4438.461538461539,4236.923076923077,4547.6923076923085,4436.923076923077,4419.48717948718,4377.948717948719,4699.48717948718,4335.8974358974365,4271.282051282052,4225.641025641026,4486.666666666667
96.09821,0.21394402,0.53978884,0.4234434,0.4832974,0,0.0,0.0,0.0,0.0,0.0,0,0,0.0,0.0,0,0,93.0,0.0,508.0,4648.205128205129,4004.1025641025644,4423.589743589744,4438.461538461539,4236.923076923077,4547.6923076923085,4436.923076923077,4419.48717948718,4377.948717948719,4699.48717948718,4335.8974358974365,4271.282051282052,4225.641025641026,4486.666666666667
