timestamp,excitement,frustration,meditation,engagementBoredom,blink,clench,laugh,smile,eyebrow,furrowBrow,lookLeft,lookRight,smirkLeft,smirkRight,winkLeft,winkRight,eeg0,eeg1,eeg2,eeg3,eeg4,eeg5,eeg6,eeg7,eeg8,eeg9,eeg10,eeg11,eeg12,eeg13,eeg14,eeg15,eeg16
994.36237,0.29007417,0.3630456,0.42401412,0.67221683,0,0.0,0.0,0.0,0.0,0.0,0,0,0.0,0.0,0,0,11.0,0.0,510.0,4611.794871794872,3976.410256410257,4474.358974358975,4394.358974358975,4221.025641025642,4525.641025641026,4411.794871794872,4426.666666666667,4375.8974358974365,4747.6923076923085,4350.769230769231,4232.307692307693,4200.512820512821,4488.205128205129
994.8628,0.27156445,0.35857278,0.4222798,0.66894114,0,0.0,0.0,0.0,0.0,0.0,0,0,0.0,0.0,0,0,75.0,0.0,510.0,4580.512820512821,3946.1538461538466,4429.2307692307695,4360.512820512821,4198.461538461539,4496.923076923077,4399.48717948718,4437.948717948719,4355.384615384616,4724.615384615386,4309.2307692307695,4225.128205128206,4185.641025641026,4522.051282051282
994.8628,0.27156445,0.35857278,0.4222798,0.66894114,0,0.0,0.0,0.0,0.0,0.0,0,0,0.0,0.0,0,0,75.0,0.0,510.0,4580.512820512821,3946.1538461538466,4429.2307692307695,4360.512820512821,4198.461538461539,4496.923076923077,4399.48717948718,4437.948717948719,4355.384615384616,4724.615384615386,4309.2307692307695,4225.128205128206,4185.641025641026,4522.051282051282
995.3632,0.3250234,0.3595302,0.4207165,0.6659905,0,0.0,0.0,0.0,0.0,1.0,0,0,0.0,0.0,0,0,10.0,0.0,533.0,4643.589743589744,4051.2820512820517,4010.2564102564106,4444.102564102564,4247.179487179487,4555.384615384616,4452.820512820514,4459.48717948718,4406.153846153847,4789.743589743591,4365.128205128206,4263.589743589744,4248.205128205129,4833.846153846154
995.5196,0.3250234,0.3595302,0.4207165,0.6659905,1,0.0,0.0,0.0,1.0,0.0,0,0,0.0,0.0,0,0,30.0,0.0,0.0,4659.48717948718,4064.615384615385,4104.102564102564,4454.871794871796,4235.8974358974365,4550.256410256411,4446.666666666667,4463.076923076924,4400.512820512821,4800.512820512821,4384.102564102564,4263.076923076924,4262.564102564103,4811.794871794872
995.8949,0.4163261,0.36027887,0.41934705,0.66337067,0,0.0,0.0,0.0,1.0,0.0,0,0,0.0,0.0,0,0,78.0,0.0,533.0,4611.794871794872,4059.48717948718,4145.128205128206,4415.8974358974365,4203.589743589744,4521.025641025642,4434.358974358975,4434.358974358975,4394.358974358975,4780.000000000001,4333.846153846154,4241.025641025642,4229.74358974359,4649.743589743591
996.11383,0.4163261,0.36027887,0.41934705,0.66337067,0,0.0,0.0,0.0,0.0,0.6130307,0,0,0.0,0.0,0,0,106.0,0.0,533.0,4566.153846153847,4022.564102564103,4190.769230769231,4384.102564102564,4196.923076923077,4506.666666666667,4405.128205128206,4406.666666666667,4349.743589743591,4730.769230769231,4298.974358974359,4218.974358974359,4172.820512820514,4746.666666666667
996.3641,0.40915328,0.36185512,0.41072392,0.6541971,0,0.0,0.0,0.0,0.0,0.28970465,0,0,0.0,0.0,0,0,9.0,0.0,477.0,4569.2307692307695,3955.8974358974365,4706.666666666667,4313.846153846154,4176.410256410257,4464.615384615385,4354.358974358975,4347.179487179487,4314.871794871796,4686.666666666667,4248.717948717949,4137.948717948719,4154.871794871796,4599.48717948718
996.61426,0.40915328,0.36185512,0.41072392,0.6541971,0,0.0,0.0,0.0,0.24901971,0.0,0,0,0.0,0.0,0,0,41.0,0.0,0.0,4669.743589743591,3989.23076923077,4714.358974358975,4341.025641025642,4180.512820512821,4462.051282051282,4350.256410256411,4357.435897435898,4276.923076923077,4633.846153846154,4266.153846153847,4213.846153846154,4235.8974358974365,4912.307692307693
996.89575,0.30179948,0.3783052,0.40298074,0.643999,0,0.0,0.0,0.0,0.9525031,0.0,0,0,0.0,0.0,0,1,77.0,0.0,509.0,4604.615384615385,3920.5128205128212,4600.000000000001,4315.384615384616,4196.410256410257,4487.6923076923085,4354.358974358975,4367.6923076923085,4328.717948717949,4634.871794871796,4248.205128205129,4181.025641025642,4227.179487179487,4768.205128205129
997.1147,0.30179948,0.3783052,0.40298074,0.643999,0,0.0,0.0,0.0,0.0,0.9480403,0,0,0.0,0.0,0,0,105.0,0.0,509.0,4605.641025641026,3897.9487179487182,4543.076923076924,4335.384615384616,4181.538461538462,4486.666666666667,4357.435897435898,4337.435897435898,4300.512820512821,4614.871794871796,4228.205128205129,4158.974358974359,4228.717948717949,4696.410256410257
997.3649,0.27328396,0.3862905,0.3959946,0.6347967,0,0.0,0.0,0.0,0.0,0.54823583,0,0,0.0,0.0,0,0,8.0,0.0,479.0,4604.615384615385,3910.2564102564106,4537.948717948719,4346.153846153847,4183.589743589744,4474.358974358975,4336.923076923077,4315.8974358974365,4277.435897435898,4598.974358974359,4233.846153846154,4142.051282051282,4213.333333333334,4766.153846153847
997.6151,0.27328396,0.3862905,0.3959946,0.6347967,0,0.0,0.0,0.0,0.0,0.0,0,0,0.0,0.0,0,0,40.0,0.0,0.0,4588.717948717949,3935.3846153846157,4426.666666666667,4366.153846153847,4201.538461538462,4491.794871794872,4334.358974358975,4334.358974358975,4287.6923076923085,4601.538461538462,4216.923076923077,4141.025641025642,4170.769230769231,4683.589743589744
997.86536,0.23681532,0.38923308,0.38970762,0.6265144,0,0.0,0.0,0.0,0.0,0.0,0,0,0.0,0.0,0,0,72.0,0.0,479.0,4611.794871794872,3930.2564102564106,4229.2307692307695,4404.615384615385,4242.051282051282,4531.282051282052,4395.384615384616,4389.2307692307695,4343.589743589744,4655.384615384616,4266.666666666667,4187.179487179487,4232.820512820514,4670.256410256411
998.1156,0.23681532,0.38923308,0.38970762,0.6265144,0,0.0,0.0,0.0,0.0,0.42301232,0,0,0.0,0.0,0,0,104.0,0.0,518.0,4589.743589743591,3914.8717948717954,4282.051282051282,4404.102564102564,4234.358974358975,4526.153846153847,4397.435897435898,4394.358974358975,4353.846153846154,4679.48717948718,4294.358974358975,4175.384615384616,4244.102564102564,4603.589743589744
998.3971,0.21252713,0.3878575,0.38406384,0.6190798,0,0.0,0.0,0.0,0.0,0.51021177,0,0,0.0,0.0,0,0,11.0,0.0,500.0,4525.641025641026,3847.692307692308,4416.923076923077,4393.333333333334,4231.282051282052,4504.615384615385,4318.974358974359,4337.435897435898,4263.076923076924,4593.333333333334,4216.923076923077,4136.410256410257,4148.205128205129,4508.717948717949
998.4909,0.21252713,0.3878575,0.38406384,0.6190798,0,0.0,0.0,0.0,0.0,0.0,0,0,0.0,0.0,0,0,23.0,0.0,0.0,4510.769230769231,3861.538461538462,4437.948717948719,4424.615384615385,4218.461538461539,4490.769230769231,4307.179487179487,4320.512820512821,4229.74358974359,4558.974358974359,4134.358974358975,4081.538461538462,4056.9230769230776,4478.461538461539
998.8975,0.25682083,0.3785418,0.37898612,0.6123906,0,0.0,0.0,0.0,0.0,0.0,0,0,0.0,0.20937845,0,0,75.0,0.0,500.0,4490.769230769231,3805.1282051282055,4421.025641025642,4546.666666666667,4201.538461538462,4485.128205128206,4309.743589743591,4279.48717948718,4208.717948717949,4587.6923076923085,4120.000000000001,4119.48717948718,4084.1025641025644,4489.743589743591
999.11646,0.25682083,0.3785418,0.37898612,0.6123906,0,0.0,0.0,0.0,0.26730686,0.0,0,0,0.0,0.0,0,0,103.0,0.0,500.0,4473.846153846154,3806.666666666667,4486.666666666667,4566.666666666667,4171.282051282052,4458.461538461539,4266.666666666667,4258.461538461539,4174.358974358975,4544.102564102564,4132.820512820514,4079.48717948718,4056.410256410257,4353.333333333334
999.39795,0.34889752,0.3705542,0.37441933,0.6063737,0,0.0,0.0,0.0,1.0,0.0,0,0,0.0,0.0,0,0,10.0,0.0,533.0,4560.000000000001,3871.7948717948725,4472.820512820514,4490.256410256411,4181.538461538462,4486.666666666667,4265.641025641026,4277.435897435898,4202.564102564103,4538.974358974359,4168.717948717949,4121.538461538462,4076.410256410257,4507.6923076923085
999.49176,0.34889752,0.3705542,0.37441933,0.6063737,0,0.0,0.0,0.0,0.0,1.0,0,0,0.0,0.0,0,0,22.0,0.0,0.0,4536.410256410257,3876.410256410257,4401.538461538462,4490.256410256411,4201.025641025642,4502.564102564103,4288.717948717949,4286.153846153847,4216.410256410257,4554.358974358975,4184.615384615385,4152.820512820514,4076.410256410257,4418.461538461539
999.8984,0.36473328,0.36308724,0.37031075,0.60096025,0,0.0,0.0,0.0,0.0,0.46220112,0,0,0.0,0.0,0,0,74.0,0.0,533.0,4511.282051282052,3875.8974358974365,4365.128205128206,4442.564102564103,4201.025641025642,4506.666666666667,4307.6923076923085,4312.820512820514,4274.358974358975,4582.564102564103,4205.641025641026,4137.435897435898,4090.7692307692314,4405.128205128206
999.9922,0.36473328,0.36308724,0.37031075,0.60096025,0,0.0,0.0,0.0,0.0,0.0,0,0,0.0,0.0,0,0,86.0,0.0,533.0,4511.794871794872,3855.3846153846157,4397.948717948719,4418.461538461539,4185.641025641026,4489.743589743591,4312.820512820514,4311.282051282052,4263.589743589744,4580.000000000001,4183.589743589744,4138.461538461539,4083.076923076924,4384.615384615385
1000.3988,0.37266022,0.36093345,0.366613,0.5960881,0,0.0,0.0,0.0,0.0,0.0,0,0,0.0,0.0,0,0,9.0,0.0,477.0,4549.2307692307695,3880.0000000000005,4158.461538461539,4404.102564102564,4200.512820512821,4504.615384615385,4335.8974358974365,4323.076923076924,4292.307692307693,4609.743589743591,4246.666666666667,4185.641025641026,4151.282051282052,4482.564102564103
1000.61774,0.37266022,0.36093345,0.366613,0.5960881,0,0.0,0.0,0.0,0.109403335,0.0,0,0,0.0,0.0,0,0,37.0,0.0,0.0,4549.2307692307695,3894.358974358975,4232.820512820514,4409.2307692307695,4225.641025641026,4520.000000000001,4349.743589743591,4361.025641025642,4329.743589743591,4646.153846153847,4265.128205128206,4174.358974358975,4181.538461538462,4425.641025641026
1000.89923,0.32847536,0.35667866,0.36328503,0.5917032,0,0.0,0.0,0.0,0.39189222,0.0,0,0,0.0,0.0,0,0,73.0,0.0,477.0,4557.435897435898,3890.7692307692314,4291.282051282052,4371.794871794872,4196.410256410257,4493.846153846154,4365.128205128206,4352.820512820514,4328.205128205129,4655.8974358974365,4295.8974358974365,4182.564102564103,4187.6923076923085,4427.179487179487
1000.99304,0.32847536,0.35667866,0.36328503,0.5917032,0,0.0,0.0,0.0,0.0,0.0,0,0,0.0,0.0,0,0,85.0,0.0,509.0,4555.8974358974365,3878.461538461539,4277.948717948719,4363.076923076924,4187.179487179487,4489.743589743591,4356.923076923077,4341.025641025642,4309.743589743591,4630.256410256411,4265.641025641026,4151.282051282052,4165.641025641026,4389.743589743591
1001.36835,0.30080175,0.3538453,0.36028266,0.5877484,0,0.0,0.0,0.0,0.0,0.0,0,0,0.0,0.0,0,0,4.0,0.0,562.0,4535.8974358974365,3876.9230769230776,4308.717948717949,4333.333333333334,4153.846153846154,4450.769230769231,4314.358974358975,4323.076923076924,4293.846153846154,4615.384615384616,4231.282051282052,4138.974358974359,4123.589743589744,4351.794871794872
1001.36835,0.30080175,0.3538453,0.36028266,0.5877484,0,0.0,0.0,0.0,0.0,0.0,0,0,0.0,0.0,0,0,4.0,0.0,562.0,4535.8974358974365,3876.9230769230776,4308.717948717949,4333.333333333334,4153.846153846154,4450.769230769231,4314.358974358975,4323.076923076924,4293.846153846154,4615.384615384616,4231.282051282052,4138.974358974359,4123.589743589744,4351.794871794872
1001.8688,0.2681132,0.34875137,0.3575798,0.58418846,0,0.0,0.0,0.0,0.0,0.0,0,0,0.0,0.0,0,0,68.0,0.0,562.0,4592.820512820514,3897.9487179487182,4356.410256410257,4355.384615384616,4173.333333333334,4475.384615384616,4338.461538461539,4372.307692307693,4314.358974358975,4681.538461538462,4277.948717948719,4171.794871794872,4293.333333333334,4373.846153846154
1002.119,0.2681132,0.34875137,0.3575798,0.58418846,0,0.0,0.0,0.0,0.0,0.26670343,0,0,0.0,0.0,0,0,100.0,0.0,519.0,4596.923076923077,3911.7948717948725,4392.820512820514,4360.512820512821,4197.435897435898,4509.2307692307695,4362.051282051282,4414.871794871796,4366.153846153847,4748.717948717949,4363.076923076924,4190.769230769231,4394.358974358975,4418.461538461539
1002.3692,0.3493293,0.3427153,0.35514662,0.5809839,0,0.0,0.0,0.0,0.0,0.3651972,0,0,0.0,0.0,0,0,3.0,0.0,547.0,4618.974358974359,3930.2564102564106,4400.512820512821,4369.743589743591,4218.461538461539,4536.923076923077,4364.615384615385,4406.666666666667,4355.384615384616,4743.076923076924,4345.641025641026,4199.48717948718,4361.025641025642,4430.769230769231
1002.61945,0.3493293,0.3427153,0.35514662,0.5809839,0,0.0,0.0,0.0,0.0,0.18972617,0,0,0.0,0.0,0,0,35.0,0.0,0.0,4630.769230769231,3943.589743589744,4411.794871794872,4354.871794871796,4262.051282051282,4569.2307692307695,4371.282051282052,4421.025641025642,4381.025641025642,4730.769230769231,4342.564102564103,4208.717948717949,4316.923076923077,4442.051282051282
1002.8696,0.33916688,0.33659044,0.3529569,0.57809997,0,0.0,0.0,0.0,0.0,0.0,0,0,0.0,0.0,0,0,67.0,0.0,547.0,4624.102564102564,3963.589743589744,4388.205128205129,4372.307692307693,4254.358974358975,4568.205128205129,4382.564102564103,4405.641025641026,4375.384615384616,4748.205128205129,4344.615384615385,4222.564102564103,4293.846153846154,4420.000000000001
1002.8696,0.33916688,0.33659044,0.3529569,0.57809997,0,0.0,0.0,0.0,0.0,0.0,0,0,0.0,0.0,0,0,67.0,0.0,547.0,4624.102564102564,3963.589743589744,4388.205128205129,4372.307692307693,4254.358974358975,4568.205128205129,4382.564102564103,4405.641025641026,4375.384615384616,4748.205128205129,4344.615384615385,4222.564102564103,4293.846153846154,4420.000000000001
1003.3701,0.3424189,0.33167598,0.350987,0.57550544,0,0.0,0.0,0.0,0.0,0.0,0,0,0.0,0.0,0,0,2.0,0.0,376.0,4633.333333333334,3967.692307692308,4411.794871794872,4352.307692307693,4205.641025641026,4521.025641025642,4393.333333333334,4393.846153846154,4355.8974358974365,4734.358974358975,4325.641025641026,4200.000000000001,4263.589743589744,4357.435897435898
1003.3701,0.3424189,0.33167598,0.350987,0.57550544,0,0.0,0.0,0.0,0.0,0.0,0,0,0.0,0.0,0,0,2.0,0.0,376.0,4633.333333333334,3967.692307692308,4411.794871794872,4352.307692307693,4205.641025641026,4521.025641025642,4393.333333333334,4393.846153846154,4355.8974358974365,4734.358974358975,4325.641025641026,4200.000000000001,4263.589743589744,4357.435897435898
1003.87054,0.32308435,0.32757744,0.34970286,0.5738701,0,0.0,0.0,0.0,0.0,0.0,0,0,0.0,0.0,0,0,66.0,0.0,376.0,4653.333333333334,3925.1282051282055,4455.384615384616,4361.538461538462,4199.48717948718,4512.307692307693,4392.307692307693,4393.846153846154,4355.8974358974365,4686.666666666667,4308.717948717949,4212.307692307693,4163.076923076924,4405.641025641026
1004.1207,0.32308435,0.32757744,0.34970286,0.5738701,0,0.0,0.0,0.0,0.0,0.1121502,0,0,0.0,0.0,0,0,98.0,0.0,533.0,4671.282051282052,3954.8717948717954,4483.589743589744,4367.6923076923085,4216.410256410257,4526.153846153847,4404.615384615385,4412.307692307693,4376.410256410257,4708.205128205129,4339.48717948718,4247.6923076923085,4215.8974358974365,4409.743589743591
1004.371,0.25900817,0.32422075,0.3525004,0.57239795,0,0.0,0.0,0.0,0.0,0.0,0,0,0.0,0.0,0,0,1.0,0.0,518.0,4665.641025641026,3957.435897435898,4521.025641025642,4372.307692307693,4206.666666666667,4524.615384615385,4391.282051282052,4397.948717948719,4373.333333333334,4692.307692307693,4333.846153846154,4245.128205128206,4202.051282051282,4442.564102564103
1004.371,0.25900817,0.32422075,0.3525004,0.57239795,0,0.0,0.0,0.0,0.0,0.0,0,0,0.0,0.0,0,0,1.0,0.0,518.0,4665.641025641026,3957.435897435898,4521.025641025642,4372.307692307693,4206.666666666667,4524.615384615385,4391.282051282052,4397.948717948719,4373.333333333334,4692.307692307693,4333.846153846154,4245.128205128206,4202.051282051282,4442.564102564103
1004.8714,0.155711,0.32201943,0.35912818,0.5710725,0,0.0,0.0,0.0,0.0,0.0,0,0,0.0,0.0,0,0,65.0,0.0,518.0,4644.615384615385,3944.1025641025644,4504.102564102564,4354.358974358975,4216.410256410257,4539.48717948718,4403.589743589744,4402.051282051282,4392.820512820514,4697.435897435898,4292.307692307693,4229.74358974359,4166.153846153847,4520.000000000001
1004.8714,0.155711,0.32201943,0.35912818,0.5710725,0,0.0,0.0,0.0,0.0,0.0,0,0,0.0,0.0,0,0,65.0,0.0,518.0,4644.615384615385,3944.1025641025644,4504.102564102564,4354.358974358975,4216.410256410257,4539.48717948718,4403.589743589744,4402.051282051282,4392.820512820514,4697.435897435898,4292.307692307693,4229.74358974359,4166.153846153847,4520.000000000001
1005.3718,0.11504317,0.31989253,0.36540747,0.57073635,0,0.0,0.0,0.0,0.0,0.0,0,0,0.0,0.0,0,0,0.0,0.0,502.0,4621.538461538462,3909.2307692307695,4458.461538461539,4364.615384615385,4198.461538461539,4528.717948717949,4408.205128205129,4393.333333333334,4339.48717948718,4704.102564102564,4311.794871794872,4214.358974358975,4097.948717948719,4394.871794871796
1005.622,0.11504317,0.31989253,0.36540747,0.57073635,0,0.0,0.0,0.0,0.0,1.0,0,0,0.0,0.0,0,0,32.0,0.0,0.0,4618.461538461539,3923.589743589744,4411.282051282052,4356.410256410257,4218.461538461539,4540.512820512821,4395.384615384616,4410.769230769231,4345.641025641026,4725.128205128206,4325.128205128206,4185.641025641026,4094.358974358975,4392.307692307693
1005.87225,0.09995758,0.3171829,0.3812047,0.56451374,0,0.0,0.0,0.0,0.0,0.0,0,0,0.0,0.0,0,0,64.0,0.0,502.0,4620.512820512821,3934.8717948717954,4429.743589743591,4383.076923076924,4227.6923076923085,4540.512820512821,4395.384615384616,4391.282051282052,4328.205128205129,4699.48717948718,4321.538461538462,4186.153846153847,4092.820512820513,4396.923076923077
1005.87225,0.09995758,0.3171829,0.3812047,0.56451374,0,0.0,0.0,0.0,0.0,0.0,0,0,0.0,0.0,0,0,64.0,0.0,502.0,4620.512820512821,3934.8717948717954,4429.743589743591,4383.076923076924,4227.6923076923085,4540.512820512821,4395.384615384616,4391.282051282052,4328.205128205129,4699.48717948718,4321.538461538462,4186.153846153847,4092.820512820513,4396.923076923077
1006.40393,0.05991887,0.31818238,0.39543754,0.55821794,0,0.0,0.0,0.0,0.14582817,0.0,0,0,0.0,0.0,0,1,3.0,0.0,547.0,4597.948717948719,3908.205128205129,4454.871794871796,4381.025641025642,4232.820512820514,4537.948717948719,4384.615384615385,4410.256410256411,4292.307692307693,4664.615384615386,4330.769230769231,4345.128205128206,4143.589743589744,4537.948717948719
1006.6542,0.05991887,0.31818238,0.39543754,0.55821794,0,0.0,0.0,0.0,0.5445045,0.0,0,0,0.0,0.0,0,0,35.0,0.0,0.0,4603.589743589744,3895.8974358974365,4466.666666666667,4444.615384615385,4291.794871794872,4600.512820512821,4454.871794871796,4459.48717948718,4263.076923076924,4635.8974358974365,4406.153846153847,4504.615384615385,4168.717948717949,4602.051282051282
1006.8731,0.059008356,0.31646073,0.40822628,0.5525516,0,0.0,0.0,0.0,0.0,1.0,0,0,0.0,0.0,0,0,63.0,0.0,0.0,4604.102564102564,3866.666666666667,4522.051282051282,4491.282051282052,4315.8974358974365,4631.282051282052,4510.256410256411,4490.256410256411,4201.025641025642,4590.256410256411,4460.512820512821,4550.769230769231,4160.000000000001,4747.179487179488
1007.1233,0.059008356,0.31646073,0.40822628,0.5525516,0,0.0,0.0,0.0,0.0,0.2653916,0,0,0.0,0.0,0,0,95.0,0.0,506.0,4660.000000000001,3913.8461538461543,4445.641025641026,4586.666666666667,4374.358974358975,4695.384615384616,4614.358974358975,4540.000000000001,4267.6923076923085,4607.6923076923085,4593.846153846154,4674.358974358975,4236.923076923077,4822.051282051282
1007.4048,0.24230215,0.31481415,0.40500492,0.55252033,0,0.0,0.0,0.0,0.017544255,0.0,0,0,0.0,0.0,0,0,2.0,0.0,376.0,4694.871794871796,3944.1025641025644,4592.820512820514,4635.384615384616,4372.820512820514,4695.8974358974365,4640.000000000001,4549.743589743591,4284.615384615385,4656.923076923077,4649.2307692307695,4645.641025641026,4250.769230769231,4828.205128205129
1007.6237,0.24230215,0.31481415,0.40500492,0.55252033,0,0.0,0.0,0.0,0.2947039,0.0,0,0,0.0,0.0,0,0,30.0,0.0,0.0,4726.153846153847,3952.307692307693,4617.435897435898,4625.128205128206,4367.179487179487,4696.410256410257,4670.256410256411,4556.923076923077,4320.512820512821,4686.666666666667,4649.743589743591,4587.179487179488,4234.358974358975,4778.974358974359
1007.9052,0.22763938,0.31333223,0.39783776,0.55249214,0,0.0,0.0,0.0,0.1950311,0.0,0,0,0.0,0.0,0,0,66.0,0.0,376.0,4753.846153846154,3933.333333333334,4592.307692307693,4615.8974358974365,4311.794871794872,4641.538461538462,4665.128205128206,4553.846153846154,4362.564102564103,4692.307692307693,4628.205128205129,4527.6923076923085,4258.461538461539,4794.358974358975
1008.12415,0.22763938,0.31333223,0.39783776,0.55249214,0,0.0,0.0,0.0,0.70936173,0.0,0,0,0.0,0.0,0,0,94.0,0.0,533.0,4756.923076923077,3926.666666666667,4564.102564102564,4620.512820512821,4294.871794871796,4637.435897435898,4658.461538461539,4567.6923076923085,4381.538461538462,4723.076923076924,4606.153846153847,4503.076923076924,4265.128205128206,4657.435897435898
1008.40564,0.25006843,0.31199852,0.3913873,0.5524668,0,0.0,0.0,0.0,0.0,0.0,0,0,0.0,0.0,0,0,1.0,0.0,513.0,4735.384615384616,3943.589743589744,4491.794871794872,4583.589743589744,4294.358974358975,4630.256410256411,4647.6923076923085,4529.2307692307695,4377.948717948719,4711.282051282052,4559.48717948718,4429.743589743591,4233.333333333334,4672.820512820514
1008.62463,0.25006843,0.31199852,0.3913873,0.5524668,0,0.0,0.0,0.0,0.0,0.09685425,0,0,0.0,0.0,0,0,29.0,0.0,0.0,4696.923076923077,3918.9743589743593,4487.179487179488,4533.846153846154,4265.641025641026,4590.769230769231,4636.923076923077,4523.589743589744,4413.333333333334,4719.48717948718,4463.076923076924,4308.717948717949,4154.358974358975,4606.153846153847
1008.90607,0.2825034,0.31079817,0.38558194,0.55244404,0,0.0,0.0,0.0,0.0,0.049912483,0,0,0.0,0.0,0,0,65.0,0.0,513.0,4732.307692307693,3933.333333333334,4163.589743589744,4534.871794871796,4304.102564102564,4595.384615384616,4610.256410256411,4522.564102564103,4498.461538461539,4778.461538461539,4515.8974358974365,4287.6923076923085,4209.2307692307695,4653.846153846154
1009.12506,0.2825034,0.31079817,0.38558194,0.55244404,1,0.0,0.0,0.0,0.12968092,0.0,0,0,0.0,0.0,0,0,93.0,0.0,504.0,4759.48717948718,3998.461538461539,3384.1025641025644,4600.000000000001,4374.871794871796,4655.384615384616,4643.589743589744,4603.589743589744,4622.564102564103,4893.846153846154,4574.871794871796,4344.102564102564,4274.871794871796,4740.000000000001
1009.40656,0.3945625,0.30971786,0.38035706,0.5524235,0,0.0,0.0,0.0,0.0923506,0.0,0,0,0.0,0.0,0,0,0.0,0.0,502.0,4745.641025641026,3990.2564102564106,3709.2307692307695,4548.205128205129,4368.205128205129,4637.435897435898,4567.6923076923085,4565.641025641026,4592.307692307693,4872.307692307693,4518.461538461539,4281.538461538462,4241.538461538462,4919.48717948718
1009.6255,0.3945625,0.30971786,0.38035706,0.5524235,0,0.0,0.0,0.0,0.1727551,0.0,0,0,0.0,0.0,0,1,28.0,0.0,0.0,4725.128205128206,3984.615384615385,3876.9230769230776,4509.2307692307695,4333.846153846154,4609.2307692307695,4520.512820512821,4530.769230769231,4576.923076923077,4851.794871794872,4460.000000000001,4243.076923076924,4190.256410256411,4772.307692307693
1009.907,0.486103,0.30874556,0.3756547,0.552405,0,0.0,0.0,0.0,1.0,0.0,0,0,0.0,0.0,0,0,64.0,0.0,496.0,4720.512820512821,4000.0000000000005,3858.461538461539,4477.948717948719,4281.025641025642,4573.846153846154,4507.6923076923085,4529.2307692307695,4567.179487179488,4851.282051282052,4449.743589743591,4279.48717948718,4271.282051282052,4527.179487179488
1010.1259,0.486103,0.30874556,0.3756547,0.552405,0,0.0,0.0,0.0,0.08478933,0.0,0,0,0.0,0.0,0,0,92.0,0.0,508.0,4621.538461538462,3892.307692307693,5155.8974358974365,4353.846153846154,4141.025641025642,4455.8974358974365,4340.512820512821,4368.205128205129,4426.666666666667,4718.461538461539,4279.48717948718,4129.2307692307695,4122.564102564103,4463.076923076924
1010.4074,0.52055335,0.3078705,0.37142256,0.5523884,0,0.0,0.0,0.0,0.029519329,0.0,0,0,0.0,0.0,0,0,128.0,0.0,508.0,4614.358974358975,3898.461538461539,4898.974358974359,4351.282051282052,4140.000000000001,4458.974358974359,4350.769230769231,4385.641025641026,4413.846153846154,4683.076923076924,4228.717948717949,4083.589743589744,4053.333333333334,4437.948717948719
1010.62634,0.52055335,0.3078705,0.37142256,0.5523884,1,0.0,0.0,0.0,0.04962723,0.0,0,0,0.0,0.0,0,0,27.0,0.0,0.0,4667.6923076923085,3976.410256410257,4193.846153846154,4422.051282051282,4185.641025641026,4504.102564102564,4398.974358974359,4448.717948717949,4476.410256410257,4773.333333333334,4312.307692307693,4199.48717948718,4135.384615384616,4424.615384615385
1010.90784,0.56457525,0.30708298,0.36761364,0.55237347,0,0.0,0.0,0.0,0.058470927,0.0,0,0,0.0,0.0,0,0,63.0,0.0,0.0,4613.333333333334,3943.076923076924,4303.589743589744,4376.410256410257,4186.666666666667,4505.128205128206,4380.000000000001,4406.153846153847,4465.641025641026,4767.6923076923085,4261.025641025642,4156.923076923077,4120.512820512821,4336.410256410257
1011.1268,0.56457525,0.30708298,0.36761364,0.55237347,0,0.0,0.0,0.0,0.121648386,0.0,0,0,0.0,0.0,0,0,91.0,0.0,506.0,4644.102564102564,3975.3846153846157,4151.794871794872,4402.564102564103,4208.205128205129,4525.128205128206,4432.820512820514,4459.48717948718,4474.358974358975,4769.743589743591,4309.743589743591,4215.384615384616,4222.051282051282,4384.102564102564
1011.40826,0.61304677,0.30637416,0.3641856,0.55236,0,0.0,0.0,0.0,0.07601544,0.0,0,0,0.0,0.0,0,0,127.0,0.0,506.0,4666.666666666667,3943.076923076924,4154.358974358975,4396.923076923077,4217.435897435898,4537.435897435898,4445.128205128206,4460.000000000001,4475.384615384616,4764.615384615386,4296.410256410257,4253.333333333334,4244.615384615385,4353.846153846154
1011.6272,0.61304677,0.30637416,0.3641856,0.55236,0,0.0,0.0,0.0,0.043312527,0.0,0,0,0.0,0.0,0,0,26.0,0.0,0.0,4593.333333333334,3872.307692307693,4935.8974358974365,4324.102564102564,4146.153846153847,4471.794871794872,4349.2307692307695,4334.871794871796,4377.948717948719,4688.717948717949,4211.794871794872,4147.6923076923085,4164.102564102564,4278.461538461539
1011.9087,0.6208371,0.30573624,0.36110038,0.55234784,1,0.0,0.0,0.0,0.04025916,0.0,0,0,0.0,0.0,0,0,62.0,0.0,0.0,4646.666666666667,3981.0256410256416,3703.076923076924,4451.282051282052,4252.307692307693,4550.256410256411,4462.051282051282,4449.743589743591,4481.538461538462,4787.6923076923085,4316.410256410257,4267.179487179487,4296.410256410257,4388.717948717949
1012.1276,0.6208371,0.30573624,0.36110038,0.55234784,0,0.0,0.0,0.0,0.045191232,0.0,0,0,0.0,0.0,0,0,90.0,0.0,533.0,4611.794871794872,3916.410256410257,4143.589743589744,4383.589743589744,4186.666666666667,4487.6923076923085,4416.923076923077,4413.846153846154,4447.179487179487,4754.358974358975,4292.820512820514,4218.461538461539,4368.205128205129,4375.8974358974365
1012.4091,0.5980734,0.30516213,0.35832366,0.55233693,0,0.0,0.0,0.0,0.04351059,0.0,0,0,0.0,0.0,0,0,126.0,0.0,533.0,4558.461538461539,3833.333333333334,5271.794871794872,4295.384615384616,4115.384615384616,4431.794871794872,4311.794871794872,4323.076923076924,4346.153846153847,4659.48717948718,4254.358974358975,4143.076923076924,4246.666666666667,4303.589743589744
1012.62805,0.5980734,0.30516213,0.35832366,0.55233693,0,0.0,0.0,0.0,0.037300345,0.0,0,0,0.0,0.0,0,0,25.0,0.0,0.0,4533.846153846154,3816.9230769230776,5177.435897435898,4279.48717948718,4120.512820512821,4438.974358974359,4313.846153846154,4340.000000000001,4356.410256410257,4621.025641025642,4248.717948717949,4113.333333333334,4166.666666666667,4290.256410256411
1012.90955,0.62255186,0.30464542,0.35582465,0.55232716,0,0.0,0.0,0.0,0.50765496,0.0,0,0,0.0,0.0,0,0,61.0,0.0,0.0,4522.051282051282,3860.0000000000005,5164.615384615386,4298.974358974359,4172.820512820514,4468.205128205129,4274.358974358975,4346.153846153847,4301.538461538462,4731.282051282052,4488.717948717949,4355.8974358974365,4196.923076923077,4692.307692307693
1013.1285,0.62255186,0.30464542,0.35582465,0.55232716,0,0.0,0.0,0.0,0.32982254,0.0,0,0,0.0,0.0,0,0,89.0,0.0,509.0,4511.794871794872,3845.1282051282055,5044.615384615386,4269.2307692307695,4152.307692307693,4451.282051282052,4287.6923076923085,4367.6923076923085,4321.025641025642,4702.051282051282,4411.282051282052,4171.794871794872,4283.589743589744,4541.538461538462
1013.41,0.5951143,0.30418038,0.3535755,0.55231833,0,0.0,0.0,0.0,0.049946114,0.0,0,0,0.0,0.0,0,0,125.0,0.0,509.0,4588.717948717949,3904.1025641025644,4879.48717948718,4328.717948717949,4194.871794871796,4496.923076923077,4371.794871794872,4358.461538461539,4330.769230769231,4646.153846153847,4326.153846153847,4185.128205128206,4137.435897435898,4541.538461538462
1013.6289,0.5951143,0.30418038,0.3535755,0.55231833,0,0.0,0.0,0.0,0.036003023,0.0,0,0,0.0,0.0,0,0,24.0,0.0,0.0,4595.8974358974365,3894.8717948717954,4642.564102564103,4343.589743589744,4212.307692307693,4516.410256410257,4398.461538461539,4396.923076923077,4378.461538461539,4663.076923076924,4321.538461538462,4151.282051282052,4220.512820512821,4539.48717948718
1013.9104,0.5749142,0.30376184,0.3515513,0.55231035,1,0.0,0.0,0.0,0.021734815,0.0,0,0,0.0,0.0,0,0,60.0,0.0,0.0,4617.435897435898,3955.3846153846157,4168.205128205129,4377.948717948719,4263.076923076924,4571.794871794872,4460.512820512821,4440.512820512821,4410.769230769231,4698.461538461539,4341.538461538462,4265.641025641026,4133.846153846154,4549.2307692307695
1014.12933,0.5749142,0.30376184,0.3515513,0.55231035,0,0.0,0.0,0.0,0.07526501,0.0,0,0,0.0,0.0,0,0,88.0,0.0,515.0,4598.974358974359,3928.205128205129,4155.384615384616,4353.846153846154,4217.948717948719,4539.48717948718,4431.794871794872,4408.205128205129,4387.179487179487,4676.923076923077,4349.743589743591,4184.615384615385,4196.410256410257,4535.384615384616
1014.4108,0.51042354,0.30338517,0.3497295,0.5523032,0,0.0,0.0,0.0,0.034030296,0.0,0,0,0.0,0.0,0,0,124.0,0.0,515.0,4632.820512820514,3992.820512820513,3829.2307692307695,4402.564102564103,4277.948717948719,4571.794871794872,4475.384615384616,4498.461538461539,4465.128205128206,4745.128205128206,4459.48717948718,4282.051282051282,4209.74358974359,4556.410256410257
1014.62976,0.51042354,0.30338517,0.3497295,0.5523032,0,0.0,0.0,0.0,0.106770225,0.0,0,0,0.0,0.0,0,0,23.0,0.0,0.0,4603.076923076924,3946.1538461538466,3924.1025641025644,4383.076923076924,4248.717948717949,4542.564102564103,4452.820512820514,4445.128205128206,4430.769230769231,4725.641025641026,4469.743589743591,4246.666666666667,4209.74358974359,4526.666666666667
1014.91125,0.47319293,0.30304617,0.34808987,0.55229676,0,0.0,0.0,0.0,0.050425835,0.0,0,0,0.0,0.0,0,0,59.0,0.0,0.0,4595.384615384616,3891.2820512820517,4124.615384615385,4345.128205128206,4215.8974358974365,4523.076923076924,4444.102564102564,4441.025641025642,4343.076923076924,4688.717948717949,4426.666666666667,4296.410256410257,4084.615384615385,4526.153846153847
1015.1302,0.47319293,0.30304617,0.34808987,0.55229676,0,0.0,0.0,0.0,0.05675736,0.0,0,0,0.0,0.0,0,0,87.0,0.0,508.0,4601.025641025642,3913.333333333334,4254.358974358975,4362.564102564103,4244.615384615385,4541.538461538462,4433.333333333334,4447.179487179487,4345.128205128206,4685.641025641026,4425.641025641026,4311.794871794872,4062.564102564103,4507.6923076923085
1015.4117,0.3758184,0.31769267,0.3466142,0.552291,0,0.0,0.0,0.0,0.04270502,0.0,0,0,0.0,0.0,0,0,123.0,0.0,508.0,4604.102564102564,3923.076923076924,4413.846153846154,4368.205128205129,4276.923076923077,4567.179487179488,4409.2307692307695,4427.6923076923085,4365.128205128206,4665.128205128206,4413.333333333334,4247.6923076923085,4127.179487179487,4509.743589743591
1015.6306,0.3758184,0.31769267,0.3466142,0.552291,0,0.0,0.0,0.0,0.04914574,0.0,0,0,0.0,0.0,0,0,22.0,0.0,0.0,4612.820512820514,3941.538461538462,4407.6923076923085,4389.743589743591,4294.871794871796,4589.2307692307695,4427.6923076923085,4464.102564102564,4370.769230769231,4677.435897435898,4396.410256410257,4265.128205128206,4133.333333333334,4487.6923076923085
1015.9121,0.29758886,0.32112706,0.34528613,0.55228573,0,0.0,0.0,0.0,0.44214657,0.0,0,0,0.0,0.0,0,0,58.0,0.0,0.0,4624.102564102564,3958.461538461539,4474.358974358975,4386.153846153847,4251.282051282052,4566.666666666667,4413.846153846154,4463.589743589744,4387.6923076923085,4720.000000000001,4397.948717948719,4261.538461538462,4187.179487179487,4457.435897435898
1016.13104,0.29758886,0.32112706,0.34528613,0.55228573,0,0.0,0.0,0.0,0.48443893,0.0,0,0,0.0,0.0,0,0,86.0,0.0,533.0,4605.128205128206,3970.2564102564106,4470.256410256411,4376.410256410257,4234.358974358975,4553.846153846154,4416.410256410257,4460.000000000001,4392.307692307693,4707.179487179488,4362.051282051282,4246.666666666667,4174.358974358975,4372.307692307693
1016.41254,0.22120543,0.32009426,0.34409085,0.5522811,0,0.0,0.0,0.0,0.12165596,0.0,0,0,0.0,0.0,0,0,122.0,0.0,533.0,4650.256410256411,3997.435897435898,4422.051282051282,4425.128205128206,4241.538461538462,4552.307692307693,4443.589743589744,4493.846153846154,4412.820512820514,4737.948717948719,4369.743589743591,4271.282051282052,4217.948717948719,4413.846153846154
1016.6315,0.22120543,0.32009426,0.34409085,0.5522811,0,0.0,0.0,0.0,0.13338874,0.0,0,0,0.0,0.0,0,0,21.0,0.0,0.0,4633.846153846154,3971.2820512820517,4382.051282051282,4415.8974358974365,4257.435897435898,4570.769230769231,4451.282051282052,4463.589743589744,4413.333333333334,4744.615384615386,4351.794871794872,4237.435897435898,4213.333333333334,4382.051282051282
1016.91296,0.16162865,0.3199139,0.3430151,0.55227685,0,0.0,0.0,0.0,0.22184263,0.0,0,0,0.0,0.0,0,0,57.0,0.0,0.0,4626.666666666667,3954.358974358975,4427.179487179487,4415.384615384616,4254.358974358975,4566.666666666667,4431.794871794872,4447.179487179487,4430.256410256411,4754.358974358975,4348.717948717949,4233.846153846154,4262.564102564103,4513.333333333334
1017.1319,0.16162865,0.3199139,0.3430151,0.55227685,0,0.0,0.0,0.0,0.8745737,0.0,0,0,0.0,0.0,0,0,85.0,0.0,509.0,4630.769230769231,3973.8461538461543,4386.666666666667,4432.307692307693,4247.179487179487,4557.435897435898,4438.461538461539,4466.666666666667,4428.205128205129,4763.589743589744,4370.256410256411,4234.358974358975,4315.8974358974365,4572.307692307693
1017.4134,0.13654043,0.3223599,0.34204692,0.55227304,0,0.0,0.0,0.0,0.083292834,0.0,0,0,0.0,0.0,0,0,121.0,0.0,509.0,4624.102564102564,3982.564102564103,4418.974358974359,4432.307692307693,4236.410256410257,4555.8974358974365,4429.2307692307695,4447.6923076923085,4432.820512820514,4771.282051282052,4387.6923076923085,4252.307692307693,4332.307692307693,4557.948717948719
1017.6323,0.13654043,0.3223599,0.34204692,0.55227304,0,0.0,0.0,0.0,0.098125525,0.0,0,0,0.0,0.0,0,0,20.0,0.0,0.0,4634.871794871796,4004.1025641025644,4396.410256410257,4448.205128205129,4232.307692307693,4557.948717948719,4429.743589743591,4420.512820512821,4422.051282051282,4739.48717948718,4355.384615384616,4231.282051282052,4277.435897435898,4567.6923076923085
1017.9138,0.06894014,0.32565102,0.34117556,0.5522696,0,0.0,0.0,0.0,0.11724919,0.0,0,0,0.0,0.0,0,0,56.0,0.0,0.0,4611.794871794872,3938.9743589743593,4481.025641025642,4405.641025641026,4202.564102564103,4530.256410256411,4413.333333333334,4388.205128205129,4378.974358974359,4692.307692307693,4313.846153846154,4197.948717948719,4206.153846153847,4539.48717948718
1018.13275,0.06894014,0.32565102,0.34117556,0.5522696,0,0.0,0.0,0.0,0.09372494,0.0,0,0,0.0,0.0,0,0,84.0,0.0,515.0,4626.153846153847,3911.7948717948725,4467.179487179487,4365.128205128206,4167.6923076923085,4490.769230769231,4399.48717948718,4373.846153846154,4369.2307692307695,4698.461538461539,4314.871794871796,4206.153846153847,4217.948717948719,4536.923076923077
1018.41425,0.12258024,0.3291048,0.34039134,0.55226654,0,0.0,0.0,0.0,0.0,0.0,0,0,0.0,0.0,0,0,120.0,0.0,515.0,4614.358974358975,3924.1025641025644,4267.6923076923085,4388.717948717949,4208.205128205129,4508.205128205129,4424.102564102564,4396.923076923077,4380.000000000001,4691.794871794872,4275.384615384616,4179.48717948718,4163.589743589744,4473.846153846154
1018.6332,0.12258024,0.3291048,0.34039134,0.55226654,0,0.0,0.0,0.0,0.05431113,0.0,0,0,0.0,0.0,0,0,19.0,0.0,0.0,4620.000000000001,3923.589743589744,4419.48717948718,4413.846153846154,4237.435897435898,4528.205128205129,4406.153846153847,4391.282051282052,4392.820512820514,4707.179487179488,4310.769230769231,4226.666666666667,4219.48717948718,4504.102564102564
1018.9147,0.13557863,0.33393005,0.33968553,0.55226374,0,0.0,0.0,0.0,0.34352875,0.0,0,0,0.0,0.0,0,0,55.0,0.0,0.0,4649.743589743591,3956.9230769230776,4114.871794871796,4449.2307692307695,4266.153846153847,4562.051282051282,4449.2307692307695,4422.564102564103,4412.307692307693,4733.333333333334,4325.641025641026,4249.74358974359,4216.923076923077,4612.307692307693
1019.1336,0.13557863,0.33393005,0.33968553,0.55226374,0,0.0,0.0,0.0,0.07944136,0.0,0,0,0.0,0.0,0,0,83.0,0.0,508.0,4621.538461538462,3941.538461538462,4224.615384615385,4417.435897435898,4243.076923076924,4538.974358974359,4414.871794871796,4401.025641025642,4390.256410256411,4704.615384615386,4281.025641025642,4223.589743589744,4171.794871794872,4574.871794871796
1019.4151,0.1791477,0.34442446,0.33905032,0.55226123,0,0.0,0.0,0.0,0.036942855,0.0,0,0,0.0,0.0,0,0,119.0,0.0,508.0,4580.512820512821,3953.8461538461543,4310.256410256411,4377.948717948719,4217.435897435898,4517.948717948719,4395.8974358974365,4381.025641025642,4351.282051282052,4661.538461538462,4219.48717948718,4190.256410256411,4075.3846153846157,4488.205128205129
1019.6341,0.1791477,0.34442446,0.33905032,0.55226123,0,0.0,0.0,0.0,0.26654598,0.0,0,0,0.0,0.0,0,0,18.0,0.0,0.0,4579.48717948718,3936.9230769230776,4477.435897435898,4431.794871794872,4197.435897435898,4505.128205128206,4378.461538461539,4381.538461538462,4342.051282051282,4668.717948717949,4218.461538461539,4197.435897435898,4083.589743589744,4475.384615384616
1019.9155,0.19524702,0.34807557,0.33847862,0.552259,0,0.0,0.0,0.0,0.06454704,0.0,0,0,0.0,0.0,0,0,54.0,0.0,0.0,4607.6923076923085,3943.076923076924,4692.307692307693,4442.051282051282,4211.794871794872,4521.538461538462,4415.8974358974365,4426.666666666667,4368.717948717949,4689.2307692307695,4255.8974358974365,4235.8974358974365,4137.435897435898,4459.48717948718
1020.1345,0.19524702,0.34807557,0.33847862,0.552259,0,0.0,0.0,0.0,0.09778166,0.0,0,0,0.0,0.0,0,0,82.0,0.0,533.0,4606.666666666667,3926.1538461538466,4658.461538461539,4432.307692307693,4180.000000000001,4501.025641025642,4412.307692307693,4481.538461538462,4392.307692307693,4735.384615384616,4286.666666666667,4254.871794871796,4185.128205128206,4471.282051282052
1020.416,0.14580384,0.34962243,0.3379641,0.552257,0,0.0,0.0,0.0,0.7793638,0.0,0,0,0.0,0.0,0,1,118.0,0.0,533.0,4588.717948717949,3956.9230769230776,4473.846153846154,4440.512820512821,4195.384615384616,4503.589743589744,4386.153846153847,4438.461538461539,4365.641025641026,4711.794871794872,4262.564102564103,4220.512820512821,4176.923076923077,4631.794871794872
1020.63495,0.14580384,0.34962243,0.3379641,0.552257,0,0.0,0.0,0.0,0.0,0.6708682,0,0,0.0,0.0,0,0,17.0,0.0,0.0,4594.358974358975,3955.3846153846157,4535.384615384616,4430.256410256411,4203.076923076924,4509.2307692307695,4395.384615384616,4412.820512820514,4335.8974358974365,4675.384615384616,4228.205128205129,4203.589743589744,4122.051282051282,4581.538461538462
1020.91644,0.09230099,0.3500729,0.33750102,0.55225515,0,0.0,0.0,0.0,0.0,0.1679301,0,0,0.0,0.0,0,0,53.0,0.0,0.0,4587.179487179488,3957.9487179487182,4563.589743589744,4412.307692307693,4221.538461538462,4514.358974358975,4381.025641025642,4392.307692307693,4325.641025641026,4675.8974358974365,4225.128205128206,4200.000000000001,4139.48717948718,4608.205128205129
1021.1354,0.09230099,0.3500729,0.33750102,0.55225515,0,0.0,0.0,0.0,0.28931445,0.0,0,0,0.0,0.0,0,0,81.0,0.0,509.0,4568.717948717949,3945.1282051282055,4596.410256410257,4380.000000000001,4211.794871794872,4502.051282051282,4367.6923076923085,4398.461538461539,4342.051282051282,4691.282051282052,4219.48717948718,4196.410256410257,4139.48717948718,4490.769230769231
1021.4169,0.069412336,0.34809086,0.33708426,0.55225354,0,0.0,0.0,0.0,1.0,0.0,0,0,0.0,0.0,0,0,117.0,0.0,509.0,4576.923076923077,3934.358974358975,4486.666666666667,4385.128205128206,4220.000000000001,4509.2307692307695,4401.538461538462,4431.282051282052,4380.512820512821,4736.410256410257,4263.076923076924,4234.358974358975,4244.102564102564,4471.794871794872
1021.6358,0.069412336,0.34809086,0.33708426,0.55225354,0,0.0,0.0,0.0,0.0,0.0,0,0,0.0,0.0,0,0,16.0,0.0,0.0,4592.820512820514,3912.307692307693,4621.025641025642,4362.564102564103,4196.923076923077,4492.820512820514,4390.256410256411,4409.2307692307695,4358.974358974359,4728.717948717949,4235.384615384616,4228.717948717949,4200.000000000001,4500.000000000001
1021.886,0.0,0.34571254,0.33670828,0.55225205,0,0.0,0.0,0.0,0.0,0.0,0,0,0.0,0.0,0,0,48.0,0.0,0.0,4601.538461538462,3955.8974358974365,4495.8974358974365,4411.282051282052,4202.051282051282,4508.205128205129,4412.820512820514,4395.8974358974365,4366.153846153847,4713.846153846154,4247.179487179487,4231.794871794872,4185.641025641026,4614.871794871796
1022.1362,0.0,0.34571254,0.33670828,0.55225205,0,0.0,0.0,0.0,1.0,0.0,0,0,0.0,0.0,0,0,80.0,0.0,516.0,4624.615384615385,4008.717948717949,4524.102564102564,4474.871794871796,4196.410256410257,4507.6923076923085,4429.2307692307695,4431.282051282052,4400.000000000001,4752.820512820514,4283.076923076924,4265.128205128206,4236.410256410257,4818.461538461539
1022.4177,0.066771254,0.34746307,0.3363706,0.55225074,0,0.0,0.0,0.0,0.62415224,0.0,0,0,0.0,0.0,0,0,116.0,0.0,516.0,4659.48717948718,4086.1538461538466,4210.256410256411,4521.538461538462,4245.128205128206,4557.948717948719,4469.743589743591,4469.743589743591,4420.000000000001,4759.48717948718,4314.358974358975,4278.974358974359,4242.564102564103,4844.102564102564
1022.63666,0.066771254,0.34746307,0.3363706,0.55225074,0,0.0,0.0,0.0,0.034767643,0.0,0,0,0.0,0.0,0,0,15.0,0.0,502.0,4667.179487179488,4100.512820512821,4014.358974358975,4517.435897435898,4261.025641025642,4581.025641025642,4493.333333333334,4497.435897435898,4434.871794871796,4782.564102564103,4337.948717948719,4290.769230769231,4275.384615384616,4868.205128205129
1022.91815,0.1299942,0.35023642,0.3360667,0.55224955,0,0.0,0.0,0.0,0.055715382,0.0,0,0,0.0,0.0,0,0,51.0,0.0,0.0,4636.410256410257,4031.7948717948725,4547.179487179488,4457.948717948719,4217.948717948719,4538.461538461539,4426.666666666667,4456.923076923077,4402.564102564103,4737.435897435898,4302.564102564103,4243.589743589744,4200.000000000001,4810.769230769231
1023.1371,0.1299942,0.35023642,0.3360667,0.55224955,0,0.0,0.0,0.0,0.03821255,0.0,0,0,0.0,0.0,0,0,79.0,0.0,502.0,4618.974358974359,3981.0256410256416,4510.256410256411,4418.974358974359,4191.282051282052,4506.666666666667,4374.871794871796,4383.076923076924,4355.8974358974365,4692.820512820514,4246.153846153847,4186.153846153847,4153.333333333334,4761.025641025642
1023.4186,0.18901357,0.35518596,0.33579326,0.5522485,0,0.0,0.0,0.0,0.15423876,0.0,0,0,0.0,0.0,0,0,115.0,0.0,502.0,4664.102564102564,4018.9743589743593,4496.923076923077,4431.794871794872,4213.333333333334,4523.076923076924,4408.205128205129,4429.2307692307695,4373.846153846154,4720.000000000001,4278.974358974359,4214.871794871796,4210.256410256411,4783.076923076924
1023.6375,0.18901357,0.35518596,0.33579326,0.5522485,0,0.0,0.0,0.0,0.0,0.0,0,0,0.0,0.0,0,0,14.0,0.0,533.0,4651.282051282052,4007.1794871794878,4594.871794871796,4427.179487179487,4209.74358974359,4522.564102564103,4394.871794871796,4428.205128205129,4353.846153846154,4685.128205128206,4262.564102564103,4200.512820512821,4167.179487179487,4717.948717948719
1023.919,0.15429896,0.35834917,0.33554727,0.5522475,0,0.0,0.0,0.0,0.0,0.0,0,0,0.0,0.0,0,0,50.0,0.0,0.0,4616.410256410257,3996.410256410257,4439.48717948718,4406.153846153847,4264.615384615385,4564.615384615385,4411.282051282052,4415.384615384616,4386.153846153847,4724.102564102564,4305.128205128206,4221.538461538462,4197.948717948719,4625.641025641026
1024.138,0.15429896,0.35834917,0.33554727,0.5522475,0,0.0,0.0,0.0,0.69514936,0.0,0,0,0.0,0.0,0,0,78.0,0.0,533.0,4626.666666666667,3988.205128205129,4324.615384615385,4378.461538461539,4278.461538461539,4572.820512820514,4412.820512820514,4408.205128205129,4381.025641025642,4713.846153846154,4336.410256410257,4194.871794871796,4248.717948717949,4593.846153846154
1024.4194,0.11187666,0.360073,0.33532587,0.55224663,0,0.0,0.0,0.0,0.70971125,0.0,0,0,0.0,0.0,0,0,114.0,0.0,533.0,4584.102564102564,3945.1282051282055,4386.666666666667,4396.923076923077,4311.794871794872,4585.641025641026,4442.564102564103,4440.512820512821,4363.076923076924,4747.6923076923085,4338.461538461539,4229.74358974359,4183.076923076924,4352.820512820514
1024.6383,0.11187666,0.360073,0.33532587,0.55224663,0,0.0,0.0,0.0,1.0,0.0,0,0,0.0,0.0,0,0,13.0,0.0,509.0,4574.358974358975,3953.333333333334,4558.974358974359,4497.948717948719,4368.717948717949,4580.512820512821,4456.923076923077,4414.358974358975,4278.974358974359,4848.717948717949,4346.153846153847,4184.102564102564,4120.000000000001,4276.410256410257
1024.9198,0.12428323,0.36156276,0.3351266,0.55224586,0,0.0,0.0,0.0,0.1345271,0.0,0,0,0.0,0.0,0,0,49.0,0.0,0.0,4572.307692307693,3944.1025641025644,4427.179487179487,4538.461538461539,4475.384615384616,4612.820512820514,4456.923076923077,4425.641025641026,4298.974358974359,5160.512820512821,4508.205128205129,4260.512820512821,4168.717948717949,4286.153846153847
1025.0137,0.12428323,0.36156276,0.3351266,0.55224586,0,0.0,0.0,0.0,0.0,0.0,0,0,0.0,0.0,0,0,61.0,0.0,0.0,4557.948717948719,3955.3846153846157,4397.435897435898,4546.666666666667,4497.948717948719,4620.000000000001,4445.641025641026,4412.307692307693,4285.128205128206,5162.564102564103,4470.256410256411,4276.410256410257,4147.179487179487,4260.000000000001
1025.389,0.31936926,0.36290354,0.3349473,0.55224514,0,0.0,0.0,0.0,0.0987873,0.0,0,0,0.0,0.0,0,0,109.0,0.0,509.0,4537.948717948719,3909.2307692307695,4415.384615384616,4463.076923076924,4465.641025641026,4589.2307692307695,4400.512820512821,4409.743589743591,4239.48717948718,4968.205128205129,4346.153846153847,4267.179487179487,4064.1025641025644,4295.384615384616
1025.6393,0.31936926,0.36290354,0.3349473,0.55224514,0,0.0,0.0,0.0,0.4017799,0.0,0,0,0.0,0.0,0,1,12.0,0.0,516.0,4575.8974358974365,3926.666666666667,4170.256410256411,4525.641025641026,4481.538461538462,4622.564102564103,4438.461538461539,4420.000000000001,4225.641025641026,4867.6923076923085,4361.538461538462,4360.000000000001,4065.1282051282055,4341.538461538462
1025.8894,0.37773392,0.36411026,0.3347859,0.5522445,0,0.0,0.0,0.0,0.26708293,0.0,0,0,0.0,0.0,0,0,44.0,0.0,0.0,4623.076923076924,3896.9230769230776,4406.153846153847,4554.358974358975,4514.871794871796,4667.6923076923085,4466.153846153847,4447.179487179487,4216.923076923077,4801.025641025642,4413.846153846154,4460.000000000001,4064.1025641025644,4478.974358974359
1026.1396,0.37773392,0.36411026,0.3347859,0.5522445,0,0.0,0.0,0.0,0.42496142,0.0,0,0,0.0,0.0,0,0,76.0,0.0,516.0,4659.48717948718,3909.7435897435903,4517.948717948719,4575.384615384616,4501.538461538462,4675.384615384616,4508.717948717949,4471.282051282052,4215.384615384616,4738.974358974359,4471.794871794872,4514.358974358975,4138.974358974359,4541.025641025642
1026.3899,0.35655445,0.3651963,0.33464065,0.55224395,0,0.0,0.0,0.0,0.24114439,0.0,0,0,0.0,0.0,0,0,108.0,0.0,516.0,4685.128205128206,3920.5128205128212,4190.256410256411,4621.025641025642,4522.564102564103,4718.974358974359,4576.923076923077,4530.256410256411,4288.205128205129,4764.102564102564,4553.846153846154,4556.923076923077,4186.153846153847,4637.948717948719
1026.6401,0.35655445,0.3651963,0.33464065,0.55224395,0,0.0,0.0,0.0,0.13697484,0.0,0,0,0.0,0.0,0,0,11.0,0.0,506.0,4794.358974358975,4018.9743589743593,4141.025641025642,4699.48717948718,4556.923076923077,4772.307692307693,4665.128205128206,4607.6923076923085,4359.48717948718,4756.410256410257,4613.846153846154,4590.256410256411,4245.641025641026,4726.666666666667
1026.8903,0.47895512,0.3661737,0.3345099,0.5522434,0,0.0,0.0,0.0,0.114530355,0.0,0,0,0.0,0.0,0,0,43.0,0.0,0.0,4773.333333333334,3972.307692307693,4670.769230769231,4631.282051282052,4462.051282051282,4714.871794871796,4598.461538461539,4520.000000000001,4318.974358974359,4642.564102564103,4536.923076923077,4485.128205128206,4150.256410256411,4673.846153846154
1027.1405,0.47895512,0.3661737,0.3345099,0.5522434,0,0.0,0.0,0.0,0.04578817,0.0,0,0,0.0,0.0,0,0,75.0,0.0,505.0,4763.589743589744,3948.717948717949,4480.512820512821,4608.717948717949,4423.076923076924,4690.769230769231,4611.794871794872,4571.794871794872,4375.8974358974365,4671.282051282052,4523.076923076924,4441.538461538462,4167.179487179487,4649.743589743591
1027.3907,0.5859994,0.3670534,0.33439225,0.552243,0,0.0,0.0,0.0,0.16891512,0.0,0,0,0.0,0.0,0,0,107.0,0.0,505.0,4802.051282051282,3939.48717948718,4534.871794871796,4582.051282051282,4354.358974358975,4653.333333333334,4600.512820512821,4553.333333333334,4410.256410256411,4665.641025641026,4475.384615384616,4399.48717948718,4177.948717948719,4617.435897435898
1027.641,0.5859994,0.3670534,0.33439225,0.552243,0,0.0,0.0,0.0,0.64236295,0.0,0,0,0.0,0.0,0,0,10.0,0.0,533.0,4768.717948717949,3930.7692307692314,4358.974358974359,4546.666666666667,4303.589743589744,4622.564102564103,4575.384615384616,4530.256410256411,4433.333333333334,4656.923076923077,4445.641025641026,4355.8974358974365,4145.128205128206,4450.256410256411
1027.8911,0.63604134,0.36784512,0.33428636,0.5522426,0,0.0,0.0,0.0,0.2698444,0.0,0,0,0.0,0.0,0,0,42.0,0.0,0.0,4711.282051282052,3882.0512820512827,4605.641025641026,4462.051282051282,4219.48717948718,4553.333333333334,4509.743589743591,4498.461538461539,4432.820512820514,4649.743589743591,4375.8974358974365,4284.615384615385,4082.0512820512827,4468.717948717949
1028.1414,0.63604134,0.36784512,0.33428636,0.5522426,0,0.0,0.0,0.0,0.123233885,0.0,0,0,0.0,0.0,0,0,74.0,0.0,533.0,4735.384615384616,3923.076923076924,4303.589743589744,4465.641025641026,4213.333333333334,4545.128205128206,4505.641025641026,4507.6923076923085,4442.564102564103,4675.384615384616,4372.307692307693,4272.307692307693,4119.48717948718,4515.8974358974365
1028.3916,0.55807567,0.36855766,0.33419105,0.55224216,0,0.0,0.0,0.0,0.054290816,0.0,0,0,0.0,0.0,0,0,106.0,0.0,533.0,4703.589743589744,3882.564102564103,4882.564102564103,4388.205128205129,4113.846153846154,4466.666666666667,4430.256410256411,4441.025641025642,4415.8974358974365,4673.333333333334,4317.948717948719,4214.871794871796,4120.000000000001,4489.743589743591
1028.6418,0.55807567,0.36855766,0.33419105,0.55224216,0,0.0,0.0,0.0,0.0513636,0.0,0,0,0.0,0.0,0,0,9.0,0.0,476.0,4674.358974358975,3903.589743589744,4076.410256410257,4393.333333333334,4121.538461538462,4460.000000000001,4432.307692307693,4445.128205128206,4433.333333333334,4684.102564102564,4305.128205128206,4190.769230769231,4131.794871794872,4488.717948717949
1028.892,0.6493167,0.36919895,0.33410528,0.55224186,0,0.0,0.0,0.0,0.050314646,0.0,0,0,0.0,0.0,0,0,41.0,0.0,0.0,4606.153846153847,3864.1025641025644,4524.615384615385,4341.538461538462,4057.435897435898,4406.153846153847,4357.948717948719,4397.435897435898,4391.794871794872,4627.179487179488,4238.461538461539,4129.2307692307695,4095.8974358974365,4419.48717948718
1029.1422,0.6493167,0.36919895,0.33410528,0.55224186,0,0.0,0.0,0.0,0.11471419,0.0,0,0,0.0,0.0,0,0,73.0,0.0,476.0,4573.333333333334,3830.7692307692314,4861.538461538462,4304.102564102564,4074.358974358975,4410.769230769231,4358.461538461539,4376.410256410257,4353.333333333334,4634.358974358975,4214.871794871796,4121.538461538462,4080.0000000000005,4517.435897435898
1029.3925,0.7313387,0.36977613,0.3340281,0.55224156,0,0.0,0.0,0.0,0.085372716,0.0,0,0,0.0,0.0,0,0,105.0,0.0,507.0,4502.564102564103,3788.205128205129,5520.000000000001,4230.256410256411,4023.589743589744,4370.256410256411,4297.435897435898,4312.820512820514,4301.538461538462,4554.358974358975,4143.076923076924,4047.1794871794878,4028.717948717949,4490.256410256411
1029.6427,0.7313387,0.36977613,0.3340281,0.55224156,1,0.0,0.0,0.0,0.063969955,0.0,0,0,0.0,0.0,0,0,8.0,0.0,477.0,4577.948717948719,3944.1025641025644,4004.615384615385,4380.512820512821,4155.8974358974365,4483.076923076924,4427.6923076923085,4460.512820512821,4443.076923076924,4712.820512820514,4279.48717948718,4201.025641025642,4190.256410256411,4669.743589743591
1029.8928,0.8237398,0.37029558,0.33395863,0.55224127,0,0.0,0.0,0.0,0.07655432,0.0,0,0,0.0,0.0,0,0,40.0,0.0,0.0,4560.000000000001,3925.6410256410263,3925.6410256410263,4362.051282051282,4121.538461538462,4457.435897435898,4418.461538461539,4415.8974358974365,4404.102564102564,4676.410256410257,4260.000000000001,4158.974358974359,4183.589743589744,4644.615384615385
1030.1431,0.8237398,0.37029558,0.33395863,0.55224127,0,0.0,0.0,0.0,0.02371587,0.0,0,0,0.0,0.0,0,0,72.0,0.0,477.0,4577.948717948719,3937.9487179487182,4007.692307692308,4377.948717948719,4133.846153846154,4466.666666666667,4431.794871794872,4407.179487179487,4418.974358974359,4686.153846153847,4294.871794871796,4190.256410256411,4206.666666666667,4712.307692307693
1030.3933,0.76775205,0.37076306,0.3338961,0.552241,0,0.0,0.0,0.0,0.054381922,0.0,0,0,0.0,0.0,0,0,104.0,0.0,514.0,4564.102564102564,3915.8974358974365,4212.820512820514,4346.666666666667,4112.820512820514,4460.000000000001,4406.666666666667,4423.076923076924,4443.076923076924,4722.564102564103,4276.923076923077,4201.025641025642,4169.74358974359,4683.076923076924
1030.6436,0.76775205,0.37076306,0.3338961,0.552241,0,0.0,0.0,0.0,0.17821419,0.0,0,0,0.0,0.0,0,0,7.0,0.0,471.0,4563.076923076924,3912.820512820513,4412.307692307693,4378.974358974359,4092.307692307693,4443.589743589744,4367.6923076923085,4403.589743589744,4413.846153846154,4706.153846153847,4278.974358974359,4185.641025641026,4201.025641025642,4596.923076923077
1030.8938,0.71104985,0.3711838,0.3338398,0.5522408,0,0.0,0.0,0.0,0.28588566,0.0,0,0,0.0,0.0,0,0,39.0,0.0,0.0,4580.512820512821,3914.8717948717954,4463.589743589744,4365.128205128206,4104.102564102564,4465.641025641026,4386.666666666667,4394.871794871796,4413.333333333334,4687.179487179488,4290.769230769231,4190.769230769231,4191.794871794872,4565.641025641026
1031.1439,0.71104985,0.3711838,0.3338398,0.5522408,0,0.0,0.0,0.0,0.18575844,0.0,0,0,0.0,0.0,0,0,71.0,0.0,471.0,4591.282051282052,3931.7948717948725,4433.333333333334,4402.564102564103,4122.051282051282,4484.102564102564,4404.102564102564,4418.461538461539,4431.282051282052,4704.615384615386,4296.923076923077,4204.102564102564,4175.8974358974365,4508.205128205129
1031.3942,0.6331398,0.3715625,0.33378917,0.5522406,0,0.0,0.0,0.0,0.3316415,0.0,0,0,0.0,0.0,0,0,103.0,0.0,506.0,4589.743589743591,3938.9743589743593,4507.6923076923085,4409.743589743591,4114.871794871796,4489.2307692307695,4384.615384615385,4406.666666666667,4419.48717948718,4715.8974358974365,4310.769230769231,4199.48717948718,4189.74358974359,4509.743589743591
1031.6444,0.6331398,0.3715625,0.33378917,0.5522406,0,0.0,0.0,0.0,0.045759488,0.0,0,0,0.0,0.0,0,0,6.0,0.0,535.0,4586.153846153847,3923.076923076924,4538.461538461539,4378.974358974359,4106.153846153847,4475.384615384616,4372.307692307693,4368.205128205129,4383.076923076924,4681.538461538462,4316.410256410257,4185.641025641026,4181.025641025642,4474.871794871796
1031.8947,0.58826715,0.38346377,0.33374357,0.55224043,0,0.0,0.0,0.0,0.09978416,0.0,0,0,0.0,0.0,0,0,38.0,0.0,0.0,4618.461538461539,3948.205128205129,4480.000000000001,4400.000000000001,4154.871794871796,4516.410256410257,4396.410256410257,4410.769230769231,4410.769230769231,4706.153846153847,4348.205128205129,4217.435897435898,4225.128205128206,4500.000000000001
1032.1448,0.58826715,0.38346377,0.33374357,0.55224043,0,0.0,0.0,0.0,0.5185797,0.0,0,0,0.0,0.0,0,0,70.0,0.0,535.0,4594.358974358975,3942.0512820512827,4544.615384615385,4369.743589743591,4158.461538461539,4516.410256410257,4387.179487179487,4386.153846153847,4398.974358974359,4695.384615384616,4340.512820512821,4201.025641025642,4190.256410256411,4555.384615384616
1032.395,0.5149936,0.39248413,0.33370256,0.55224025,0,0.0,0.0,0.0,0.27820966,0.0,0,0,0.0,0.0,0,0,102.0,0.0,533.0,4592.307692307693,3954.8717948717954,4406.666666666667,4402.564102564103,4190.769230769231,4536.923076923077,4426.666666666667,4408.205128205129,4415.8974358974365,4720.512820512821,4349.2307692307695,4229.74358974359,4214.871794871796,4643.589743589744
1032.6453,0.5149936,0.39248413,0.33370256,0.55224025,0,0.0,0.0,0.0,0.13177483,0.0,0,0,0.0,0.0,0,0,5.0,0.0,561.0,4625.641025641026,3977.435897435898,4460.000000000001,4414.358974358975,4199.48717948718,4537.948717948719,4411.282051282052,4395.8974358974365,4387.6923076923085,4693.333333333334,4326.666666666667,4210.256410256411,4186.153846153847,4686.153846153847
1032.8955,0.38454473,0.39424258,0.33366564,0.55224013,0,0.0,0.0,0.0,0.17427297,0.0,0,0,0.0,0.0,0,0,37.0,0.0,0.0,4605.641025641026,3973.8461538461543,4420.000000000001,4421.025641025642,4190.256410256411,4524.102564102564,4416.410256410257,4410.769230769231,4389.743589743591,4696.410256410257,4307.179487179487,4215.8974358974365,4136.923076923077,4689.743589743591
1033.1456,0.38454473,0.39424258,0.33366564,0.55224013,0,0.0,0.0,0.0,0.1776086,0.0,0,0,0.0,0.0,0,0,69.0,0.0,561.0,4583.076923076924,3950.7692307692314,4402.564102564103,4393.333333333334,4195.8974358974365,4523.076923076924,4416.410256410257,4428.717948717949,4386.666666666667,4691.282051282052,4317.948717948719,4218.461538461539,4153.846153846154,4588.717948717949
1033.3959,0.30938628,0.39434132,0.3336324,0.55223995,0,0.0,0.0,0.0,0.23556544,0.0,0,0,0.0,0.0,0,0,101.0,0.0,507.0,4590.256410256411,3930.2564102564106,4484.615384615385,4390.769230769231,4155.8974358974365,4492.820512820514,4413.846153846154,4413.333333333334,4357.948717948719,4652.820512820514,4315.8974358974365,4240.000000000001,4126.666666666667,4638.974358974359
1033.6461,0.30938628,0.39434132,0.3336324,0.55223995,0,0.0,0.0,0.0,0.5861683,0.0,0,0,0.0,0.0,0,0,4.0,0.0,564.0,4642.051282051282,3976.410256410257,4335.8974358974365,4416.923076923077,4178.974358974359,4509.2307692307695,4430.769230769231,4427.6923076923085,4369.743589743591,4658.974358974359,4316.410256410257,4232.820512820514,4111.794871794872,4650.256410256411
1033.8964,0.26480407,0.3923819,0.3336025,0.55223984,0,0.0,0.0,0.0,0.09942408,0.0,0,0,0.0,0.0,0,0,36.0,0.0,0.0,4630.769230769231,3980.5128205128212,4321.538461538462,4423.589743589744,4182.051282051282,4508.717948717949,4445.128205128206,4444.615384615385,4383.076923076924,4659.48717948718,4314.358974358975,4246.666666666667,4120.000000000001,4644.102564102564
1034.1465,0.26480407,0.3923819,0.3336025,0.55223984,0,0.0,0.0,0.0,0.053582333,0.0,0,0,0.0,0.0,0,0,68.0,0.0,564.0,4637.948717948719,3994.358974358975,4292.820512820514,4431.282051282052,4197.948717948719,4524.102564102564,4445.128205128206,4435.8974358974365,4386.153846153847,4683.076923076924,4327.179487179487,4238.461538461539,4154.871794871796,4631.794871794872
1034.3967,0.18998672,0.38987395,0.33357558,0.5522398,0,0.0,0.0,0.0,0.6889653,0.0,0,0,0.0,0.0,0,0,100.0,0.0,514.0,4605.641025641026,3902.564102564103,4512.820512820514,4371.794871794872,4236.923076923077,4537.435897435898,4433.846153846154,4427.179487179487,4352.820512820514,4795.384615384616,4277.435897435898,4172.307692307693,4107.6923076923085,4509.743589743591
1034.647,0.18998672,0.38987395,0.33357558,0.5522398,0,0.0,0.0,0.0,0.07120409,0.0,0,0,0.0,0.0,0,0,3.0,0.0,546.0,4472.307692307693,3804.1025641025644,6101.538461538462,4229.74358974359,4191.794871794872,4440.512820512821,4246.666666666667,4204.102564102564,4098.974358974359,4780.512820512821,4096.410256410257,4075.3846153846157,3914.8717948717954,4298.974358974359
1034.8972,0.31799343,0.3875719,0.33355135,0.55223966,0,0.0,0.0,0.0,0.09550985,0.0,0,0,0.0,0.0,0,0,35.0,0.0,0.0,4465.641025641026,3785.6410256410263,5909.743589743591,4248.205128205129,4235.384615384616,4454.871794871796,4283.589743589744,4264.615384615385,4117.948717948719,5105.128205128206,4186.153846153847,4082.564102564103,3974.358974358975,4247.6923076923085
1035.1473,0.31799343,0.3875719,0.33355135,0.55223966,0,0.0,0.0,0.0,0.4011127,0.0,0,0,0.0,0.0,0,0,67.0,0.0,546.0,4485.641025641026,3830.2564102564106,5574.3589743589755,4268.717948717949,4357.435897435898,4527.179487179488,4297.948717948719,4279.48717948718,4129.74358974359,5312.307692307693,4232.307692307693,4123.589743589744,4023.076923076924,4295.384615384616
1035.3976,0.48983416,0.38550004,0.33352956,0.5522396,0,0.0,0.0,0.0,0.64003617,0.0,0,0,0.0,0.0,0,0,99.0,0.0,508.0,4482.564102564103,3835.8974358974365,5452.307692307693,4270.769230769231,4355.8974358974365,4535.384615384616,4307.6923076923085,4280.000000000001,4128.205128205129,5278.974358974359,4229.2307692307695,4216.410256410257,4044.615384615385,4366.153846153847
1035.6478,0.48983416,0.38550004,0.33352956,0.5522396,1,0.0,0.0,0.0,0.893656,0.0,0,0,0.0,0.0,0,0,2.0,0.0,368.0,4534.871794871796,3874.8717948717954,5183.076923076924,4342.051282051282,4413.333333333334,4591.282051282052,4362.051282051282,4369.743589743591,4116.923076923077,5231.794871794872,4297.435897435898,4348.717948717949,4095.3846153846157,4502.564102564103
1035.8981,0.58837897,0.38363537,0.33350992,0.5522395,0,0.0,0.0,0.0,0.06599801,0.0,0,0,0.0,0.0,0,0,34.0,0.0,0.0,4580.000000000001,3830.7692307692314,5093.333333333334,4384.615384615385,4445.641025641026,4633.333333333334,4441.025641025642,4427.179487179487,4092.307692307693,5044.102564102564,4355.384615384616,4412.820512820514,4074.8717948717954,4568.205128205129
1036.1483,0.58837897,0.38363537,0.33350992,0.5522395,0,0.0,0.0,0.0,0.060474053,0.0,0,0,0.0,0.0,0,0,66.0,0.0,368.0,4635.384615384616,3811.7948717948725,5112.820512820514,4454.358974358975,4461.538461538462,4669.743589743591,4491.282051282052,4458.461538461539,4146.153846153847,4865.641025641026,4434.871794871796,4483.589743589744,4094.8717948717954,4599.48717948718
1036.3984,0.5878605,0.38195717,0.33349222,0.5522394,0,0.0,0.0,0.0,0.0,0.0,0,0,0.0,0.0,0,0,98.0,0.0,533.0,4680.000000000001,3844.615384615385,5021.025641025642,4517.948717948719,4466.153846153847,4688.205128205129,4548.205128205129,4509.743589743591,4237.948717948719,4753.333333333334,4518.461538461539,4472.307692307693,4163.076923076924,4590.256410256411
1036.3984,0.5878605,0.38195717,0.33349222,0.5522394,0,0.0,0.0,0.0,0.0,0.0,0,0,0.0,0.0,0,0,98.0,0.0,533.0,4680.000000000001,3844.615384615385,5021.025641025642,4517.948717948719,4466.153846153847,4688.205128205129,4548.205128205129,4509.743589743591,4237.948717948719,4753.333333333334,4518.461538461539,4472.307692307693,4163.076923076924,4590.256410256411
1036.8989,0.6523258,0.38044682,0.3334763,0.55223936,0,0.0,0.0,0.0,0.0,0.0,0,0,0.0,0.0,0,0,12.0,0.0,508.0,4762.051282051282,3912.820512820513,4823.076923076924,4596.410256410257,4430.769230769231,4674.871794871796,4650.769230769231,4633.333333333334,4391.794871794872,4745.128205128206,4621.025641025642,4462.051282051282,4295.384615384616,4662.051282051282
1037.1492,0.6523258,0.38044682,0.3334763,0.55223936,0,0.0,0.0,0.0,0.0,0.0,0,0,0.0,0.0,0,0,65.0,0.0,516.0,4796.410256410257,3957.9487179487182,4849.2307692307695,4607.179487179488,4396.923076923077,4650.256410256411,4658.461538461539,4589.743589743591,4460.512820512821,4715.384615384616,4621.025641025642,4416.923076923077,4276.923076923077,4608.205128205129
1037.3993,0.76702917,0.37908748,0.33346194,0.5522393,0,0.0,0.0,0.0,0.0,0.0,0,0,0.0,0.0,0,0,97.0,0.0,507.0,4793.846153846154,3987.1794871794878,4750.769230769231,4583.589743589744,4388.205128205129,4650.256410256411,4647.179487179488,4570.769230769231,4472.820512820514,4710.769230769231,4594.358974358975,4386.666666666667,4255.8974358974365,4622.564102564103
1037.3993,0.76702917,0.37908748,0.33346194,0.5522393,0,0.0,0.0,0.0,0.0,0.0,0,0,0.0,0.0,0,0,97.0,0.0,507.0,4793.846153846154,3987.1794871794878,4750.769230769231,4583.589743589744,4388.205128205129,4650.256410256411,4647.179487179488,4570.769230769231,4472.820512820514,4710.769230769231,4594.358974358975,4386.666666666667,4255.8974358974365,4622.564102564103
1037.8998,0.8254076,0.37786406,0.33344907,0.55223924,0,0.0,0.0,0.0,0.12228515,0.0,0,0,0.0,0.0,0,0,12.0,0.0,507.0,4786.666666666667,3976.410256410257,4572.820512820514,4529.2307692307695,4327.6923076923085,4598.461538461539,4604.615384615385,4538.461538461539,4475.8974358974365,4723.076923076924,4552.820512820514,4313.333333333334,4262.051282051282,4583.589743589744
1038.15,0.8254076,0.37786406,0.33344907,0.55223924,0,0.0,0.0,0.0,0.054665383,0.0,0,0,0.0,0.0,0,0,64.0,0.0,498.0,4760.512820512821,3976.9230769230776,4370.769230769231,4520.512820512821,4303.589743589744,4571.794871794872,4566.666666666667,4483.589743589744,4475.8974358974365,4701.538461538462,4452.307692307693,4255.384615384616,4162.051282051282,4557.948717948719
1038.4001,0.8344441,0.376763,0.33343747,0.55223924,0,0.0,0.0,0.0,0.083947435,0.0,0,0,0.0,0.0,0,0,96.0,0.0,507.0,4733.333333333334,3900.5128205128212,4423.076923076924,4434.358974358975,4261.025641025642,4518.974358974359,4544.102564102564,4473.333333333334,4485.128205128206,4699.48717948718,4429.743589743591,4217.948717948719,4170.769230769231,4583.589743589744
1038.6504,0.8344441,0.376763,0.33343747,0.55223924,0,0.0,0.0,0.0,0.18094629,0.0,0,0,0.0,0.0,0,0,128.0,0.0,507.0,4706.153846153847,3906.1538461538466,4528.717948717949,4425.128205128206,4225.128205128206,4487.179487179488,4504.615384615385,4462.051282051282,4491.282051282052,4707.6923076923085,4392.820512820514,4177.948717948719,4144.615384615385,4592.820512820514
1038.9006,0.7657373,0.37577203,0.33342707,0.5522392,0,0.0,0.0,0.0,0.03656655,0.0,0,0,0.0,0.0,0,0,31.0,0.0,0.0,4682.564102564103,3877.9487179487182,4498.461538461539,4397.435897435898,4213.846153846154,4493.846153846154,4475.8974358974365,4446.153846153847,4475.384615384616,4671.282051282052,4349.743589743591,4165.641025641026,4121.538461538462,4580.000000000001
1039.1509,0.7657373,0.37577203,0.33342707,0.5522392,0,0.0,0.0,0.0,0.111876346,0.0,0,0,0.0,0.0,0,0,63.0,0.0,0.0,4692.307692307693,3914.358974358975,4149.2307692307695,4426.153846153847,4225.128205128206,4494.358974358975,4483.589743589744,4477.435897435898,4493.846153846154,4696.410256410257,4346.666666666667,4183.076923076924,4133.333333333334,4538.974358974359
1039.401,0.7670971,0.37488016,0.33341768,0.5522391,0,0.0,0.0,0.0,0.116315044,0.0,0,0,0.0,0.0,0,0,95.0,0.0,505.0,4667.179487179488,3910.7692307692314,4007.692307692308,4389.2307692307695,4213.333333333334,4490.256410256411,4459.48717948718,4448.205128205129,4473.333333333334,4692.820512820514,4323.076923076924,4157.435897435898,4131.794871794872,4564.102564102564
1039.6512,0.7670971,0.37488016,0.33341768,0.5522391,0,0.0,0.0,0.0,0.08084545,0.0,0,0,0.0,0.0,0,1,127.0,0.0,505.0,4645.641025641026,3918.9743589743593,4101.538461538462,4397.948717948719,4191.794871794872,4475.384615384616,4431.282051282052,4403.076923076924,4437.435897435898,4649.743589743591,4282.564102564103,4175.8974358974365,4105.128205128206,4533.333333333334
1039.9015,0.7675549,0.38562304,0.33340925,0.5522391,0,0.0,0.0,0.0,0.09780051,0.0,0,0,0.0,0.0,0,0,30.0,0.0,0.0,4662.564102564103,3945.1282051282055,3964.1025641025644,4404.615384615385,4238.461538461539,4524.102564102564,4448.717948717949,4412.820512820514,4460.512820512821,4668.205128205129,4301.025641025642,4190.256410256411,4157.948717948719,4610.256410256411
1040.1517,0.7675549,0.38562304,0.33340925,0.5522391,0,0.0,0.0,0.0,0.17945257,0.0,0,0,0.0,0.0,0,1,62.0,0.0,0.0,4677.435897435898,3988.205128205129,3630.7692307692314,4447.6923076923085,4267.179487179487,4554.358974358975,4495.384615384616,4458.461538461539,4506.153846153847,4711.282051282052,4315.384615384616,4203.589743589744,4205.641025641026,4690.256410256411
1040.4019,0.757639,0.4187298,0.33340165,0.55223906,0,0.0,0.0,0.0,0.034964304,0.0,0,0,0.0,0.0,0,0,94.0,0.0,533.0,4645.641025641026,3965.1282051282055,4048.205128205129,4415.384615384616,4202.051282051282,4497.948717948719,4435.384615384616,4405.128205128206,4463.589743589744,4668.717948717949,4286.153846153847,4176.923076923077,4195.384615384616,4662.564102564103
1040.6521,0.757639,0.4187298,0.33340165,0.55223906,0,0.0,0.0,0.0,0.033027243,0.0,0,0,0.0,0.0,0,0,126.0,0.0,533.0,4603.076923076924,3927.1794871794878,4290.256410256411,4372.307692307693,4190.256410256411,4498.974358974359,4404.102564102564,4382.564102564103,4428.205128205129,4607.6923076923085,4245.641025641026,4139.48717948718,4155.8974358974365,4623.076923076924
1040.9023,0.7341269,0.45475712,0.33339483,0.55223906,0,0.0,0.0,0.0,0.040163748,0.0,0,0,0.0,0.0,0,0,29.0,0.0,0.0,4637.948717948719,3975.3846153846157,3795.3846153846157,4412.820512820514,4228.205128205129,4538.974358974359,4451.794871794872,4428.205128205129,4459.48717948718,4662.564102564103,4296.410256410257,4196.923076923077,4246.153846153847,4676.923076923077
1041.1526,0.7341269,0.45475712,0.33339483,0.55223906,1,0.0,0.0,0.0,0.048239812,0.0,0,0,0.0,0.0,0,0,61.0,0.0,0.0,4614.358974358975,3977.435897435898,4085.6410256410263,4416.410256410257,4198.974358974359,4520.512820512821,4426.666666666667,4422.051282051282,4440.000000000001,4648.717948717949,4268.717948717949,4192.820512820514,4188.717948717949,4639.48717948718
1041.4028,0.66121167,0.482396,0.3333887,0.552239,0,0.0,0.0,0.0,0.31782573,0.0,0,0,0.0,0.0,0,0,93.0,0.0,507.0,4607.6923076923085,3941.0256410256416,4108.717948717949,4406.666666666667,4187.179487179487,4524.615384615385,4443.076923076924,4455.8974358974365,4425.641025641026,4655.384615384616,4276.410256410257,4201.025641025642,4229.2307692307695,4577.948717948719
1041.653,0.66121167,0.482396,0.3333887,0.552239,0,0.0,0.0,0.0,0.30401894,0.0,0,0,0.0,0.0,0,0,125.0,0.0,507.0,4601.025641025642,3907.692307692308,4361.538461538462,4367.179487179487,4168.717948717949,4496.410256410257,4420.512820512821,4442.051282051282,4415.8974358974365,4664.615384615386,4264.102564102564,4186.666666666667,4216.923076923077,4475.384615384616
1041.9032,0.66587466,0.49811083,0.33338314,0.552239,0,0.0,0.0,0.0,0.2093178,0.0,0,0,0.0,0.0,0,0,28.0,0.0,0.0,4552.307692307693,3835.8974358974365,4375.384615384616,4315.8974358974365,4063.076923076924,4388.205128205129,4349.2307692307695,4360.512820512821,4336.923076923077,4570.769230769231,4196.923076923077,4115.384615384616,4108.205128205129,4387.179487179487
1042.1534,0.66587466,0.49811083,0.33338314,0.552239,0,0.0,0.0,0.0,0.07959117,0.0,0,0,0.0,0.0,0,0,60.0,0.0,0.0,4524.102564102564,3792.307692307693,4593.846153846154,4273.333333333334,4042.0512820512827,4361.025641025642,4319.48717948718,4321.538461538462,4311.282051282052,4551.282051282052,4168.717948717949,4087.1794871794878,4063.589743589744,4377.435897435898
1042.4037,0.7597586,0.5122588,0.33337817,0.552239,0,0.0,0.0,0.0,0.03014229,0.0,0,0,0.0,0.0,0,0,92.0,0.0,518.0,4534.358974358975,3817.435897435898,4541.538461538462,4282.564102564103,4093.333333333334,4396.410256410257,4343.589743589744,4316.410256410257,4319.48717948718,4574.358974358975,4191.282051282052,4094.358974358975,4109.74358974359,4388.205128205129
1042.6538,0.7597586,0.5122588,0.33337817,0.552239,0,0.0,0.0,0.0,0.05797295,0.0,0,0,0.0,0.0,0,0,124.0,0.0,518.0,4605.641025641026,3897.435897435898,4035.8974358974365,4372.820512820514,4133.333333333334,4442.564102564103,4413.846153846154,4395.384615384616,4378.974358974359,4623.589743589744,4253.846153846154,4184.102564102564,4144.615384615385,4445.641025641026
1042.904,0.7937741,0.524992,0.3333737,0.55223894,0,0.0,0.0,0.0,0.56126076,0.0,0,0,0.0,0.0,0,0,27.0,0.0,0.0,4582.564102564103,3880.512820512821,4232.820512820514,4353.846153846154,4142.051282051282,4446.153846153847,4386.666666666667,4353.333333333334,4358.974358974359,4615.8974358974365,4244.102564102564,4148.205128205129,4115.384615384616,4618.974358974359
1043.1543,0.7937741,0.524992,0.3333737,0.55223894,0,0.0,0.0,0.0,0.22783634,0.0,0,0,0.0,0.0,0,0,59.0,0.0,0.0,4590.256410256411,3905.6410256410263,4132.307692307693,4397.948717948719,4176.410256410257,4472.820512820514,4401.025641025642,4365.641025641026,4381.025641025642,4632.820512820514,4287.6923076923085,4179.48717948718,4142.564102564103,4666.153846153847
1043.4045,0.7516617,0.5364518,0.33336964,0.55223894,0,0.0,0.0,0.0,0.03889076,0.0,0,0,0.0,0.0,0,0,91.0,0.0,507.0,4553.333333333334,3824.1025641025644,5156.923076923077,4313.846153846154,4076.9230769230776,4391.282051282052,4326.153846153847,4281.025641025642,4287.179487179487,4541.538461538462,4191.282051282052,4075.8974358974365,4050.2564102564106,4555.384615384616
1043.6547,0.7516617,0.5364518,0.33336964,0.55223894,0,0.0,0.0,0.0,0.04577205,0.0,0,0,0.0,0.0,0,0,123.0,0.0,507.0,4534.358974358975,3827.692307692308,5312.820512820514,4300.512820512821,4084.615384615385,4400.512820512821,4327.6923076923085,4281.538461538462,4278.461538461539,4540.000000000001,4181.538461538462,4066.666666666667,4041.0256410256416,4587.6923076923085
1043.9049,0.81147146,0.54676574,0.333366,0.55223894,0,0.0,0.0,0.0,0.19209911,0.0,0,0,0.0,0.0,0,0,26.0,0.0,0.0,4538.461538461539,3860.512820512821,5168.205128205129,4343.076923076924,4101.538461538462,4427.6923076923085,4355.384615384616,4307.6923076923085,4308.717948717949,4564.615384615385,4198.974358974359,4095.3846153846157,4075.8974358974365,4656.410256410257
1044.03,0.81147146,0.54676574,0.333366,0.55223894,0,0.0,0.0,0.0,0.0,0.0,0,0,0.0,0.0,0,0,42.0,0.0,0.0,4558.974358974359,3873.333333333334,5093.846153846154,4365.641025641026,4099.48717948718,4429.743589743591,4367.6923076923085,4350.769230769231,4332.307692307693,4587.179487179488,4242.051282051282,4139.48717948718,4113.846153846154,4772.820512820514
1044.4054,0.7984261,0.5560482,0.33336276,0.55223894,0,0.0,0.0,0.0,0.0,1.0,0,0,0.0,0.0,0,0,90.0,0.0,533.0,4567.179487179488,3900.0000000000005,4913.846153846154,4374.358974358975,4141.538461538462,4468.205128205129,4416.923076923077,4401.025641025642,4369.2307692307695,4623.076923076924,4271.794871794872,4175.384615384616,4141.025641025642,4919.48717948718
1044.6555,0.7984261,0.5560482,0.33336276,0.55223894,0,0.0,0.0,0.0,0.0,0.80270755,0,0,0.0,0.0,0,0,122.0,0.0,533.0,4547.179487179488,3930.2564102564106,4782.051282051282,4390.256410256411,4156.923076923077,4485.641025641026,4410.769230769231,4379.48717948718,4372.307692307693,4610.769230769231,4262.564102564103,4151.282051282052,4135.8974358974365,4921.538461538462
1044.9058,0.6852985,0.56440246,0.3333598,0.5522389,0,0.0,0.0,0.0,0.37541795,0.0,0,0,0.0,0.0,0,0,25.0,0.0,0.0,4561.538461538462,3945.1282051282055,4801.538461538462,4395.384615384616,4167.179487179487,4493.846153846154,4402.051282051282,4381.025641025642,4388.717948717949,4650.769230769231,4292.820512820514,4183.589743589744,4164.102564102564,4853.846153846154
1045.156,0.6852985,0.56440246,0.3333598,0.5522389,0,0.0,0.0,0.0,0.0,1.0,0,0,0.0,0.0,0,0,57.0,0.0,0.0,4599.48717948718,3969.2307692307695,4653.333333333334,4406.153846153847,4195.384615384616,4515.8974358974365,4431.282051282052,4391.794871794872,4387.179487179487,4667.6923076923085,4293.333333333334,4194.358974358975,4165.128205128206,4834.358974358975
1045.4062,0.68809456,0.54205066,0.33335716,0.5522389,0,0.0,0.0,0.0,0.0,0.0,0,0,0.0,0.0,0,0,89.0,0.0,508.0,4600.512820512821,3968.717948717949,4749.2307692307695,4421.538461538462,4197.948717948719,4511.282051282052,4426.666666666667,4384.615384615385,4377.948717948719,4675.384615384616,4307.6923076923085,4187.179487179487,4171.282051282052,4777.948717948719
1045.4375,0.68809456,0.54205066,0.33335716,0.5522389,0,0.0,0.0,0.0,0.0,0.0,0,0,0.0,0.0,0,0,93.0,0.0,508.0,4597.435897435898,3954.8717948717954,4701.538461538462,4410.769230769231,4215.384615384616,4524.102564102564,4427.6923076923085,4386.666666666667,4382.051282051282,4672.820512820514,4312.307692307693,4198.974358974359,4172.820512820514,4768.205128205129
1045.9066,0.60760903,0.5204055,0.33335477,0.5522389,0,0.0,0.0,0.0,0.0,0.0,0,0,0.0,0.0,0,0,24.0,0.0,0.0,4636.923076923077,3978.9743589743593,4611.282051282052,4443.589743589744,4231.794871794872,4541.538461538462,4443.076923076924,4413.846153846154,4401.025641025642,4706.666666666667,4348.205128205129,4213.846153846154,4187.6923076923085,4700.512820512821
1045.9379,0.60760903,0.5204055,0.33335477,0.5522389,0,0.0,0.0,0.0,0.0,0.0,0,0,0.0,0.0,0,0,28.0,0.0,0.0,4632.820512820514,3975.3846153846157,4530.769230769231,4436.410256410257,4240.512820512821,4549.2307692307695,4449.743589743591,4416.923076923077,4407.179487179487,4699.48717948718,4340.000000000001,4203.589743589744,4176.410256410257,4692.820512820514
1046.4071,0.545774,0.5019521,0.33335263,0.5522389,0,0.0,0.0,0.0,0.0,0.0,0,0,0.0,0.0,0,0,88.0,0.0,518.0,4635.8974358974365,3983.076923076924,4515.8974358974365,4427.179487179487,4230.256410256411,4550.769230769231,4440.512820512821,4397.948717948719,4386.153846153847,4687.179487179488,4352.820512820514,4230.256410256411,4167.6923076923085,4656.923076923077
1046.4384,0.545774,0.5019521,0.33335263,0.5522389,0,0.0,0.0,0.0,0.0,0.0,0,0,0.0,0.0,0,0,92.0,0.0,518.0,4624.615384615385,3973.333333333334,4525.128205128206,4412.307692307693,4237.948717948719,4547.6923076923085,4431.282051282052,4384.102564102564,4371.794871794872,4666.153846153847,4325.128205128206,4205.641025641026,4137.948717948719,4598.974358974359
1046.9075,0.5274917,0.48539448,0.3333507,0.5522389,0,0.0,0.0,0.0,0.0,0.0,0,0,0.0,0.0,0,0,23.0,0.0,0.0,4623.076923076924,3945.1282051282055,4710.769230769231,4385.128205128206,4230.769230769231,4529.743589743591,4395.8974358974365,4378.461538461539,4336.923076923077,4643.076923076924,4304.102564102564,4198.461538461539,4153.333333333334,4489.2307692307695
1046.9387,0.5274917,0.48539448,0.3333507,0.5522389,0,0.0,0.0,0.0,0.0,0.0,0,0,0.0,0.0,0,0,27.0,0.0,0.0,4628.717948717949,3940.0000000000005,4724.102564102564,4386.153846153847,4202.051282051282,4511.282051282052,4402.051282051282,4389.743589743591,4348.205128205129,4655.8974358974365,4293.333333333334,4198.974358974359,4153.846153846154,4490.256410256411
1047.408,0.49401274,0.46988803,0.33334896,0.5522389,0,0.0,0.0,0.0,0.0,0.0,0,0,0.0,0.0,0,0,87.0,0.0,502.0,4632.307692307693,3972.307692307693,4509.743589743591,4429.2307692307695,4242.051282051282,4553.846153846154,4428.717948717949,4392.307692307693,4390.256410256411,4725.128205128206,4345.641025641026,4248.205128205129,4220.512820512821,4587.179487179488
1047.4392,0.49401274,0.46988803,0.33334896,0.5522389,0,0.0,0.0,0.0,0.0,0.0,0,0,0.0,0.0,0,0,91.0,0.0,502.0,4618.461538461539,3957.9487179487182,4495.384615384616,4411.794871794872,4249.2307692307695,4555.384615384616,4429.743589743591,4387.6923076923085,4384.102564102564,4716.410256410257,4343.076923076924,4249.2307692307695,4213.333333333334,4586.666666666667
1047.9083,0.41006324,0.4563302,0.3333474,0.5522389,0,0.0,0.0,0.0,0.0,0.0,0,0,0.0,0.0,0,0,22.0,0.0,0.0,4633.333333333334,3992.820512820513,4381.538461538462,4447.6923076923085,4276.923076923077,4572.307692307693,4450.769230769231,4448.205128205129,4411.794871794872,4769.743589743591,4381.025641025642,4294.871794871796,4244.615384615385,4589.2307692307695
1047.9397,0.41006324,0.4563302,0.3333474,0.5522389,0,0.0,0.0,0.0,0.0,0.0,0,0,0.0,0.0,0,0,26.0,0.0,0.0,4633.846153846154,4001.538461538462,4138.461538461539,4462.564102564103,4315.384615384616,4602.564102564103,4470.256410256411,4455.384615384616,4423.076923076924,4795.8974358974365,4383.589743589744,4281.025641025642,4244.615384615385,4591.282051282052
1048.4088,0.34893575,0.44301334,0.333346,0.5522389,0,0.0,0.0,0.0,0.0,0.0,0,0,0.0,0.0,0,0,86.0,0.0,533.0,4605.641025641026,3954.358974358975,4511.794871794872,4409.2307692307695,4251.794871794872,4548.717948717949,4431.282051282052,4404.102564102564,4350.256410256411,4749.743589743591,4336.923076923077,4218.461538461539,4212.820512820514,4486.153846153847
1048.4401,0.34893575,0.44301334,0.333346,0.5522389,0,0.0,0.0,0.0,0.0,0.0,0,0,0.0,0.0,0,0,90.0,0.0,533.0,4604.102564102564,3956.410256410257,4459.48717948718,4426.666666666667,4233.333333333334,4540.000000000001,4441.538461538462,4411.794871794872,4357.948717948719,4752.820512820514,4339.48717948718,4217.948717948719,4226.153846153847,4476.923076923077
1048.9092,0.307279,0.43061617,0.33334473,0.5522388,0,0.0,0.0,0.0,0.20088372,0.0,0,0,0.0,0.0,0,0,21.0,0.0,0.0,4589.743589743591,3865.6410256410263,4483.076923076924,4406.666666666667,4251.794871794872,4543.589743589744,4433.333333333334,4384.102564102564,4342.051282051282,4747.6923076923085,4318.461538461539,4217.948717948719,4212.307692307693,4518.461538461539
1049.1594,0.307279,0.43061617,0.33334473,0.5522388,0,0.0,0.0,0.0,0.066411555,0.0,0,0,0.0,0.0,0,0,53.0,0.0,0.0,4601.025641025642,3881.0256410256416,4391.282051282052,4396.410256410257,4283.589743589744,4557.435897435898,4437.948717948719,4393.846153846154,4360.512820512821,4798.974358974359,4329.743589743591,4234.358974358975,4210.256410256411,4558.974358974359
1049.4097,0.2804612,0.41908905,0.3333436,0.5522388,0,0.0,0.0,0.0,0.11599177,0.0,0,0,0.0,0.0,0,0,85.0,0.0,508.0,4589.2307692307695,3880.512820512821,4407.6923076923085,4398.461538461539,4279.48717948718,4544.615384615385,4446.666666666667,4391.282051282052,4348.205128205129,4767.6923076923085,4320.512820512821,4218.461538461539,4185.641025641026,4489.2307692307695
1049.5348,0.2804612,0.41908905,0.3333436,0.5522388,0,0.0,0.0,0.0,0.0,0.0,0,0,0.0,0.0,0,0,101.0,0.0,508.0,4581.538461538462,3882.0512820512827,4403.076923076924,4402.564102564103,4281.538461538462,4549.2307692307695,4444.102564102564,4381.538461538462,4332.820512820514,4741.538461538462,4302.051282051282,4225.641025641026,4169.2307692307695,4473.333333333334
1049.91,0.2583502,0.4076668,0.33334255,0.5522388,0,0.0,0.0,0.0,0.0,0.0,0,0,0.0,0.0,0,0,20.0,0.0,0.0,4556.410256410257,3844.615384615385,4425.641025641026,4376.410256410257,4264.102564102564,4536.410256410257,4409.743589743591,4349.2307692307695,4309.2307692307695,4685.128205128206,4279.48717948718,4262.564102564103,4105.641025641026,4584.615384615385
1049.9414,0.2583502,0.4076668,0.33334255,0.5522388,0,0.0,0.0,0.0,0.0,0.0,0,0,0.0,0.0,0,0,24.0,0.0,0.0,4556.410256410257,3855.3846153846157,4394.871794871796,4383.589743589744,4286.666666666667,4554.871794871796,4422.051282051282,4369.743589743591,4317.948717948719,4703.589743589744,4302.051282051282,4287.6923076923085,4108.717948717949,4595.8974358974365
1050.4105,0.26226476,0.3974941,0.33334163,0.5522388,0,0.0,0.0,0.0,0.0,0.11330152,0,0,0.0,0.0,0,0,84.0,0.0,518.0,4580.000000000001,3896.410256410257,4397.435897435898,4540.512820512821,4398.461538461539,4602.564102564103,4441.025641025642,4373.333333333334,4242.564102564103,4743.076923076924,4385.641025641026,4413.846153846154,4135.8974358974365,4620.000000000001
1050.6608,0.26226476,0.3974941,0.33334163,0.5522388,0,0.0,0.0,0.0,0.23757054,0.0,0,0,0.0,0.0,0,0,116.0,0.0,518.0,4581.025641025642,3851.7948717948725,4524.615384615385,4631.794871794872,4371.794871794872,4579.48717948718,4404.102564102564,4349.743589743591,4160.512820512821,4813.846153846154,4381.538461538462,4396.923076923077,4105.128205128206,4560.512820512821
1050.9109,0.22491279,0.39381188,0.33334082,0.5522388,0,0.0,0.0,0.0,0.25677475,0.0,0,0,0.0,0.0,0,0,19.0,0.0,0.0,4686.666666666667,3896.410256410257,4685.641025641026,4722.051282051282,4453.333333333334,4629.2307692307695,4425.641025641026,4357.948717948719,4176.410256410257,4788.205128205129,4378.974358974359,4397.948717948719,4184.615384615385,4552.820512820514
1051.1611,0.22491279,0.39381188,0.33334082,0.5522388,0,0.0,0.0,0.0,0.0,0.46045774,0,0,0.0,0.0,0,0,51.0,0.0,0.0,4727.179487179488,3932.307692307693,4625.641025641026,4688.717948717949,4488.205128205129,4651.282051282052,4493.846153846154,4429.743589743591,4242.564102564103,4834.871794871796,4409.2307692307695,4377.948717948719,4163.076923076924,4522.564102564103
1051.4114,0.26708782,0.39437625,0.33334005,0.5522388,0,0.0,0.0,0.0,0.0,0.14063239,0,0,0.0,0.0,0,0,83.0,0.0,503.0,4701.025641025642,3891.2820512820517,4629.2307692307695,4617.948717948719,4473.846153846154,4632.307692307693,4491.794871794872,4404.615384615385,4168.205128205129,4792.820512820514,4417.435897435898,4384.102564102564,4156.923076923077,4457.948717948719
1051.6616,0.26708782,0.39437625,0.33334005,0.5522388,1,0.0,0.0,0.0,0.0,0.35373437,0,0,0.0,0.0,0,0,115.0,0.0,503.0,4758.974358974359,3957.435897435898,4634.358974358975,4706.153846153847,4595.384615384616,4729.2307692307695,4552.820512820514,4506.666666666667,4198.461538461539,4873.333333333334,4535.8974358974365,4508.717948717949,4201.025641025642,4572.820512820514
1051.9119,0.4447413,0.39484304,0.3333394,0.5522388,0,0.0,0.6336711,0.0,0.0,0.0,0,0,0.0,0.0,0,0,18.0,0.0,0.0,4880.000000000001,4024.615384615385,4752.307692307693,4772.820512820514,4810.256410256411,4874.871794871796,4668.205128205129,4619.48717948718,4239.48717948718,5042.564102564103,4664.102564102564,4567.179487179488,4233.846153846154,4667.6923076923085
1052.162,0.4447413,0.39484304,0.3333394,0.5522388,0,0.0,0.22372036,0.0,0.0,0.0,0,0,0.0,0.0,0,0,50.0,0.0,0.0,5023.076923076924,4186.666666666667,5023.076923076924,4951.282051282052,4885.641025641026,4930.769230769231,4748.717948717949,4736.410256410257,4296.410256410257,5271.282051282052,4846.666666666667,4720.000000000001,4473.333333333334,4771.794871794872
1052.4122,0.6013723,0.39526317,0.33333877,0.5522388,0,0.0,0.6138771,0.0,0.0,0.0,0,0,0.0,0.0,0,0,82.0,0.0,524.0,5137.948717948719,4240.000000000001,5122.051282051283,4994.871794871796,4927.179487179488,4982.564102564103,4797.948717948719,4784.615384615386,4412.307692307693,5407.6923076923085,4842.564102564103,4750.769230769231,4627.179487179488,4836.923076923077
1052.6312,0.6013723,0.39526317,0.33333877,0.5522388,1,0.0,1.0,0.0,0.0,0.0,0,0,0.0,0.0,0,0,110.0,0.0,524.0,5243.589743589744,4222.051282051282,5093.846153846154,4981.025641025642,4826.666666666667,4905.641025641026,4831.794871794872,4736.410256410257,4474.358974358975,5273.846153846154,4818.974358974359,4695.8974358974365,4590.256410256411,4848.717948717949
1052.9127,0.7392077,0.39564127,0.33333823,0.5522388,0,0.0,1.0,0.0,0.0,0.0,0,0,0.0,0.0,0,0,17.0,0.0,0.0,5338.461538461539,4135.384615384616,5089.2307692307695,4955.384615384616,4704.615384615386,4841.025641025642,4794.358974358975,4663.076923076924,4519.48717948718,5207.179487179488,4762.051282051282,4600.512820512821,4550.256410256411,4840.512820512821
1052.9127,0.7392077,0.39564127,0.33333823,0.5522388,0,0.0,1.0,0.0,0.0,0.0,0,0,0.0,0.0,0,0,17.0,0.0,0.0,5338.461538461539,4135.384615384616,5089.2307692307695,4955.384615384616,4704.615384615386,4841.025641025642,4794.358974358975,4663.076923076924,4519.48717948718,5207.179487179488,4762.051282051282,4600.512820512821,4550.256410256411,4840.512820512821
1053.4131,0.8605028,0.39598158,0.33333775,0.5522388,0,0.0,1.0,0.0,0.0,0.0,0,0,0.0,0.0,0,0,74.0,0.0,521.0,5260.512820512821,4024.1025641025644,4976.923076923077,4781.025641025642,4583.589743589744,4766.153846153847,4723.589743589744,4578.461538461539,4575.8974358974365,5112.820512820514,4667.6923076923085,4490.769230769231,4488.205128205129,4797.435897435898
1053.4131,0.8605028,0.39598158,0.33333775,0.5522388,0,0.0,1.0,0.0,0.0,0.0,0,0,0.0,0.0,0,0,81.0,0.0,496.0,5233.333333333334,3997.9487179487182,4965.641025641026,4775.8974358974365,4493.333333333334,4705.641025641026,4710.769230769231,4566.153846153847,4584.615384615385,5064.102564102564,4643.589743589744,4462.564102564103,4472.820512820514,4778.974358974359
1053.9136,0.96724254,0.39628783,0.3333373,0.5522388,0,0.0,0.6926253,0.0,0.0,0.0,0,0,0.0,0.0,0,0,123.0,0.0,502.0,5204.102564102564,3894.358974358975,4841.538461538462,4650.769230769231,4381.025641025642,4577.948717948719,4660.000000000001,4492.820512820514,4563.076923076924,5042.564102564103,4535.8974358974365,4351.794871794872,4393.333333333334,4685.641025641026
1054.1637,0.96724254,0.39628783,0.3333373,0.5522388,0,0.0,1.0,0.0,0.0,0.0,0,0,0.0,0.0,0,0,48.0,0.0,0.0,4986.153846153847,3773.333333333334,4638.461538461539,4484.615384615385,4257.948717948719,4468.205128205129,4537.435897435898,4365.641025641026,4496.923076923077,4919.48717948718,4372.820512820514,4212.307692307693,4192.307692307693,4622.564102564103
1054.414,1.0,0.39656347,0.3333369,0.5522388,0,0.0,1.0,0.0,0.0,0.0,0,0,0.0,0.0,0,0,68.0,0.0,562.0,5001.538461538462,3793.8461538461543,4628.717948717949,4475.8974358974365,4237.435897435898,4455.384615384616,4507.179487179488,4364.615384615385,4508.717948717949,4903.589743589744,4370.769230769231,4223.589743589744,4221.538461538462,4650.256410256411
1054.414,1.0,0.39656347,0.3333369,0.5522388,0,0.0,1.0,0.0,0.0,0.0,0,0,0.0,0.0,0,0,80.0,0.0,508.0,4982.051282051283,3798.461538461539,4615.8974358974365,4472.820512820514,4189.74358974359,4430.769230769231,4509.743589743591,4368.205128205129,4523.589743589744,4903.076923076924,4372.820512820514,4230.256410256411,4212.820512820514,4654.871794871796
1054.9144,1.0,0.39681154,0.33333653,0.5522388,0,0.0,0.0,0.0,0.0,1.0,0,0,0.0,0.0,0,0,124.0,0.0,508.0,4853.333333333334,3733.8461538461543,4462.051282051282,4385.128205128206,4110.256410256411,4381.538461538462,4430.769230769231,4304.615384615385,4467.179487179487,4786.153846153847,4287.179487179487,4154.871794871796,4134.358974358975,4813.333333333334
1054.9144,1.0,0.39681154,0.33333653,0.5522388,0,0.0,0.0,0.0,0.0,1.0,0,0,0.0,0.0,0,0,15.0,0.0,500.0,4865.641025641026,3748.205128205129,4430.769230769231,4382.564102564103,4143.589743589744,4396.923076923077,4382.564102564103,4287.179487179487,4448.205128205129,4714.358974358975,4254.871794871796,4136.923076923077,4125.128205128206,4931.282051282052
1055.4148,0.90789676,0.39703482,0.3402347,0.5646382,0,0.0,0.0,0.0,0.0,0.6162184,0,0,0.0,0.0,0,0,42.0,0.0,0.0,4816.923076923077,3768.717948717949,4367.6923076923085,4378.974358974359,4149.74358974359,4414.871794871796,4395.8974358974365,4281.538461538462,4455.384615384616,4666.153846153847,4281.538461538462,4136.410256410257,4142.564102564103,4984.615384615386
1055.665,0.90789676,0.39703482,0.3402347,0.5646382,0,0.0,0.0,0.0,0.0,0.71361315,0,0,0.0,0.0,0,0,111.0,0.0,500.0,4748.717948717949,3788.717948717949,4388.717948717949,4304.102564102564,4025.1282051282055,4351.794871794872,4368.717948717949,4263.589743589744,4428.717948717949,4592.307692307693,4212.307692307693,4096.410256410257,4104.615384615385,4754.358974358975
1055.9153,0.785834,0.39723575,0.35499987,0.5890692,0,0.0,0.0,0.0,0.0,0.15890455,0,0,0.0,0.0,0,0,14.0,0.0,526.0,4726.666666666667,3823.589743589744,4371.794871794872,4309.2307692307695,4038.9743589743593,4374.358974358975,4373.846153846154,4295.8974358974365,4444.102564102564,4585.641025641026,4211.794871794872,4101.538461538462,4103.589743589744,4746.666666666667
1056.1654,0.785834,0.39723575,0.35499987,0.5890692,0,0.0,0.54274964,0.0,0.0,0.0,0,0,0.0,0.0,0,0,46.0,0.0,0.0,4696.410256410257,3860.0000000000005,4352.307692307693,4299.48717948718,4036.410256410257,4380.512820512821,4352.307692307693,4282.564102564103,4430.256410256411,4586.153846153847,4202.564102564103,4103.076923076924,4107.6923076923085,4707.179487179488
1056.4156,0.71555436,0.3974166,0.37415946,0.6122728,0,0.0,0.8767903,0.0,0.0,0.0,0,0,0.0,0.0,0,0,78.0,0.0,526.0,4694.871794871796,3863.589743589744,4404.102564102564,4278.974358974359,4032.820512820513,4384.102564102564,4368.717948717949,4290.769230769231,4403.589743589744,4567.179487179488,4207.6923076923085,4086.666666666667,4092.820512820513,4604.102564102564
1056.6659,0.71555436,0.3974166,0.37415946,0.6122728,0,0.0,0.0,0.0,0.0,0.70800287,0,0,0.0,0.0,0,0,110.0,0.0,526.0,4637.948717948719,3835.3846153846157,4464.615384615385,4243.076923076924,4041.538461538462,4395.384615384616,4366.666666666667,4279.48717948718,4381.538461538462,4540.000000000001,4169.2307692307695,4048.717948717949,4039.48717948718,4504.615384615385
1056.9161,0.6835977,0.39757937,0.39625618,0.6368259,0,0.0,0.0,0.0,0.0,0.52627605,0,0,0.0,0.0,0,0,8.0,0.0,472.0,4611.794871794872,3867.692307692308,4381.025641025642,4287.179487179487,4043.076923076924,4394.871794871796,4363.076923076924,4303.076923076924,4390.256410256411,4571.794871794872,4194.358974358975,4065.6410256410263,4058.461538461539,4521.538461538462
1057.1663,0.6835977,0.39757937,0.39625618,0.6368259,0,0.0,0.652904,0.0,0.0,0.0,0,0,0.0,0.0,0,0,45.0,0.0,0.0,4604.615384615385,3846.666666666667,4458.974358974359,4287.6923076923085,4046.666666666667,4387.6923076923085,4360.000000000001,4265.128205128206,4372.307692307693,4590.769230769231,4172.820512820514,4058.9743589743593,4047.692307692308,4493.846153846154
1057.4165,0.7146806,0.39772585,0.4127588,0.6589138,0,0.0,0.50362164,0.0,0.0,0.0,0,0,0.0,0.0,0,0,77.0,0.0,507.0,4574.871794871796,3848.205128205129,4463.076923076924,4303.076923076924,4026.1538461538466,4387.179487179487,4373.846153846154,4282.564102564103,4390.256410256411,4598.974358974359,4202.051282051282,4082.0512820512827,4091.2820512820517,4444.615384615385
1057.6667,0.7146806,0.39772585,0.4127588,0.6589138,0,0.0,0.60091454,0.0,0.0,0.0,0,0,0.0,0.0,0,0,109.0,0.0,507.0,4522.564102564103,3794.8717948717954,4449.2307692307695,4272.820512820514,3997.9487179487182,4362.051282051282,4315.384615384616,4230.769230769231,4350.769230769231,4570.256410256411,4180.512820512821,4048.205128205129,4048.205128205129,4379.48717948718
1057.917,0.838919,0.39785767,0.4288419,0.6784309,0,0.0,0.39467764,0.0,0.0,0.0,0,0,0.0,0.0,0,0,12.0,0.0,518.0,4515.384615384616,3799.48717948718,4351.794871794872,4270.769230769231,3990.7692307692314,4363.589743589744,4326.153846153847,4236.410256410257,4343.589743589744,4531.282051282052,4176.410256410257,4052.820512820513,4036.9230769230776,4365.641025641026
1058.1672,0.838919,0.39785767,0.4288419,0.6784309,0,0.0,0.0,0.0,0.0,0.13272086,0,0,0.0,0.0,0,0,44.0,0.0,0.0,4517.948717948719,3817.9487179487182,4384.102564102564,4288.717948717949,3990.7692307692314,4364.615384615385,4333.846153846154,4257.435897435898,4345.128205128206,4524.615384615385,4210.256410256411,4091.7948717948725,4040.0000000000005,4400.000000000001
1058.4174,0.9309458,0.39797634,0.4433446,0.686302,0,0.0,0.0,0.0,0.0,0.20605733,0,0,0.0,0.0,0,0,76.0,0.0,518.0,4517.435897435898,3847.692307692308,4433.333333333334,4326.666666666667,3986.1538461538466,4372.307692307693,4346.666666666667,4278.974358974359,4353.846153846154,4525.128205128206,4251.794871794872,4118.974358974359,4076.410256410257,4406.153846153847
1058.5425,0.9309458,0.39797634,0.4433446,0.686302,0,0.0,0.0,0.0,0.0,0.0,0,0,0.0,0.0,0,0,92.0,0.0,518.0,4513.846153846154,3857.9487179487182,4408.205128205129,4338.974358974359,3995.3846153846157,4385.641025641026,4362.564102564103,4314.871794871796,4396.923076923077,4546.153846153847,4283.076923076924,4136.410256410257,4095.8974358974365,4403.589743589744
1058.9178,0.9837339,0.39808312,0.45365214,0.68517935,0,0.0,0.0,0.0,0.0,0.0,0,0,0.0,0.0,0,0,114.0,0.0,529.0,4528.205128205129,3856.9230769230776,4425.641025641026,4324.615384615385,3996.9230769230776,4383.076923076924,4371.794871794872,4320.512820512821,4392.307692307693,4541.025641025642,4261.025641025642,4128.717948717949,4088.717948717949,4400.512820512821
1059.1681,0.9837339,0.39808312,0.45365214,0.68517935,0,0.0,0.0,0.0,0.0,0.18457603,0,0,0.0,0.0,0,0,43.0,0.0,0.0,4499.48717948718,3848.717948717949,4409.743589743591,4319.48717948718,4028.205128205129,4403.589743589744,4400.000000000001,4344.102564102564,4398.974358974359,4521.538461538462,4278.974358974359,4125.128205128206,4077.9487179487187,4344.102564102564
1059.4182,0.8735404,0.39817923,0.4516573,0.67695403,0,0.0,0.0,0.0,0.0,0.0,0,0,0.0,0.0,0,0,75.0,0.0,507.0,4530.256410256411,3849.2307692307695,4439.48717948718,4348.205128205129,4043.589743589744,4412.820512820514,4373.333333333334,4325.128205128206,4391.282051282052,4534.871794871796,4291.282051282052,4154.871794871796,4098.461538461539,4371.794871794872
1059.4496,0.8735404,0.39817923,0.4516573,0.67695403,0,0.0,0.0,0.0,0.0,0.0,0,0,0.0,0.0,0,0,79.0,0.0,507.0,4523.076923076924,3835.8974358974365,4483.076923076924,4343.589743589744,4034.8717948717954,4396.410256410257,4366.666666666667,4304.102564102564,4366.666666666667,4502.564102564103,4258.461538461539,4134.871794871796,4073.8461538461543,4371.794871794872
1059.4496,0.8735404,0.39817923,0.4516573,0.67695403,0,0.0,0.0,0.0,0.0,0.0,0,0,0.0,0.0,0,0,79.0,0.0,507.0,4523.076923076924,3835.8974358974365,4483.076923076924,4343.589743589744,4034.8717948717954,4396.410256410257,4366.666666666667,4304.102564102564,4366.666666666667,4502.564102564103,4258.461538461539,4134.871794871796,4073.8461538461543,4371.794871794872
1060.169,0.8903654,0.39257553,0.4398249,0.66448253,0,0.0,0.0,0.0,0.0,0.7775833,0,0,0.0,0.0,0,0,42.0,0.0,0.0,4515.384615384616,3857.435897435898,4491.282051282052,4376.923076923077,4050.2564102564106,4434.871794871796,4420.000000000001,4327.6923076923085,4383.076923076924,4515.8974358974365,4274.358974358975,4161.538461538462,4080.0000000000005,4513.846153846154
1060.2941,0.8903654,0.39257553,0.4398249,0.66448253,0,0.0,0.0,0.0,0.0,0.0,0,0,0.0,0.0,0,0,58.0,0.0,0.0,4524.102564102564,3868.205128205129,4528.205128205129,4383.589743589744,4058.9743589743593,4438.974358974359,4406.153846153847,4352.307692307693,4418.461538461539,4576.410256410257,4308.205128205129,4165.641025641026,4115.384615384616,4505.128205128206
1060.4504,0.89299536,0.38954994,0.42917573,0.65325814,0,0.0,0.0,0.0,0.0,0.0,0,0,0.0,0.0,0,0,78.0,0.0,529.0,4567.179487179488,3860.0000000000005,4508.205128205129,4368.205128205129,4053.333333333334,4438.461538461539,4414.358974358975,4334.358974358975,4397.948717948719,4573.333333333334,4285.641025641026,4150.256410256411,4136.410256410257,4506.153846153847
1060.4504,0.89299536,0.38954994,0.42917573,0.65325814,0,0.0,0.0,0.0,0.0,0.0,0,0,0.0,0.0,0,0,78.0,0.0,529.0,4567.179487179488,3860.0000000000005,4508.205128205129,4368.205128205129,4053.333333333334,4438.461538461539,4414.358974358975,4334.358974358975,4397.948717948719,4573.333333333334,4285.641025641026,4150.256410256411,4136.410256410257,4506.153846153847
1061.1698,0.8527429,0.38867354,0.41959152,0.64315623,0,0.0,0.0,0.0,0.0,0.10351578,0,0,0.0,0.0,0,0,41.0,0.0,0.0,4570.769230769231,3848.205128205129,4513.846153846154,4371.794871794872,4099.48717948718,4478.461538461539,4430.256410256411,4376.410256410257,4427.6923076923085,4606.666666666667,4300.512820512821,4161.025641025642,4212.820512820514,4432.307692307693
1061.2949,0.8527429,0.38867354,0.41959152,0.64315623,0,0.0,0.0,0.0,0.0,0.0,0,0,0.0,0.0,0,0,57.0,0.0,0.0,4610.769230769231,3845.6410256410263,4513.333333333334,4364.102564102564,4104.102564102564,4487.179487179488,4446.153846153847,4373.333333333334,4401.538461538462,4573.333333333334,4291.794871794872,4145.641025641026,4173.333333333334,4415.8974358974365
1061.4513,0.74269664,0.39358175,0.41096568,0.6340645,0,0.0,0.0,0.0,0.0,0.0,0,0,0.0,0.0,0,0,77.0,0.0,508.0,4587.179487179488,3847.1794871794878,4586.666666666667,4356.923076923077,4123.589743589744,4500.000000000001,4431.282051282052,4366.153846153847,4385.641025641026,4601.025641025642,4280.000000000001,4150.769230769231,4138.974358974359,4394.871794871796
1061.4513,0.74269664,0.39358175,0.41096568,0.6340645,0,0.0,0.0,0.0,0.0,0.0,0,0,0.0,0.0,0,0,77.0,0.0,508.0,4587.179487179488,3847.1794871794878,4586.666666666667,4356.923076923077,4123.589743589744,4500.000000000001,4431.282051282052,4366.153846153847,4385.641025641026,4601.025641025642,4280.000000000001,4150.769230769231,4138.974358974359,4394.871794871796
1061.9204,0.7387824,0.39662808,0.40318334,0.6258618,0,0.0,0.0,0.0,0.0,0.0,0,0,0.0,0.0,0,0,8.0,0.0,477.0,4578.974358974359,3875.8974358974365,4571.282051282052,4353.846153846154,4146.153846153847,4502.051282051282,4432.307692307693,4379.48717948718,4383.589743589744,4664.102564102564,4298.974358974359,4169.2307692307695,4233.846153846154,4417.435897435898
1061.9204,0.7387824,0.39662808,0.40318334,0.6258618,0,0.0,0.0,0.0,0.0,0.0,0,0,0.0,0.0,0,0,8.0,0.0,477.0,4578.974358974359,3875.8974358974365,4571.282051282052,4353.846153846154,4146.153846153847,4502.051282051282,4432.307692307693,4379.48717948718,4383.589743589744,4664.102564102564,4298.974358974359,4169.2307692307695,4233.846153846154,4417.435897435898
1062.4208,0.6767543,0.40162453,0.3961776,0.6184789,0,0.0,0.0,0.0,0.0,0.0,0,0,0.0,0.0,0,0,72.0,0.0,477.0,4615.8974358974365,3881.0256410256416,4594.871794871796,4351.794871794872,4144.615384615385,4487.6923076923085,4426.666666666667,4370.256410256411,4352.307692307693,4662.051282051282,4285.641025641026,4171.794871794872,4237.948717948719,4350.256410256411
1062.7961,0.6767543,0.40162453,0.3961776,0.6184789,0,0.0,0.0,0.0,0.0,0.4489046,0,0,0.0,0.0,0,0,120.0,0.0,518.0,4652.820512820514,3957.9487179487182,4567.6923076923085,4395.8974358974365,4208.205128205129,4542.564102564103,4444.102564102564,4392.307692307693,4412.820512820514,4735.8974358974365,4330.769230769231,4210.256410256411,4241.025641025642,4493.846153846154
1063.0464,0.6412016,0.399866,0.38987097,0.6118336,0,0.0,0.0,0.0,0.0,0.6950686,0,0,0.0,0.0,0,0,23.0,0.0,0.0,4635.8974358974365,3944.615384615385,4490.256410256411,4395.384615384616,4186.666666666667,4518.974358974359,4455.384615384616,4408.205128205129,4392.820512820514,4713.846153846154,4301.538461538462,4214.871794871796,4203.076923076924,4522.051282051282
1063.2966,0.6412016,0.399866,0.38987097,0.6118336,0,0.0,0.0,0.0,0.0,0.07836577,0,0,0.0,0.0,0,0,55.0,0.0,0.0,4620.000000000001,3926.666666666667,4586.666666666667,4390.256410256411,4177.435897435898,4510.769230769231,4448.717948717949,4424.102564102564,4382.564102564103,4685.641025641026,4301.538461538462,4206.153846153847,4172.307692307693,4499.48717948718
1063.4218,0.5552244,0.39440742,0.38419548,0.6058537,0,0.0,0.0,0.0,0.0,0.0,0,0,0.0,0.0,0,0,71.0,0.0,477.0,4618.461538461539,3941.0256410256416,4563.589743589744,4406.153846153847,4202.051282051282,4518.974358974359,4444.102564102564,4431.794871794872,4404.102564102564,4742.051282051282,4308.717948717949,4217.435897435898,4171.794871794872,4504.615384615385
1063.4218,0.5552244,0.39440742,0.38419548,0.6058537,0,0.0,0.0,0.0,0.0,0.0,0,0,0.0,0.0,0,0,71.0,0.0,477.0,4618.461538461539,3941.0256410256416,4563.589743589744,4406.153846153847,4202.051282051282,4518.974358974359,4444.102564102564,4431.794871794872,4404.102564102564,4742.051282051282,4308.717948717949,4217.435897435898,4171.794871794872,4504.615384615385
1064.0472,0.45147228,0.38953313,0.37908977,0.60047406,0,0.0,0.0,0.0,0.0,0.0,0,0,0.0,0.0,0,0,22.0,0.0,0.0,4615.8974358974365,3951.2820512820517,4492.820512820514,4412.307692307693,4202.564102564103,4522.564102564103,4456.923076923077,4431.794871794872,4387.179487179487,4721.538461538462,4307.179487179487,4212.307692307693,4147.179487179487,4393.333333333334
1064.0472,0.45147228,0.38953313,0.37908977,0.60047406,0,0.0,0.0,0.0,0.0,0.0,0,0,0.0,0.0,0,0,22.0,0.0,0.0,4615.8974358974365,3951.2820512820517,4492.820512820514,4412.307692307693,4202.564102564103,4522.564102564103,4456.923076923077,4431.794871794872,4387.179487179487,4721.538461538462,4307.179487179487,4212.307692307693,4147.179487179487,4393.333333333334
1064.4539,0.45968398,0.3819074,0.3745101,0.595647,0,0.0,0.0,0.0,0.0,1.0,0,0,0.0,0.0,0,0,74.0,0.0,532.0,4587.6923076923085,3906.1538461538466,4469.743589743591,4367.179487179487,4194.358974358975,4505.128205128206,4418.974358974359,4381.538461538462,4342.564102564103,4705.641025641026,4263.589743589744,4183.076923076924,4115.8974358974365,4400.512820512821
1064.8057,0.45968398,0.3819074,0.3745101,0.595647,0,0.0,0.0,0.0,0.0,0.17513505,0,0,0.0,0.0,0,0,118.0,0.0,532.0,4591.282051282052,3931.2820512820517,4478.974358974359,4391.794871794872,4242.051282051282,4534.358974358975,4438.461538461539,4399.48717948718,4375.8974358974365,4688.717948717949,4321.025641025642,4211.282051282052,4205.641025641026,4444.102564102564
1065.0559,0.3759613,0.37635413,0.37038264,0.59129703,0,0.0,0.0,0.0,0.0,0.0,0,0,0.0,0.0,0,0,21.0,0.0,0.0,4577.435897435898,3964.615384615385,4460.512820512821,4412.307692307693,4234.871794871796,4549.743589743591,4456.923076923077,4429.743589743591,4424.615384615385,4722.051282051282,4358.974358974359,4225.128205128206,4236.923076923077,4462.564102564103
1065.0559,0.3759613,0.37635413,0.37038264,0.59129703,0,0.0,0.0,0.0,0.0,0.0,0,0,0.0,0.0,0,0,21.0,0.0,0.0,4577.435897435898,3964.615384615385,4460.512820512821,4412.307692307693,4234.871794871796,4549.743589743591,4456.923076923077,4429.743589743591,4424.615384615385,4722.051282051282,4358.974358974359,4225.128205128206,4236.923076923077,4462.564102564103
1065.4313,0.33753952,0.37244356,0.36666793,0.58738226,0,0.0,0.0,0.0,0.0,0.0,0,0,0.0,0.0,0,0,69.0,0.0,562.0,4589.2307692307695,3961.0256410256416,4488.717948717949,4388.717948717949,4245.641025641026,4550.769230769231,4448.205128205129,4413.333333333334,4398.461538461539,4703.076923076924,4333.846153846154,4220.512820512821,4207.179487179487,4457.435897435898
1065.4313,0.33753952,0.37244356,0.36666793,0.58738226,0,0.0,0.0,0.0,0.0,0.0,0,0,0.0,0.0,0,0,69.0,0.0,562.0,4589.2307692307695,3961.0256410256416,4488.717948717949,4388.717948717949,4245.641025641026,4550.769230769231,4448.205128205129,4413.333333333334,4398.461538461539,4703.076923076924,4333.846153846154,4220.512820512821,4207.179487179487,4457.435897435898
1065.9316,0.2821497,0.36793944,0.3633257,0.5838599,0,0.0,0.0,0.0,0.0,0.0,0,0,0.0,0.0,0,0,4.0,0.0,563.0,4591.282051282052,3945.1282051282055,4468.717948717949,4397.948717948719,4215.8974358974365,4533.846153846154,4441.538461538462,4411.282051282052,4389.2307692307695,4687.179487179488,4376.923076923077,4218.461538461539,4191.794871794872,4440.512820512821
1065.9316,0.2821497,0.36793944,0.3633257,0.5838599,0,0.0,0.0,0.0,0.0,0.0,0,0,0.0,0.0,0,0,4.0,0.0,563.0,4591.282051282052,3945.1282051282055,4468.717948717949,4397.948717948719,4215.8974358974365,4533.846153846154,4441.538461538462,4411.282051282052,4389.2307692307695,4687.179487179488,4376.923076923077,4218.461538461539,4191.794871794872,4440.512820512821
1066.4321,0.23175074,0.36492234,0.36031693,0.5806892,0,0.0,0.0,0.0,0.0,0.0,0,0,0.0,0.0,0,0,68.0,0.0,563.0,4590.256410256411,3942.0512820512827,4428.717948717949,4385.128205128206,4232.820512820514,4538.974358974359,4433.333333333334,4407.6923076923085,4372.307692307693,4697.948717948719,4350.769230769231,4222.564102564103,4165.641025641026,4477.435897435898
1066.4321,0.23175074,0.36492234,0.36031693,0.5806892,0,0.0,0.0,0.0,0.0,0.0,0,0,0.0,0.0,0,0,68.0,0.0,563.0,4590.256410256411,3942.0512820512827,4428.717948717949,4385.128205128206,4232.820512820514,4538.974358974359,4433.333333333334,4407.6923076923085,4372.307692307693,4697.948717948719,4350.769230769231,4222.564102564103,4165.641025641026,4477.435897435898
1066.9325,0.1966092,0.3599472,0.35760835,0.57783496,0,0.0,0.0,0.0,0.0,0.0,0,0,0.0,0.0,0,0,3.0,0.0,547.0,4570.256410256411,3906.1538461538466,4471.794871794872,4351.794871794872,4227.6923076923085,4521.538461538462,4383.076923076924,4351.794871794872,4332.820512820514,4647.6923076923085,4308.717948717949,4167.6923076923085,4132.307692307693,4457.948717948719
1066.9325,0.1966092,0.3599472,0.35760835,0.57783496,0,0.0,0.0,0.0,0.0,0.0,0,0,0.0,0.0,0,0,3.0,0.0,547.0,4570.256410256411,3906.1538461538466,4471.794871794872,4351.794871794872,4227.6923076923085,4521.538461538462,4383.076923076924,4351.794871794872,4332.820512820514,4647.6923076923085,4308.717948717949,4167.6923076923085,4132.307692307693,4457.948717948719
1067.433,0.17730156,0.35521993,0.35801736,0.5828183,0,0.0,0.0,0.0,0.0,0.0,0,0,0.0,0.0,0,0,67.0,0.0,547.0,4559.48717948718,3956.410256410257,4458.974358974359,4427.179487179487,4264.102564102564,4557.948717948719,4405.641025641026,4396.923076923077,4386.666666666667,4727.179487179488,4341.025641025642,4225.641025641026,4177.435897435898,4502.051282051282
1067.433,0.17730156,0.35521993,0.35801736,0.5828183,0,0.0,0.0,0.0,0.0,0.0,0,0,0.0,0.0,0,0,67.0,0.0,547.0,4559.48717948718,3956.410256410257,4458.974358974359,4427.179487179487,4264.102564102564,4557.948717948719,4405.641025641026,4396.923076923077,4386.666666666667,4727.179487179488,4341.025641025642,4225.641025641026,4177.435897435898,4502.051282051282
1067.9333,0.16917354,0.35423383,0.36387447,0.5873025,0,0.0,0.0,0.0,0.0,0.0,0,0,0.0,0.0,0,0,2.0,0.0,365.0,4580.512820512821,3994.8717948717954,4493.846153846154,4447.6923076923085,4303.076923076924,4586.666666666667,4404.615384615385,4373.333333333334,4372.307692307693,4715.384615384616,4340.000000000001,4231.794871794872,4231.794871794872,4604.615384615385
1067.9333,0.16917354,0.35423383,0.36387447,0.5873025,0,0.0,0.0,0.0,0.0,0.0,0,0,0.0,0.0,0,0,2.0,0.0,365.0,4580.512820512821,3994.8717948717954,4493.846153846154,4447.6923076923085,4303.076923076924,4586.666666666667,4404.615384615385,4373.333333333334,4372.307692307693,4715.384615384616,4340.000000000001,4231.794871794872,4231.794871794872,4604.615384615385
1068.4338,0.124749534,0.3528605,0.37714398,0.5913372,0,0.0,0.0,0.0,0.0,0.0,0,0,0.0,0.0,0,0,66.0,0.0,365.0,4556.923076923077,4072.307692307693,4452.307692307693,4497.435897435898,4290.769230769231,4587.6923076923085,4422.564102564103,4371.794871794872,4395.8974358974365,4720.000000000001,4335.384615384616,4202.564102564103,4287.6923076923085,4518.974358974359
1068.4338,0.124749534,0.3528605,0.37714398,0.5913372,0,0.0,0.0,0.0,0.0,0.0,0,0,0.0,0.0,0,0,66.0,0.0,365.0,4556.923076923077,4072.307692307693,4452.307692307693,4497.435897435898,4290.769230769231,4587.6923076923085,4422.564102564103,4371.794871794872,4395.8974358974365,4720.000000000001,4335.384615384616,4202.564102564103,4287.6923076923085,4518.974358974359
1068.9342,0.13281457,0.35357943,0.40111622,0.6044947,0,0.0,0.0,0.0,0.0,0.0,0,0,0.0,0.0,0,0,1.0,0.0,515.0,4636.410256410257,4068.717948717949,4549.743589743591,4493.846153846154,4266.666666666667,4579.48717948718,4440.512820512821,4369.743589743591,4395.384615384616,4726.153846153847,4379.48717948718,4230.256410256411,4320.000000000001,4658.461538461539
1068.9342,0.13281457,0.35357943,0.40111622,0.6044947,0,0.0,0.0,0.0,0.0,0.0,0,0,0.0,0.0,0,0,1.0,0.0,515.0,4636.410256410257,4068.717948717949,4549.743589743591,4493.846153846154,4266.666666666667,4579.48717948718,4440.512820512821,4369.743589743591,4395.384615384616,4726.153846153847,4379.48717948718,4230.256410256411,4320.000000000001,4658.461538461539
1069.4347,0.17901662,0.35347193,0.42786714,0.6121418,0,0.0,0.0,0.0,0.0,0.0,0,0,0.0,0.0,0,0,65.0,0.0,515.0,4611.794871794872,4011.7948717948725,4496.410256410257,4458.974358974359,4232.820512820514,4541.025641025642,4395.8974358974365,4355.384615384616,4373.846153846154,4697.435897435898,4331.282051282052,4212.820512820514,4194.358974358975,4704.615384615386
1069.4347,0.17901662,0.35347193,0.42786714,0.6121418,0,0.0,0.0,0.0,0.0,0.0,0,0,0.0,0.0,0,0,65.0,0.0,515.0,4611.794871794872,4011.7948717948725,4496.410256410257,4458.974358974359,4232.820512820514,4541.025641025642,4395.8974358974365,4355.384615384616,4373.846153846154,4697.435897435898,4331.282051282052,4212.820512820514,4194.358974358975,4704.615384615386
1069.935,0.10527561,0.35190594,0.4519379,0.614052,0,0.0,0.0,0.0,0.0,0.0,0,0,0.0,0.0,0,0,0.0,0.0,497.0,4600.512820512821,3988.205128205129,4519.48717948718,4438.974358974359,4238.974358974359,4554.358974358975,4427.6923076923085,4412.307692307693,4382.051282051282,4697.948717948719,4331.282051282052,4242.564102564103,4198.974358974359,4625.128205128206
1069.935,0.10527561,0.35190594,0.4519379,0.614052,0,0.0,0.0,0.0,0.0,0.0,0,0,0.0,0.0,0,0,0.0,0.0,497.0,4600.512820512821,3988.205128205129,4519.48717948718,4438.974358974359,4238.974358974359,4554.358974358975,4427.6923076923085,4412.307692307693,4382.051282051282,4697.948717948719,4331.282051282052,4242.564102564103,4198.974358974359,4625.128205128206
1070.4355,0.07996217,0.35143375,0.4735949,0.61369133,0,0.0,0.0,0.0,0.0,0.0,0,0,0.0,0.0,0,0,64.0,0.0,497.0,4602.051282051282,4020.0000000000005,4482.051282051282,4436.923076923077,4251.794871794872,4558.461538461539,4429.743589743591,4404.615384615385,4351.794871794872,4670.256410256411,4314.871794871796,4266.666666666667,4160.000000000001,4483.076923076924
1070.4355,0.07996217,0.35143375,0.4735949,0.61369133,0,0.0,0.0,0.0,0.0,0.0,0,0,0.0,0.0,0,0,64.0,0.0,497.0,4602.051282051282,4020.0000000000005,4482.051282051282,4436.923076923077,4251.794871794872,4558.461538461539,4429.743589743591,4404.615384615385,4351.794871794872,4670.256410256411,4314.871794871796,4266.666666666667,4160.000000000001,4483.076923076924
1071.061,0.057249043,0.3497766,0.49093378,0.6133808,0,0.0,0.0,0.0,0.13257904,0.0,0,0,0.0,0.0,0,0,15.0,0.0,505.0,4576.923076923077,4000.0000000000005,4552.820512820514,4428.717948717949,4235.8974358974365,4550.769230769231,4403.589743589744,4410.769230769231,4327.6923076923085,4645.128205128206,4304.102564102564,4358.974358974359,4171.794871794872,4535.8974358974365
1071.3113,0.057249043,0.3497766,0.49093378,0.6133808,0,0.0,0.0,0.0,0.12798771,0.0,0,0,0.0,0.0,0,0,47.0,0.0,0.0,4602.051282051282,3985.6410256410263,4475.384615384616,4440.000000000001,4263.076923076924,4567.179487179488,4426.153846153847,4411.794871794872,4329.2307692307695,4666.666666666667,4326.153846153847,4380.000000000001,4171.282051282052,4537.435897435898
1071.5615,0.0,0.35054913,0.5046372,0.6131013,0,0.0,0.0,0.0,0.1151889,0.0,0,0,0.0,0.0,0,0,79.0,0.0,505.0,4592.820512820514,3962.0512820512827,4400.512820512821,4437.435897435898,4245.128205128206,4551.282051282052,4427.6923076923085,4415.384615384616,4324.102564102564,4657.948717948719,4322.051282051282,4366.153846153847,4151.794871794872,4518.974358974359
1071.6866,0.0,0.35054913,0.5046372,0.6131013,0,0.0,0.0,0.0,0.0,0.0,0,0,0.0,0.0,0,0,95.0,0.0,505.0,4612.820512820514,3976.410256410257,4439.48717948718,4454.358974358975,4240.512820512821,4548.205128205129,4423.076923076924,4400.512820512821,4330.769230769231,4650.769230769231,4345.641025641026,4382.051282051282,4161.538461538462,4521.025641025642
1071.9681,0.0,0.35240674,0.5016363,0.6095966,0,0.0,0.0,0.0,0.0,0.0,0,0,0.0,0.0,0,0,2.0,0.0,365.0,4658.461538461539,3983.076923076924,4042.564102564103,4474.358974358975,4292.820512820514,4596.923076923077,4490.769230769231,4457.948717948719,4380.512820512821,4697.435897435898,4363.076923076924,4393.333333333334,4164.102564102564,4486.153846153847
1072.3121,0.0,0.35240674,0.5016363,0.6095966,0,0.0,0.0,0.0,0.062900126,0.0,0,0,0.0,0.0,0,0,46.0,0.0,0.0,4629.743589743591,3969.7435897435903,4077.435897435898,4447.179487179487,4253.333333333334,4558.461538461539,4449.2307692307695,4412.307692307693,4377.435897435898,4633.846153846154,4352.820512820514,4359.48717948718,4156.923076923077,4457.948717948719
1072.5624,0.035393856,0.36451545,0.48480603,0.60386086,0,0.0,0.0,0.0,0.13862666,0.0,0,0,0.0,0.0,0,1,78.0,0.0,532.0,4637.948717948719,3992.307692307693,3515.8974358974365,4478.974358974359,4251.794871794872,4542.564102564103,4454.871794871796,4413.333333333334,4390.769230769231,4642.051282051282,4351.282051282052,4357.948717948719,4172.820512820514,4553.333333333334
1072.8439,0.035393856,0.36451545,0.48480603,0.60386086,0,0.0,0.0,0.0,0.029532509,0.0,0,0,0.0,0.0,0,0,114.0,0.0,532.0,4574.871794871796,3895.3846153846157,4706.666666666667,4334.871794871796,4153.846153846154,4472.820512820514,4363.589743589744,4325.128205128206,4295.8974358974365,4555.8974358974365,4255.384615384616,4201.025641025642,4081.538461538462,4492.820512820514
1073.0627,0.12452354,0.375359,0.46965876,0.5986986,0,0.0,0.0,0.0,0.039921366,0.0,0,0,0.0,0.0,0,0,13.0,0.0,509.0,4557.435897435898,3910.2564102564106,4672.307692307693,4342.051282051282,4160.512820512821,4474.871794871796,4367.6923076923085,4348.205128205129,4306.153846153847,4564.615384615385,4263.076923076924,4188.205128205129,4105.128205128206,4503.076923076924
1073.313,0.12452354,0.375359,0.46965876,0.5986986,0,0.0,0.0,0.0,0.19470027,0.0,0,0,0.0,0.0,0,0,45.0,0.0,0.0,4542.564102564103,3930.7692307692314,4654.871794871796,4379.48717948718,4185.128205128206,4504.615384615385,4379.48717948718,4356.923076923077,4312.307692307693,4577.435897435898,4267.179487179487,4169.2307692307695,4110.769230769231,4457.948717948719
1073.4694,0.17345324,0.38511822,0.45602623,0.5940527,0,0.0,0.0,0.0,0.0,0.0,0,0,0.0,0.0,0,0,65.0,0.0,515.0,4572.820512820514,3940.0000000000005,4729.743589743591,4375.8974358974365,4194.871794871796,4514.358974358975,4389.2307692307695,4371.282051282052,4327.6923076923085,4595.384615384616,4272.307692307693,4174.871794871796,4114.871794871796,4455.384615384616
1073.4694,0.17345324,0.38511822,0.45602623,0.5940527,0,0.0,0.0,0.0,0.0,0.0,0,0,0.0,0.0,0,0,65.0,0.0,515.0,4572.820512820514,3940.0000000000005,4729.743589743591,4375.8974358974365,4194.871794871796,4514.358974358975,4389.2307692307695,4371.282051282052,4327.6923076923085,4595.384615384616,4272.307692307693,4174.871794871796,4114.871794871796,4455.384615384616
1073.9698,0.17803368,0.3939015,0.44375694,0.5898713,0,0.0,0.0,0.0,0.0,0.0,0,0,0.0,0.0,0,0,0.0,0.0,485.0,4562.051282051282,3995.3846153846157,4612.820512820514,4417.948717948719,4219.48717948718,4535.384615384616,4405.128205128206,4406.153846153847,4356.410256410257,4653.333333333334,4355.384615384616,4182.564102564103,4165.641025641026,4510.256410256411
1073.9698,0.17803368,0.3939015,0.44375694,0.5898713,0,0.0,0.0,0.0,0.0,0.0,0,0,0.0,0.0,0,0,0.0,0.0,485.0,4562.051282051282,3995.3846153846157,4612.820512820514,4417.948717948719,4219.48717948718,4535.384615384616,4405.128205128206,4406.153846153847,4356.410256410257,4653.333333333334,4355.384615384616,4182.564102564103,4165.641025641026,4510.256410256411
1074.439,0.086002596,0.40180644,0.43268645,0.5861003,0,0.0,0.0,0.0,0.0,0.0,0,0,0.0,0.0,0,0,60.0,0.0,0.0,4566.153846153847,3955.8974358974365,4572.820512820514,4402.051282051282,4222.564102564103,4532.307692307693,4402.564102564103,4400.000000000001,4333.846153846154,4646.666666666667,4326.153846153847,4162.051282051282,4156.410256410257,4444.102564102564
1074.439,0.086002596,0.40180644,0.43268645,0.5861003,0,0.0,0.0,0.0,0.0,0.0,0,0,0.0,0.0,0,0,60.0,0.0,0.0,4566.153846153847,3955.8974358974365,4572.820512820514,4402.051282051282,4222.564102564103,4532.307692307693,4402.564102564103,4400.000000000001,4333.846153846154,4646.666666666667,4326.153846153847,4162.051282051282,4156.410256410257,4444.102564102564
1074.9395,0.058345336,0.3986898,0.42272106,0.58270574,0,0.0,0.0,0.0,0.0,0.0,0,0,0.0,0.0,0,0,124.0,0.0,518.0,4578.461538461539,3960.5128205128212,4520.000000000001,4436.410256410257,4252.820512820514,4568.205128205129,4444.615384615385,4445.128205128206,4410.769230769231,4723.589743589744,4357.948717948719,4189.74358974359,4264.615384615385,4432.820512820514
1074.9395,0.058345336,0.3986898,0.42272106,0.58270574,0,0.0,0.0,0.0,0.0,0.0,0,0,0.0,0.0,0,0,124.0,0.0,518.0,4578.461538461539,3960.5128205128212,4520.000000000001,4436.410256410257,4252.820512820514,4568.205128205129,4444.615384615385,4445.128205128206,4410.769230769231,4723.589743589744,4357.948717948719,4189.74358974359,4264.615384615385,4432.820512820514
1075.4398,0.002713007,0.39603704,0.41375038,0.57965004,0,0.0,0.0,0.0,0.0,0.0,0,0,0.0,0.0,0,0,59.0,0.0,0.0,4568.717948717949,3940.0000000000005,4488.717948717949,4440.000000000001,4226.153846153847,4540.000000000001,4425.128205128206,4408.205128205129,4357.435897435898,4676.923076923077,4323.589743589744,4191.282051282052,4198.974358974359,4399.48717948718
1075.4398,0.002713007,0.39603704,0.41375038,0.57965004,0,0.0,0.0,0.0,0.0,0.0,0,0,0.0,0.0,0,0,59.0,0.0,0.0,4568.717948717949,3940.0000000000005,4488.717948717949,4440.000000000001,4226.153846153847,4540.000000000001,4425.128205128206,4408.205128205129,4357.435897435898,4676.923076923077,4323.589743589744,4191.282051282052,4198.974358974359,4399.48717948718
1075.9403,0.032438792,0.39258713,0.4056776,0.5769001,0,0.0,0.0,0.0,0.0,0.0,0,0,0.0,0.0,0,0,123.0,0.0,505.0,4586.666666666667,3941.0256410256416,4486.666666666667,4420.512820512821,4239.48717948718,4537.435897435898,4427.6923076923085,4398.461538461539,4349.2307692307695,4698.974358974359,4298.974358974359,4186.153846153847,4172.307692307693,4355.8974358974365
1076.4094,0.032438792,0.39258713,0.4056776,0.5769001,0,0.0,0.0,0.0,0.0,0.0,0,0,0.0,0.0,0,0,54.0,0.0,0.0,4622.564102564103,3958.9743589743593,4477.948717948719,4447.179487179487,4232.307692307693,4535.8974358974365,4426.153846153847,4416.923076923077,4363.076923076924,4720.512820512821,4350.769230769231,4245.641025641026,4215.384615384616,4499.48717948718
1076.5658,0.032813206,0.3877305,0.3984154,0.57442474,0,0.0,0.0,0.0,0.0,0.4119439,0,0,0.0,0.0,0,0,74.0,0.0,532.0,4613.846153846154,3948.205128205129,4491.282051282052,4429.743589743591,4245.128205128206,4552.820512820514,4416.410256410257,4415.384615384616,4367.6923076923085,4720.000000000001,4351.282051282052,4221.538461538462,4194.871794871796,4476.923076923077
1076.816,0.032813206,0.3877305,0.3984154,0.57442474,0,0.0,0.0,0.0,0.0,0.88618696,0,0,0.0,0.0,0,0,106.0,0.0,532.0,4612.307692307693,3932.307692307693,4484.102564102564,4415.384615384616,4250.769230769231,4560.512820512821,4456.923076923077,4432.307692307693,4381.025641025642,4729.2307692307695,4329.2307692307695,4220.512820512821,4183.589743589744,4580.000000000001
