timestamp,excitement,frustration,meditation,engagementBoredom,blink,clench,laugh,smile,eyebrow,furrowBrow,lookLeft,lookRight,smirkLeft,smirkRight,winkLeft,winkRight,eeg0,eeg1,eeg2,eeg3,eeg4,eeg5,eeg6,eeg7,eeg8,eeg9,eeg10,eeg11,eeg12,eeg13,eeg14,eeg15,eeg16
1267.3625,0.21755193,0.631,0.5318107,0.47777817,0,0.0,0.0,0.0,0.0,0.048311014,0,0,0.0,0.0,0,0,41.0,0.0,0.0,4660.000000000001,3969.7435897435903,4514.358974358975,4452.820512820514,4212.820512820514,4533.846153846154,4450.256410256411,4447.179487179487,4428.717948717949,4753.846153846154,4374.871794871796,4288.717948717949,4193.333333333334,4534.871794871796
1267.6128,0.19484612,0.6272554,0.532156,0.4720178,0,0.0,0.0,0.0,0.0,0.0,0,0,1.0,0.0,0,0,73.0,0.0,459.0,4656.410256410257,3955.8974358974365,4525.128205128206,4441.025641025642,4213.846153846154,4534.358974358975,4439.48717948718,4448.717948717949,4429.2307692307695,4765.641025641026,4397.435897435898,4287.179487179487,4187.6923076923085,4535.384615384616
1267.863,0.19484612,0.6272554,0.532156,0.4720178,0,0.0,0.0,0.0,0.0,0.0,0,0,0.38442695,0.0,0,0,105.0,0.0,725.0,4715.8974358974365,4000.5128205128212,4541.025641025642,4469.2307692307695,4222.564102564103,4537.435897435898,4442.564102564103,4426.153846153847,4415.384615384616,4723.076923076924,4373.333333333334,4301.538461538462,4203.076923076924,4556.923076923077
1268.1133,0.171169,0.65656394,0.5297721,0.47253403,0,0.0,0.0,0.0,0.0,0.11475269,0,0,0.0,0.0,0,0,8.0,0.0,407.0,4635.8974358974365,3932.307692307693,4502.564102564103,4426.153846153847,4245.641025641026,4557.948717948719,4457.435897435898,4438.974358974359,4423.589743589744,4735.384615384616,4330.256410256411,4276.410256410257,4143.076923076924,4501.025641025642
1268.3634,0.171169,0.65656394,0.5297721,0.47253403,0,0.0,0.0,0.0,0.0,0.07814714,0,0,0.0,0.0,0,0,40.0,0.0,0.0,4666.153846153847,3973.8461538461543,4530.256410256411,4450.256410256411,4248.205128205129,4560.000000000001,4461.025641025642,4447.179487179487,4414.871794871796,4744.615384615386,4329.2307692307695,4296.923076923077,4152.307692307693,4507.6923076923085
1268.6136,0.15454291,0.6792096,0.5276214,0.464814,0,0.0,0.0,0.0,0.0,0.08416659,0,0,0.0,0.0,0,0,72.0,0.0,407.0,4636.923076923077,3961.538461538462,4500.000000000001,4424.615384615385,4253.333333333334,4565.641025641026,4432.307692307693,4430.769230769231,4407.179487179487,4773.333333333334,4321.025641025642,4278.974358974359,4155.384615384616,4486.153846153847
1268.8639,0.15454291,0.6792096,0.5276214,0.464814,0,0.0,0.0,0.0,0.0,0.03395448,0,0,0.0,0.0,0,0,104.0,0.0,540.0,4590.256410256411,3935.3846153846157,4490.256410256411,4384.102564102564,4259.48717948718,4565.641025641026,4398.974358974359,4405.641025641026,4399.48717948718,4833.846153846154,4323.589743589744,4278.974358974359,4212.307692307693,4477.948717948719
1269.1141,0.14779541,0.68090886,0.51914334,0.45787027,0,0.0,0.0,0.0,0.0,0.09225059,0,0,0.0,0.0,0,0,7.0,0.0,471.0,4574.871794871796,3936.9230769230776,4466.153846153847,4378.974358974359,4241.025641025642,4559.48717948718,4402.051282051282,4383.076923076924,4381.538461538462,4814.871794871796,4275.384615384616,4257.435897435898,4238.974358974359,4435.8974358974365
1269.3643,0.14779541,0.68090886,0.51914334,0.45787027,0,0.0,0.0,0.0,0.0,0.15476154,0,0,0.0,0.0,0,0,39.0,0.0,0.0,4591.794871794872,3938.461538461539,4478.974358974359,4391.282051282052,4253.333333333334,4562.051282051282,4410.256410256411,4396.410256410257,4375.8974358974365,4806.153846153847,4294.871794871796,4266.153846153847,4268.205128205129,4435.8974358974365
1269.6145,0.12165816,0.70718706,0.5084519,0.45854566,0,0.0,0.0,0.0,0.0,0.0,0,0,0.0,0.0,0,0,71.0,0.0,471.0,4589.2307692307695,3926.1538461538466,4479.48717948718,4394.358974358975,4236.923076923077,4547.6923076923085,4420.000000000001,4404.102564102564,4386.153846153847,4812.307692307693,4306.153846153847,4267.6923076923085,4276.923076923077,4435.384615384616
1269.6145,0.12165816,0.70718706,0.5084519,0.45854566,0,0.0,0.0,0.0,0.0,0.0,0,0,0.0,0.0,0,0,71.0,0.0,471.0,4589.2307692307695,3926.1538461538466,4479.48717948718,4394.358974358975,4236.923076923077,4547.6923076923085,4420.000000000001,4404.102564102564,4386.153846153847,4812.307692307693,4306.153846153847,4267.6923076923085,4276.923076923077,4435.384615384616
1270.115,0.12301428,0.68779016,0.4977083,0.4591559,0,0.0,0.0,0.0,0.0,0.0,0,0,0.0,0.0,0,0,6.0,0.0,533.0,4620.000000000001,3926.1538461538466,4483.589743589744,4410.256410256411,4217.435897435898,4525.128205128206,4416.410256410257,4396.410256410257,4389.2307692307695,4733.333333333334,4312.307692307693,4256.410256410257,4238.974358974359,4444.615384615385
1270.115,0.12301428,0.68779016,0.4977083,0.4591559,0,0.0,0.0,0.0,0.0,0.0,0,0,0.0,0.0,0,0,6.0,0.0,533.0,4620.000000000001,3926.1538461538466,4483.589743589744,4410.256410256411,4217.435897435898,4525.128205128206,4416.410256410257,4396.410256410257,4389.2307692307695,4733.333333333334,4312.307692307693,4256.410256410257,4238.974358974359,4444.615384615385
1270.6154,0.0599413,0.6575043,0.48458758,0.45970744,0,0.0,0.0,0.0,0.0,0.0,0,0,0.0,0.0,0,0,70.0,0.0,533.0,4649.2307692307695,3933.333333333334,4500.512820512821,4416.923076923077,4215.8974358974365,4521.538461538462,4437.435897435898,4420.000000000001,4403.076923076924,4693.333333333334,4332.820512820514,4270.769230769231,4202.564102564103,4486.666666666667
1270.6154,0.0599413,0.6575043,0.48458758,0.45970744,0,0.0,0.0,0.0,0.0,0.0,0,0,0.0,0.0,0,0,70.0,0.0,533.0,4649.2307692307695,3933.333333333334,4500.512820512821,4416.923076923077,4215.8974358974365,4521.538461538462,4437.435897435898,4420.000000000001,4403.076923076924,4693.333333333334,4332.820512820514,4270.769230769231,4202.564102564103,4486.666666666667
1271.1158,0.049963478,0.60892665,0.4689465,0.4541323,0,0.0,0.0,0.0,0.0,0.0,0,0,0.0,0.0,0,0,5.0,0.0,544.0,4664.615384615386,3917.435897435898,4509.743589743591,4400.000000000001,4217.435897435898,4523.076923076924,4434.871794871796,4428.205128205129,4413.846153846154,4687.6923076923085,4344.102564102564,4266.666666666667,4147.179487179487,4490.769230769231
1271.1158,0.049963478,0.60892665,0.4689465,0.4541323,0,0.0,0.0,0.0,0.0,0.0,0,0,0.0,0.0,0,0,5.0,0.0,544.0,4664.615384615386,3917.435897435898,4509.743589743591,4400.000000000001,4217.435897435898,4523.076923076924,4434.871794871796,4428.205128205129,4413.846153846154,4687.6923076923085,4344.102564102564,4266.666666666667,4147.179487179487,4490.769230769231
1271.6162,0.13308376,0.570267,0.4519725,0.4547854,0,0.0,0.0,0.0,0.0,0.0,0,0,0.0,0.0,0,0,69.0,0.0,544.0,4680.000000000001,3946.666666666667,4518.974358974359,4423.589743589744,4229.2307692307695,4536.410256410257,4456.923076923077,4454.358974358975,4422.051282051282,4712.307692307693,4360.512820512821,4295.384615384616,4160.000000000001,4506.153846153847
1271.6162,0.13308376,0.570267,0.4519725,0.4547854,0,0.0,0.0,0.0,0.0,0.0,0,0,0.0,0.0,0,0,69.0,0.0,544.0,4680.000000000001,3946.666666666667,4518.974358974359,4423.589743589744,4229.2307692307695,4536.410256410257,4456.923076923077,4454.358974358975,4422.051282051282,4712.307692307693,4360.512820512821,4295.384615384616,4160.000000000001,4506.153846153847
1272.1167,0.11505378,0.5335614,0.43321785,0.4687878,0,0.0,0.0,0.0,0.0,0.0,0,0,0.0,0.0,0,0,4.0,0.0,546.0,4678.461538461539,3961.0256410256416,4528.717948717949,4443.589743589744,4244.102564102564,4549.743589743591,4470.256410256411,4468.205128205129,4427.179487179487,4696.410256410257,4357.435897435898,4308.717948717949,4162.564102564103,4500.512820512821
1272.1167,0.11505378,0.5335614,0.43321785,0.4687878,0,0.0,0.0,0.0,0.0,0.0,0,0,0.0,0.0,0,0,4.0,0.0,546.0,4678.461538461539,3961.0256410256416,4528.717948717949,4443.589743589744,4244.102564102564,4549.743589743591,4479.48717948718,4482.051282051282,4433.333333333334,4701.538461538462,4363.589743589744,4317.435897435898,4165.641025641026,4504.615384615385
1272.6171,0.10999232,0.48884183,0.41480526,0.4783093,0,0.0,0.0,0.0,0.0,0.0,0,0,0.0,0.0,0,0,68.0,0.0,546.0,4680.512820512821,3955.8974358974365,4534.871794871796,4440.000000000001,4236.410256410257,4540.000000000001,4462.051282051282,4447.179487179487,4422.564102564103,4710.256410256411,4356.410256410257,4311.794871794872,4163.589743589744,4520.512820512821
1272.6171,0.10999232,0.48884183,0.41480526,0.4783093,0,0.0,0.0,0.0,0.0,0.0,0,0,0.0,0.0,0,0,68.0,0.0,546.0,4680.512820512821,3955.8974358974365,4534.871794871796,4440.000000000001,4236.410256410257,4540.000000000001,4462.051282051282,4447.179487179487,4422.564102564103,4710.256410256411,4356.410256410257,4311.794871794872,4163.589743589744,4520.512820512821
1273.1176,0.11560842,0.44766808,0.39379862,0.50637466,0,0.0,0.0,0.0,0.0,0.0,0,0,0.0,0.0,0,0,128.0,0.0,540.0,4661.025641025642,3951.7948717948725,4534.358974358975,4440.000000000001,4235.384615384616,4544.615384615385,4476.923076923077,4454.358974358975,4425.128205128206,4712.820512820514,4354.358974358975,4306.666666666667,4168.717948717949,4517.948717948719
1273.1176,0.11560842,0.44766808,0.39379862,0.50637466,0,0.0,0.0,0.0,0.0,0.0,0,0,0.0,0.0,0,0,3.0,0.0,527.0,4666.153846153847,3949.7435897435903,4531.794871794872,4440.000000000001,4236.923076923077,4542.564102564103,4469.2307692307695,4442.564102564103,4417.948717948719,4707.179487179488,4352.820512820514,4302.051282051282,4168.717948717949,4528.205128205129
1273.6179,0.07591566,0.39998707,0.37379807,0.53163314,0,0.0,0.0,0.0,0.0,0.0,0,0,0.0,0.0,0,0,67.0,0.0,527.0,4668.205128205129,3954.358974358975,4533.333333333334,4427.6923076923085,4261.538461538462,4560.000000000001,4456.923076923077,4454.358974358975,4424.615384615385,4730.256410256411,4367.6923076923085,4312.820512820514,4187.6923076923085,4534.358974358975
1273.6179,0.07591566,0.39998707,0.37379807,0.53163314,0,0.0,0.0,0.0,0.0,0.0,0,0,0.0,0.0,0,0,67.0,0.0,527.0,4668.205128205129,3954.358974358975,4533.333333333334,4427.6923076923085,4261.538461538462,4560.000000000001,4456.923076923077,4454.358974358975,4424.615384615385,4730.256410256411,4367.6923076923085,4312.820512820514,4187.6923076923085,4534.358974358975
1273.6179,0.07591566,0.39998707,0.37379807,0.53163314,0,0.0,0.0,0.0,0.0,0.0,0,0,0.0,0.0,0,0,67.0,0.0,527.0,4668.205128205129,3954.358974358975,4533.333333333334,4427.6923076923085,4261.538461538462,4560.000000000001,4456.923076923077,4454.358974358975,4424.615384615385,4730.256410256411,4367.6923076923085,4312.820512820514,4187.6923076923085,4534.358974358975
1274.1184,0.08237423,0.3523979,0.35994828,0.55436605,0,0.0,0.0,0.0,0.0,0.0,0,0,0.0,0.0,0,0,2.0,0.0,440.0,4684.102564102564,3971.2820512820517,4556.410256410257,4453.333333333334,4264.102564102564,4562.564102564103,4487.179487179488,4453.846153846154,4436.410256410257,4747.179487179488,4386.153846153847,4327.179487179487,4210.256410256411,4558.974358974359
1274.1184,0.08237423,0.3523979,0.35994828,0.55436605,0,0.0,0.0,0.0,0.0,0.0,0,0,0.0,0.0,0,0,2.0,0.0,440.0,4684.102564102564,3971.2820512820517,4556.410256410257,4453.333333333334,4264.102564102564,4562.564102564103,4487.179487179488,4453.846153846154,4436.410256410257,4747.179487179488,4386.153846153847,4327.179487179487,4210.256410256411,4558.974358974359
1274.6188,0.149492,0.31270787,0.34748292,0.55758303,0,0.0,0.0,0.0,0.0,0.0,0,0,0.0,0.0,0,0,66.0,0.0,440.0,4672.307692307693,3956.410256410257,4528.205128205129,4431.794871794872,4248.717948717949,4551.794871794872,4474.358974358975,4453.333333333334,4430.256410256411,4740.000000000001,4377.435897435898,4306.666666666667,4191.282051282052,4531.282051282052
1274.6188,0.149492,0.31270787,0.34748292,0.55758303,0,0.0,0.0,0.0,0.0,0.0,0,0,0.0,0.0,0,0,66.0,0.0,440.0,4672.307692307693,3956.410256410257,4528.205128205129,4431.794871794872,4248.717948717949,4551.794871794872,4474.358974358975,4453.333333333334,4430.256410256411,4740.000000000001,4377.435897435898,4306.666666666667,4191.282051282052,4531.282051282052
1275.3695,0.14814286,0.27265096,0.33211046,0.56047815,0,0.0,0.0,0.0,0.0,0.22057906,0,0,0.0,0.0,0,0,33.0,0.0,0.0,4592.307692307693,3966.666666666667,4461.025641025642,4415.384615384616,4286.153846153847,4557.948717948719,4443.076923076924,4368.205128205129,4372.307692307693,4828.717948717949,4353.846153846154,4274.358974358975,4342.051282051282,4425.641025641026
1275.4946,0.14814286,0.27265096,0.33211046,0.56047815,0,0.0,0.0,0.0,0.0,0.2522498,0,0,0.0,0.0,0,0,49.0,0.0,0.0,4583.589743589744,3963.589743589744,4461.538461538462,4417.948717948719,4284.102564102564,4553.333333333334,4446.153846153847,4364.102564102564,4365.128205128206,4834.871794871796,4341.025641025642,4268.717948717949,4343.076923076924,4406.666666666667
1275.6196,0.17206964,0.24241106,0.31359893,0.56273,0,0.0,0.0,0.0,0.0,0.0,0,0,0.0,0.0,0,0,65.0,0.0,482.0,4583.589743589744,3971.2820512820517,4482.564102564103,4433.846153846154,4288.205128205129,4555.384615384616,4471.282051282052,4384.102564102564,4372.307692307693,4856.410256410257,4349.743589743591,4279.48717948718,4350.769230769231,4413.333333333334
1276.0889,0.17206964,0.24241106,0.31359893,0.56273,1,0.0,0.0,0.0,0.0,0.0,0,0,0.0,0.0,0,0,125.0,0.0,730.0,4628.205128205129,3968.205128205129,4513.333333333334,4469.743589743591,4308.205128205129,4556.923076923077,4451.794871794872,4384.615384615385,4386.153846153847,4864.615384615386,4369.2307692307695,4297.435897435898,4363.076923076924,4437.435897435898
1276.2452,0.18323255,0.23927628,0.297857,0.5500834,0,0.0,0.0,0.0,0.0,0.0,0,0,0.0,0.0,0,0,16.0,0.0,0.0,4612.307692307693,3936.410256410257,4509.2307692307695,4446.666666666667,4309.743589743591,4557.948717948719,4454.871794871796,4385.128205128206,4380.512820512821,4811.794871794872,4318.461538461539,4266.666666666667,4286.666666666667,4424.102564102564
1276.2452,0.18323255,0.23927628,0.297857,0.5500834,0,0.0,0.0,0.0,0.0,0.0,0,0,0.0,0.0,0,0,16.0,0.0,0.0,4612.307692307693,3936.410256410257,4509.2307692307695,4446.666666666667,4309.743589743591,4557.948717948719,4454.871794871796,4385.128205128206,4380.512820512821,4811.794871794872,4318.461538461539,4266.666666666667,4286.666666666667,4424.102564102564
1276.6205,0.1772027,0.27545777,0.28369018,0.53870153,0,0.0,0.0,0.0,0.0,0.0,0,0,0.0,0.0,0,0,64.0,0.0,488.0,4626.666666666667,3911.2820512820517,4511.794871794872,4435.384615384616,4271.794871794872,4541.025641025642,4458.974358974359,4380.512820512821,4384.102564102564,4764.102564102564,4285.641025641026,4244.102564102564,4229.2307692307695,4443.589743589744
1276.6205,0.1772027,0.27545777,0.28369018,0.53870153,0,0.0,0.0,0.0,0.0,0.0,0,0,0.0,0.0,0,0,64.0,0.0,488.0,4626.666666666667,3911.2820512820517,4511.794871794872,4435.384615384616,4271.794871794872,4541.025641025642,4458.974358974359,4380.512820512821,4384.102564102564,4764.102564102564,4285.641025641026,4244.102564102564,4229.2307692307695,4443.589743589744
1277.3712,0.16334914,0.3345471,0.2709415,0.5426749,0,0.0,0.0,0.0,0.0,0.33155093,0,0,0.0,0.0,0,0,31.0,0.0,0.0,4756.410256410257,3970.7692307692314,4570.256410256411,4490.256410256411,4225.641025641026,4524.615384615385,4456.923076923077,4444.615384615385,4413.846153846154,4760.000000000001,4414.871794871796,4315.384615384616,4251.282051282052,4604.102564102564
1277.4963,0.16334914,0.3345471,0.2709415,0.5426749,1,0.0,0.0,0.0,0.0,0.44630656,0,0,0.0,0.0,0,0,47.0,0.0,0.0,4712.307692307693,3925.6410256410263,4552.307692307693,4460.512820512821,4230.769230769231,4534.358974358975,4472.307692307693,4453.333333333334,4415.8974358974365,4725.641025641026,4379.48717948718,4294.358974358975,4184.102564102564,4562.564102564103
1277.8716,0.18826601,0.43282795,0.26905674,0.558612,0,0.0,0.0,0.0,0.0,0.08375213,0,0,0.0,0.0,0,0,93.0,0.0,735.0,4696.923076923077,3933.8461538461543,4545.128205128206,4459.48717948718,4232.307692307693,4540.512820512821,4485.641025641026,4471.794871794872,4421.538461538462,4742.564102564103,4380.000000000001,4293.846153846154,4152.307692307693,4582.051282051282
1277.9967,0.18826601,0.43282795,0.26905674,0.558612,0,0.0,0.0,0.0,0.0,0.10449955,0,0,0.0,0.0,0,0,111.0,0.0,446.0,4704.102564102564,3945.1282051282055,4544.615384615385,4474.871794871796,4236.410256410257,4545.641025641026,4491.282051282052,4477.948717948719,4431.282051282052,4732.820512820514,4397.435897435898,4302.564102564103,4157.435897435898,4591.794871794872
1278.247,0.18090789,0.48029095,0.27552995,0.5668391,0,0.0,0.0,0.0,0.0,0.0,0,0,0.0,0.0,0,0,14.0,0.0,527.0,4691.794871794872,3947.1794871794878,4546.666666666667,4457.948717948719,4235.384615384616,4541.025641025642,4489.743589743591,4472.820512820514,4431.282051282052,4708.717948717949,4386.153846153847,4294.871794871796,4133.846153846154,4584.615384615385
1278.247,0.18090789,0.48029095,0.27552995,0.5668391,0,0.0,0.0,0.0,0.0,0.0,0,0,0.0,0.0,0,0,14.0,0.0,527.0,4691.794871794872,3947.1794871794878,4546.666666666667,4457.948717948719,4235.384615384616,4541.025641025642,4489.743589743591,4472.820512820514,4431.282051282052,4708.717948717949,4386.153846153847,4294.871794871796,4133.846153846154,4584.615384615385
1278.6223,0.16031228,0.50764006,0.281357,0.5657631,0,0.0,0.0,0.0,0.0,0.0,0,0,0.0,0.0,0,0,62.0,0.0,0.0,4686.666666666667,3951.2820512820517,4551.282051282052,4456.410256410257,4233.333333333334,4545.128205128206,4504.615384615385,4487.6923076923085,4434.358974358975,4713.846153846154,4390.769230769231,4297.435897435898,4121.538461538462,4592.307692307693
1278.6223,0.16031228,0.50764006,0.281357,0.5657631,0,0.0,0.0,0.0,0.0,0.0,0,0,0.0,0.0,0,0,62.0,0.0,0.0,4686.666666666667,3951.2820512820517,4551.282051282052,4456.410256410257,4233.333333333334,4545.128205128206,4504.615384615385,4487.6923076923085,4434.358974358975,4713.846153846154,4390.769230769231,4297.435897435898,4121.538461538462,4592.307692307693
1279.1227,0.22196858,0.48231444,0.28660244,0.5647945,0,0.0,0.0,0.0,0.0,0.0,0,0,0.0,0.0,0,0,126.0,0.0,527.0,4664.615384615386,3941.0256410256416,4530.256410256411,4440.000000000001,4220.000000000001,4533.846153846154,4491.282051282052,4475.384615384616,4429.743589743591,4705.641025641026,4371.282051282052,4277.948717948719,4116.410256410257,4553.846153846154
1279.1227,0.22196858,0.48231444,0.28660244,0.5647945,0,0.0,0.0,0.0,0.0,0.0,0,0,0.0,0.0,0,0,126.0,0.0,527.0,4664.615384615386,3941.0256410256416,4530.256410256411,4440.000000000001,4220.000000000001,4533.846153846154,4491.282051282052,4475.384615384616,4429.743589743591,4705.641025641026,4371.282051282052,4277.948717948719,4116.410256410257,4553.846153846154
1279.6232,0.22657157,0.4267155,0.28758168,0.56392246,0,0.0,0.0,0.0,0.0,0.0,0,0,0.0,0.0,0,0,61.0,0.0,0.0,4652.307692307693,3940.5128205128212,4522.051282051282,4434.358974358975,4218.461538461539,4530.256410256411,4485.128205128206,4450.769230769231,4424.102564102564,4672.307692307693,4352.307692307693,4263.589743589744,4115.384615384616,4542.564102564103
1280.1235,0.20020977,0.3740146,0.2807873,0.5606288,0,0.0,0.0,0.0,0.0,0.0,0,0,0.0,0.0,0,0,121.0,0.0,729.0,4634.871794871796,3940.0000000000005,4512.820512820514,4424.615384615385,4215.384615384616,4526.153846153847,4459.48717948718,4435.384615384616,4412.820512820514,4665.641025641026,4338.974358974359,4254.358974358975,4119.48717948718,4530.769230769231
1280.1235,0.20020977,0.3740146,0.2807873,0.5606288,0,0.0,0.0,0.0,0.0,0.0,0,0,0.0,0.0,0,0,125.0,0.0,729.0,4645.641025641026,3940.5128205128212,4516.923076923077,4425.128205128206,4218.461538461539,4530.256410256411,4466.666666666667,4439.48717948718,4417.435897435898,4671.794871794872,4347.6923076923085,4256.923076923077,4128.205128205129,4536.410256410257
1280.624,0.2673553,0.334936,0.27091393,0.5576642,1,0.0,0.0,0.0,0.0,0.0,0,0,0.0,0.0,0,0,60.0,0.0,0.0,4672.820512820514,3969.2307692307695,4536.923076923077,4438.974358974359,4224.615384615385,4532.307692307693,4470.769230769231,4444.615384615385,4415.8974358974365,4691.794871794872,4373.333333333334,4283.076923076924,4195.384615384616,4569.743589743591
1280.6553,0.2673553,0.334936,0.27091393,0.5576642,0,0.0,0.0,0.0,0.0,0.0,0,0,0.0,0.0,0,0,64.0,0.0,488.0,4662.051282051282,3958.9743589743593,4532.307692307693,4437.948717948719,4230.256410256411,4540.512820512821,4490.256410256411,4462.051282051282,4420.512820512821,4704.615384615386,4382.051282051282,4286.666666666667,4196.923076923077,4566.153846153847
1281.1244,0.18056154,0.3077104,0.26190963,0.5549961,0,0.0,0.0,0.0,0.0,0.0,0,0,0.0,0.0,0,0,124.0,0.0,539.0,4610.769230769231,3931.7948717948725,4506.153846153847,4417.948717948719,4230.256410256411,4542.051282051282,4473.846153846154,4457.948717948719,4423.589743589744,4708.205128205129,4355.384615384616,4267.6923076923085,4155.8974358974365,4528.205128205129
1281.1244,0.18056154,0.3077104,0.26190963,0.5549961,0,0.0,0.0,0.0,0.0,0.0,0,0,0.0,0.0,0,0,124.0,0.0,539.0,4610.769230769231,3931.7948717948725,4506.153846153847,4417.948717948719,4230.256410256411,4542.051282051282,4473.846153846154,4457.948717948719,4423.589743589744,4708.205128205129,4355.384615384616,4267.6923076923085,4155.8974358974365,4528.205128205129
1281.6014,0.17744073,0.28048304,0.25380775,0.5489562,0,0.0,0.0,0.0,0.0,0.0,0,0,0.0,0.0,0,0,59.0,0.0,0.0,4595.8974358974365,3924.1025641025644,4492.820512820514,4401.538461538462,4235.8974358974365,4548.717948717949,4451.282051282052,4443.589743589744,4420.000000000001,4716.410256410257,4346.666666666667,4250.769230769231,4148.717948717949,4508.205128205129
1281.6014,0.17744073,0.28048304,0.25380775,0.5489562,0,0.0,0.0,0.0,0.0,0.0,0,0,0.0,0.0,0,0,59.0,0.0,0.0,4595.8974358974365,3924.1025641025644,4492.820512820514,4401.538461538462,4235.8974358974365,4548.717948717949,4451.282051282052,4443.589743589744,4420.000000000001,4716.410256410257,4346.666666666667,4250.769230769231,4148.717948717949,4508.205128205129
1282.1018,0.14909649,0.2805013,0.2474615,0.54352045,0,0.0,0.0,0.0,0.0,0.0,0,0,0.0,0.0,0,0,123.0,0.0,445.0,4648.205128205129,3936.410256410257,4493.333333333334,4393.846153846154,4246.153846153847,4547.6923076923085,4444.615384615385,4415.8974358974365,4405.128205128206,4777.948717948719,4390.769230769231,4271.282051282052,4223.589743589744,4535.8974358974365
1282.3833,0.14909649,0.2805013,0.2474615,0.54352045,0,0.0,0.0,0.0,0.0,0.0,0,0,0.0,0.0,0,0,30.0,0.0,0.0,4641.025641025642,3942.0512820512827,4493.846153846154,4402.051282051282,4261.025641025642,4562.051282051282,4455.8974358974365,4426.153846153847,4412.307692307693,4748.717948717949,4367.6923076923085,4265.641025641026,4189.2307692307695,4510.256410256411
1282.6023,0.10846121,0.29036105,0.24080886,0.5362972,0,0.0,0.0,0.0,0.0,0.08016047,0,0,0.0,0.0,0,0,58.0,0.0,0.0,4644.102564102564,3936.9230769230776,4493.846153846154,4402.564102564103,4258.974358974359,4559.48717948718,4449.743589743591,4431.794871794872,4406.153846153847,4729.743589743591,4361.025641025642,4260.000000000001,4180.000000000001,4501.538461538462
1282.8524,0.10846121,0.29036105,0.24080886,0.5362972,0,0.0,0.0,0.0,0.0,0.0,0,0,0.0,0.0,0,0,90.0,0.0,527.0,4642.051282051282,3935.3846153846157,4504.615384615385,4393.846153846154,4245.641025641026,4544.615384615385,4449.743589743591,4434.871794871796,4405.641025641026,4722.564102564103,4365.128205128206,4252.820512820514,4176.410256410257,4511.794871794872
1283.1027,0.09759025,0.30027142,0.23810956,0.5292909,0,0.0,0.0,0.0,0.0,0.0,0,0,0.0,0.0,0,0,122.0,0.0,527.0,4652.820512820514,3943.589743589744,4516.923076923077,4411.794871794872,4253.846153846154,4555.384615384616,4458.461538461539,4440.512820512821,4411.282051282052,4704.102564102564,4365.641025641026,4259.48717948718,4165.641025641026,4512.820512820514
1283.1027,0.09759025,0.30027142,0.23810956,0.5292909,0,0.0,0.0,0.0,0.0,0.0,0,0,0.0,0.0,0,0,122.0,0.0,527.0,4652.820512820514,3943.589743589744,4516.923076923077,4411.794871794872,4253.846153846154,4555.384615384616,4458.461538461539,4440.512820512821,4411.282051282052,4704.102564102564,4365.641025641026,4259.48717948718,4165.641025641026,4512.820512820514
1283.6031,0.061099187,0.30915588,0.23920381,0.51919764,0,0.0,0.0,0.0,0.0,0.0,0,0,0.0,0.0,0,0,57.0,0.0,0.0,4662.564102564103,3943.076923076924,4522.564102564103,4432.307692307693,4233.333333333334,4538.461538461539,4452.307692307693,4432.307692307693,4411.282051282052,4672.307692307693,4359.48717948718,4259.48717948718,4150.769230769231,4541.538461538462
1283.6031,0.061099187,0.30915588,0.23920381,0.51919764,0,0.0,0.0,0.0,0.0,0.0,0,0,0.0,0.0,0,0,57.0,0.0,0.0,4662.564102564103,3943.076923076924,4522.564102564103,4432.307692307693,4233.333333333334,4538.461538461539,4452.307692307693,4432.307692307693,4411.282051282052,4672.307692307693,4359.48717948718,4259.48717948718,4150.769230769231,4541.538461538462
1284.1035,0.026883772,0.31609866,0.24365294,0.51011485,0,0.0,0.0,0.0,0.0,0.0,0,0,0.0,0.0,0,0,121.0,0.0,728.0,4701.025641025642,3971.7948717948725,4535.384615384616,4432.307692307693,4207.179487179487,4524.102564102564,4444.615384615385,4426.666666666667,4402.051282051282,4592.820512820514,4382.051282051282,4256.410256410257,4196.410256410257,4591.282051282052
1284.1035,0.026883772,0.31609866,0.24365294,0.51011485,0,0.0,0.0,0.0,0.0,0.0,0,0,0.0,0.0,0,0,121.0,0.0,728.0,4701.025641025642,3971.7948717948725,4535.384615384616,4432.307692307693,4207.179487179487,4524.102564102564,4444.615384615385,4426.666666666667,4402.051282051282,4592.820512820514,4382.051282051282,4256.410256410257,4196.410256410257,4591.282051282052
1284.604,0.031579543,0.31733498,0.24419616,0.5082684,0,0.0,0.0,0.0,0.0,0.0,0,0,0.0,0.0,0,0,56.0,0.0,0.0,4643.589743589744,3929.7435897435903,4521.538461538462,4419.48717948718,4220.000000000001,4526.153846153847,4450.769230769231,4430.769230769231,4407.179487179487,4613.846153846154,4350.256410256411,4227.179487179487,4128.205128205129,4525.128205128206
1284.604,0.031579543,0.31733498,0.24419616,0.5082684,0,0.0,0.0,0.0,0.0,0.0,0,0,0.0,0.0,0,0,56.0,0.0,0.0,4643.589743589744,3929.7435897435903,4521.538461538462,4419.48717948718,4220.000000000001,4526.153846153847,4450.769230769231,4430.769230769231,4407.179487179487,4613.846153846154,4350.256410256411,4227.179487179487,4128.205128205129,4525.128205128206
1285.1044,0.05272122,0.31986803,0.24614991,0.5066077,0,0.0,0.0,0.0,0.0,0.0,0,0,0.0,0.0,0,0,120.0,0.0,539.0,4640.512820512821,3960.0000000000005,4525.641025641026,4452.307692307693,4198.461538461539,4528.717948717949,4476.923076923077,4449.743589743591,4422.051282051282,4672.307692307693,4361.025641025642,4251.794871794872,4159.48717948718,4521.538461538462
1285.3546,0.05272122,0.31986803,0.24614991,0.5066077,0,0.0,0.0,0.0,0.0,0.0,0,0,0.5910514,0.0,0,0,23.0,0.0,0.0,4648.205128205129,3957.9487179487182,4526.666666666667,4440.512820512821,4228.717948717949,4553.333333333334,4489.2307692307695,4455.384615384616,4417.435897435898,4711.794871794872,4349.743589743591,4253.333333333334,4168.205128205129,4518.974358974359
1285.6049,0.063164555,0.32295597,0.24894409,0.50611573,0,0.0,0.0,0.0,0.0,0.0,0,0,0.3429934,0.0,0,0,55.0,0.0,0.0,4682.564102564103,3958.461538461539,4525.641025641026,4433.846153846154,4246.666666666667,4554.871794871796,4459.48717948718,4435.8974358974365,4415.384615384616,4709.2307692307695,4366.666666666667,4258.461538461539,4179.48717948718,4538.461538461539
1285.73,0.063164555,0.32295597,0.24894409,0.50611573,0,0.0,0.0,0.0,0.0,0.0,0,0,0.0,0.0,0,0,71.0,0.0,470.0,4656.410256410257,3937.9487179487182,4516.410256410257,4412.307692307693,4234.358974358975,4548.717948717949,4460.512820512821,4428.205128205129,4400.000000000001,4672.307692307693,4326.666666666667,4229.74358974359,4134.358974358975,4505.641025641026
1286.1052,0.09760793,0.31806388,0.25410452,0.50411326,0,0.0,0.0,0.0,0.0,0.0,0,0,0.0,0.0,0,0,119.0,0.0,445.0,4648.205128205129,3942.564102564103,4504.615384615385,4412.307692307693,4231.794871794872,4544.102564102564,4443.076923076924,4423.589743589744,4412.307692307693,4694.871794871796,4341.025641025642,4227.6923076923085,4147.6923076923085,4509.2307692307695
1286.1052,0.09760793,0.31806388,0.25410452,0.50411326,0,0.0,0.0,0.0,0.0,0.0,0,0,0.0,0.0,0,0,119.0,0.0,445.0,4648.205128205129,3942.564102564103,4504.615384615385,4412.307692307693,4231.794871794872,4544.102564102564,4443.076923076924,4423.589743589744,4412.307692307693,4694.871794871796,4341.025641025642,4227.6923076923085,4147.6923076923085,4509.2307692307695
1286.6057,0.07522781,0.3046425,0.25875053,0.50629264,0,0.0,0.0,0.0,0.0,0.0,0,0,0.0,0.0,0,0,54.0,0.0,0.0,4657.435897435898,3946.1538461538466,4517.435897435898,4412.307692307693,4222.051282051282,4536.410256410257,4435.8974358974365,4423.589743589744,4405.641025641026,4691.794871794872,4354.358974358975,4234.871794871796,4150.769230769231,4529.2307692307695
1286.6057,0.07522781,0.3046425,0.25875053,0.50629264,0,0.0,0.0,0.0,0.0,0.0,0,0,0.0,0.0,0,0,54.0,0.0,0.0,4657.435897435898,3946.1538461538466,4517.435897435898,4412.307692307693,4222.051282051282,4536.410256410257,4435.8974358974365,4423.589743589744,4405.641025641026,4691.794871794872,4354.358974358975,4234.871794871796,4150.769230769231,4529.2307692307695
1287.1061,0.09636338,0.29355064,0.26204473,0.51023096,0,0.0,0.0,0.0,0.0,0.0,0,0,0.0,0.0,0,0,118.0,0.0,527.0,4679.48717948718,3962.0512820512827,4533.333333333334,4438.974358974359,4232.307692307693,4541.025641025642,4456.923076923077,4437.948717948719,4417.948717948719,4709.2307692307695,4381.025641025642,4255.384615384616,4185.128205128206,4548.717948717949
1287.1061,0.09636338,0.29355064,0.26204473,0.51023096,0,0.0,0.0,0.0,0.0,0.0,0,0,0.0,0.0,0,0,118.0,0.0,527.0,4679.48717948718,3962.0512820512827,4533.333333333334,4438.974358974359,4232.307692307693,4541.025641025642,4456.923076923077,4437.948717948719,4417.948717948719,4709.2307692307695,4381.025641025642,4255.384615384616,4185.128205128206,4548.717948717949
1287.6066,0.051007822,0.2835977,0.26616654,0.5078178,0,0.0,0.0,0.0,0.0,0.0,0,0,0.0,0.0,0,0,53.0,0.0,0.0,4667.6923076923085,3957.9487179487182,4505.641025641026,4431.794871794872,4236.923076923077,4543.589743589744,4446.666666666667,4441.538461538462,4415.384615384616,4713.333333333334,4368.205128205129,4250.769230769231,4184.615384615385,4564.615384615385
1287.6066,0.051007822,0.2835977,0.26616654,0.5078178,0,0.0,0.0,0.0,0.0,0.0,0,0,0.0,0.0,0,0,53.0,0.0,0.0,4667.6923076923085,3957.9487179487182,4505.641025641026,4431.794871794872,4236.923076923077,4543.589743589744,4446.666666666667,4441.538461538462,4415.384615384616,4713.333333333334,4368.205128205129,4250.769230769231,4184.615384615385,4564.615384615385
1288.1069,0.12876485,0.2752833,0.27109912,0.50564706,0,0.0,0.0,0.0,0.0,0.0,0,0,0.0,0.0,0,0,117.0,0.0,730.0,4669.743589743591,3972.820512820513,4518.974358974359,4432.820512820514,4245.641025641026,4549.743589743591,4457.435897435898,4437.435897435898,4412.820512820514,4709.2307692307695,4373.846153846154,4258.974358974359,4203.589743589744,4573.846153846154
1288.1069,0.12876485,0.2752833,0.27109912,0.50564706,0,0.0,0.0,0.0,0.0,0.0,0,0,0.0,0.0,0,0,117.0,0.0,730.0,4669.743589743591,3972.820512820513,4518.974358974359,4432.820512820514,4245.641025641026,4549.743589743591,4457.435897435898,4437.435897435898,4412.820512820514,4709.2307692307695,4373.846153846154,4258.974358974359,4203.589743589744,4573.846153846154
1288.6074,0.14023009,0.2620403,0.27553973,0.4956258,0,0.0,0.0,0.0,0.0,0.0,0,0,0.0,0.0,0,0,52.0,0.0,0.0,4643.076923076924,3962.0512820512827,4518.974358974359,4434.358974358975,4243.076923076924,4542.564102564103,4466.153846153847,4436.410256410257,4408.717948717949,4706.666666666667,4371.282051282052,4251.794871794872,4189.2307692307695,4566.666666666667
1288.6074,0.14023009,0.2620403,0.27553973,0.4956258,0,0.0,0.0,0.0,0.0,0.0,0,0,0.0,0.0,0,0,52.0,0.0,0.0,4643.076923076924,3962.0512820512827,4518.974358974359,4434.358974358975,4243.076923076924,4542.564102564103,4466.153846153847,4436.410256410257,4408.717948717949,4706.666666666667,4371.282051282052,4251.794871794872,4189.2307692307695,4566.666666666667
1289.1078,0.17703317,0.24551077,0.27864793,0.48300183,0,0.0,0.0,0.0,0.0,0.0,0,0,0.0,0.0,0,0,116.0,0.0,539.0,4635.8974358974365,3960.5128205128212,4529.2307692307695,4441.538461538462,4247.6923076923085,4552.820512820514,4473.846153846154,4443.076923076924,4419.48717948718,4721.025641025642,4370.256410256411,4258.461538461539,4186.153846153847,4560.000000000001
1289.1078,0.17703317,0.24551077,0.27864793,0.48300183,0,0.0,0.0,0.0,0.0,0.0,0,0,0.0,0.0,0,0,116.0,0.0,539.0,4635.8974358974365,3960.5128205128212,4529.2307692307695,4441.538461538462,4247.6923076923085,4552.820512820514,4473.846153846154,4443.076923076924,4419.48717948718,4721.025641025642,4370.256410256411,4258.461538461539,4186.153846153847,4560.000000000001
1289.6083,0.1737089,0.21959655,0.27962506,0.471644,0,0.0,0.0,0.0,0.0,0.0,0,0,0.0,0.0,0,0,51.0,0.0,0.0,4624.102564102564,3956.9230769230776,4522.564102564103,4435.384615384616,4255.8974358974365,4557.435897435898,4472.307692307693,4447.179487179487,4416.410256410257,4728.205128205129,4374.871794871796,4252.307692307693,4198.974358974359,4555.384615384616
1289.6083,0.1737089,0.21959655,0.27962506,0.471644,0,0.0,0.0,0.0,0.0,0.0,0,0,0.0,0.0,0,0,51.0,0.0,0.0,4624.102564102564,3956.9230769230776,4522.564102564103,4435.384615384616,4255.8974358974365,4557.435897435898,4472.307692307693,4447.179487179487,4416.410256410257,4728.205128205129,4374.871794871796,4252.307692307693,4198.974358974359,4555.384615384616
1290.1086,0.10921068,0.20985742,0.27954203,0.46142656,0,0.0,0.0,0.0,0.0,0.0,0,0,0.0,0.0,0,0,115.0,0.0,445.0,4624.615384615385,3945.1282051282055,4529.2307692307695,4419.48717948718,4257.435897435898,4561.538461538462,4464.615384615385,4451.794871794872,4421.538461538462,4734.871794871796,4389.743589743591,4263.589743589744,4204.102564102564,4537.948717948719
1290.1086,0.10921068,0.20985742,0.27954203,0.46142656,0,0.0,0.0,0.0,0.0,0.0,0,0,0.0,0.0,0,0,115.0,0.0,445.0,4624.615384615385,3945.1282051282055,4529.2307692307695,4419.48717948718,4257.435897435898,4561.538461538462,4464.615384615385,4451.794871794872,4421.538461538462,4734.871794871796,4389.743589743591,4263.589743589744,4204.102564102564,4537.948717948719
1290.6091,0.042704314,0.20257309,0.27848905,0.46362138,0,0.0,0.0,0.0,0.0,0.0,0,0,0.0,0.0,0,0,50.0,0.0,0.0,4631.794871794872,3949.2307692307695,4530.769230769231,4417.948717948719,4255.384615384616,4558.974358974359,4452.820512820514,4453.846153846154,4418.974358974359,4734.871794871796,4389.743589743591,4258.461538461539,4212.820512820514,4544.615384615385
1290.6091,0.042704314,0.20257309,0.27848905,0.46362138,0,0.0,0.0,0.0,0.0,0.0,0,0,0.0,0.0,0,0,50.0,0.0,0.0,4631.794871794872,3949.2307692307695,4530.769230769231,4417.948717948719,4255.384615384616,4558.974358974359,4452.820512820514,4453.846153846154,4418.974358974359,4734.871794871796,4389.743589743591,4258.461538461539,4212.820512820514,4544.615384615385
1291.1095,0.03838571,0.19580783,0.27754265,0.46559852,0,0.0,0.0,0.0,0.0,0.0,0,0,0.0,0.0,0,0,114.0,0.0,527.0,4641.538461538462,3947.1794871794878,4532.307692307693,4426.666666666667,4248.717948717949,4560.000000000001,4461.025641025642,4454.871794871796,4421.025641025642,4733.333333333334,4397.435897435898,4252.307692307693,4212.820512820514,4541.025641025642
1291.3597,0.03838571,0.19580783,0.27754265,0.46559852,0,0.0,0.0,0.0,0.0,0.0258518,0,0,0.0,0.0,0,0,17.0,0.0,0.0,4644.615384615385,3955.8974358974365,4535.384615384616,4435.384615384616,4257.435897435898,4565.128205128206,4466.153846153847,4458.974358974359,4421.025641025642,4750.256410256411,4410.769230769231,4261.538461538462,4225.641025641026,4536.410256410257
1291.61,0.05373878,0.19426383,0.27280894,0.47015122,0,0.0,0.0,0.0,0.0,0.06726209,0,0,0.0,0.0,0,0,49.0,0.0,0.0,4645.641025641026,3950.7692307692314,4522.564102564103,4429.743589743591,4261.025641025642,4567.6923076923085,4456.410256410257,4454.871794871796,4424.102564102564,4753.333333333334,4392.820512820514,4261.025641025642,4206.666666666667,4527.179487179488
1291.8602,0.05373878,0.19426383,0.27280894,0.47015122,0,0.0,0.0,0.0,0.0,0.0,0,0,0.0,0.0,0,0,81.0,0.0,741.0,4670.256410256411,3972.307692307693,4543.076923076924,4451.282051282052,4265.128205128206,4571.282051282052,4451.794871794872,4450.769230769231,4422.051282051282,4754.358974358975,4427.6923076923085,4273.333333333334,4224.615384615385,4556.923076923077
1292.1105,0.03615652,0.18295403,0.26424238,0.47816887,0,0.0,0.0,0.0,0.0,0.0,0,0,0.0,0.0,0,0,113.0,0.0,741.0,4648.205128205129,3961.538461538462,4515.8974358974365,4443.589743589744,4262.051282051282,4566.666666666667,4449.743589743591,4449.2307692307695,4421.538461538462,4734.871794871796,4397.948717948719,4254.871794871796,4198.974358974359,4525.641025641026
1292.1105,0.03615652,0.18295403,0.26424238,0.47816887,0,0.0,0.0,0.0,0.0,0.0,0,0,0.0,0.0,0,0,113.0,0.0,741.0,4648.205128205129,3961.538461538462,4515.8974358974365,4443.589743589744,4262.051282051282,4566.666666666667,4449.743589743591,4449.2307692307695,4421.538461538462,4734.871794871796,4397.948717948719,4254.871794871796,4198.974358974359,4525.641025641026
1292.6108,0.0,0.18453091,0.2561453,0.4974327,0,0.0,0.0,0.0,0.0,0.0,0,0,0.0,0.0,0,0,48.0,0.0,0.0,4622.051282051282,3956.9230769230776,4496.410256410257,4427.179487179487,4271.282051282052,4569.743589743591,4415.8974358974365,4452.307692307693,4418.974358974359,4818.974358974359,4391.794871794872,4257.435897435898,4214.871794871796,4504.615384615385
1292.6108,0.0,0.18453091,0.2561453,0.4974327,0,0.0,0.0,0.0,0.0,0.0,0,0,0.0,0.0,0,0,48.0,0.0,0.0,4622.051282051282,3956.9230769230776,4496.410256410257,4427.179487179487,4271.282051282052,4569.743589743591,4415.8974358974365,4452.307692307693,4418.974358974359,4818.974358974359,4391.794871794872,4257.435897435898,4214.871794871796,4504.615384615385
1293.1113,0.088210486,0.17344932,0.25355867,0.501556,0,0.0,0.0,0.0,0.0,0.0,0,0,0.0,0.0,0,0,112.0,0.0,539.0,4661.025641025642,4021.538461538462,4502.564102564103,4455.8974358974365,4277.435897435898,4566.666666666667,4388.205128205129,4405.128205128206,4403.589743589744,4781.538461538462,4400.000000000001,4275.8974358974365,4260.512820512821,4534.358974358975
1293.3615,0.088210486,0.17344932,0.25355867,0.501556,0,0.0,0.0,0.0,0.0,0.08661631,0,0,0.0,0.0,0,0,15.0,0.0,445.0,4585.128205128206,3952.307692307693,4460.000000000001,4371.282051282052,4281.025641025642,4569.743589743591,4392.307692307693,4398.974358974359,4383.589743589744,4744.615384615386,4324.102564102564,4224.102564102564,4173.846153846154,4449.743589743591
1293.6117,0.1369569,0.19639477,0.2515939,0.50134635,0,0.0,0.0,0.0,0.0,0.08217937,0,0,0.0,0.0,0,0,47.0,0.0,0.0,4585.128205128206,3957.435897435898,4450.769230769231,4300.512820512821,4286.666666666667,4570.256410256411,4398.461538461539,4380.000000000001,4383.076923076924,4727.179487179488,4327.6923076923085,4214.358974358975,4185.641025641026,4445.128205128206
1293.7368,0.1369569,0.19639477,0.2515939,0.50134635,0,0.0,0.0,0.0,0.0,0.0,0,0,0.0,0.0,0,0,63.0,0.0,0.0,4588.205128205129,3935.8974358974365,4463.589743589744,4275.8974358974365,4285.128205128206,4568.717948717949,4418.461538461539,4403.589743589744,4396.410256410257,4767.6923076923085,4376.410256410257,4241.538461538462,4246.153846153847,4471.282051282052
1294.1122,0.18933085,0.20552097,0.24982755,0.50115883,0,0.0,0.0,0.0,0.0,0.0904138,0,0,0.0,0.0,0,0,111.0,0.0,445.0,4603.076923076924,3954.8717948717954,4470.769230769231,4256.410256410257,4274.871794871796,4560.000000000001,4409.2307692307695,4371.282051282052,4381.025641025642,4718.974358974359,4342.564102564103,4218.974358974359,4215.384615384616,4458.974358974359
1294.2372,0.18933085,0.20552097,0.24982755,0.50115883,0,0.0,0.0,0.0,0.0,0.0,0,0,0.0,0.0,0,0,127.0,0.0,445.0,4598.974358974359,3956.410256410257,4474.358974358975,4252.307692307693,4265.641025641026,4555.384615384616,4407.179487179487,4387.179487179487,4385.128205128206,4717.948717948719,4350.256410256411,4225.128205128206,4212.307692307693,4460.000000000001
1294.6125,0.17879836,0.2080064,0.25530225,0.49895567,0,0.0,0.0,0.0,0.0,0.0,0,0,0.0,0.0,0,0,46.0,0.0,0.0,4632.820512820514,3972.820512820513,4501.538461538462,4245.641025641026,4253.846153846154,4547.6923076923085,4420.512820512821,4402.564102564103,4395.384615384616,4721.025641025642,4364.102564102564,4241.025641025642,4205.128205128206,4484.102564102564
1294.6125,0.17879836,0.2080064,0.25530225,0.49895567,0,0.0,0.0,0.0,0.0,0.0,0,0,0.0,0.0,0,0,46.0,0.0,0.0,4632.820512820514,3972.820512820513,4501.538461538462,4245.641025641026,4253.846153846154,4547.6923076923085,4420.512820512821,4402.564102564103,4395.384615384616,4721.025641025642,4364.102564102564,4241.025641025642,4205.128205128206,4484.102564102564
1295.113,0.2235252,0.24748883,0.26143295,0.49697423,0,0.0,0.0,0.0,0.0,0.0,0,0,0.0,0.0,0,0,110.0,0.0,527.0,4615.384615384616,3950.7692307692314,4486.153846153847,4274.358974358975,4256.923076923077,4552.307692307693,4441.538461538462,4447.179487179487,4402.564102564103,4714.871794871796,4359.48717948718,4240.512820512821,4149.2307692307695,4482.051282051282
1295.3632,0.2235252,0.24748883,0.26143295,0.49697423,0,0.0,0.0,0.0,0.0,0.04219749,0,0,0.0,0.0,0,0,13.0,0.0,742.0,4624.615384615385,3949.7435897435903,4493.846153846154,4300.512820512821,4239.48717948718,4536.410256410257,4432.307692307693,4433.333333333334,4391.794871794872,4688.205128205129,4351.794871794872,4228.717948717949,4131.282051282052,4492.307692307693
1295.6134,0.25268576,0.24404116,0.266952,0.49519232,0,0.0,0.0,0.0,0.0,0.124227166,0,0,0.0,0.0,0,0,45.0,0.0,0.0,4648.205128205129,3945.1282051282055,4514.358974358975,4322.051282051282,4238.461538461539,4543.076923076924,4445.641025641026,4446.666666666667,4403.076923076924,4691.282051282052,4371.794871794872,4259.48717948718,4167.179487179487,4529.2307692307695
1295.7385,0.25268576,0.24404116,0.266952,0.49519232,0,0.0,0.0,0.0,0.0,0.0,0,0,0.0,0.0,0,0,61.0,0.0,0.0,4668.205128205129,3960.0000000000005,4524.615384615385,4351.794871794872,4234.358974358975,4540.512820512821,4423.076923076924,4433.846153846154,4402.051282051282,4702.051282051282,4394.358974358975,4273.333333333334,4185.128205128206,4543.589743589744
1296.1139,0.2798966,0.27913857,0.27192047,0.5014439,0,0.0,0.0,0.0,0.0,0.0,0,0,0.0,0.0,0,0,109.0,0.0,740.0,4650.769230769231,3963.589743589744,4531.794871794872,4380.512820512821,4252.307692307693,4560.000000000001,4470.769230769231,4466.153846153847,4415.8974358974365,4715.384615384616,4397.435897435898,4292.307692307693,4177.435897435898,4554.871794871796
1296.364,0.2798966,0.27913857,0.27192047,0.5014439,0,0.0,0.0,0.0,0.0,0.044617966,0,0,0.0,0.0,0,0,12.0,0.0,538.0,4637.435897435898,3954.358974358975,4500.512820512821,4370.769230769231,4237.948717948719,4548.205128205129,4453.333333333334,4457.435897435898,4413.333333333334,4716.410256410257,4362.051282051282,4272.307692307693,4152.820512820514,4528.717948717949
1296.6143,0.3332158,0.29955134,0.27281246,0.516153,0,0.0,0.0,0.0,0.0,0.0,0,0,0.0,0.0,0,0,44.0,0.0,0.0,4650.769230769231,3966.1538461538466,4514.358974358975,4386.666666666667,4242.564102564103,4550.769230769231,4455.8974358974365,4450.769230769231,4407.179487179487,4716.923076923077,4370.769230769231,4283.076923076924,4172.820512820514,4549.2307692307695
1296.6143,0.3332158,0.29955134,0.27281246,0.516153,0,0.0,0.0,0.0,0.0,0.0,0,0,0.0,0.0,0,0,44.0,0.0,0.0,4650.769230769231,3966.1538461538466,4514.358974358975,4386.666666666667,4242.564102564103,4550.769230769231,4455.8974358974365,4450.769230769231,4407.179487179487,4716.923076923077,4370.769230769231,4283.076923076924,4172.820512820514,4549.2307692307695
1297.1147,0.32583147,0.28641972,0.27061814,0.52939135,0,0.0,0.0,0.0,0.0,0.0,0,0,0.0,0.0,0,0,108.0,0.0,538.0,4644.615384615385,3956.410256410257,4523.589743589744,4398.974358974359,4241.025641025642,4552.307692307693,4455.8974358974365,4457.435897435898,4417.435897435898,4731.794871794872,4394.871794871796,4293.846153846154,4213.846153846154,4571.282051282052
1297.1147,0.32583147,0.28641972,0.27061814,0.52939135,0,0.0,0.0,0.0,0.0,0.0,0,0,0.0,0.0,0,0,108.0,0.0,538.0,4644.615384615385,3956.410256410257,4523.589743589744,4398.974358974359,4241.025641025642,4552.307692307693,4455.8974358974365,4457.435897435898,4417.435897435898,4731.794871794872,4394.871794871796,4293.846153846154,4213.846153846154,4571.282051282052
1297.6151,0.24275635,0.31558985,0.26578122,0.5437813,0,0.0,0.0,0.0,0.0,0.0,0,0,0.0,0.0,0,0,43.0,0.0,0.0,4646.666666666667,3955.8974358974365,4525.128205128206,4404.102564102564,4239.48717948718,4553.846153846154,4456.410256410257,4449.743589743591,4411.282051282052,4716.410256410257,4375.8974358974365,4281.025641025642,4185.128205128206,4558.461538461539
1297.6151,0.24275635,0.31558985,0.26578122,0.5437813,0,0.0,0.0,0.0,0.0,0.0,0,0,0.0,0.0,0,0,43.0,0.0,0.0,4646.666666666667,3955.8974358974365,4525.128205128206,4404.102564102564,4239.48717948718,4553.846153846154,4456.410256410257,4449.743589743591,4411.282051282052,4716.410256410257,4375.8974358974365,4281.025641025642,4185.128205128206,4558.461538461539
1298.1156,0.22026888,0.30572298,0.25976667,0.5567323,0,0.0,0.0,0.0,0.0,0.0,0,0,0.0,0.0,0,0,107.0,0.0,445.0,4672.307692307693,3973.333333333334,4534.358974358975,4417.948717948719,4237.435897435898,4545.641025641026,4457.435897435898,4453.333333333334,4415.8974358974365,4709.2307692307695,4364.615384615385,4288.717948717949,4190.256410256411,4563.589743589744
1298.1156,0.22026888,0.30572298,0.25976667,0.5567323,0,0.0,0.0,0.0,0.0,0.0,0,0,0.0,0.0,0,0,107.0,0.0,445.0,4672.307692307693,3973.333333333334,4534.358974358975,4417.948717948719,4237.435897435898,4545.641025641026,4457.435897435898,4453.333333333334,4415.8974358974365,4709.2307692307695,4364.615384615385,4288.717948717949,4190.256410256411,4563.589743589744
1298.616,0.22228186,0.30289704,0.25557256,0.5693431,0,0.0,0.0,0.0,0.0,0.0,0,0,0.0,0.0,0,0,42.0,0.0,0.0,4642.051282051282,3959.48717948718,4517.948717948719,4415.8974358974365,4244.615384615385,4552.307692307693,4457.435897435898,4450.256410256411,4405.641025641026,4688.717948717949,4334.358974358975,4259.48717948718,4155.8974358974365,4528.205128205129
1298.616,0.22228186,0.30289704,0.25557256,0.5693431,0,0.0,0.0,0.0,0.0,0.0,0,0,0.0,0.0,0,0,42.0,0.0,0.0,4642.051282051282,3959.48717948718,4517.948717948719,4415.8974358974365,4244.615384615385,4552.307692307693,4457.435897435898,4450.256410256411,4405.641025641026,4688.717948717949,4334.358974358975,4259.48717948718,4155.8974358974365,4528.205128205129
1299.1165,0.18822318,0.32682955,0.25071636,0.5771632,0,0.0,0.0,0.0,0.0,0.09397553,0,0,0.0,0.0,0,0,106.0,0.0,527.0,4651.282051282052,3963.589743589744,4527.6923076923085,4427.179487179487,4250.769230769231,4554.358974358975,4448.205128205129,4440.000000000001,4407.179487179487,4696.923076923077,4352.820512820514,4277.435897435898,4182.051282051282,4554.358974358975
1299.3667,0.18822318,0.32682955,0.25071636,0.5771632,0,0.0,0.0,0.0,0.0,0.0,0,0,0.0,0.0,0,0,9.0,0.0,459.0,4655.384615384616,3960.0000000000005,4532.820512820514,4428.717948717949,4247.6923076923085,4553.846153846154,4457.948717948719,4448.205128205129,4407.6923076923085,4708.205128205129,4361.538461538462,4286.153846153847,4187.179487179487,4556.923076923077
1299.6168,0.13827692,0.3055645,0.24540089,0.58773035,0,0.0,0.0,0.0,0.0,0.07373202,0,0,0.0,0.0,0,0,41.0,0.0,0.0,4651.794871794872,3962.0512820512827,4528.717948717949,4430.769230769231,4247.179487179487,4553.333333333334,4456.923076923077,4455.384615384616,4415.8974358974365,4722.564102564103,4374.871794871796,4293.333333333334,4197.948717948719,4551.794871794872
1299.8671,0.13827692,0.3055645,0.24540089,0.58773035,0,0.0,0.0,0.0,0.0,0.22044902,0,0,0.0,0.0,0,0,73.0,0.0,459.0,4614.358974358975,3957.435897435898,4534.871794871796,4432.307692307693,4247.6923076923085,4554.358974358975,4484.615384615385,4471.282051282052,4414.358974358975,4703.589743589744,4376.410256410257,4284.102564102564,4200.000000000001,4561.025641025642
1300.1173,0.09904852,0.30656412,0.24076642,0.5978445,0,0.0,0.0,0.0,0.0,0.27328423,0,0,0.0,0.0,0,0,105.0,0.0,734.0,4613.846153846154,3964.1025641025644,4536.410256410257,4436.410256410257,4249.74358974359,4556.923076923077,4475.384615384616,4457.948717948719,4419.48717948718,4733.333333333334,4385.641025641026,4294.871794871796,4211.794871794872,4553.846153846154
1300.3676,0.09904852,0.30656412,0.24076642,0.5978445,0,0.0,0.0,0.0,0.0,0.0940443,0,0,0.0,0.0,0,0,8.0,0.0,404.0,4638.974358974359,3952.307692307693,4535.8974358974365,4431.794871794872,4248.205128205129,4553.846153846154,4475.384615384616,4456.410256410257,4416.410256410257,4730.769230769231,4383.076923076924,4287.6923076923085,4209.74358974359,4558.974358974359
1300.6177,0.08696612,0.30549875,0.23739809,0.6069455,0,0.0,0.0,0.0,0.0,0.21861331,0,0,0.0,0.0,0,0,40.0,0.0,0.0,4657.435897435898,3960.5128205128212,4534.871794871796,4433.333333333334,4250.256410256411,4555.384615384616,4477.948717948719,4452.820512820514,4418.974358974359,4736.923076923077,4397.435897435898,4293.333333333334,4229.74358974359,4562.051282051282
1300.7428,0.08696612,0.30549875,0.23739809,0.6069455,0,0.0,0.0,0.0,0.0,0.0,0,0,0.0,0.0,0,0,56.0,0.0,0.0,4691.794871794872,3958.9743589743593,4556.923076923077,4439.48717948718,4232.820512820514,4536.923076923077,4471.794871794872,4440.512820512821,4407.6923076923085,4711.282051282052,4401.538461538462,4303.589743589744,4251.282051282052,4586.153846153847
1301.1182,0.039373055,0.3093075,0.23591733,0.61452776,0,0.0,0.0,0.0,0.0,0.0,0,0,0.0,0.0,0,0,104.0,0.0,538.0,4633.333333333334,3928.205128205129,4523.076923076924,4416.410256410257,4242.051282051282,4549.743589743591,4486.153846153847,4460.000000000001,4418.974358974359,4727.179487179488,4381.025641025642,4281.025641025642,4201.538461538462,4543.589743589744
1301.1182,0.039373055,0.3093075,0.23591733,0.61452776,0,0.0,0.0,0.0,0.0,0.0,0,0,0.0,0.0,0,0,104.0,0.0,538.0,4633.333333333334,3928.205128205129,4523.076923076924,4416.410256410257,4242.051282051282,4549.743589743591,4486.153846153847,4460.000000000001,4418.974358974359,4727.179487179488,4381.025641025642,4281.025641025642,4201.538461538462,4543.589743589744
1301.6185,0.011063619,0.3365018,0.2328187,0.62134933,0,0.0,0.0,0.0,0.0,0.0,0,0,0.0,0.0,0,0,39.0,0.0,0.0,4660.000000000001,3958.9743589743593,4541.538461538462,4429.743589743591,4234.871794871796,4540.512820512821,4463.589743589744,4443.076923076924,4408.205128205129,4700.512820512821,4371.794871794872,4282.051282051282,4184.102564102564,4543.589743589744
1301.8688,0.011063619,0.3365018,0.2328187,0.62134933,0,0.0,0.0,0.0,0.0,0.123208165,0,0,0.0,0.0,0,0,71.0,0.0,471.0,4671.282051282052,3960.0000000000005,4546.666666666667,4432.307692307693,4234.358974358975,4548.717948717949,4477.435897435898,4467.6923076923085,4426.666666666667,4711.794871794872,4397.435897435898,4290.769230769231,4194.358974358975,4564.615384615385
1302.119,0.0,0.37233603,0.23023851,0.62748605,0,0.0,0.0,0.0,0.0,0.1351045,0,0,0.0,0.0,0,0,103.0,0.0,445.0,4649.2307692307695,3934.358974358975,4535.384615384616,4418.974358974359,4246.153846153847,4557.435897435898,4478.974358974359,4477.435897435898,4423.076923076924,4750.769230769231,4401.538461538462,4303.076923076924,4225.641025641026,4560.512820512821
1302.3693,0.0,0.37233603,0.23023851,0.62748605,0,0.0,0.0,0.0,0.0,0.0,0,0,0.0,0.0,0,0,6.0,0.0,533.0,4667.6923076923085,3951.2820512820517,4547.179487179488,4429.2307692307695,4252.307692307693,4563.589743589744,4480.512820512821,4484.102564102564,4427.6923076923085,4743.589743589744,4403.076923076924,4316.923076923077,4238.461538461539,4578.974358974359
1302.6194,0.0,0.42669347,0.22968802,0.63300616,0,0.0,0.0,0.0,0.0,0.0,0,0,0.0,0.0,0,0,38.0,0.0,0.0,4654.358974358975,3968.205128205129,4542.564102564103,4438.974358974359,4246.666666666667,4557.948717948719,4463.076923076924,4456.923076923077,4404.102564102564,4700.512820512821,4363.076923076924,4282.051282051282,4182.051282051282,4554.358974358975
1302.8696,0.0,0.42669347,0.22968802,0.63300616,0,0.0,0.0,0.0,0.0,0.11293252,0,0,0.0,0.0,0,0,70.0,0.0,533.0,4652.307692307693,3973.333333333334,4538.974358974359,4436.923076923077,4262.051282051282,4570.256410256411,4464.102564102564,4465.128205128206,4421.025641025642,4733.333333333334,4379.48717948718,4298.974358974359,4213.846153846154,4554.358974358975
1303.1199,0.0,0.4512971,0.23147234,0.6397911,0,0.0,0.0,0.0,0.0,0.042071395,0,0,0.0,0.0,0,0,102.0,0.0,527.0,4650.769230769231,3965.1282051282055,4537.948717948719,4430.769230769231,4252.820512820514,4557.948717948719,4443.076923076924,4441.538461538462,4403.076923076924,4701.025641025642,4383.589743589744,4290.769230769231,4197.435897435898,4565.641025641026
1303.3701,0.0,0.4512971,0.23147234,0.6397911,0,0.0,0.0,0.0,0.0,0.086263336,0,0,0.0,0.0,0,0,5.0,0.0,544.0,4665.128205128206,4004.1025641025644,4568.205128205129,4464.102564102564,4237.948717948719,4560.512820512821,4464.102564102564,4472.820512820514,4419.48717948718,4710.769230769231,4402.051282051282,4318.974358974359,4200.512820512821,4582.051282051282
1303.6204,0.0,0.4711477,0.23540641,0.6543226,0,0.0,0.0,0.0,0.0,0.09413688,0,0,0.0,0.0,0,0,37.0,0.0,0.0,4649.2307692307695,3988.205128205129,4544.102564102564,4450.256410256411,4231.794871794872,4556.410256410257,4462.051282051282,4464.102564102564,4413.846153846154,4704.615384615386,4386.666666666667,4307.179487179487,4195.8974358974365,4567.179487179488
1303.8705,0.0,0.4711477,0.23540641,0.6543226,0,0.0,0.0,0.0,0.0,0.0,0,0,0.0,0.0,0,0,69.0,0.0,544.0,4653.333333333334,3988.205128205129,4540.512820512821,4449.743589743591,4227.6923076923085,4550.769230769231,4458.974358974359,4451.282051282052,4414.358974358975,4711.794871794872,4391.794871794872,4304.102564102564,4196.410256410257,4577.948717948719
1304.1207,0.0,0.46950588,0.23667091,0.667393,0,0.0,0.0,0.0,0.0,0.0,0,0,0.0,0.0,0,0,101.0,0.0,738.0,4647.179487179488,3985.6410256410263,4535.8974358974365,4448.205128205129,4228.717948717949,4549.2307692307695,4468.717948717949,4448.205128205129,4408.205128205129,4701.538461538462,4366.666666666667,4298.461538461539,4178.974358974359,4565.641025641026
1304.371,0.0,0.46950588,0.23667091,0.667393,0,0.0,0.0,0.0,0.0,0.09935268,0,0,0.0,0.0,0,0,4.0,0.0,546.0,4642.564102564103,3976.410256410257,4520.512820512821,4444.615384615385,4235.8974358974365,4555.8974358974365,4466.666666666667,4455.384615384616,4413.846153846154,4717.948717948719,4364.615384615385,4294.358974358975,4200.000000000001,4570.256410256411
1304.6212,0.0,0.4559374,0.23781115,0.67646265,0,0.0,0.0,0.0,0.0,0.089358136,0,0,0.0,0.0,0,0,36.0,0.0,0.0,4629.2307692307695,3978.9743589743593,4514.358974358975,4433.333333333334,4236.410256410257,4552.307692307693,4465.128205128206,4444.102564102564,4410.256410256411,4705.128205128206,4364.615384615385,4277.948717948719,4186.153846153847,4560.000000000001
1304.7462,0.0,0.4559374,0.23781115,0.67646265,0,0.0,0.0,0.0,0.0,0.0,0,0,0.0,0.0,0,0,52.0,0.0,0.0,4619.48717948718,3969.2307692307695,4515.384615384616,4436.923076923077,4240.000000000001,4555.8974358974365,4467.179487179487,4439.48717948718,4403.076923076924,4689.2307692307695,4351.282051282052,4268.717948717949,4178.461538461539,4548.205128205129
1305.1216,0.0,0.43503857,0.23883414,0.697135,0,0.0,0.0,0.0,0.0,0.0,0,0,0.0,0.0,0,0,100.0,0.0,538.0,4593.333333333334,3937.435897435898,4495.384615384616,4408.717948717949,4235.384615384616,4548.717948717949,4458.461538461539,4430.769230769231,4396.923076923077,4682.564102564103,4330.769230769231,4244.102564102564,4174.871794871796,4526.666666666667
1305.3718,0.0,0.43503857,0.23883414,0.697135,0,0.0,0.0,0.0,0.0,0.04187082,0,0,0.0,0.0,0,0,3.0,0.0,527.0,4622.051282051282,3962.564102564103,4522.564102564103,4431.282051282052,4247.179487179487,4563.076923076924,4477.948717948719,4462.564102564103,4416.410256410257,4700.000000000001,4336.923076923077,4282.564102564103,4194.358974358975,4553.846153846154
1305.6221,0.026125709,0.3948953,0.23557314,0.7180836,0,0.0,0.0,0.0,0.0,0.0,0,0,0.0,0.0,0,0,35.0,0.0,0.0,4627.179487179488,3952.820512820513,4506.153846153847,4420.512820512821,4239.48717948718,4550.256410256411,4451.282051282052,4434.358974358975,4412.820512820514,4710.256410256411,4325.641025641026,4277.948717948719,4195.384615384616,4547.179487179488
1305.6221,0.026125709,0.3948953,0.23557314,0.7180836,0,0.0,0.0,0.0,0.0,0.0,0,0,0.0,0.0,0,0,35.0,0.0,0.0,4627.179487179488,3952.820512820513,4506.153846153847,4420.512820512821,4239.48717948718,4550.256410256411,4451.282051282052,4434.358974358975,4412.820512820514,4710.256410256411,4325.641025641026,4277.948717948719,4195.384615384616,4547.179487179488
1306.1224,0.053545974,0.35113737,0.2301392,0.7286613,0,0.0,0.0,0.0,0.0,0.0,0,0,0.0,0.0,0,0,99.0,0.0,445.0,4661.025641025642,3970.7692307692314,4521.025641025642,4434.871794871796,4227.6923076923085,4538.974358974359,4457.435897435898,4430.256410256411,4409.2307692307695,4689.2307692307695,4317.948717948719,4287.179487179487,4194.358974358975,4574.358974358975
1306.1224,0.053545974,0.35113737,0.2301392,0.7286613,0,0.0,0.0,0.0,0.0,0.0,0,0,0.0,0.0,0,0,99.0,0.0,445.0,4661.025641025642,3970.7692307692314,4521.025641025642,4434.871794871796,4227.6923076923085,4538.974358974359,4457.435897435898,4430.256410256411,4409.2307692307695,4689.2307692307695,4317.948717948719,4287.179487179487,4194.358974358975,4574.358974358975
1306.6229,0.008303998,0.32315522,0.22525148,0.7195777,0,0.0,0.0,0.0,0.0,0.0,0,0,0.0,0.0,0,0,34.0,0.0,0.0,4625.128205128206,3938.461538461539,4497.435897435898,4406.153846153847,4228.205128205129,4538.974358974359,4442.051282051282,4426.153846153847,4403.076923076924,4683.589743589744,4296.410256410257,4253.333333333334,4169.74358974359,4547.6923076923085
1306.6229,0.008303998,0.32315522,0.22525148,0.7195777,0,0.0,0.0,0.0,0.0,0.0,0,0,0.0,0.0,0,0,34.0,0.0,0.0,4625.128205128206,3938.461538461539,4497.435897435898,4406.153846153847,4228.205128205129,4538.974358974359,4442.051282051282,4426.153846153847,4403.076923076924,4683.589743589744,4296.410256410257,4253.333333333334,4169.74358974359,4547.6923076923085
1307.1233,0.04268777,0.31981587,0.22116917,0.71019936,0,0.0,0.0,0.0,0.0,0.0,0,0,0.0,0.0,0,0,75.0,0.0,445.0,4644.615384615385,3945.6410256410263,4507.6923076923085,4416.923076923077,4250.769230769231,4553.333333333334,4469.743589743591,4463.589743589744,4416.410256410257,4725.641025641026,4329.2307692307695,4289.74358974359,4204.615384615385,4565.128205128206
1307.1233,0.04268777,0.31981587,0.22116917,0.71019936,0,0.0,0.0,0.0,0.0,0.0,0,0,0.0,0.0,0,0,98.0,0.0,527.0,4639.48717948718,3932.307692307693,4501.025641025642,4409.2307692307695,4242.051282051282,4545.128205128206,4462.564102564103,4438.461538461539,4409.743589743591,4705.128205128206,4333.846153846154,4274.871794871796,4205.128205128206,4556.923076923077
1307.6238,0.0,0.32417613,0.21749814,0.7003463,0,0.0,0.0,0.0,0.0,0.09756736,0,0,0.0,0.0,0,0,33.0,0.0,0.0,4636.410256410257,3945.6410256410263,4517.435897435898,4417.948717948719,4243.589743589744,4542.051282051282,4464.615384615385,4443.589743589744,4410.256410256411,4692.820512820514,4316.923076923077,4267.6923076923085,4179.48717948718,4552.307692307693
1307.8739,0.0,0.32417613,0.21749814,0.7003463,0,0.0,0.0,0.0,0.0,0.039888013,0,0,0.0,0.0,0,0,65.0,0.0,483.0,4633.846153846154,3958.461538461539,4512.307692307693,4429.2307692307695,4248.205128205129,4552.307692307693,4465.128205128206,4458.461538461539,4410.769230769231,4698.974358974359,4336.923076923077,4273.846153846154,4188.205128205129,4561.025641025642
1308.1241,0.0,0.3192512,0.21629138,0.6809075,0,0.0,0.0,0.0,0.0,0.0,0,0,0.0,0.0,0,0,97.0,0.0,731.0,4624.102564102564,3953.8461538461543,4515.384615384616,4432.820512820514,4261.538461538462,4567.179487179488,4469.743589743591,4462.564102564103,4421.538461538462,4734.871794871796,4352.307692307693,4291.282051282052,4214.871794871796,4560.512820512821
1308.1241,0.0,0.3192512,0.21629138,0.6809075,0,0.0,0.0,0.0,0.0,0.0,0,0,0.0,0.0,0,0,97.0,0.0,731.0,4624.102564102564,3953.8461538461543,4515.384615384616,4432.820512820514,4261.538461538462,4567.179487179488,4469.743589743591,4462.564102564103,4421.538461538462,4734.871794871796,4352.307692307693,4291.282051282052,4214.871794871796,4560.512820512821
1308.6246,0.0,0.32106358,0.216521,0.66341734,0,0.0,0.0,0.0,0.0,0.0,0,0,0.0,0.0,0,0,22.0,0.0,0.0,4684.615384615386,3982.0512820512827,4526.666666666667,4447.179487179487,4238.974358974359,4541.025641025642,4463.076923076924,4445.128205128206,4411.794871794872,4695.384615384616,4364.615384615385,4305.641025641026,4221.538461538462,4589.2307692307695
1308.8749,0.0,0.32106358,0.216521,0.66341734,0,0.0,0.0,0.0,0.0,0.090584256,0,0,0.0,0.0,0,0,64.0,0.0,488.0,4653.333333333334,3955.3846153846157,4527.6923076923085,4440.000000000001,4240.512820512821,4547.179487179488,4485.641025641026,4470.256410256411,4413.846153846154,4693.333333333334,4348.205128205129,4296.410256410257,4185.128205128206,4551.794871794872
1309.125,0.0,0.31930944,0.21761534,0.64767885,0,0.0,0.0,0.0,0.0,0.023149105,0,0,0.0,0.0,0,0,96.0,0.0,538.0,4651.794871794872,3969.7435897435903,4517.948717948719,4444.102564102564,4240.512820512821,4548.205128205129,4458.974358974359,4454.358974358975,4415.8974358974365,4711.794871794872,4342.564102564103,4281.538461538462,4197.435897435898,4541.538461538462
1309.3752,0.0,0.31930944,0.21761534,0.64767885,0,0.0,0.0,0.0,0.0,0.032813963,0,0,0.0,0.0,0,0,128.0,0.0,538.0,4658.974358974359,3955.3846153846157,4520.512820512821,4443.076923076924,4247.179487179487,4554.871794871796,4474.871794871796,4459.48717948718,4418.974358974359,4718.461538461539,4353.333333333334,4290.769230769231,4204.102564102564,4544.102564102564
1309.6255,0.007393474,0.31373852,0.2213394,0.63351566,0,0.0,0.0,0.0,0.0,0.0,0,0,0.0,0.0,0,0,31.0,0.0,0.0,4670.256410256411,3958.9743589743593,4530.256410256411,4451.282051282052,4249.2307692307695,4558.461538461539,4477.948717948719,4472.307692307693,4422.051282051282,4721.538461538462,4360.000000000001,4289.74358974359,4204.102564102564,4543.076923076924
1309.6255,0.007393474,0.31373852,0.2213394,0.63351566,0,0.0,0.0,0.0,0.0,0.0,0,0,0.0,0.0,0,0,31.0,0.0,0.0,4670.256410256411,3958.9743589743593,4530.256410256411,4451.282051282052,4249.2307692307695,4558.461538461539,4477.948717948719,4472.307692307693,4422.051282051282,4721.538461538462,4360.000000000001,4289.74358974359,4204.102564102564,4543.076923076924
1310.1259,0.008759,0.32675493,0.22768843,0.61986166,0,0.0,0.0,0.0,0.0,0.0,0,0,0.0,0.0,0,0,79.0,0.0,445.0,4702.564102564103,3973.333333333334,4533.846153846154,4447.179487179487,4229.74358974359,4536.923076923077,4457.435897435898,4447.179487179487,4409.743589743591,4700.000000000001,4367.6923076923085,4290.256410256411,4235.384615384616,4565.128205128206
1310.3761,0.008759,0.32675493,0.22768843,0.61986166,0,0.0,0.0,0.0,0.0,0.079283684,0,0,0.0,0.0,0,0,127.0,0.0,445.0,4646.153846153847,3938.461538461539,4509.743589743591,4421.025641025642,4250.256410256411,4555.8974358974365,4476.410256410257,4480.512820512821,4429.743589743591,4733.333333333334,4358.461538461539,4273.846153846154,4213.333333333334,4519.48717948718
1310.6263,0.0,0.31135795,0.23497505,0.6030974,0,0.0,0.0,0.0,0.0,0.027859027,0,0,0.0,0.0,0,0,30.0,0.0,0.0,4642.051282051282,3947.1794871794878,4505.128205128206,4427.6923076923085,4259.48717948718,4561.538461538462,4467.6923076923085,4454.358974358975,4415.384615384616,4701.538461538462,4343.589743589744,4254.358974358975,4198.461538461539,4513.333333333334
1310.8766,0.0,0.31135795,0.23497505,0.6030974,0,0.0,0.0,0.0,0.0,0.0,0,0,0.0,0.0,0,0,62.0,0.0,0.0,4633.846153846154,3931.7948717948725,4493.333333333334,4409.2307692307695,4245.641025641026,4548.717948717949,4439.48717948718,4440.000000000001,4407.6923076923085,4701.025641025642,4328.717948717949,4238.974358974359,4186.153846153847,4500.000000000001
1311.1267,0.047185574,0.3049798,0.24831957,0.58311933,0,0.0,0.0,0.0,0.0,0.0,0,0,0.0,0.0,0,0,94.0,0.0,527.0,4653.846153846154,3936.410256410257,4516.410256410257,4417.948717948719,4250.256410256411,4552.820512820514,4449.2307692307695,4459.48717948718,4422.564102564103,4731.794871794872,4349.743589743591,4252.820512820514,4218.974358974359,4515.8974358974365
1311.1267,0.047185574,0.3049798,0.24831957,0.58311933,0,0.0,0.0,0.0,0.0,0.0,0,0,0.0,0.0,0,0,94.0,0.0,527.0,4653.846153846154,3936.410256410257,4516.410256410257,4417.948717948719,4250.256410256411,4552.820512820514,4449.2307692307695,4459.48717948718,4422.564102564103,4731.794871794872,4349.743589743591,4252.820512820514,4218.974358974359,4515.8974358974365
1311.6272,0.031992443,0.2894474,0.26869914,0.5651389,0,0.0,0.0,0.0,0.0,0.0,0,0,0.0,0.0,0,0,114.0,0.0,527.0,4647.6923076923085,3941.0256410256416,4508.205128205129,4421.025641025642,4250.256410256411,4553.846153846154,4448.205128205129,4449.2307692307695,4414.358974358975,4722.051282051282,4347.179487179487,4246.666666666667,4214.358974358975,4521.538461538462
1311.6272,0.031992443,0.2894474,0.26869914,0.5651389,0,0.0,0.0,0.0,0.0,0.0,0,0,0.0,0.0,0,0,29.0,0.0,0.0,4644.102564102564,3938.461538461539,4502.564102564103,4410.769230769231,4240.512820512821,4540.000000000001,4432.820512820514,4428.205128205129,4402.051282051282,4690.769230769231,4330.256410256411,4226.666666666667,4198.461538461539,4516.923076923077
1312.1276,0.022292726,0.26264632,0.28704172,0.5489562,0,0.0,0.0,0.0,0.0,0.0,0,0,0.0,0.0,0,0,51.0,0.0,0.0,4651.282051282052,3946.1538461538466,4510.769230769231,4411.794871794872,4233.846153846154,4532.307692307693,4440.512820512821,4441.538461538462,4405.128205128206,4689.743589743591,4346.153846153847,4236.923076923077,4213.333333333334,4536.923076923077
1312.1276,0.022292726,0.26264632,0.28704172,0.5489562,0,0.0,0.0,0.0,0.0,0.0,0,0,0.0,0.0,0,0,93.0,0.0,737.0,4655.8974358974365,3960.0000000000005,4531.794871794872,4418.974358974359,4237.948717948719,4540.512820512821,4450.256410256411,4443.076923076924,4408.717948717949,4708.717948717949,4353.846153846154,4248.717948717949,4201.025641025642,4551.794871794872
1312.628,0.055144258,0.24630113,0.30355087,0.54060805,0,0.0,0.0,0.0,0.0,0.0,0,0,0.0,0.0,0,0,114.0,0.0,527.0,4661.025641025642,3962.0512820512827,4538.974358974359,4424.615384615385,4246.153846153847,4552.820512820514,4449.743589743591,4455.8974358974365,4409.2307692307695,4719.48717948718,4380.000000000001,4263.589743589744,4223.076923076924,4568.717948717949
1312.628,0.055144258,0.24630113,0.30355087,0.54060805,0,0.0,0.0,0.0,0.0,0.0,0,0,0.0,0.0,0,0,28.0,0.0,0.0,4677.948717948719,3958.9743589743593,4537.435897435898,4425.641025641026,4240.000000000001,4541.025641025642,4459.48717948718,4467.179487179487,4410.769230769231,4709.743589743591,4370.256410256411,4265.641025641026,4213.846153846154,4566.153846153847
1313.1284,0.05834935,0.2330454,0.31177184,0.533095,0,0.0,0.0,0.0,0.0,0.0,0,0,0.0,0.0,0,0,54.0,0.0,0.0,4666.153846153847,3958.9743589743593,4530.256410256411,4423.589743589744,4241.025641025642,4544.615384615385,4470.769230769231,4466.666666666667,4416.410256410257,4720.512820512821,4379.48717948718,4282.564102564103,4221.538461538462,4574.358974358975
1313.1284,0.05834935,0.2330454,0.31177184,0.533095,0,0.0,0.0,0.0,0.0,0.0,0,0,0.0,0.0,0,0,92.0,0.0,538.0,4638.461538461539,3958.461538461539,4520.000000000001,4418.974358974359,4244.102564102564,4541.025641025642,4457.948717948719,4434.358974358975,4403.076923076924,4692.307692307693,4353.333333333334,4241.538461538462,4187.6923076923085,4552.820512820514
1313.6289,0.13809994,0.25865525,0.31339365,0.5318259,0,0.0,0.0,0.0,0.0,1.0,0,0,0.0,0.0,0,0,27.0,0.0,0.0,4847.179487179488,3967.1794871794878,4514.871794871796,4435.8974358974365,4246.666666666667,4542.564102564103,4460.512820512821,4453.846153846154,4414.871794871796,4714.358974358975,4375.384615384616,4277.435897435898,4208.205128205129,4555.384615384616
1313.8792,0.13809994,0.25865525,0.31339365,0.5318259,0,0.0,0.0,0.0,0.0,0.23093325,0,0,0.0,0.0,0,0,59.0,0.0,0.0,4860.000000000001,3984.615384615385,4533.846153846154,4440.512820512821,4229.2307692307695,4531.282051282052,4452.307692307693,4453.333333333334,4413.846153846154,4689.2307692307695,4399.48717948718,4278.461538461539,4242.051282051282,4581.538461538462
1314.0043,0.13809994,0.25865525,0.31339365,0.5318259,0,0.0,0.0,0.0,0.0,0.13815461,0,0,0.0,0.0,0,0,75.0,0.0,444.0,4805.128205128206,3946.666666666667,4521.025641025642,4422.564102564103,4227.179487179487,4529.743589743591,4447.6923076923085,4438.461538461539,4401.025641025642,4696.410256410257,4358.974358974359,4245.641025641026,4185.128205128206,4546.153846153847
1314.3795,0.18520208,0.33007,0.3148573,0.53387076,0,0.0,0.0,0.0,0.0,0.20957273,0,0,0.0,0.0,0,0,123.0,0.0,444.0,4762.564102564103,3952.820512820513,4514.871794871796,4412.820512820514,4240.000000000001,4543.076923076924,4453.846153846154,4449.2307692307695,4413.333333333334,4707.179487179488,4354.358974358975,4245.641025641026,4188.717948717949,4534.358974358975
1314.5046,0.18520208,0.33007,0.3148573,0.53387076,0,0.0,0.0,0.0,0.0,0.2257916,0,0,0.0,0.0,0,0,10.0,0.0,527.0,4757.435897435898,3956.9230769230776,4508.205128205129,4412.820512820514,4248.205128205129,4550.769230769231,4455.384615384616,4447.6923076923085,4414.871794871796,4703.076923076924,4376.923076923077,4250.769230769231,4197.435897435898,4527.6923076923085
1314.7549,0.19632532,0.36302403,0.31617454,0.5357114,0,0.0,0.0,0.0,0.0,0.27191582,0,0,0.0,0.0,0,0,42.0,0.0,0.0,4746.666666666667,3967.692307692308,4516.410256410257,4423.589743589744,4245.641025641026,4553.846153846154,4473.846153846154,4466.666666666667,4417.435897435898,4702.051282051282,4365.128205128206,4248.205128205129,4190.769230769231,4529.2307692307695
1314.88,0.19632532,0.36302403,0.31617454,0.5357114,0,0.0,0.0,0.0,0.0,0.0,0,0,0.0,0.0,0,0,58.0,0.0,0.0,4730.256410256411,3966.1538461538466,4525.128205128206,4418.974358974359,4249.74358974359,4554.358974358975,4473.333333333334,4446.153846153847,4405.641025641026,4691.282051282052,4376.923076923077,4250.769230769231,4198.461538461539,4529.2307692307695
1315.3491,0.14357902,0.38853174,0.31789413,0.537368,0,0.0,0.0,0.0,0.0,0.0,0,0,0.0,0.0,0,0,118.0,0.0,527.0,4712.307692307693,3959.48717948718,4525.128205128206,4426.666666666667,4245.128205128206,4550.769230769231,4467.6923076923085,4445.128205128206,4405.641025641026,4695.8974358974365,4371.282051282052,4245.641025641026,4196.923076923077,4548.717948717949
1315.3491,0.14357902,0.38853174,0.31789413,0.537368,0,0.0,0.0,0.0,0.0,0.0,0,0,0.0,0.0,0,0,118.0,0.0,527.0,4712.307692307693,3959.48717948718,4525.128205128206,4426.666666666667,4245.128205128206,4550.769230769231,4467.6923076923085,4445.128205128206,4405.641025641026,4695.8974358974365,4371.282051282052,4245.641025641026,4196.923076923077,4548.717948717949
1315.8809,0.058835518,0.36698046,0.3194421,0.5388592,0,0.0,0.0,0.0,0.0,0.088453695,0,0,0.0,0.0,0,0,57.0,0.0,0.0,4672.307692307693,3954.8717948717954,4527.6923076923085,4416.923076923077,4246.153846153847,4553.846153846154,4488.205128205129,4478.461538461539,4416.410256410257,4713.333333333334,4375.384615384616,4254.871794871796,4188.205128205129,4549.2307692307695
1316.006,0.058835518,0.36698046,0.3194421,0.5388592,0,0.0,0.0,0.0,0.0,0.09240103,0,0,0.0,0.0,0,0,73.0,0.0,460.0,4671.282051282052,3960.5128205128212,4532.307692307693,4428.205128205129,4235.384615384616,4548.717948717949,4468.717948717949,4455.8974358974365,4407.179487179487,4700.512820512821,4378.461538461539,4237.435897435898,4195.8974358974365,4557.948717948719
1316.3812,0.017468616,0.34843814,0.32083553,0.54020154,0,0.0,0.0,0.0,0.0,0.0,0,0,0.0,0.0,0,0,115.0,0.0,444.0,4656.923076923077,3950.7692307692314,4525.128205128206,4421.538461538462,4241.538461538462,4549.743589743591,4456.923076923077,4451.282051282052,4406.153846153847,4691.794871794872,4363.589743589744,4240.000000000001,4194.358974358975,4547.6923076923085
1316.3812,0.017468616,0.34843814,0.32083553,0.54020154,0,0.0,0.0,0.0,0.0,0.0,0,0,0.0,0.0,0,0,121.0,0.0,734.0,4658.461538461539,3954.8717948717954,4529.2307692307695,4422.051282051282,4243.589743589744,4553.333333333334,4464.615384615385,4458.974358974359,4410.256410256411,4690.769230769231,4368.717948717949,4232.820512820514,4197.435897435898,4549.743589743591
1316.6315,0.024057785,0.3287055,0.32006142,0.5414092,0,0.0,0.0,0.0,0.0,0.0,0,0,0.0,0.0,0,0,24.0,0.0,0.0,4655.384615384616,3935.8974358974365,4515.8974358974365,4417.435897435898,4236.410256410257,4541.538461538462,4463.076923076924,4450.256410256411,4408.205128205129,4684.102564102564,4343.589743589744,4231.794871794872,4186.666666666667,4542.051282051282
1316.6315,0.024057785,0.3287055,0.32006142,0.5414092,0,0.0,0.0,0.0,0.0,0.0,0,0,0.0,0.0,0,0,24.0,0.0,0.0,4655.384615384616,3935.8974358974365,4515.8974358974365,4417.435897435898,4236.410256410257,4541.538461538462,4463.076923076924,4450.256410256411,4408.205128205129,4684.102564102564,4343.589743589744,4231.794871794872,4186.666666666667,4542.051282051282
1317.2883,0.049631283,0.3065193,0.31588164,0.5380924,1,0.0,0.0,0.0,0.0,0.0,0,0,0.0,0.0,0,0,108.0,0.0,538.0,4681.538461538462,3955.8974358974365,4537.435897435898,4427.6923076923085,4229.2307692307695,4534.358974358975,4451.794871794872,4442.051282051282,4407.6923076923085,4670.256410256411,4385.641025641026,4244.102564102564,4216.923076923077,4579.48717948718
1317.5072,0.049631283,0.3065193,0.31588164,0.5380924,0,0.0,0.0,0.0,0.0,0.11417022,0,0,0.0,0.0,0,0,7.0,0.0,471.0,4673.846153846154,3966.1538461538466,4541.025641025642,4429.743589743591,4253.846153846154,4557.948717948719,4482.051282051282,4461.025641025642,4414.358974358975,4691.794871794872,4367.6923076923085,4261.025641025642,4211.282051282052,4569.743589743591
1317.8826,0.031080918,0.28401658,0.3105734,0.5351075,0,0.0,0.0,0.0,0.0,0.023553034,0,0,0.0,0.0,0,0,55.0,0.0,0.0,4663.589743589744,3945.1282051282055,4542.564102564103,4421.538461538462,4250.256410256411,4552.820512820514,4462.051282051282,4449.743589743591,4403.076923076924,4688.205128205129,4355.8974358974365,4236.410256410257,4192.307692307693,4570.256410256411
1318.0077,0.031080918,0.28401658,0.3105734,0.5351075,0,0.0,0.0,0.0,0.0,0.058905013,0,0,0.0,0.0,0,0,71.0,0.0,471.0,4655.384615384616,3946.1538461538466,4529.2307692307695,4416.923076923077,4242.564102564103,4544.615384615385,4468.717948717949,4445.128205128206,4400.000000000001,4698.974358974359,4365.641025641026,4236.923076923077,4196.410256410257,4574.358974358975
1318.1328,0.025971932,0.25506032,0.30519757,0.53688574,0,0.0,0.0,0.0,0.0,0.0,0,0,0.0,0.0,0,0,87.0,0.0,444.0,4657.948717948719,3957.9487179487182,4533.333333333334,4417.948717948719,4252.307692307693,4553.846153846154,4476.923076923077,4464.615384615385,4407.179487179487,4711.794871794872,4362.051282051282,4282.051282051282,4204.102564102564,4578.461538461539
1318.1328,0.025971932,0.25506032,0.30519757,0.53688574,0,0.0,0.0,0.0,0.0,0.0,0,0,0.0,0.0,0,0,87.0,0.0,444.0,4657.948717948719,3957.9487179487182,4533.333333333334,4417.948717948719,4252.307692307693,4553.846153846154,4476.923076923077,4464.615384615385,4407.179487179487,4711.794871794872,4362.051282051282,4282.051282051282,4204.102564102564,4578.461538461539
1318.6332,0.009931923,0.23476012,0.30068862,0.5441651,0,0.0,0.0,0.0,0.0,0.0,0,0,0.0,0.0,0,0,22.0,0.0,0.0,4651.282051282052,3963.076923076924,4530.769230769231,4433.333333333334,4242.564102564103,4540.000000000001,4470.769230769231,4457.948717948719,4406.666666666667,4697.948717948719,4379.48717948718,4280.000000000001,4207.6923076923085,4575.384615384616
1318.6332,0.009931923,0.23476012,0.30068862,0.5441651,0,0.0,0.0,0.0,0.0,0.0,0,0,0.0,0.0,0,0,22.0,0.0,0.0,4651.282051282052,3963.076923076924,4530.769230769231,4433.333333333334,4242.564102564103,4540.000000000001,4470.769230769231,4457.948717948719,4406.666666666667,4697.948717948719,4379.48717948718,4280.000000000001,4207.6923076923085,4575.384615384616
1319.1337,0.012259219,0.21395598,0.295566,0.554161,0,0.0,0.0,0.0,0.0,0.0,0,0,0.0,0.0,0,0,86.0,0.0,527.0,4627.6923076923085,3952.307692307693,4541.538461538462,4430.769230769231,4241.025641025642,4541.538461538462,4463.076923076924,4447.6923076923085,4405.128205128206,4707.6923076923085,4375.384615384616,4271.794871794872,4214.358974358975,4561.538461538462
1319.1337,0.012259219,0.21395598,0.295566,0.554161,0,0.0,0.0,0.0,0.0,0.0,0,0,0.0,0.0,0,0,86.0,0.0,527.0,4627.6923076923085,3952.307692307693,4541.538461538462,4430.769230769231,4241.025641025642,4541.538461538462,4463.076923076924,4447.6923076923085,4405.128205128206,4707.6923076923085,4375.384615384616,4271.794871794872,4214.358974358975,4561.538461538462
1319.634,0.039908163,0.18708459,0.28843185,0.5631573,0,0.0,0.0,0.0,0.0,0.0,0,0,0.0,0.0,0,0,21.0,0.0,0.0,4623.076923076924,3946.666666666667,4521.025641025642,4423.076923076924,4230.769230769231,4536.923076923077,4468.205128205129,4444.615384615385,4403.589743589744,4693.333333333334,4368.205128205129,4270.256410256411,4214.871794871796,4552.307692307693
1319.634,0.039908163,0.18708459,0.28843185,0.5631573,0,0.0,0.0,0.0,0.0,0.0,0,0,0.0,0.0,0,0,21.0,0.0,0.0,4623.076923076924,3946.666666666667,4521.025641025642,4423.076923076924,4230.769230769231,4536.923076923077,4468.205128205129,4444.615384615385,4403.589743589744,4693.333333333334,4368.205128205129,4270.256410256411,4214.871794871796,4552.307692307693
1320.1345,0.03008667,0.1711685,0.28111222,0.57130367,0,0.0,0.0,0.0,0.0,0.0,0,0,0.0,0.0,0,0,85.0,0.0,736.0,4635.384615384616,3956.410256410257,4534.871794871796,4427.179487179487,4245.128205128206,4549.2307692307695,4458.461538461539,4444.615384615385,4403.589743589744,4706.153846153847,4374.871794871796,4264.615384615385,4195.384615384616,4552.307692307693
1320.5724,0.03008667,0.1711685,0.28111222,0.57130367,1,0.0,0.0,0.0,0.0,0.0,0,0,0.0,0.0,0,0,12.0,0.0,538.0,4642.051282051282,3967.692307692308,4529.2307692307695,4434.871794871796,4251.282051282052,4553.333333333334,4457.948717948719,4442.564102564103,4406.666666666667,4701.538461538462,4381.025641025642,4265.641025641026,4214.871794871796,4574.358974358975
1320.8851,0.0,0.17946748,0.27452585,0.56947637,0,0.0,0.0,0.0,0.0,0.117758535,0,0,0.0,0.0,0,0,48.0,0.0,0.0,4647.179487179488,3966.1538461538466,4533.333333333334,4443.589743589744,4260.512820512821,4561.025641025642,4461.025641025642,4454.358974358975,4416.410256410257,4732.307692307693,4396.410256410257,4267.179487179487,4207.179487179487,4578.974358974359
1321.0103,0.0,0.17946748,0.27452585,0.56947637,0,0.0,0.0,0.0,0.0,0.07288673,0,0,0.0,0.0,0,0,68.0,0.0,546.0,4634.871794871796,3959.48717948718,4521.538461538462,4429.2307692307695,4254.871794871796,4555.8974358974365,4462.564102564103,4434.871794871796,4404.102564102564,4706.153846153847,4371.282051282052,4249.2307692307695,4192.307692307693,4566.153846153847
1321.1354,0.0,0.18308496,0.27023843,0.5678314,0,0.0,0.0,0.0,0.0,0.0,0,0,0.0,0.0,0,0,84.0,0.0,538.0,4647.179487179488,3961.538461538462,4522.051282051282,4437.435897435898,4255.384615384616,4553.333333333334,4465.128205128206,4434.358974358975,4405.128205128206,4715.384615384616,4373.846153846154,4253.333333333334,4196.923076923077,4557.435897435898
1321.1354,0.0,0.18308496,0.27023843,0.5678314,0,0.0,0.0,0.0,0.0,0.0,0,0,0.0,0.0,0,0,84.0,0.0,538.0,4647.179487179488,3961.538461538462,4522.051282051282,4437.435897435898,4255.384615384616,4553.333333333334,4465.128205128206,4434.358974358975,4405.128205128206,4715.384615384616,4373.846153846154,4253.333333333334,4196.923076923077,4557.435897435898
1321.6357,0.0,0.19380273,0.2654452,0.56456685,0,0.0,0.0,0.0,0.0,0.0,0,0,0.0,0.0,0,0,19.0,0.0,0.0,4651.282051282052,3963.076923076924,4534.871794871796,4445.641025641026,4249.2307692307695,4555.384615384616,4471.794871794872,4459.48717948718,4421.025641025642,4732.307692307693,4389.2307692307695,4270.256410256411,4206.153846153847,4568.717948717949
1321.6357,0.0,0.19380273,0.2654452,0.56456685,0,0.0,0.0,0.0,0.0,0.0,0,0,0.0,0.0,0,0,19.0,0.0,0.0,4651.282051282052,3963.076923076924,4534.871794871796,4445.641025641026,4249.2307692307695,4555.384615384616,4471.794871794872,4459.48717948718,4421.025641025642,4732.307692307693,4389.2307692307695,4270.256410256411,4206.153846153847,4568.717948717949
1322.1362,0.0125239035,0.19880594,0.26039037,0.56162846,0,0.0,0.0,0.0,0.0,0.0,0,0,0.0,0.0,0,0,83.0,0.0,444.0,4664.615384615386,3964.615384615385,4531.282051282052,4445.641025641026,4253.846153846154,4560.512820512821,4481.025641025642,4479.48717948718,4417.948717948719,4727.6923076923085,4387.6923076923085,4284.615384615385,4209.74358974359,4596.923076923077
1322.5116,0.0125239035,0.19880594,0.26039037,0.56162846,0,0.0,0.0,0.0,0.0,0.12229698,0,0,0.0,0.0,0,0,2.0,0.0,435.0,4640.512820512821,3942.0512820512827,4513.846153846154,4417.948717948719,4235.384615384616,4540.512820512821,4473.846153846154,4464.615384615385,4408.205128205129,4697.948717948719,4362.564102564103,4264.615384615385,4187.6923076923085,4593.333333333334
1322.7617,0.0,0.2057434,0.25609836,0.5589838,0,0.0,0.0,0.0,0.0,0.07712452,0,0,0.0,0.0,0,0,34.0,0.0,0.0,4642.564102564103,3957.9487179487182,4519.48717948718,4429.2307692307695,4239.48717948718,4545.641025641026,4473.333333333334,4457.435897435898,4418.461538461539,4709.2307692307695,4376.410256410257,4265.128205128206,4201.025641025642,4596.923076923077
1323.012,0.0,0.2057434,0.25609836,0.5589838,0,0.0,0.0,0.0,0.0,0.05620698,0,0,0.0,0.0,0,0,66.0,0.0,435.0,4643.076923076924,3958.461538461539,4521.025641025642,4438.461538461539,4247.6923076923085,4549.2307692307695,4460.000000000001,4445.641025641026,4407.6923076923085,4695.8974358974365,4360.512820512821,4255.8974358974365,4191.282051282052,4580.000000000001
1323.2622,0.0,0.22988574,0.25153008,0.55851114,0,0.0,0.0,0.0,0.0,0.0,0,0,0.0,0.0,0,0,98.0,0.0,527.0,4659.48717948718,3984.1025641025644,4537.435897435898,4449.743589743591,4245.641025641026,4549.743589743591,4450.769230769231,4437.948717948719,4408.205128205129,4694.358974358975,4387.6923076923085,4259.48717948718,4215.8974358974365,4591.282051282052
1323.2622,0.0,0.22988574,0.25153008,0.55851114,0,0.0,0.0,0.0,0.0,0.0,0,0,0.0,0.0,0,0,98.0,0.0,527.0,4659.48717948718,3984.1025641025644,4537.435897435898,4449.743589743591,4245.641025641026,4549.743589743591,4450.769230769231,4437.948717948719,4408.205128205129,4694.358974358975,4387.6923076923085,4259.48717948718,4215.8974358974365,4591.282051282052
1323.6375,0.0,0.25188604,0.2481282,0.5563828,0,0.0,0.0,0.0,0.0,0.0,0,0,0.0,0.0,0,0,17.0,0.0,0.0,4634.358974358975,3960.0000000000005,4525.128205128206,4430.769230769231,4252.307692307693,4554.358974358975,4478.461538461539,4466.666666666667,4417.435897435898,4715.8974358974365,4387.179487179487,4253.846153846154,4212.820512820514,4571.794871794872
1323.6375,0.0,0.25188604,0.2481282,0.5563828,0,0.0,0.0,0.0,0.0,0.0,0,0,0.0,0.0,0,0,17.0,0.0,0.0,4634.358974358975,3960.0000000000005,4525.128205128206,4430.769230769231,4252.307692307693,4554.358974358975,4478.461538461539,4466.666666666667,4417.435897435898,4715.8974358974365,4387.179487179487,4253.846153846154,4212.820512820514,4571.794871794872
1324.138,0.0,0.29329526,0.24506862,0.5535963,0,0.0,0.0,0.0,0.0,0.0,0,0,0.0,0.0,0,0,81.0,0.0,739.0,4633.333333333334,3958.461538461539,4530.769230769231,4445.128205128206,4266.153846153847,4570.769230769231,4496.923076923077,4467.179487179487,4415.8974358974365,4691.282051282052,4376.923076923077,4252.820512820514,4194.871794871796,4545.641025641026
1324.138,0.0,0.29329526,0.24506862,0.5535963,0,0.0,0.0,0.0,0.0,0.0,0,0,0.0,0.0,0,0,81.0,0.0,739.0,4633.333333333334,3958.461538461539,4530.769230769231,4445.128205128206,4266.153846153847,4570.769230769231,4496.923076923077,4467.179487179487,4415.8974358974365,4691.282051282052,4376.923076923077,4252.820512820514,4194.871794871796,4545.641025641026
1324.6384,0.027731825,0.31057492,0.24276567,0.54379743,0,0.0,0.0,0.0,0.0,0.0,0,0,0.0,0.0,0,0,16.0,0.0,0.0,4634.358974358975,3928.717948717949,4512.820512820514,4416.923076923077,4243.589743589744,4551.794871794872,4477.948717948719,4443.076923076924,4417.435897435898,4707.6923076923085,4373.333333333334,4234.358974358975,4218.974358974359,4547.179487179488
1324.6384,0.027731825,0.31057492,0.24276567,0.54379743,0,0.0,0.0,0.0,0.0,0.0,0,0,0.0,0.0,0,0,16.0,0.0,0.0,4634.358974358975,3928.717948717949,4512.820512820514,4416.923076923077,4243.589743589744,4551.794871794872,4477.948717948719,4443.076923076924,4417.435897435898,4707.6923076923085,4373.333333333334,4234.358974358975,4218.974358974359,4547.179487179488
1325.1388,0.050614573,0.3126683,0.24817616,0.5287667,0,0.0,0.0,0.0,0.0,0.0,0,0,0.0,0.0,0,0,80.0,0.0,538.0,4643.076923076924,3951.7948717948725,4522.564102564103,4436.410256410257,4243.076923076924,4549.743589743591,4476.410256410257,4455.8974358974365,4409.2307692307695,4687.6923076923085,4360.000000000001,4236.923076923077,4178.974358974359,4530.256410256411
1325.5142,0.050614573,0.3126683,0.24817616,0.5287667,0,0.0,0.0,0.0,0.0,0.050273653,0,0,0.0,0.0,0,0,128.0,0.0,538.0,4654.358974358975,3974.8717948717954,4534.871794871796,4449.2307692307695,4252.307692307693,4560.512820512821,4470.256410256411,4457.435897435898,4406.153846153847,4680.512820512821,4358.461538461539,4239.48717948718,4196.410256410257,4551.794871794872
1325.7643,0.030514687,0.31659195,0.26152992,0.5226159,0,0.0,0.0,0.0,0.0,0.0,0,0,0.0,0.0,0,0,31.0,0.0,0.0,4652.307692307693,3971.7948717948725,4534.358974358975,4447.6923076923085,4247.6923076923085,4554.358974358975,4460.000000000001,4446.153846153847,4402.051282051282,4671.794871794872,4356.923076923077,4227.179487179487,4196.923076923077,4537.948717948719
1325.7643,0.030514687,0.31659195,0.26152992,0.5226159,0,0.0,0.0,0.0,0.0,0.0,0,0,0.0,0.0,0,0,31.0,0.0,0.0,4652.307692307693,3971.7948717948725,4534.358974358975,4447.6923076923085,4247.6923076923085,4554.358974358975,4460.000000000001,4446.153846153847,4402.051282051282,4671.794871794872,4356.923076923077,4227.179487179487,4196.923076923077,4537.948717948719
1326.1396,0.01509984,0.29754165,0.27354953,0.5170809,0,0.0,0.0,0.0,0.0,0.0,0,0,0.0,0.0,0,0,79.0,0.0,444.0,4681.025641025642,3989.23076923077,4547.179487179488,4451.794871794872,4244.102564102564,4554.871794871796,4459.48717948718,4447.179487179487,4405.128205128206,4692.307692307693,4374.358974358975,4245.128205128206,4218.461538461539,4555.384615384616
1326.1396,0.01509984,0.29754165,0.27354953,0.5170809,0,0.0,0.0,0.0,0.0,0.0,0,0,0.0,0.0,0,0,79.0,0.0,444.0,4681.025641025642,3989.23076923077,4547.179487179488,4451.794871794872,4244.102564102564,4554.871794871796,4459.48717948718,4447.179487179487,4405.128205128206,4692.307692307693,4374.358974358975,4245.128205128206,4218.461538461539,4555.384615384616
1326.648,0.042195547,0.2891578,0.2843682,0.50890183,0,0.0,0.0,0.0,0.0,0.0,0,0,0.0,0.0,0,0,14.0,0.0,527.0,4627.179487179488,3940.5128205128212,4513.333333333334,4434.358974358975,4231.794871794872,4540.000000000001,4444.102564102564,4423.589743589744,4399.48717948718,4688.717948717949,4344.102564102564,4202.051282051282,4177.435897435898,4515.8974358974365
1326.648,0.042195547,0.2891578,0.2843682,0.50890183,0,0.0,0.0,0.0,0.0,0.0,0,0,0.0,0.0,0,0,14.0,0.0,527.0,4627.179487179488,3940.5128205128212,4513.333333333334,4434.358974358975,4231.794871794872,4540.000000000001,4444.102564102564,4423.589743589744,4399.48717948718,4688.717948717949,4344.102564102564,4202.051282051282,4177.435897435898,4515.8974358974365
1327.1483,0.046119478,0.27421692,0.29389402,0.5015421,0,0.0,0.0,0.0,0.0,0.0,0,0,0.0,0.0,0,0,78.0,0.0,527.0,4651.794871794872,3942.564102564103,4507.6923076923085,4430.256410256411,4227.6923076923085,4535.8974358974365,4440.512820512821,4420.000000000001,4392.307692307693,4662.564102564103,4340.000000000001,4195.384615384616,4157.948717948719,4511.794871794872
1327.1483,0.046119478,0.27421692,0.29389402,0.5015421,0,0.0,0.0,0.0,0.0,0.0,0,0,0.0,0.0,0,0,78.0,0.0,527.0,4651.794871794872,3942.564102564103,4507.6923076923085,4430.256410256411,4227.6923076923085,4535.8974358974365,4440.512820512821,4420.000000000001,4392.307692307693,4662.564102564103,4340.000000000001,4195.384615384616,4157.948717948719,4511.794871794872
1327.6488,0.0813365,0.26314113,0.2979039,0.49492005,0,0.0,0.0,0.0,0.0,0.0,0,0,0.0,0.0,0,0,13.0,0.0,744.0,4652.307692307693,3920.5128205128212,4501.025641025642,4417.948717948719,4243.076923076924,4544.615384615385,4455.384615384616,4423.076923076924,4394.358974358975,4683.076923076924,4346.153846153847,4226.666666666667,4176.923076923077,4505.641025641026
1327.6488,0.0813365,0.26314113,0.2979039,0.49492005,0,0.0,0.0,0.0,0.0,0.0,0,0,0.0,0.0,0,0,13.0,0.0,744.0,4652.307692307693,3920.5128205128212,4501.025641025642,4417.948717948719,4243.076923076924,4544.615384615385,4455.384615384616,4423.076923076924,4394.358974358975,4683.076923076924,4346.153846153847,4226.666666666667,4176.923076923077,4505.641025641026
1328.1492,0.05891151,0.24973376,0.29627985,0.49691364,0,0.0,0.0,0.0,0.0,0.0,0,0,0.0,0.0,0,0,77.0,0.0,744.0,4663.589743589744,3946.1538461538466,4506.153846153847,4436.923076923077,4251.282051282052,4545.641025641026,4455.8974358974365,4428.205128205129,4397.435897435898,4715.384615384616,4367.179487179487,4235.384615384616,4193.333333333334,4529.743589743591
1328.5245,0.05891151,0.24973376,0.29627985,0.49691364,0,0.0,0.0,0.0,0.0,0.041573044,0,0,0.0,0.0,0,0,125.0,0.0,744.0,4670.769230769231,3962.564102564103,4515.384615384616,4446.153846153847,4256.923076923077,4555.384615384616,4464.615384615385,4440.512820512821,4406.153846153847,4726.153846153847,4366.153846153847,4242.051282051282,4200.000000000001,4531.282051282052
1328.6497,0.05973178,0.2401907,0.2913453,0.49870887,0,0.0,0.0,0.0,0.0,0.0,0,0,0.0,0.0,0,0,12.0,0.0,538.0,4663.589743589744,3948.205128205129,4504.615384615385,4440.000000000001,4245.128205128206,4543.076923076924,4460.512820512821,4434.871794871796,4397.948717948719,4712.820512820514,4353.333333333334,4214.871794871796,4184.102564102564,4512.820512820514
1328.6497,0.05973178,0.2401907,0.2913453,0.49870887,0,0.0,0.0,0.0,0.0,0.0,0,0,0.0,0.0,0,0,12.0,0.0,538.0,4663.589743589744,3948.205128205129,4504.615384615385,4440.000000000001,4245.128205128206,4543.076923076924,4460.512820512821,4434.871794871796,4397.948717948719,4712.820512820514,4353.333333333334,4214.871794871796,4184.102564102564,4512.820512820514
1329.15,0.021853907,0.2449527,0.28690517,0.50032556,0,0.0,0.0,0.0,0.0,0.0,0,0,0.0,0.0,0,0,76.0,0.0,538.0,4658.974358974359,3962.0512820512827,4515.8974358974365,4456.923076923077,4242.564102564103,4537.948717948719,4456.923076923077,4439.48717948718,4404.102564102564,4725.641025641026,4372.307692307693,4290.769230769231,4209.2307692307695,4517.948717948719
1329.15,0.021853907,0.2449527,0.28690517,0.50032556,0,0.0,0.0,0.0,0.0,0.0,0,0,0.0,0.0,0,0,76.0,0.0,538.0,4658.974358974359,3962.0512820512827,4515.8974358974365,4456.923076923077,4242.564102564103,4537.948717948719,4456.923076923077,4439.48717948718,4404.102564102564,4725.641025641026,4372.307692307693,4290.769230769231,4209.2307692307695,4517.948717948719
1329.6505,0.007492632,0.25253874,0.2813736,0.5060045,0,0.0,0.0,0.0,0.0,0.0,0,0,0.0,0.0,0,0,11.0,0.0,444.0,4633.846153846154,3938.9743589743593,4490.256410256411,4442.051282051282,4252.820512820514,4550.769230769231,4474.871794871796,4470.769230769231,4408.205128205129,4722.051282051282,4355.384615384616,4310.769230769231,4178.461538461539,4497.948717948719
1329.6505,0.007492632,0.25253874,0.2813736,0.5060045,0,0.0,0.0,0.0,0.0,0.0,0,0,0.0,0.0,0,0,11.0,0.0,444.0,4633.846153846154,3938.9743589743593,4490.256410256411,4442.051282051282,4252.820512820514,4550.769230769231,4474.871794871796,4470.769230769231,4408.205128205129,4722.051282051282,4355.384615384616,4310.769230769231,4178.461538461539,4497.948717948719
1330.1509,0.036829688,0.2580167,0.27843466,0.51111615,0,0.0,0.0,0.0,0.0,0.0,0,0,0.0,0.0,0,0,75.0,0.0,444.0,4633.846153846154,3931.2820512820517,4496.923076923077,4435.384615384616,4243.589743589744,4540.512820512821,4462.051282051282,4442.051282051282,4401.025641025642,4721.538461538462,4351.794871794872,4298.974358974359,4167.179487179487,4492.307692307693
1330.1509,0.036829688,0.2580167,0.27843466,0.51111615,0,0.0,0.0,0.0,0.0,0.0,0,0,0.0,0.0,0,0,75.0,0.0,444.0,4633.846153846154,3931.2820512820517,4496.923076923077,4435.384615384616,4243.589743589744,4540.512820512821,4462.051282051282,4442.051282051282,4401.025641025642,4721.538461538462,4351.794871794872,4298.974358974359,4167.179487179487,4492.307692307693
1330.6514,0.056155745,0.2536066,0.27579087,0.5157172,0,0.0,0.0,0.0,0.0,0.0,0,0,0.0,0.0,0,0,10.0,0.0,527.0,4648.205128205129,3952.820512820513,4519.48717948718,4456.923076923077,4248.717948717949,4543.589743589744,4488.205128205129,4465.641025641026,4404.615384615385,4720.000000000001,4373.333333333334,4315.8974358974365,4184.102564102564,4500.512820512821
1330.6514,0.056155745,0.2536066,0.27579087,0.5157172,0,0.0,0.0,0.0,0.0,0.0,0,0,0.0,0.0,0,0,10.0,0.0,527.0,4648.205128205129,3952.820512820513,4519.48717948718,4456.923076923077,4248.717948717949,4543.589743589744,4488.205128205129,4465.641025641026,4404.615384615385,4720.000000000001,4373.333333333334,4315.8974358974365,4184.102564102564,4500.512820512821
1331.1517,0.09608804,0.251742,0.2734128,0.53268486,0,0.0,0.0,0.0,0.0,0.0,0,0,0.0,0.0,0,0,74.0,0.0,527.0,4668.717948717949,3947.692307692308,4522.564102564103,4449.743589743591,4252.820512820514,4551.794871794872,4504.102564102564,4478.974358974359,4414.358974358975,4728.205128205129,4376.923076923077,4330.256410256411,4203.076923076924,4530.769230769231
1331.1517,0.09608804,0.251742,0.2734128,0.53268486,0,0.0,0.0,0.0,0.0,0.0,0,0,0.0,0.0,0,0,74.0,0.0,527.0,4668.717948717949,3947.692307692308,4522.564102564103,4449.743589743591,4252.820512820514,4551.794871794872,4504.102564102564,4478.974358974359,4414.358974358975,4728.205128205129,4376.923076923077,4330.256410256411,4203.076923076924,4530.769230769231
1331.6522,0.13121846,0.24361026,0.27106646,0.5611205,0,0.0,0.0,0.0,0.0,0.0,0,0,0.0,0.0,0,0,9.0,0.0,460.0,4664.102564102564,3963.076923076924,4532.820512820514,4467.6923076923085,4253.846153846154,4556.410256410257,4483.589743589744,4465.128205128206,4412.307692307693,4717.948717948719,4372.307692307693,4328.205128205129,4200.000000000001,4534.871794871796
1331.6522,0.13121846,0.24361026,0.27106646,0.5611205,0,0.0,0.0,0.0,0.0,0.0,0,0,0.0,0.0,0,0,9.0,0.0,460.0,4664.102564102564,3963.076923076924,4532.820512820514,4467.6923076923085,4253.846153846154,4556.410256410257,4483.589743589744,4465.128205128206,4412.307692307693,4717.948717948719,4372.307692307693,4328.205128205129,4200.000000000001,4534.871794871796
1332.1526,0.10929646,0.24252461,0.26876882,0.5743962,0,0.0,0.0,0.0,0.0,0.0,0,0,0.0,0.0,0,0,73.0,0.0,460.0,4672.307692307693,3968.717948717949,4532.820512820514,4450.256410256411,4248.205128205129,4549.743589743591,4483.589743589744,4481.538461538462,4409.743589743591,4707.179487179488,4367.179487179487,4320.000000000001,4200.512820512821,4548.205128205129
1332.1526,0.10929646,0.24252461,0.26876882,0.5743962,0,0.0,0.0,0.0,0.0,0.0,0,0,0.0,0.0,0,0,73.0,0.0,460.0,4672.307692307693,3968.717948717949,4532.820512820514,4450.256410256411,4248.205128205129,4549.743589743591,4483.589743589744,4481.538461538462,4409.743589743591,4707.179487179488,4367.179487179487,4320.000000000001,4200.512820512821,4548.205128205129
1332.6531,0.119860515,0.24131235,0.2693911,0.5631356,0,0.0,0.0,0.0,0.0,0.0,0,0,0.0,0.0,0,0,8.0,0.0,404.0,4683.589743589744,3992.307692307693,4542.564102564103,4473.846153846154,4259.48717948718,4557.948717948719,4472.820512820514,4487.179487179488,4422.051282051282,4723.076923076924,4364.615384615385,4314.358974358975,4216.410256410257,4566.153846153847
1332.6531,0.119860515,0.24131235,0.2693911,0.5631356,0,0.0,0.0,0.0,0.0,0.0,0,0,0.0,0.0,0,0,8.0,0.0,404.0,4683.589743589744,3992.307692307693,4542.564102564103,4473.846153846154,4259.48717948718,4557.948717948719,4472.820512820514,4487.179487179488,4422.051282051282,4723.076923076924,4364.615384615385,4314.358974358975,4216.410256410257,4566.153846153847
1333.2786,0.15463813,0.22355041,0.26871145,0.5538109,0,0.0,0.0,0.0,0.0,0.026769437,0,0,0.0,0.0,0,0,88.0,0.0,538.0,4657.435897435898,3968.717948717949,4518.461538461539,4456.410256410257,4248.717948717949,4551.794871794872,4464.615384615385,4453.333333333334,4407.179487179487,4714.871794871796,4342.564102564103,4266.666666666667,4189.2307692307695,4557.948717948719
1333.5288,0.15463813,0.22355041,0.26871145,0.5538109,0,0.0,0.0,0.0,0.0,0.098762214,0,0,0.0,0.0,0,0,120.0,0.0,538.0,4666.666666666667,3975.3846153846157,4534.871794871796,4463.076923076924,4265.128205128206,4568.717948717949,4490.256410256411,4491.282051282052,4422.564102564103,4748.717948717949,4354.358974358975,4292.307692307693,4209.2307692307695,4564.102564102564
1333.6539,0.12742457,0.20754424,0.2681012,0.55393463,0,0.0,0.0,0.0,0.0,0.0,0,0,0.0,0.0,0,0,7.0,0.0,470.0,4661.538461538462,3971.7948717948725,4523.076923076924,4450.256410256411,4263.076923076924,4562.564102564103,4475.384615384616,4473.846153846154,4412.820512820514,4735.384615384616,4344.615384615385,4273.333333333334,4202.051282051282,4564.102564102564
1333.6539,0.12742457,0.20754424,0.2681012,0.55393463,0,0.0,0.0,0.0,0.0,0.0,0,0,0.0,0.0,0,0,7.0,0.0,470.0,4661.538461538462,3971.7948717948725,4523.076923076924,4450.256410256411,4263.076923076924,4562.564102564103,4475.384615384616,4473.846153846154,4412.820512820514,4735.384615384616,4344.615384615385,4273.333333333334,4202.051282051282,4564.102564102564
1334.1543,0.11097069,0.19652125,0.2675534,0.5540459,0,0.0,0.0,0.0,0.0,0.0,0,0,0.0,0.0,0,0,71.0,0.0,470.0,4655.384615384616,3972.820512820513,4530.769230769231,4511.282051282052,4260.512820512821,4558.974358974359,4472.820512820514,4454.358974358975,4405.641025641026,4712.820512820514,4347.179487179487,4290.769230769231,4192.307692307693,4573.333333333334
1334.1543,0.11097069,0.19652125,0.2675534,0.5540459,0,0.0,0.0,0.0,0.0,0.0,0,0,0.0,0.0,0,0,71.0,0.0,470.0,4655.384615384616,3972.820512820513,4530.769230769231,4511.282051282052,4260.512820512821,4558.974358974359,4472.820512820514,4454.358974358975,4405.641025641026,4712.820512820514,4347.179487179487,4290.769230769231,4192.307692307693,4573.333333333334
1334.6548,0.09374903,0.18875359,0.26706183,0.55147076,0,0.0,0.0,0.0,0.0,0.0,0,0,0.0,0.0,0,0,6.0,0.0,533.0,4666.666666666667,3974.358974358975,4534.358974358975,4522.051282051282,4258.974358974359,4556.410256410257,4460.512820512821,4452.307692307693,4405.641025641026,4727.179487179488,4354.358974358975,4288.717948717949,4198.461538461539,4577.948717948719
1334.6548,0.09374903,0.18875359,0.26706183,0.55147076,0,0.0,0.0,0.0,0.0,0.0,0,0,0.0,0.0,0,0,6.0,0.0,533.0,4666.666666666667,3974.358974358975,4534.358974358975,4522.051282051282,4258.974358974359,4556.410256410257,4460.512820512821,4452.307692307693,4405.641025641026,4727.179487179488,4354.358974358975,4288.717948717949,4198.461538461539,4577.948717948719
1335.3116,0.061655562,0.18576102,0.26506606,0.54700184,0,0.0,0.0,0.0,0.0,0.0,0,0,0.0,0.0,0,0,90.0,0.0,527.0,4627.179487179488,3938.9743589743593,4508.717948717949,4464.102564102564,4251.282051282052,4551.794871794872,4454.871794871796,4452.820512820514,4400.512820512821,4714.358974358975,4336.410256410257,4271.282051282052,4181.538461538462,4568.717948717949
1335.3116,0.061655562,0.18576102,0.26506606,0.54700184,0,0.0,0.0,0.0,0.0,0.0,0,0,0.0,0.0,0,0,90.0,0.0,527.0,4627.179487179488,3938.9743589743593,4508.717948717949,4464.102564102564,4251.282051282052,4551.794871794872,4454.871794871796,4452.820512820514,4400.512820512821,4714.358974358975,4336.410256410257,4271.282051282052,4181.538461538462,4568.717948717949
1335.6556,0.041128382,0.18159367,0.2610633,0.5451316,0,0.0,0.0,0.0,0.0,0.0,0,0,0.0,0.0,0,0,5.0,0.0,544.0,4640.000000000001,3947.692307692308,4511.794871794872,4470.256410256411,4248.205128205129,4549.2307692307695,4457.435897435898,4446.153846153847,4392.307692307693,4721.025641025642,4344.102564102564,4266.153846153847,4185.641025641026,4576.923076923077
1335.6556,0.041128382,0.18159367,0.2610633,0.5451316,0,0.0,0.0,0.0,0.0,0.0,0,0,0.0,0.0,0,0,5.0,0.0,544.0,4640.000000000001,3947.692307692308,4511.794871794872,4470.256410256411,4248.205128205129,4549.2307692307695,4457.435897435898,4446.153846153847,4392.307692307693,4721.025641025642,4344.102564102564,4266.153846153847,4185.641025641026,4576.923076923077
1336.1561,0.06821552,0.1798304,0.25511637,0.54627526,0,0.0,0.0,0.0,0.0,0.0,0,0,0.0,0.0,0,0,69.0,0.0,544.0,4651.282051282052,3943.589743589744,4506.153846153847,4460.512820512821,4233.846153846154,4529.2307692307695,4449.743589743591,4426.666666666667,4393.333333333334,4709.2307692307695,4338.461538461539,4253.333333333334,4192.307692307693,4574.871794871796
1336.1561,0.06821552,0.1798304,0.25511637,0.54627526,0,0.0,0.0,0.0,0.0,0.0,0,0,0.0,0.0,0,0,69.0,0.0,544.0,4651.282051282052,3943.589743589744,4506.153846153847,4460.512820512821,4233.846153846154,4529.2307692307695,4449.743589743591,4426.666666666667,4393.333333333334,4709.2307692307695,4338.461538461539,4253.333333333334,4192.307692307693,4574.871794871796
1336.6565,0.048818003,0.17463076,0.24904317,0.5529185,0,0.0,0.0,0.0,0.0,0.0,0,0,0.0,0.0,0,0,4.0,0.0,546.0,4652.820512820514,3958.9743589743593,4522.564102564103,4471.794871794872,4255.8974358974365,4555.384615384616,4467.179487179487,4449.2307692307695,4394.358974358975,4705.641025641026,4339.48717948718,4261.025641025642,4184.102564102564,4564.102564102564
1336.6565,0.048818003,0.17463076,0.24904317,0.5529185,0,0.0,0.0,0.0,0.0,0.0,0,0,0.0,0.0,0,0,4.0,0.0,546.0,4652.820512820514,3958.9743589743593,4522.564102564103,4471.794871794872,4255.8974358974365,4555.384615384616,4467.179487179487,4449.2307692307695,4394.358974358975,4705.641025641026,4339.48717948718,4261.025641025642,4184.102564102564,4564.102564102564
1337.157,0.035597716,0.16351053,0.24357946,0.56577045,0,0.0,0.0,0.0,0.0,0.0,0,0,0.0,0.0,0,0,68.0,0.0,546.0,4656.923076923077,3964.1025641025644,4530.769230769231,4467.6923076923085,4258.461538461539,4556.923076923077,4492.820512820514,4458.974358974359,4407.6923076923085,4728.205128205129,4355.8974358974365,4270.256410256411,4204.615384615385,4571.794871794872
1337.157,0.035597716,0.16351053,0.24357946,0.56577045,0,0.0,0.0,0.0,0.0,0.0,0,0,0.0,0.0,0,0,68.0,0.0,546.0,4656.923076923077,3964.1025641025644,4530.769230769231,4467.6923076923085,4258.461538461539,4556.923076923077,4492.820512820514,4458.974358974359,4407.6923076923085,4728.205128205129,4355.8974358974365,4270.256410256411,4204.615384615385,4571.794871794872
1337.6573,0.018023938,0.14962459,0.23866448,0.5773368,0,0.0,0.0,0.0,0.0,0.0,0,0,0.0,0.0,0,0,3.0,0.0,527.0,4664.102564102564,3961.538461538462,4540.000000000001,4467.179487179487,4257.948717948719,4558.974358974359,4482.564102564103,4453.846153846154,4399.48717948718,4722.564102564103,4333.846153846154,4254.871794871796,4199.48717948718,4561.538461538462
1337.6573,0.018023938,0.14962459,0.23866448,0.5773368,0,0.0,0.0,0.0,0.0,0.0,0,0,0.0,0.0,0,0,3.0,0.0,527.0,4664.102564102564,3961.538461538462,4540.000000000001,4467.179487179487,4257.948717948719,4558.974358974359,4482.564102564103,4453.846153846154,4399.48717948718,4722.564102564103,4333.846153846154,4254.871794871796,4199.48717948718,4561.538461538462
1338.1578,0.0014451952,0.14772755,0.23358932,0.5877457,0,0.0,0.0,0.0,0.0,0.0,0,0,0.0,0.0,0,0,67.0,0.0,527.0,4674.871794871796,3957.435897435898,4526.666666666667,4460.512820512821,4238.974358974359,4543.589743589744,4469.743589743591,4446.666666666667,4390.256410256411,4705.641025641026,4331.282051282052,4245.128205128206,4205.641025641026,4560.000000000001
1338.1578,0.0014451952,0.14772755,0.23358932,0.5877457,0,0.0,0.0,0.0,0.0,0.0,0,0,0.0,0.0,0,0,67.0,0.0,527.0,4674.871794871796,3957.435897435898,4526.666666666667,4460.512820512821,4238.974358974359,4543.589743589744,4469.743589743591,4446.666666666667,4390.256410256411,4705.641025641026,4331.282051282052,4245.128205128206,4205.641025641026,4560.000000000001
1338.6582,0.0,0.15535304,0.22717495,0.59890044,0,0.0,0.0,0.0,0.0,0.0,0,0,0.0,0.0,0,0,2.0,0.0,435.0,4696.410256410257,3983.076923076924,4549.2307692307695,4487.6923076923085,4245.641025641026,4548.717948717949,4476.410256410257,4424.615384615385,4389.2307692307695,4704.615384615386,4351.282051282052,4320.512820512821,4217.435897435898,4590.256410256411
1338.6582,0.0,0.15535304,0.22717495,0.59890044,0,0.0,0.0,0.0,0.0,0.0,0,0,0.0,0.0,0,0,2.0,0.0,435.0,4696.410256410257,3983.076923076924,4549.2307692307695,4487.6923076923085,4245.641025641026,4548.717948717949,4476.410256410257,4424.615384615385,4389.2307692307695,4704.615384615386,4351.282051282052,4320.512820512821,4217.435897435898,4590.256410256411
1339.1587,0.010936467,0.15604758,0.2232547,0.59312034,0,0.0,0.0,0.0,0.0,0.0,0,0,0.0,0.0,0,0,66.0,0.0,435.0,4714.358974358975,3987.1794871794878,4541.538461538462,4489.2307692307695,4250.256410256411,4552.820512820514,4453.846153846154,4414.358974358975,4386.666666666667,4728.205128205129,4356.410256410257,4329.2307692307695,4220.512820512821,4598.461538461539
1339.1587,0.010936467,0.15604758,0.2232547,0.59312034,0,0.0,0.0,0.0,0.0,0.0,0,0,0.0,0.0,0,0,66.0,0.0,435.0,4714.358974358975,3987.1794871794878,4541.538461538462,4489.2307692307695,4250.256410256411,4552.820512820514,4453.846153846154,4414.358974358975,4386.666666666667,4728.205128205129,4356.410256410257,4329.2307692307695,4220.512820512821,4598.461538461539
1339.7842,0.0055278754,0.15819243,0.22155754,0.5721192,0,0.0,0.0,0.0,0.0,0.022062896,0,0,0.0,0.0,0,0,17.0,0.0,0.0,4693.846153846154,3970.7692307692314,4516.923076923077,4462.051282051282,4264.615384615385,4560.000000000001,4478.461538461539,4456.923076923077,4400.000000000001,4717.435897435898,4350.256410256411,4345.128205128206,4222.564102564103,4578.974358974359
1340.0344,0.0055278754,0.15819243,0.22155754,0.5721192,0,0.0,0.0,0.0,0.0,0.0,0,0,0.0,0.0,0,0,49.0,0.0,0.0,4678.461538461539,3954.8717948717954,4511.794871794872,4449.743589743591,4260.000000000001,4554.358974358975,4458.461538461539,4445.128205128206,4396.923076923077,4693.846153846154,4334.871794871796,4322.564102564103,4205.128205128206,4564.615384615385
1340.1595,0.0027071638,0.15501858,0.22003286,0.5489775,0,0.0,0.0,0.0,0.0,0.0,0,0,0.0,0.0,0,0,65.0,0.0,483.0,4668.205128205129,3953.333333333334,4509.2307692307695,4447.6923076923085,4261.025641025642,4562.051282051282,4465.128205128206,4449.743589743591,4396.923076923077,4701.025641025642,4335.8974358974365,4321.538461538462,4203.589743589744,4561.538461538462
1340.1595,0.0027071638,0.15501858,0.22003286,0.5489775,0,0.0,0.0,0.0,0.0,0.0,0,0,0.0,0.0,0,0,65.0,0.0,483.0,4668.205128205129,3953.333333333334,4509.2307692307695,4447.6923076923085,4261.025641025642,4562.051282051282,4465.128205128206,4449.743589743591,4396.923076923077,4701.025641025642,4335.8974358974365,4321.538461538462,4203.589743589744,4561.538461538462
1340.6599,0.06496263,0.14923197,0.23051725,0.52412856,0,0.0,0.0,0.0,0.0,0.0,0,0,0.0,0.0,0,0,0.0,0.0,488.0,4651.794871794872,3937.9487179487182,4498.974358974359,4419.48717948718,4246.153846153847,4546.666666666667,4431.794871794872,4413.333333333334,4386.666666666667,4686.153846153847,4294.358974358975,4278.461538461539,4184.615384615385,4536.923076923077
1340.6599,0.06496263,0.14923197,0.23051725,0.52412856,0,0.0,0.0,0.0,0.0,0.0,0,0,0.0,0.0,0,0,0.0,0.0,488.0,4651.794871794872,3937.9487179487182,4498.974358974359,4419.48717948718,4246.153846153847,4546.666666666667,4431.794871794872,4413.333333333334,4386.666666666667,4686.153846153847,4294.358974358975,4278.461538461539,4184.615384615385,4536.923076923077
1341.1604,0.12938496,0.14077409,0.24686943,0.50600773,0,0.0,0.0,0.0,0.0,0.0,0,0,0.0,0.0,0,0,64.0,0.0,488.0,4665.128205128206,3944.1025641025644,4513.333333333334,4441.025641025642,4246.153846153847,4548.205128205129,4445.641025641026,4438.974358974359,4385.641025641026,4693.333333333334,4306.666666666667,4288.717948717949,4192.307692307693,4543.076923076924
1341.1604,0.12938496,0.14077409,0.24686943,0.50600773,0,0.0,0.0,0.0,0.0,0.0,0,0,0.0,0.0,0,0,64.0,0.0,488.0,4665.128205128206,3944.1025641025644,4513.333333333334,4441.025641025642,4246.153846153847,4548.205128205129,4445.641025641026,4438.974358974359,4385.641025641026,4693.333333333334,4306.666666666667,4288.717948717949,4192.307692307693,4543.076923076924
1341.6608,0.12025254,0.13528542,0.2615876,0.48970145,0,0.0,0.0,0.0,0.0,0.0,0,0,0.0,0.0,0,0,128.0,0.0,538.0,4678.974358974359,3957.9487179487182,4527.6923076923085,4452.307692307693,4261.025641025642,4558.974358974359,4455.8974358974365,4445.641025641026,4391.794871794872,4733.846153846154,4322.051282051282,4304.615384615385,4208.205128205129,4544.615384615385
1341.6608,0.12025254,0.13528542,0.2615876,0.48970145,0,0.0,0.0,0.0,0.0,0.0,0,0,0.0,0.0,0,0,128.0,0.0,538.0,4678.974358974359,3957.9487179487182,4527.6923076923085,4452.307692307693,4261.025641025642,4558.974358974359,4455.8974358974365,4445.641025641026,4391.794871794872,4733.846153846154,4322.051282051282,4304.615384615385,4208.205128205129,4544.615384615385
1342.2864,0.10606094,0.14434302,0.27483505,0.4707651,0,0.0,0.0,0.0,0.0,0.0661617,0,0,0.0,0.0,0,0,79.0,0.0,444.0,4651.282051282052,3975.3846153846157,4531.794871794872,4437.948717948719,4283.589743589744,4573.333333333334,4467.179487179487,4448.205128205129,4390.769230769231,4702.051282051282,4314.358974358975,4284.102564102564,4156.923076923077,4558.461538461539
1342.5366,0.10606094,0.14434302,0.27483505,0.4707651,0,0.0,0.0,0.0,0.0,0.21594368,0,0,0.0,0.0,0,0,111.0,0.0,444.0,4664.102564102564,3988.205128205129,4537.948717948719,4468.717948717949,4288.205128205129,4577.948717948719,4474.358974358975,4459.48717948718,4405.128205128206,4704.102564102564,4334.358974358975,4294.871794871796,4234.358974358975,4565.128205128206
1342.7867,0.08049882,0.15443288,0.2776249,0.4544811,0,0.0,0.0,0.0,0.0,0.0,0,0,0.0,0.0,0,0,14.0,0.0,527.0,4669.2307692307695,3990.7692307692314,4545.641025641026,4470.769230769231,4275.384615384616,4569.743589743591,4472.820512820514,4461.025641025642,4405.641025641026,4725.128205128206,4321.538461538462,4291.282051282052,4259.48717948718,4576.410256410257
1343.037,0.08049882,0.15443288,0.2776249,0.4544811,0,0.0,0.0,0.0,0.0,0.0,0,0,0.0,0.57371765,0,0,46.0,0.0,0.0,4671.282051282052,3991.7948717948725,4553.846153846154,4484.615384615385,4269.2307692307695,4568.717948717949,4473.333333333334,4444.615384615385,4394.358974358975,4702.564102564103,4324.102564102564,4285.128205128206,4254.871794871796,4581.538461538462
1343.1621,0.08048813,0.14960502,0.27325863,0.4452978,0,0.0,0.0,0.0,0.0,0.0,0,0,0.0,0.0,0,0,62.0,0.0,0.0,4670.769230769231,4007.1794871794878,4566.153846153847,4489.743589743591,4292.307692307693,4590.256410256411,4502.051282051282,4478.461538461539,4420.000000000001,4727.6923076923085,4348.717948717949,4302.051282051282,4255.8974358974365,4594.871794871796
1343.1621,0.08048813,0.14960502,0.27325863,0.4452978,0,0.0,0.0,0.0,0.0,0.0,0,0,0.0,0.0,0,0,62.0,0.0,0.0,4670.769230769231,4007.1794871794878,4566.153846153847,4489.743589743591,4292.307692307693,4590.256410256411,4502.051282051282,4478.461538461539,4420.000000000001,4727.6923076923085,4348.717948717949,4302.051282051282,4255.8974358974365,4594.871794871796
1343.7876,0.15470347,0.14318246,0.26823878,0.43703923,0,0.0,0.0,0.0,0.0,0.0,0,0,0.0,0.20670709,0,0,13.0,0.0,751.0,4653.846153846154,3997.435897435898,4545.128205128206,4472.307692307693,4246.666666666667,4553.333333333334,4461.025641025642,4426.153846153847,4390.256410256411,4709.2307692307695,4306.153846153847,4260.000000000001,4344.615384615385,4576.923076923077
1344.0378,0.15470347,0.14318246,0.26823878,0.43703923,0,0.0,0.0,0.0,0.0,0.0,0,0,0.0,0.10295391,0,0,45.0,0.0,0.0,4658.461538461539,3997.9487179487182,4530.769230769231,4477.435897435898,4260.000000000001,4570.769230769231,4483.589743589744,4468.717948717949,4408.717948717949,4741.025641025642,4345.641025641026,4304.102564102564,4281.538461538462,4562.564102564103
1344.2881,0.15898874,0.13554373,0.2637225,0.42961338,0,0.0,0.0,0.0,0.0,0.03052196,0,0,0.0,0.0,0,0,77.0,0.0,751.0,4649.2307692307695,4000.0000000000005,4527.179487179488,4466.153846153847,4253.333333333334,4562.051282051282,4488.205128205129,4470.769230769231,4405.641025641026,4718.974358974359,4354.871794871796,4289.74358974359,4227.179487179487,4552.820512820514
1344.5383,0.15898874,0.13554373,0.2637225,0.42961338,0,0.0,0.0,0.0,0.0,0.02166687,0,0,0.0,0.0,0,0,109.0,0.0,751.0,4651.282051282052,4007.692307692308,4523.076923076924,4445.641025641026,4255.8974358974365,4560.512820512821,4480.000000000001,4457.435897435898,4397.435897435898,4737.948717948719,4375.8974358974365,4289.2307692307695,4234.358974358975,4544.615384615385
1344.6633,0.13332696,0.13591805,0.25991458,0.42130563,0,0.0,0.0,0.0,0.0,0.0,0,0,0.0,0.0,0,0,125.0,0.0,751.0,4645.641025641026,3995.8974358974365,4519.48717948718,4464.615384615385,4262.051282051282,4562.051282051282,4470.769230769231,4437.435897435898,4393.333333333334,4705.641025641026,4355.8974358974365,4277.948717948719,4218.974358974359,4540.512820512821
1344.6633,0.13332696,0.13591805,0.25991458,0.42130563,0,0.0,0.0,0.0,0.0,0.0,0,0,0.0,0.0,0,0,125.0,0.0,751.0,4645.641025641026,3995.8974358974365,4519.48717948718,4464.615384615385,4262.051282051282,4562.051282051282,4470.769230769231,4437.435897435898,4393.333333333334,4705.641025641026,4355.8974358974365,4277.948717948719,4218.974358974359,4540.512820512821
1345.1638,0.075188205,0.13382383,0.2585028,0.4186285,0,0.0,0.0,0.0,0.0,0.0,0,0,0.0,0.0,0,0,60.0,0.0,0.0,4658.461538461539,3976.410256410257,4534.358974358975,4447.6923076923085,4256.410256410257,4553.333333333334,4478.461538461539,4450.256410256411,4404.102564102564,4725.641025641026,4364.615384615385,4273.846153846154,4217.948717948719,4546.153846153847
1345.1638,0.075188205,0.13382383,0.2585028,0.4186285,0,0.0,0.0,0.0,0.0,0.0,0,0,0.0,0.0,0,0,60.0,0.0,0.0,4658.461538461539,3976.410256410257,4534.358974358975,4447.6923076923085,4256.410256410257,4553.333333333334,4478.461538461539,4450.256410256411,4404.102564102564,4725.641025641026,4364.615384615385,4273.846153846154,4217.948717948719,4546.153846153847
1345.6643,0.072833925,0.12725331,0.26358932,0.4182967,0,0.0,0.0,0.0,0.0,0.0,0,0,0.0,0.0,0,0,124.0,0.0,538.0,4660.000000000001,3979.48717948718,4539.48717948718,4452.307692307693,4258.461538461539,4556.410256410257,4467.6923076923085,4431.794871794872,4396.410256410257,4723.589743589744,4362.051282051282,4271.794871794872,4203.076923076924,4556.410256410257
1345.6643,0.072833925,0.12725331,0.26358932,0.4182967,0,0.0,0.0,0.0,0.0,0.0,0,0,0.0,0.0,0,0,124.0,0.0,538.0,4660.000000000001,3979.48717948718,4539.48717948718,4452.307692307693,4258.461538461539,4556.410256410257,4467.6923076923085,4431.794871794872,4396.410256410257,4723.589743589744,4362.051282051282,4271.794871794872,4203.076923076924,4556.410256410257
1346.2898,0.09989069,0.112738095,0.26816854,0.42031687,1,0.0,0.0,0.0,0.0,0.1434094,0,0,0.0,0.0,0,0,75.0,0.0,444.0,4675.384615384616,3989.23076923077,4547.6923076923085,4487.179487179488,4272.307692307693,4572.820512820514,4486.666666666667,4474.358974358975,4418.461538461539,4756.410256410257,4398.974358974359,4286.153846153847,4233.333333333334,4577.435897435898
1346.54,0.09989069,0.112738095,0.26816854,0.42031687,0,0.0,0.0,0.0,0.0,0.105558254,0,0,0.0,0.0,0,0,107.0,0.0,444.0,4669.2307692307695,3970.7692307692314,4559.48717948718,4493.333333333334,4259.48717948718,4563.076923076924,4491.282051282052,4466.153846153847,4403.589743589744,4740.512820512821,4380.512820512821,4284.102564102564,4224.615384615385,4572.307692307693
1346.7902,0.1030501,0.10347684,0.27229112,0.42213836,0,0.0,0.0,0.0,0.0,0.0,0,0,0.0,0.0,0,0,10.0,0.0,527.0,4670.769230769231,3972.820512820513,4554.358974358975,4491.794871794872,4266.153846153847,4569.743589743591,4493.333333333334,4469.2307692307695,4422.564102564103,4750.769230769231,4380.000000000001,4288.205128205129,4231.794871794872,4567.6923076923085
1346.7902,0.1030501,0.10347684,0.27229112,0.42213836,0,0.0,0.0,0.0,0.0,0.0,0,0,0.0,0.0,0,0,10.0,0.0,527.0,4670.769230769231,3972.820512820513,4554.358974358975,4491.794871794872,4266.153846153847,4569.743589743591,4493.333333333334,4469.2307692307695,4422.564102564103,4750.769230769231,4380.000000000001,4288.205128205129,4231.794871794872,4567.6923076923085
1347.1655,0.07741474,0.11162878,0.27506396,0.42922983,0,0.0,0.0,0.0,0.0,0.0,0,0,0.0,0.0,0,0,58.0,0.0,0.0,4669.2307692307695,3960.0000000000005,4549.743589743591,4502.051282051282,4264.102564102564,4568.205128205129,4500.000000000001,4466.153846153847,4415.384615384616,4747.179487179488,4362.564102564103,4281.025641025642,4227.179487179487,4564.615384615385
1347.1655,0.07741474,0.11162878,0.27506396,0.42922983,0,0.0,0.0,0.0,0.0,0.0,0,0,0.0,0.0,0,0,58.0,0.0,0.0,4669.2307692307695,3960.0000000000005,4549.743589743591,4502.051282051282,4264.102564102564,4568.205128205129,4500.000000000001,4466.153846153847,4415.384615384616,4747.179487179488,4362.564102564103,4281.025641025642,4227.179487179487,4564.615384615385
1347.8536,0.16298811,0.1187155,0.27315342,0.44116753,0,0.0,0.0,0.0,0.0,0.0,0,0,0.0,0.0,0,0,17.0,0.0,0.0,4659.48717948718,3976.9230769230776,4546.153846153847,4503.076923076924,4261.538461538462,4567.179487179488,4507.6923076923085,4450.256410256411,4415.384615384616,4728.205128205129,4377.435897435898,4273.333333333334,4228.205128205129,4571.282051282052
1347.8536,0.16298811,0.1187155,0.27315342,0.44116753,0,0.0,0.0,0.0,0.0,0.0,0,0,0.0,0.0,0,0,17.0,0.0,0.0,4659.48717948718,3976.9230769230776,4546.153846153847,4503.076923076924,4261.538461538462,4567.179487179488,4507.6923076923085,4450.256410256411,4415.384615384616,4728.205128205129,4377.435897435898,4273.333333333334,4228.205128205129,4571.282051282052
1348.1664,0.1920213,0.12509356,0.26991123,0.4520085,0,0.0,0.0,0.0,0.0,0.0,0,0,0.0,0.0,0,0,57.0,0.0,0.0,4655.8974358974365,3971.2820512820517,4551.282051282052,4494.358974358975,4265.641025641026,4569.2307692307695,4500.000000000001,4451.282051282052,4415.8974358974365,4732.307692307693,4390.769230769231,4275.384615384616,4231.794871794872,4586.666666666667
1348.1664,0.1920213,0.12509356,0.26991123,0.4520085,0,0.0,0.0,0.0,0.0,0.0,0,0,0.0,0.0,0,0,57.0,0.0,0.0,4655.8974358974365,3971.2820512820517,4551.282051282052,4494.358974358975,4265.641025641026,4569.2307692307695,4500.000000000001,4451.282051282052,4415.8974358974365,4732.307692307693,4390.769230769231,4275.384615384616,4231.794871794872,4586.666666666667
1348.6669,0.1308365,0.1308338,0.2669947,0.45611075,0,0.0,0.0,0.0,0.0,0.0,0,0,0.0,0.0,0,0,121.0,0.0,754.0,4651.794871794872,3945.6410256410263,4541.538461538462,4457.948717948719,4263.076923076924,4565.641025641026,4502.564102564103,4474.871794871796,4416.923076923077,4736.923076923077,4362.564102564103,4265.128205128206,4190.769230769231,4552.307692307693
1348.6669,0.1308365,0.1308338,0.2669947,0.45611075,0,0.0,0.0,0.0,0.0,0.0,0,0,0.0,0.0,0,0,121.0,0.0,754.0,4651.794871794872,3945.6410256410263,4541.538461538462,4457.948717948719,4263.076923076924,4565.641025641026,4502.564102564103,4474.871794871796,4416.923076923077,4736.923076923077,4362.564102564103,4265.128205128206,4190.769230769231,4552.307692307693
1349.1672,0.11898437,0.13600004,0.2645882,0.45614678,0,0.0,0.0,0.0,0.0,0.0,0,0,0.0,0.0,0,0,56.0,0.0,0.0,4670.256410256411,3959.48717948718,4541.538461538462,4462.051282051282,4260.512820512821,4565.641025641026,4480.512820512821,4456.923076923077,4415.384615384616,4747.179487179488,4377.435897435898,4265.128205128206,4216.410256410257,4552.820512820514
1349.1672,0.11898437,0.13600004,0.2645882,0.45614678,0,0.0,0.0,0.0,0.0,0.0,0,0,0.0,0.0,0,0,56.0,0.0,0.0,4670.256410256411,3959.48717948718,4541.538461538462,4462.051282051282,4260.512820512821,4565.641025641026,4480.512820512821,4456.923076923077,4415.384615384616,4747.179487179488,4377.435897435898,4265.128205128206,4216.410256410257,4552.820512820514
1349.6677,0.099369526,0.14741969,0.26242396,0.4561817,0,0.0,0.0,0.0,0.0,0.0,0,0,0.0,0.0,0,0,120.0,0.0,538.0,4680.000000000001,3964.1025641025644,4540.512820512821,4471.794871794872,4262.051282051282,4563.076923076924,4484.102564102564,4469.743589743591,4415.384615384616,4770.769230769231,4398.461538461539,4290.256410256411,4235.384615384616,4556.923076923077
1349.6677,0.099369526,0.14741969,0.26242396,0.4561817,0,0.0,0.0,0.0,0.0,0.0,0,0,0.0,0.0,0,0,120.0,0.0,538.0,4680.000000000001,3964.1025641025644,4540.512820512821,4471.794871794872,4262.051282051282,4563.076923076924,4484.102564102564,4469.743589743591,4415.384615384616,4770.769230769231,4398.461538461539,4290.256410256411,4235.384615384616,4556.923076923077
1350.1681,0.081552945,0.14747639,0.25857887,0.45892495,0,0.0,0.0,0.0,0.0,0.0,0,0,0.0,0.0,0,0,55.0,0.0,0.0,4680.000000000001,3974.358974358975,4553.333333333334,4485.641025641026,4268.205128205129,4568.717948717949,4470.256410256411,4454.358974358975,4413.333333333334,4743.589743589744,4389.2307692307695,4291.794871794872,4232.307692307693,4572.307692307693
