timestamp,excitement,frustration,meditation,engagementBoredom,blink,clench,laugh,smile,eyebrow,furrowBrow,lookLeft,lookRight,smirkLeft,smirkRight,winkLeft,winkRight,eeg0,eeg1,eeg2,eeg3,eeg4,eeg5,eeg6,eeg7,eeg8,eeg9,eeg10,eeg11,eeg12,eeg13,eeg14,eeg15,eeg16
42.05176,0.91297567,0.8905417,0.42284107,0.7107347,0,0.0,0.0,0.0,0.0,0.0,0,0,0.0,0.10416063,0,0,72.0,0.0,731.0,4440.512820512821,3851.2820512820517,4453.846153846154,4466.666666666667,4291.794871794872,4570.256410256411,4315.8974358974365,4321.025641025642,4297.435897435898,4589.743589743591,3901.0256410256416,3876.9230769230776,3863.076923076924,4506.153846153847
42.30198,0.91297567,0.8905417,0.42284107,0.7107347,0,0.0,0.0,0.0,0.0,0.0,0,0,0.0,0.0,0,0,104.0,0.0,1452.0,4393.333333333334,3796.9230769230776,4421.538461538462,4447.179487179487,4279.48717948718,4566.666666666667,4303.076923076924,4323.589743589744,4261.025641025642,4544.615384615385,3894.8717948717954,3854.358974358975,3854.8717948717954,4472.820512820514
42.552193,0.9473256,0.9048244,0.4137236,0.69463944,0,0.0,0.0,0.0,0.0,0.0,0,0,0.0,0.0,0,0,7.0,0.0,479.0,4404.615384615385,3800.0000000000005,4422.051282051282,4462.564102564103,4263.076923076924,4545.641025641026,4271.282051282052,4276.410256410257,4258.974358974359,4525.128205128206,3917.9487179487182,3866.1538461538466,3857.9487179487182,4463.076923076924
42.552193,0.9473256,0.9048244,0.4137236,0.69463944,0,0.0,0.0,0.0,0.0,0.0,0,0,0.0,0.0,0,0,7.0,0.0,479.0,4404.615384615385,3800.0000000000005,4422.051282051282,4462.564102564103,4263.076923076924,4545.641025641026,4271.282051282052,4276.410256410257,4258.974358974359,4525.128205128206,3917.9487179487182,3866.1538461538466,3857.9487179487182,4463.076923076924
43.052624,0.9344664,0.9176788,0.40550542,0.6801737,0,0.0,0.0,0.0,0.0,0.0,0,0,0.0,0.0,0,0,71.0,0.0,480.0,4442.564102564103,3781.0256410256416,4395.8974358974365,4430.769230769231,4264.102564102564,4546.153846153847,4298.461538461539,4324.615384615385,4243.076923076924,4506.666666666667,3925.6410256410263,3907.692307692308,3867.1794871794878,4424.102564102564
43.052624,0.9344664,0.9176788,0.40550542,0.6801737,0,0.0,0.0,0.0,0.0,0.0,0,0,0.0,0.0,0,0,71.0,0.0,480.0,4442.564102564103,3781.0256410256416,4395.8974358974365,4430.769230769231,4264.102564102564,4546.153846153847,4298.461538461539,4324.615384615385,4243.076923076924,4506.666666666667,3925.6410256410263,3907.692307692308,3867.1794871794878,4424.102564102564
43.553055,0.9321512,0.92924774,0.39809752,0.6671668,0,0.0,0.0,0.0,0.0,0.0,0,0,0.0,0.0,0,0,6.0,0.0,532.0,4474.871794871796,3783.076923076924,4410.256410256411,4376.410256410257,4258.974358974359,4527.179487179488,4301.025641025642,4277.948717948719,4233.846153846154,4493.846153846154,3972.307692307693,3922.564102564103,3888.205128205129,4425.128205128206
43.80327,0.9321512,0.92924774,0.39809752,0.6671668,1,0.0,0.0,0.0,0.0,0.0,0,0,0.0,0.0,0,0,38.0,0.0,0.0,4522.051282051282,3821.0256410256416,4414.871794871796,4386.666666666667,4259.48717948718,4527.6923076923085,4297.435897435898,4264.102564102564,4253.846153846154,4498.461538461539,4021.538461538462,3967.692307692308,3904.1025641025644,4440.512820512821
44.053482,0.96335,0.93965983,0.39143562,0.6554805,0,0.0,0.0,0.0,0.0,0.0,0,0,0.0,0.0,0,0,70.0,0.0,532.0,4454.358974358975,3784.615384615385,4388.205128205129,4379.48717948718,4257.435897435898,4531.282051282052,4280.512820512821,4229.2307692307695,4212.820512820514,4462.564102564103,3953.8461538461543,3904.1025641025644,3862.0512820512827,4409.743589743591
44.053482,0.96335,0.93965983,0.39143562,0.6554805,0,0.0,0.0,0.0,0.0,0.0,0,0,0.0,0.0,0,0,70.0,0.0,532.0,4454.358974358975,3784.615384615385,4388.205128205129,4379.48717948718,4257.435897435898,4531.282051282052,4280.512820512821,4229.2307692307695,4212.820512820514,4462.564102564103,3953.8461538461543,3904.1025641025644,3862.0512820512827,4409.743589743591
44.553913,0.9771365,0.9490307,0.3854602,0.64499044,0,0.0,0.0,0.0,0.0,0.0,0,0,0.0,0.0,0,0,5.0,0.0,544.0,4427.179487179487,3826.1538461538466,4403.076923076924,4294.871794871796,4264.615384615385,4541.025641025642,4314.358974358975,4268.205128205129,4254.358974358975,4523.589743589744,4053.8461538461543,3989.23076923077,3992.820512820513,4437.435897435898
44.67902,0.9771365,0.9490307,0.3854602,0.64499044,1,0.0,0.0,0.0,0.0,0.0,0,0,0.0,0.0,0,0,21.0,0.0,0.0,4435.8974358974365,3800.512820512821,4415.8974358974365,4211.794871794872,4237.435897435898,4522.564102564103,4311.282051282052,4277.435897435898,4238.974358974359,4529.743589743591,4027.1794871794878,3969.7435897435903,4024.1025641025644,4443.076923076924
45.054344,1.0,0.9574645,0.3802753,0.6509199,0,0.0,0.0,0.0,0.0,0.0,0,0,0.0,0.0,0,0,69.0,0.0,544.0,4337.435897435898,3730.7692307692314,4366.666666666667,4168.205128205129,4249.2307692307695,4530.769230769231,4233.846153846154,4156.923076923077,4166.666666666667,4385.641025641026,3803.076923076924,3778.461538461539,3900.0000000000005,4253.333333333334
45.054344,1.0,0.9574645,0.3802753,0.6509199,0,0.0,0.0,0.0,0.0,0.0,0,0,0.0,0.0,0,0,69.0,0.0,544.0,4337.435897435898,3730.7692307692314,4366.666666666667,4168.205128205129,4249.2307692307695,4530.769230769231,4233.846153846154,4156.923076923077,4166.666666666667,4385.641025641026,3803.076923076924,3778.461538461539,3900.0000000000005,4253.333333333334
45.554775,1.0,0.9650549,0.37572625,0.6564101,0,0.0,0.0,0.0,0.0,0.0,0,0,0.0,0.0,0,0,4.0,0.0,545.0,4466.153846153847,3822.0512820512827,4411.282051282052,4297.435897435898,4240.000000000001,4540.000000000001,4331.282051282052,4358.461538461539,4301.025641025642,4521.538461538462,4116.923076923077,4044.1025641025644,3948.717948717949,4282.564102564103
45.773712,1.0,0.9650549,0.37572625,0.6564101,0,0.0,0.0,0.0,0.0,0.0,0,0,0.0,0.0,0,0,32.0,0.0,0.0,4484.615384615385,3825.6410256410263,4408.717948717949,4293.846153846154,4200.000000000001,4507.179487179488,4313.333333333334,4322.564102564103,4266.666666666667,4428.717948717949,4200.000000000001,4040.5128205128212,3948.717948717949,4318.974358974359
46.055202,0.9637923,0.9718863,0.3716321,0.6613512,0,0.0,0.0,0.0,0.0,0.0,0,0,0.0,0.0,0,1,68.0,0.0,545.0,4558.974358974359,3846.666666666667,4475.384615384616,4277.435897435898,4173.333333333334,4492.307692307693,4355.384615384616,4401.538461538462,4338.974358974359,4527.179487179488,4466.153846153847,4199.48717948718,4075.3846153846157,4444.615384615385
46.08648,0.9637923,0.9718863,0.3716321,0.6613512,0,0.0,0.0,0.0,0.0,0.0,0,0,0.0,0.0,0,1,72.0,0.0,699.0,4558.974358974359,3862.0512820512827,4472.820512820514,4286.153846153847,4172.307692307693,4491.794871794872,4324.615384615385,4332.820512820514,4309.2307692307695,4516.923076923077,4427.179487179487,4178.461538461539,4071.7948717948725,4445.641025641026
46.555634,0.96751475,0.9780345,0.36794737,0.66579825,0,0.0,0.0,0.030762197,0.0,0.0,0,0,0.0,0.0,0,0,3.0,0.0,541.0,4615.384615384616,3905.6410256410263,4525.128205128206,4412.307692307693,4174.358974358975,4497.948717948719,4376.410256410257,4342.564102564103,4396.410256410257,4561.538461538462,4508.205128205129,4266.153846153847,4147.179487179487,4425.128205128206
46.805847,0.96751475,0.9780345,0.36794737,0.66579825,0,0.0,0.0,0.0456316,0.0,0.0,0,0,0.0,0.0,0,0,35.0,0.0,0.0,4647.179487179488,3935.8974358974365,4529.2307692307695,4456.410256410257,4191.794871794872,4511.282051282052,4333.846153846154,4360.512820512821,4357.948717948719,4543.589743589744,4454.871794871796,4264.102564102564,4195.384615384616,4443.076923076924
47.056065,0.9499005,0.9835679,0.36442593,0.6543086,0,0.0,0.0,0.020854216,0.0,0.0,0,0,0.0,0.0,0,0,67.0,0.0,541.0,4681.538461538462,3969.2307692307695,4557.435897435898,4529.2307692307695,4209.2307692307695,4517.435897435898,4338.461538461539,4380.512820512821,4440.000000000001,4616.410256410257,4433.846153846154,4366.666666666667,4255.384615384616,4487.6923076923085
47.30628,0.9499005,0.9835679,0.36442593,0.6543086,0,0.0,0.0,0.0,0.0,0.0,0,0,0.0,0.0,0,0,99.0,0.0,413.0,4724.615384615386,4015.8974358974365,4570.769230769231,4520.000000000001,4216.923076923077,4517.435897435898,4355.8974358974365,4417.948717948719,4427.179487179487,4659.48717948718,4454.358974358975,4398.461538461539,4236.410256410257,4492.307692307693
47.556496,1.0,0.988548,0.36125112,0.64397085,0,0.0,0.0,0.0,0.0,0.0,0,0,0.0,0.0,0,0,2.0,0.0,433.0,4745.641025641026,4015.8974358974365,4574.358974358975,4500.000000000001,4223.589743589744,4516.923076923077,4380.512820512821,4403.589743589744,4412.820512820514,4743.589743589744,4494.871794871796,4434.871794871796,4224.102564102564,4535.8974358974365
47.556496,1.0,0.988548,0.36125112,0.64397085,0,0.0,0.0,0.0,0.0,0.0,0,0,0.0,0.0,0,0,2.0,0.0,433.0,4745.641025641026,4015.8974358974365,4574.358974358975,4500.000000000001,4223.589743589744,4516.923076923077,4380.512820512821,4403.589743589744,4412.820512820514,4743.589743589744,4494.871794871796,4434.871794871796,4224.102564102564,4535.8974358974365
48.056923,0.965845,0.9930301,0.35838878,0.63466746,0,0.0,0.0,0.0,0.0,0.13209379,0,0,0.0,0.0,0,0,66.0,0.0,431.0,4749.2307692307695,3982.564102564103,4554.871794871796,4494.871794871796,4228.717948717949,4509.2307692307695,4406.666666666667,4433.333333333334,4347.179487179487,4740.512820512821,4402.564102564103,4382.051282051282,4125.641025641026,4582.051282051282
48.30714,0.965845,0.9930301,0.35838878,0.63466746,0,0.0,0.0,0.0,0.0,0.043500617,0,0,0.0,0.0,0,0,98.0,0.0,537.0,4696.923076923077,3975.8974358974365,4534.358974358975,4487.179487179488,4230.256410256411,4504.615384615385,4423.589743589744,4421.025641025642,4321.538461538462,4690.769230769231,4295.8974358974365,4307.179487179487,4013.8461538461543,4552.820512820514
48.557354,1.0,0.9970639,0.35581425,0.62630254,0,0.0,0.0,0.0,0.0,0.06927367,0,0,0.0,0.0,0,0,1.0,0.0,455.0,4685.128205128206,3960.5128205128212,4536.923076923077,4490.256410256411,4229.2307692307695,4511.282051282052,4407.179487179487,4410.769230769231,4356.923076923077,4706.666666666667,4316.410256410257,4314.358974358975,4031.7948717948725,4566.153846153847
48.807568,1.0,0.9970639,0.35581425,0.62630254,0,0.0,0.0,0.0,0.0,0.032257818,0,0,0.0,0.0,0,0,33.0,0.0,0.0,4690.769230769231,3915.8974358974365,4541.025641025642,4474.871794871796,4237.435897435898,4521.538461538462,4427.6923076923085,4427.179487179487,4374.871794871796,4740.000000000001,4425.641025641026,4349.743589743591,4105.641025641026,4589.2307692307695
49.057785,0.9741598,1.0,0.35350448,0.61878955,0,0.0,0.0,0.07507741,0.0,0.0,0,0,0.0,0.0,0,0,65.0,0.0,455.0,4703.076923076924,3906.1538461538466,4541.538461538462,4472.820512820514,4242.051282051282,4527.179487179488,4422.051282051282,4425.641025641026,4371.282051282052,4754.871794871796,4382.564102564103,4346.666666666667,4125.128205128206,4601.025641025642
49.308,0.9741598,1.0,0.35350448,0.61878955,0,0.0,0.0,0.09579242,0.0,0.0,0,0,0.0,0.0,0,0,97.0,0.0,1347.0,4683.076923076924,3897.9487179487182,4541.025641025642,4469.2307692307695,4255.8974358974365,4541.538461538462,4436.410256410257,4454.871794871796,4392.820512820514,4790.769230769231,4399.48717948718,4349.743589743591,4137.948717948719,4603.589743589744
49.558216,0.89166236,0.9238046,0.35473683,0.6158135,0,0.0,0.0,0.0,0.0,0.025082268,0,0,0.0,0.0,0,0,0.0,0.0,483.0,4694.358974358975,3889.7435897435903,4541.025641025642,4473.333333333334,4237.948717948719,4527.179487179488,4442.051282051282,4411.794871794872,4377.435897435898,4783.589743589744,4406.666666666667,4363.076923076924,4157.435897435898,4601.538461538462
49.80843,0.89166236,0.9238046,0.35473683,0.6158135,0,0.0,0.0,0.0,0.0,0.011051504,0,0,0.0,0.0,0,0,32.0,0.0,0.0,4689.2307692307695,3893.8461538461543,4527.179487179488,4475.384615384616,4227.6923076923085,4518.974358974359,4436.923076923077,4408.205128205129,4396.410256410257,4797.435897435898,4394.358974358975,4354.871794871796,4138.461538461539,4604.102564102564
50.058643,0.9061575,0.8588321,0.3589143,0.622782,0,0.0,0.0,0.0,0.0,0.024316348,0,0,0.0,0.0,0,0,64.0,0.0,483.0,4660.512820512821,3892.820512820513,4506.666666666667,4460.000000000001,4215.384615384616,4511.282051282052,4441.538461538462,4391.794871794872,4373.846153846154,4759.48717948718,4324.615384615385,4301.025641025642,4088.205128205129,4580.000000000001
50.30886,0.9061575,0.8588321,0.3589143,0.622782,0,0.0,0.0,0.10776768,0.0,0.0,0,0,0.0,0.0,0,0,96.0,0.0,1274.0,4690.256410256411,3942.564102564103,4542.564102564103,4466.666666666667,4213.846153846154,4524.615384615385,4474.358974358975,4421.025641025642,4395.8974358974365,4797.948717948719,4351.282051282052,4357.948717948719,4136.410256410257,4611.282051282052
50.559074,0.9080198,0.80379105,0.36266932,0.6367421,0,0.0,0.0,0.0,0.0,0.0,0,0,0.0,0.0,0,0,128.0,0.0,1274.0,4698.974358974359,3935.3846153846157,4550.256410256411,4455.384615384616,4195.384615384616,4511.794871794872,4481.538461538462,4424.102564102564,4406.666666666667,4785.641025641026,4362.051282051282,4358.461538461539,4154.358974358975,4623.076923076924
50.559074,0.9080198,0.80379105,0.36266932,0.6367421,0,0.0,0.0,0.0,0.0,0.0,0,0,0.0,0.0,0,0,128.0,0.0,1274.0,4698.974358974359,3935.3846153846157,4550.256410256411,4455.384615384616,4195.384615384616,4511.794871794872,4481.538461538462,4424.102564102564,4406.666666666667,4785.641025641026,4362.051282051282,4358.461538461539,4154.358974358975,4623.076923076924
51.059505,0.8776529,0.7495696,0.3660435,0.6580606,0,0.0,0.0,0.0,0.0,0.0,0,0,0.0,0.0,0,0,63.0,0.0,0.0,4728.717948717949,3968.717948717949,4561.538461538462,4451.282051282052,4161.538461538462,4508.205128205129,4526.666666666667,4496.923076923077,4437.948717948719,4821.538461538462,4411.794871794872,4433.333333333334,4205.128205128206,4646.666666666667
51.059505,0.8776529,0.7495696,0.3660435,0.6580606,0,0.0,0.0,0.0,0.0,0.0,0,0,0.0,0.0,0,0,63.0,0.0,0.0,4728.717948717949,3968.717948717949,4561.538461538462,4451.282051282052,4161.538461538462,4508.205128205129,4526.666666666667,4496.923076923077,4437.948717948719,4821.538461538462,4411.794871794872,4433.333333333334,4205.128205128206,4646.666666666667
51.559933,0.82885426,0.73224974,0.36874756,0.6801868,0,0.0,0.0,0.0,0.0,0.0,0,0,0.0,0.0,0,0,108.0,0.0,1265.0,4751.794871794872,3974.8717948717954,4571.794871794872,4456.410256410257,4143.589743589744,4486.153846153847,4537.948717948719,4508.717948717949,4446.666666666667,4821.025641025642,4431.282051282052,4450.769230769231,4220.512820512821,4681.025641025642
51.559933,0.82885426,0.73224974,0.36874756,0.6801868,0,0.0,0.0,0.0,0.0,0.0,0,0,0.0,0.0,0,0,127.0,0.0,409.0,4773.846153846154,3988.717948717949,4589.2307692307695,4475.384615384616,4192.820512820514,4529.2307692307695,4563.589743589744,4543.076923076924,4473.333333333334,4833.333333333334,4457.948717948719,4511.794871794872,4236.410256410257,4698.974358974359
52.060364,0.8912571,0.7293584,0.3709019,0.7116801,0,0.0,0.0,0.0,0.0,0.0,0,0,0.0,0.0,0,0,46.0,0.0,0.0,4734.358974358975,3990.2564102564106,4578.461538461539,4481.538461538462,4135.8974358974365,4483.076923076924,4550.769230769231,4542.564102564103,4448.205128205129,4823.589743589744,4355.8974358974365,4464.615384615385,4227.6923076923085,4685.641025641026
52.060364,0.8912571,0.7293584,0.3709019,0.7116801,0,0.0,0.0,0.0,0.0,0.0,0,0,0.0,0.0,0,0,62.0,0.0,0.0,4731.282051282052,3981.0256410256416,4568.205128205129,4487.179487179488,4125.128205128206,4475.8974358974365,4520.512820512821,4507.6923076923085,4433.846153846154,4802.051282051282,4333.846153846154,4424.615384615385,4202.564102564103,4673.333333333334
52.560795,0.89687705,0.7267628,0.37283403,0.7398655,0,0.0,0.0,0.0,0.0,0.0,0,0,0.0,0.0,0,0,123.0,0.0,404.0,4671.282051282052,3969.7435897435903,4541.025641025642,4510.256410256411,4171.794871794872,4490.769230769231,4481.025641025642,4457.435897435898,4396.923076923077,4716.923076923077,4250.256410256411,4329.2307692307695,4107.6923076923085,4617.948717948719
52.560795,0.89687705,0.7267628,0.37283403,0.7398655,0,0.0,0.0,0.0,0.0,0.0,0,0,0.0,0.0,0,0,126.0,0.0,537.0,4679.48717948718,3985.1282051282055,4537.948717948719,4515.8974358974365,4170.769230769231,4493.846153846154,4480.000000000001,4461.025641025642,4394.358974358975,4724.615384615386,4265.641025641026,4339.48717948718,4118.461538461539,4616.410256410257
53.061226,0.82671523,0.713464,0.37456584,0.7650358,0,0.0,0.0,0.0,0.0,0.0,0,0,0.0,0.3726361,0,0,37.0,0.0,0.0,4682.051282051282,3920.0000000000005,4541.538461538462,4456.923076923077,4194.871794871796,4503.076923076924,4480.000000000001,4492.820512820514,4327.6923076923085,4758.461538461539,4251.794871794872,4318.974358974359,4175.384615384616,4632.820512820514
53.31144,0.82671523,0.713464,0.37456584,0.7650358,0,0.0,0.0,0.0,0.0,0.0,0,0,0.0,0.23783132,0,0,93.0,0.0,1324.0,4665.641025641026,3908.205128205129,4535.8974358974365,4431.282051282052,4226.666666666667,4521.025641025642,4488.205128205129,4449.2307692307695,4324.615384615385,4765.128205128206,4281.538461538462,4313.333333333334,4188.717948717949,4646.666666666667
53.561653,0.7673663,0.680517,0.37896132,0.78027004,0,0.0,0.0,0.0,0.0,0.0,0,0,0.0,0.0,0,0,125.0,0.0,1324.0,4653.333333333334,3921.538461538462,4532.307692307693,4438.974358974359,4233.333333333334,4527.179487179488,4504.102564102564,4463.589743589744,4351.282051282052,4785.641025641026,4309.2307692307695,4318.461538461539,4186.153846153847,4633.846153846154
53.561653,0.7673663,0.680517,0.37896132,0.78027004,0,0.0,0.0,0.0,0.0,0.0,0,0,0.0,0.0,0,0,125.0,0.0,1324.0,4653.333333333334,3921.538461538462,4532.307692307693,4438.974358974359,4233.333333333334,4527.179487179488,4504.102564102564,4463.589743589744,4351.282051282052,4785.641025641026,4309.2307692307695,4318.461538461539,4186.153846153847,4633.846153846154
53.561653,0.7673663,0.680517,0.37896132,0.78027004,0,0.0,0.0,0.0,0.0,0.0,0,0,0.0,0.0,0,0,125.0,0.0,1324.0,4653.333333333334,3921.538461538462,4532.307692307693,4438.974358974359,4233.333333333334,4527.179487179488,4504.102564102564,4463.589743589744,4351.282051282052,4785.641025641026,4309.2307692307695,4318.461538461539,4186.153846153847,4633.846153846154
54.062084,0.7443177,0.6522175,0.38610047,0.7927528,0,0.0,0.0,0.0,0.0,0.0,0,0,0.0,0.0,0,0,60.0,0.0,0.0,4685.128205128206,3928.205128205129,4546.666666666667,4446.666666666667,4251.794871794872,4536.923076923077,4517.948717948719,4482.564102564103,4389.743589743591,4793.333333333334,4304.615384615385,4346.666666666667,4162.564102564103,4649.743589743591
54.546875,0.6904962,0.623856,0.39251527,0.797173,0,0.0,0.0,0.0,0.0,0.0,0,0,0.0,0.0,0,0,124.0,0.0,1248.0,4700.000000000001,3931.7948717948725,4534.871794871796,4435.8974358974365,4251.794871794872,4536.923076923077,4475.384615384616,4446.153846153847,4379.48717948718,4746.153846153847,4295.384615384616,4298.974358974359,4155.8974358974365,4646.153846153847
54.546875,0.6904962,0.623856,0.39251527,0.797173,0,0.0,0.0,0.0,0.0,0.0,0,0,0.0,0.0,0,0,124.0,0.0,1248.0,4700.000000000001,3931.7948717948725,4534.871794871796,4435.8974358974365,4251.794871794872,4536.923076923077,4475.384615384616,4446.153846153847,4379.48717948718,4746.153846153847,4295.384615384616,4298.974358974359,4155.8974358974365,4646.153846153847
55.047306,0.6213718,0.5937593,0.3982768,0.8010356,0,0.0,0.0,0.0,0.0,0.0,0,0,0.0,0.0,0,0,55.0,0.0,0.0,4686.153846153847,3963.076923076924,4529.2307692307695,4453.846153846154,4256.410256410257,4546.666666666667,4486.666666666667,4451.282051282052,4390.256410256411,4747.179487179488,4358.461538461539,4320.000000000001,4151.794871794872,4617.435897435898
55.047306,0.6213718,0.5937593,0.3982768,0.8010356,0,0.0,0.0,0.0,0.0,0.0,0,0,0.0,0.0,0,0,59.0,0.0,0.0,4686.153846153847,3958.9743589743593,4522.564102564103,4449.2307692307695,4250.769230769231,4548.717948717949,4490.256410256411,4487.179487179488,4409.743589743591,4764.102564102564,4372.307692307693,4342.564102564103,4165.128205128206,4618.974358974359
55.547737,0.5837453,0.5639579,0.40251145,0.8090009,0,0.0,0.0,0.0,0.0,0.0,0,0,0.0,0.0,0,0,123.0,0.0,404.0,4745.641025641026,4018.461538461539,4564.102564102564,4473.333333333334,4220.512820512821,4530.256410256411,4493.846153846154,4495.8974358974365,4443.076923076924,4817.435897435898,4454.871794871796,4430.769230769231,4280.512820512821,4668.205128205129
55.672844,0.5837453,0.5639579,0.40251145,0.8090009,1,0.0,0.0,0.0,0.0,0.0,0,0,0.0,0.0,0,0,10.0,0.0,537.0,4727.6923076923085,3998.9743589743593,4564.102564102564,4471.282051282052,4220.512820512821,4532.307692307693,4506.666666666667,4523.076923076924,4442.051282051282,4793.846153846154,4397.948717948719,4406.153846153847,4235.384615384616,4634.358974358975
56.04817,0.5753362,0.5383552,0.40549296,0.8184027,0,0.0,0.0,0.030450657,0.0,0.0,0,0,0.0,0.0,0,0,58.0,0.0,0.0,4686.666666666667,3958.461538461539,4521.538461538462,4441.025641025642,4203.076923076924,4515.384615384616,4476.410256410257,4524.615384615385,4405.641025641026,4749.743589743591,4275.384615384616,4322.051282051282,4178.461538461539,4599.48717948718
56.173275,0.5753362,0.5383552,0.40549296,0.8184027,0,0.0,0.0,0.0,0.0,0.0,0,0,0.0,0.0,0,0,74.0,0.0,537.0,4710.769230769231,3974.8717948717954,4542.051282051282,4459.48717948718,4203.589743589744,4516.923076923077,4469.743589743591,4520.512820512821,4418.974358974359,4767.6923076923085,4258.461538461539,4341.538461538462,4198.461538461539,4608.717948717949
56.548595,0.5827699,0.52344674,0.4065842,0.82867223,0,0.0,0.0,0.0,0.0,0.0,0,0,0.0,0.0,0,0,122.0,0.0,537.0,4703.589743589744,3925.6410256410263,4514.358974358975,4410.769230769231,4205.641025641026,4507.179487179488,4432.820512820514,4453.846153846154,4399.48717948718,4738.974358974359,4163.589743589744,4261.025641025642,4157.435897435898,4588.205128205129
56.548595,0.5827699,0.52344674,0.4065842,0.82867223,0,0.0,0.0,0.0,0.0,0.0,0,0,0.0,0.0,0,0,122.0,0.0,537.0,4703.589743589744,3925.6410256410263,4514.358974358975,4410.769230769231,4205.641025641026,4507.179487179488,4432.820512820514,4453.846153846154,4399.48717948718,4738.974358974359,4163.589743589744,4261.025641025642,4157.435897435898,4588.205128205129
57.049026,0.5954423,0.51530874,0.40619162,0.83987564,0,0.0,0.0,0.0,0.0,0.0,0,0,0.0,0.0,0,0,57.0,0.0,0.0,4704.102564102564,3927.692307692308,4522.564102564103,4402.564102564103,4222.564102564103,4515.8974358974365,4407.179487179487,4470.769230769231,4400.000000000001,4746.666666666667,4094.8717948717954,4248.205128205129,4152.307692307693,4586.666666666667
57.049026,0.5954423,0.51530874,0.40619162,0.83987564,0,0.0,0.0,0.0,0.0,0.0,0,0,0.0,0.0,0,0,57.0,0.0,0.0,4704.102564102564,3927.692307692308,4522.564102564103,4402.564102564103,4222.564102564103,4515.8974358974365,4407.179487179487,4470.769230769231,4400.000000000001,4746.666666666667,4094.8717948717954,4248.205128205129,4152.307692307693,4586.666666666667
57.549458,0.5921336,0.5080283,0.4044178,0.85504955,0,0.0,0.0,0.0,0.0,0.0,0,0,0.0,0.0,0,0,121.0,0.0,1297.0,4594.871794871796,3809.2307692307695,4438.974358974359,4338.974358974359,4288.205128205129,4583.076923076924,4377.948717948719,4429.2307692307695,4305.641025641026,4618.461538461539,3853.8461538461543,4057.9487179487182,3953.333333333334,4435.8974358974365
57.79967,0.5921336,0.5080283,0.4044178,0.85504955,0,0.0,0.48215055,0.0,0.0,0.0,0,0,0.0,0.0,0,0,24.0,0.0,0.0,4638.461538461539,3900.0000000000005,4473.846153846154,4407.179487179487,4257.435897435898,4554.871794871796,4394.871794871796,4482.564102564103,4342.051282051282,4668.717948717949,3974.358974358975,4159.48717948718,4021.0256410256416,4517.435897435898
58.04989,0.66962594,0.501476,0.40081114,0.86987305,0,0.0,0.06407383,0.0,0.0,0.0,0,0,0.0,0.0,0,0,56.0,0.0,0.0,4630.256410256411,3891.2820512820517,4463.076923076924,4398.974358974359,4264.102564102564,4555.384615384616,4397.948717948719,4471.282051282052,4332.820512820514,4660.512820512821,3871.7948717948725,4125.641025641026,4025.6410256410263,4527.179487179488
58.300102,0.66962594,0.501476,0.40081114,0.86987305,0,0.0,0.052160837,0.0,0.0,0.0,0,0,0.0,0.0,0,0,88.0,0.0,1138.0,4596.923076923077,3822.564102564103,4469.743589743591,4345.641025641026,4264.615384615385,4551.794871794872,4392.820512820514,4480.000000000001,4330.769230769231,4654.358974358975,3894.358974358975,4123.589743589744,4065.6410256410263,4550.769230769231
58.550316,0.63589597,0.49557886,0.3975214,0.88321424,0,0.0,0.0,0.0,0.0,0.06203667,0,0,0.0,0.0,0,0,120.0,0.0,1138.0,4606.153846153847,3842.0512820512827,4490.256410256411,4365.128205128206,4287.6923076923085,4560.512820512821,4396.923076923077,4449.2307692307695,4347.179487179487,4687.6923076923085,3985.6410256410263,4167.179487179487,4114.871794871796,4564.615384615385
58.800533,0.63589597,0.49557886,0.3975214,0.88321424,0,0.0,0.0,0.0,0.0,0.075475045,0,0,0.0,0.0,0,0,23.0,0.0,0.0,4615.384615384616,3850.2564102564106,4492.820512820514,4383.589743589744,4300.000000000001,4570.256410256411,4428.717948717949,4484.102564102564,4358.461538461539,4698.974358974359,4107.179487179487,4216.923076923077,4113.846153846154,4569.2307692307695
59.050747,0.678889,0.49027145,0.392247,0.87053984,0,0.0,0.0,0.0,0.0,0.01949799,0,0,0.0,0.0,0,0,55.0,0.0,0.0,4624.615384615385,3847.692307692308,4473.333333333334,4383.076923076924,4287.179487179487,4554.358974358975,4420.512820512821,4484.615384615385,4352.820512820514,4683.076923076924,4068.717948717949,4202.051282051282,4090.7692307692314,4557.435897435898
59.30096,0.678889,0.49027145,0.392247,0.87053984,0,0.0,0.0,0.0,0.0,0.0,0,0,0.16700402,0.0,0,0,87.0,0.0,404.0,4651.794871794872,3891.2820512820517,4488.205128205129,4402.564102564103,4289.74358974359,4557.435897435898,4431.282051282052,4431.794871794872,4327.6923076923085,4652.820512820514,3712.307692307693,4138.974358974359,4079.48717948718,4571.794871794872
59.551178,0.5207959,0.50548226,0.38634518,0.8386824,0,0.0,0.0,0.0,0.0,0.0,0,0,0.0,0.18553053,0,0,119.0,0.0,404.0,4636.923076923077,3836.9230769230776,4486.153846153847,4385.641025641026,4277.435897435898,4555.8974358974365,4436.923076923077,4466.666666666667,4352.307692307693,4703.589743589744,3739.48717948718,4135.384615384616,4130.769230769231,4596.923076923077
59.80139,0.5207959,0.50548226,0.38634518,0.8386824,0,0.0,0.0,0.0,0.0,0.0,0,0,0.0,0.13155693,0,0,22.0,0.0,0.0,4604.102564102564,3830.2564102564106,4460.512820512821,4373.846153846154,4260.000000000001,4541.538461538462,4389.743589743591,4382.564102564103,4312.820512820514,4655.384615384616,3698.461538461539,4066.1538461538466,4064.1025641025644,4567.179487179488
60.05161,0.5605823,0.51930016,0.38094807,0.80913395,0,0.0,0.0,0.0,0.0,0.0,0,0,0.0,0.0,0,0,54.0,0.0,0.0,4407.179487179487,3602.564102564103,4295.8974358974365,4180.512820512821,4411.794871794872,4575.384615384616,4163.589743589744,4118.461538461539,4108.717948717949,4328.205128205129,3258.461538461539,3649.2307692307695,3802.0512820512827,4391.282051282052
60.05161,0.5605823,0.51930016,0.38094807,0.80913395,0,0.0,0.0,0.0,0.0,0.0,0,0,0.0,0.0,0,0,54.0,0.0,0.0,4407.179487179487,3602.564102564103,4295.8974358974365,4180.512820512821,4411.794871794872,4575.384615384616,4163.589743589744,4118.461538461539,4108.717948717949,4328.205128205129,3258.461538461539,3649.2307692307695,3802.0512820512827,4391.282051282052
60.552036,0.7033124,0.5317363,0.3761593,0.78337306,0,0.0,0.0,0.0,0.0,0.0,0,0,0.0,0.0,0,0,118.0,0.0,537.0,4476.410256410257,3716.410256410257,4361.025641025642,4242.051282051282,4358.461538461539,4554.358974358975,4270.256410256411,4267.179487179487,4234.871794871796,4482.051282051282,3618.9743589743593,3913.8461538461543,3948.717948717949,4456.923076923077
60.583313,0.7033124,0.5317363,0.3761593,0.78337306,0,0.0,0.0,0.0,0.0,0.0,0,0,0.0,0.0,0,0,122.0,0.0,537.0,4480.512820512821,3715.8974358974365,4363.076923076924,4237.948717948719,4356.410256410257,4554.358974358975,4278.974358974359,4284.102564102564,4245.641025641026,4488.205128205129,3692.820512820513,3937.435897435898,3951.7948717948725,4460.512820512821
61.052467,0.80507755,0.5429288,0.37185988,0.7602156,0,0.0,0.0,1.0,0.0,0.0,0,0,0.0,0.0,0,0,53.0,0.0,0.0,4740.512820512821,3980.5128205128212,4571.794871794872,4485.128205128206,4191.282051282052,4524.102564102564,4510.256410256411,4572.820512820514,4451.282051282052,4831.282051282052,4286.666666666667,4460.512820512821,4271.282051282052,4674.871794871796
61.30268,0.80507755,0.5429288,0.37185988,0.7602156,0,0.0,0.38886213,0.0,0.0,0.0,0,0,0.0,0.0,0,0,85.0,0.0,1237.0,4766.153846153847,4015.8974358974365,4562.564102564103,4521.538461538462,4198.461538461539,4521.025641025642,4480.512820512821,4522.564102564103,4427.6923076923085,4772.820512820514,4327.179487179487,4439.48717948718,4231.282051282052,4665.128205128206
61.5529,0.87074155,0.55300206,0.3679375,0.7389849,0,0.0,0.0,0.0,0.0,0.042751923,0,0,0.0,0.0,0,0,117.0,0.0,1237.0,4694.358974358975,3939.48717948718,4522.564102564103,4472.820512820514,4202.564102564103,4522.051282051282,4461.025641025642,4504.102564102564,4393.846153846154,4736.923076923077,4227.6923076923085,4348.717948717949,4160.512820512821,4605.128205128206
61.803112,0.87074155,0.55300206,0.3679375,0.7389849,0,0.0,0.0,0.0,0.0,0.0458671,0,0,0.0,0.0,0,0,20.0,0.0,0.0,4673.846153846154,3902.564102564103,4508.717948717949,4450.769230769231,4224.615384615385,4531.282051282052,4459.48717948718,4534.871794871796,4410.769230769231,4771.794871794872,4268.717948717949,4354.358974358975,4178.974358974359,4600.000000000001
62.053326,0.8143596,0.562068,0.36441013,0.7199535,0,0.0,0.0,0.0,0.0,0.12453218,0,0,0.0,0.0,0,0,52.0,0.0,0.0,4640.512820512821,3889.7435897435903,4503.589743589744,4437.948717948719,4234.358974358975,4538.974358974359,4473.333333333334,4558.461538461539,4413.846153846154,4754.871794871796,4284.102564102564,4337.435897435898,4143.076923076924,4582.564102564103
62.303543,0.8143596,0.562068,0.36441013,0.7199535,0,0.0,0.0,0.0,0.0,0.21908084,0,0,0.0,0.0,0,0,84.0,0.0,966.0,4698.974358974359,3902.564102564103,4507.6923076923085,4458.974358974359,4245.641025641026,4547.6923076923085,4458.461538461539,4543.076923076924,4419.48717948718,4738.974358974359,4275.384615384616,4346.153846153847,4140.000000000001,4587.179487179488
62.553757,0.75400466,0.5702273,0.36123046,0.7028617,0,0.0,0.0,0.0,0.0,0.11142024,0,0,0.0,0.0,0,0,116.0,0.0,966.0,4692.307692307693,3929.2307692307695,4515.384615384616,4486.666666666667,4243.589743589744,4544.615384615385,4442.051282051282,4550.256410256411,4433.846153846154,4751.282051282052,4349.2307692307695,4365.128205128206,4141.538461538462,4595.384615384616
62.803974,0.75400466,0.5702273,0.36123046,0.7028617,0,0.0,0.0,0.044690356,0.0,0.0,0,0,0.0,0.0,0,0,19.0,0.0,0.0,4721.538461538462,3953.333333333334,4524.615384615385,4495.384615384616,4250.256410256411,4546.666666666667,4438.974358974359,4535.8974358974365,4425.641025641026,4748.205128205129,4354.871794871796,4390.769230769231,4194.358974358975,4627.179487179488
63.054188,0.6709447,0.5632996,0.35837027,0.68751913,1,0.0,0.0,0.0,0.0,0.099731,0,0,0.0,0.0,0,0,51.0,0.0,0.0,4733.846153846154,3917.435897435898,4505.641025641026,4473.333333333334,4247.179487179487,4542.051282051282,4433.333333333334,4508.717948717949,4398.974358974359,4717.435897435898,4245.128205128206,4327.6923076923085,4132.307692307693,4582.051282051282
63.179295,0.6709447,0.5632996,0.35837027,0.68751913,0,0.0,0.0,0.0,0.0,0.0,0,0,0.0,0.0,0,0,67.0,0.0,541.0,4710.256410256411,3907.1794871794878,4493.333333333334,4473.333333333334,4241.538461538462,4529.743589743591,4433.333333333334,4507.6923076923085,4398.461538461539,4720.512820512821,4218.461538461539,4307.6923076923085,4122.051282051282,4585.641025641026
63.55462,0.65504014,0.5413504,0.3558036,0.6737561,0,0.0,0.0,0.0,0.0,0.0,0,0,0.0,0.0,0,0,115.0,0.0,408.0,4705.641025641026,3938.9743589743593,4483.589743589744,4467.6923076923085,4246.666666666667,4534.358974358975,4413.846153846154,4443.589743589744,4375.8974358974365,4680.512820512821,4171.794871794872,4257.435897435898,4064.1025641025644,4566.666666666667
63.804832,0.65504014,0.5413504,0.3558036,0.6737561,0,0.0,0.0,0.0,0.0,0.06222236,0,0,0.0,0.0,0,0,18.0,0.0,0.0,4728.717948717949,3932.820512820513,4489.2307692307695,4473.846153846154,4246.666666666667,4528.717948717949,4409.743589743591,4449.2307692307695,4381.538461538462,4663.076923076924,4216.923076923077,4266.153846153847,4061.0256410256416,4566.666666666667
64.055046,0.6109028,0.5393057,0.35481784,0.67158926,0,0.0,0.0,0.0,0.0,0.06284389,0,0,0.0,0.0,0,0,50.0,0.0,0.0,4730.256410256411,3951.7948717948725,4497.435897435898,4488.205128205129,4246.153846153847,4531.282051282052,4421.538461538462,4474.871794871796,4394.871794871796,4688.205128205129,4244.102564102564,4291.282051282052,4090.2564102564106,4571.282051282052
64.30526,0.6109028,0.5393057,0.35481784,0.67158926,0,0.0,0.0,0.0,0.0,0.2191089,0,0,0.0,0.0,0,0,82.0,0.0,536.0,4696.410256410257,3936.410256410257,4490.256410256411,4476.410256410257,4254.358974358975,4536.410256410257,4425.128205128206,4477.435897435898,4398.974358974359,4689.743589743591,4292.820512820514,4281.538461538462,4081.0256410256416,4558.974358974359
64.55548,0.56083584,0.5337917,0.3563286,0.68028665,0,0.0,0.0,0.0,0.0,0.0,0,0,0.0,0.0,0,0,114.0,0.0,536.0,4681.025641025642,3943.076923076924,4500.000000000001,4476.923076923077,4256.923076923077,4539.48717948718,4430.256410256411,4490.256410256411,4422.564102564103,4699.48717948718,4346.666666666667,4314.358974358975,4100.512820512821,4567.6923076923085
64.55548,0.56083584,0.5337917,0.3563286,0.68028665,0,0.0,0.0,0.0,0.0,0.0,0,0,0.0,0.0,0,0,114.0,0.0,536.0,4681.025641025642,3943.076923076924,4500.000000000001,4476.923076923077,4256.923076923077,4539.48717948718,4430.256410256411,4490.256410256411,4422.564102564103,4699.48717948718,4346.666666666667,4314.358974358975,4100.512820512821,4567.6923076923085
65.05591,0.51823896,0.5189371,0.36039945,0.6951725,0,0.0,0.0,0.0,0.0,0.17076695,0,0,0.0,0.0,0,0,49.0,0.0,0.0,4649.743589743591,3965.1282051282055,4518.974358974359,4507.179487179488,4249.2307692307695,4548.205128205129,4452.307692307693,4505.128205128206,4441.025641025642,4706.666666666667,4349.2307692307695,4344.615384615385,4132.307692307693,4568.717948717949
65.30612,0.51823896,0.5189371,0.36039945,0.6951725,0,0.0,0.0,0.0,0.0,0.11327628,0,0,0.0,0.0,0,0,81.0,0.0,1229.0,4638.461538461539,3958.461538461539,4508.205128205129,4484.102564102564,4241.025641025642,4537.435897435898,4432.820512820514,4452.820512820514,4415.384615384616,4699.48717948718,4364.102564102564,4321.538461538462,4138.974358974359,4567.179487179488
65.556335,0.51098526,0.50574195,0.36405867,0.71332276,0,0.0,0.0,0.0,0.0,0.06506864,0,0,0.0,0.0,0,0,113.0,0.0,1229.0,4618.461538461539,3923.076923076924,4489.2307692307695,4433.333333333334,4212.307692307693,4507.179487179488,4393.846153846154,4375.8974358974365,4393.846153846154,4662.564102564103,4228.205128205129,4228.205128205129,4118.461538461539,4537.435897435898
65.80655,0.51098526,0.50574195,0.36405867,0.71332276,0,0.0,0.0,0.0,0.0,0.22014786,0,0,0.0,0.0,0,0,16.0,0.0,0.0,4629.743589743591,3972.820512820513,4511.282051282052,4461.025641025642,4209.74358974359,4511.282051282052,4426.666666666667,4422.564102564103,4427.179487179487,4701.538461538462,4331.282051282052,4273.846153846154,4143.076923076924,4495.8974358974365
66.05677,0.51453924,0.4912067,0.36734682,0.72797704,0,0.0,0.0,0.0,0.0,0.1657958,0,0,0.0,0.0,0,0,48.0,0.0,0.0,4629.2307692307695,4029.7435897435903,4547.6923076923085,4506.666666666667,4229.74358974359,4549.743589743591,4495.8974358974365,4566.153846153847,4480.512820512821,4788.205128205129,4536.923076923077,4434.358974358975,4227.179487179487,4526.666666666667
66.306984,0.51453924,0.4912067,0.36734682,0.72797704,0,0.0,0.0,0.0,0.0,0.1171457,0,0,0.0,0.0,0,0,80.0,0.0,959.0,4584.615384615385,4012.820512820513,4538.461538461539,4494.358974358975,4231.282051282052,4563.589743589744,4506.666666666667,4616.410256410257,4470.769230769231,4773.333333333334,4552.307692307693,4433.333333333334,4243.076923076924,4550.256410256411
66.5572,0.5323748,0.48226768,0.36889783,0.74287367,0,0.0,0.0,0.0,0.0,0.037296034,0,0,0.0,0.0,0,0,112.0,0.0,959.0,4585.128205128206,3968.717948717949,4523.589743589744,4486.666666666667,4231.282051282052,4552.307692307693,4501.025641025642,4581.025641025642,4429.743589743591,4747.6923076923085,4490.256410256411,4362.564102564103,4208.205128205129,4535.384615384616
66.80741,0.5323748,0.48226768,0.36889783,0.74287367,0,0.0,0.0,0.0,0.0,0.05163057,0,0,0.0,0.0,0,0,15.0,0.0,408.0,4570.769230769231,3952.307692307693,4512.307692307693,4474.871794871796,4226.666666666667,4538.461538461539,4459.48717948718,4503.589743589744,4397.435897435898,4706.666666666667,4420.512820512821,4298.974358974359,4159.48717948718,4524.102564102564
67.057625,0.5357577,0.47929615,0.36761966,0.75967777,0,0.0,0.0,0.0,0.0,0.1438665,0,0,0.0,0.0,0,0,47.0,0.0,0.0,4598.461538461539,3916.410256410257,4499.48717948718,4462.051282051282,4217.948717948719,4523.589743589744,4450.769230769231,4467.6923076923085,4387.179487179487,4711.282051282052,4362.051282051282,4284.615384615385,4163.589743589744,4541.025641025642
67.307846,0.5357577,0.47929615,0.36761966,0.75967777,0,0.0,0.0,0.0,0.0,0.08792624,0,0,0.0,0.0,0,0,79.0,0.0,408.0,4626.153846153847,3936.9230769230776,4506.153846153847,4490.256410256411,4232.307692307693,4527.6923076923085,4474.358974358975,4495.8974358974365,4420.000000000001,4738.974358974359,4433.846153846154,4344.102564102564,4176.410256410257,4537.948717948719
67.55806,0.49562177,0.47767645,0.36646387,0.7730705,0,0.0,0.0,0.0,0.0,0.034266263,0,0,0.0,0.0,0,0,111.0,0.0,408.0,4646.153846153847,3945.1282051282055,4512.307692307693,4497.435897435898,4226.153846153847,4520.512820512821,4456.923076923077,4448.205128205129,4410.769230769231,4734.871794871796,4428.205128205129,4351.282051282052,4190.769230769231,4546.153846153847
67.80827,0.49562177,0.47767645,0.36646387,0.7730705,0,0.0,0.0,0.0,0.0,0.0,0,0,0.0,0.0,0,0,14.0,0.0,536.0,4631.282051282052,3959.48717948718,4505.641025641026,4495.8974358974365,4222.564102564103,4522.564102564103,4463.076923076924,4450.769230769231,4418.461538461539,4756.410256410257,4449.743589743591,4363.076923076924,4189.74358974359,4516.410256410257
68.05849,0.44321105,0.46220955,0.36541831,0.78124285,0,0.0,0.0,0.0,0.0,0.1882033,0,0,0.0,0.0,0,0,46.0,0.0,0.0,4648.205128205129,4011.7948717948725,4537.435897435898,4526.153846153847,4210.769230769231,4517.948717948719,4487.179487179488,4456.410256410257,4437.435897435898,4793.333333333334,4522.051282051282,4418.461538461539,4220.000000000001,4519.48717948718
68.3087,0.44321105,0.46220955,0.36541831,0.78124285,0,0.0,0.0,0.0,0.0,0.08416856,0,0,0.0,0.0,0,0,78.0,0.0,536.0,4679.48717948718,4024.615384615385,4545.128205128206,4541.538461538462,4196.923076923077,4509.2307692307695,4484.102564102564,4456.410256410257,4427.6923076923085,4795.384615384616,4519.48717948718,4426.153846153847,4202.564102564103,4521.025641025642
68.55892,0.3869746,0.4466959,0.36417854,0.78327394,0,0.0,0.0,0.0,0.0,0.101878926,0,0,0.0,0.0,0,0,110.0,0.0,536.0,4665.128205128206,3984.1025641025644,4533.846153846154,4523.589743589744,4200.000000000001,4515.384615384616,4483.076923076924,4455.384615384616,4420.000000000001,4794.358974358975,4541.538461538462,4398.974358974359,4140.000000000001,4489.2307692307695
68.809135,0.3869746,0.4466959,0.36417854,0.78327394,0,0.0,0.0,0.0,0.0,0.043356508,0,0,0.0,0.0,0,0,13.0,0.0,1250.0,4635.8974358974365,3945.1282051282055,4504.615384615385,4507.179487179488,4202.051282051282,4510.769230769231,4431.282051282052,4400.000000000001,4388.717948717949,4769.743589743591,4564.615384615385,4334.358974358975,4070.2564102564106,4457.948717948719
69.05935,0.41928917,0.42672,0.36305782,0.79143375,0,0.0,0.0,0.0,0.0,0.036875397,0,0,0.0,0.0,0,0,45.0,0.0,0.0,4715.384615384616,3938.461538461539,4545.641025641026,4520.512820512821,4215.8974358974365,4522.564102564103,4452.820512820514,4385.128205128206,4428.205128205129,4826.666666666667,4692.307692307693,4437.435897435898,4185.641025641026,4537.435897435898
69.30956,0.41928917,0.42672,0.36305782,0.79143375,0,0.0,0.0,0.0,0.0,0.041423894,0,0,0.0,0.0,0,0,77.0,0.0,1254.0,4710.769230769231,3894.8717948717954,4521.025641025642,4528.717948717949,4213.846153846154,4521.538461538462,4469.2307692307695,4440.000000000001,4397.948717948719,4798.461538461539,4658.974358974359,4398.974358974359,4071.7948717948725,4519.48717948718
69.55978,0.3985024,0.4200651,0.3639928,0.7994295,0,0.0,0.0,0.0,0.0,0.084900714,0,0,0.0,0.0,0,0,109.0,0.0,1254.0,4792.820512820514,3923.076923076924,4551.794871794872,4558.461538461539,4240.000000000001,4553.846153846154,4493.846153846154,4476.410256410257,4442.051282051282,4764.615384615386,4737.435897435898,4472.307692307693,4148.717948717949,4587.6923076923085
69.80999,0.3985024,0.4200651,0.3639928,0.7994295,0,0.0,0.0,0.0,0.0,0.022425875,0,0,0.0,0.0,0,0,12.0,0.0,957.0,4718.974358974359,3841.538461538462,4507.179487179488,4473.846153846154,4253.333333333334,4577.435897435898,4488.717948717949,4488.205128205129,4417.435897435898,4704.102564102564,4557.435897435898,4366.153846153847,4054.358974358975,4541.538461538462
70.06021,0.42230073,0.4304294,0.36701778,0.7975138,0,0.0,0.0,0.0,0.0,0.0027426586,0,0,0.0,0.0,0,0,44.0,0.0,0.0,4687.179487179488,3820.512820512821,4482.564102564103,4449.2307692307695,4247.179487179487,4567.179487179488,4457.948717948719,4502.564102564103,4380.512820512821,4668.717948717949,4433.846153846154,4301.538461538462,4020.0000000000005,4506.666666666667
70.310425,0.42230073,0.4304294,0.36701778,0.7975138,0,0.0,0.0,0.0,0.0,0.0,0,0,0.0,0.0,0,0,76.0,0.0,960.0,4671.794871794872,3829.7435897435903,4446.153846153847,4433.333333333334,4233.846153846154,4540.000000000001,4385.128205128206,4439.48717948718,4334.871794871796,4596.923076923077,4312.820512820514,4227.6923076923085,4069.23076923077,4483.589743589744
70.56064,0.47040662,0.4563226,0.36691403,0.7929125,0,0.0,0.0,0.043222323,0.0,0.0,0,0,0.0,0.0,0,0,108.0,0.0,960.0,4672.820512820514,3840.512820512821,4456.923076923077,4500.000000000001,4220.000000000001,4518.461538461539,4386.153846153847,4426.666666666667,4348.205128205129,4617.435897435898,4341.025641025642,4243.076923076924,4104.102564102564,4489.2307692307695
70.81085,0.47040662,0.4563226,0.36691403,0.7929125,0,0.0,0.20482455,0.0,0.0,0.0,0,0,0.0,0.0,0,0,11.0,0.0,408.0,4623.076923076924,3819.48717948718,4452.820512820514,4438.974358974359,4203.589743589744,4498.974358974359,4368.717948717949,4363.076923076924,4342.564102564103,4663.076923076924,4384.615384615385,4229.74358974359,4210.256410256411,4511.794871794872
71.061066,0.46483353,0.49359614,0.36443132,0.7887713,0,0.0,0.0,0.0,0.0,0.0,0,0,0.0,0.5951837,0,0,43.0,0.0,0.0,4662.051282051282,3874.8717948717954,4474.871794871796,4450.769230769231,4195.384615384616,4500.000000000001,4388.717948717949,4404.615384615385,4388.717948717949,4734.871794871796,4504.615384615385,4316.410256410257,4263.589743589744,4537.948717948719
71.31129,0.46483353,0.49359614,0.36443132,0.7887713,0,0.0,0.0,0.16117536,0.0,0.0,0,0,0.0,0.0,0,0,75.0,0.0,408.0,4672.820512820514,3880.0000000000005,4487.6923076923085,4462.564102564103,4207.179487179487,4508.205128205129,4412.307692307693,4386.153846153847,4367.6923076923085,4714.871794871796,4491.794871794872,4300.000000000001,4181.538461538462,4534.871794871796
71.5615,0.46127585,0.52803355,0.3615436,0.7786763,0,0.0,0.0,0.10320532,0.0,0.0,0,0,0.0,0.0,0,0,107.0,0.0,408.0,4615.8974358974365,3904.1025641025644,4510.769230769231,4481.025641025642,4233.846153846154,4532.820512820514,4441.538461538462,4465.641025641026,4429.743589743591,4780.000000000001,4570.256410256411,4380.512820512821,4167.6923076923085,4571.794871794872
71.68661,0.46127585,0.52803355,0.3615436,0.7786763,0,0.0,0.0,0.0,0.0,0.0,0,0,0.0,0.0,0,0,123.0,0.0,408.0,4585.128205128206,3881.0256410256416,4494.871794871796,4460.000000000001,4231.282051282052,4531.794871794872,4441.025641025642,4456.410256410257,4412.820512820514,4745.128205128206,4505.641025641026,4343.076923076924,4159.48717948718,4552.820512820514
72.06193,0.44165874,0.5538076,0.35872257,0.7560325,0,0.0,0.0,0.0,0.0,0.0,0,0,0.0,0.0,0,0,42.0,0.0,0.0,4606.153846153847,3889.2307692307695,4497.948717948719,4443.076923076924,4211.282051282052,4513.333333333334,4425.128205128206,4431.282051282052,4398.461538461539,4666.153846153847,4475.8974358974365,4317.435897435898,4127.179487179487,4574.358974358975
72.09321,0.44165874,0.5538076,0.35872257,0.7560325,0,0.0,0.0,0.0,0.0,0.0,0,0,0.0,0.0,0,0,46.0,0.0,0.0,4622.051282051282,3912.307692307693,4494.871794871796,4448.205128205129,4201.538461538462,4499.48717948718,4406.666666666667,4407.179487179487,4380.000000000001,4639.48717948718,4431.282051282052,4298.461538461539,4112.820512820514,4568.717948717949
72.562355,0.4222217,0.5774747,0.35614586,0.7352718,0,0.0,0.0,0.0,0.0,0.0,0,0,0.0,0.0,0,0,88.0,0.0,960.0,4591.794871794872,3884.1025641025644,4488.717948717949,4439.48717948718,4216.410256410257,4510.256410256411,4412.820512820514,4411.794871794872,4396.410256410257,4648.717948717949,4416.923076923077,4284.102564102564,4093.8461538461543,4568.717948717949
72.562355,0.4222217,0.5774747,0.35614586,0.7352718,0,0.0,0.0,0.0,0.0,0.0,0,0,0.0,0.0,0,0,106.0,0.0,536.0,4587.179487179488,3886.666666666667,4475.384615384616,4433.846153846154,4210.769230769231,4510.256410256411,4420.512820512821,4423.589743589744,4390.769230769231,4632.307692307693,4425.641025641026,4273.333333333334,4088.717948717949,4569.2307692307695
73.06279,0.44257346,0.5887928,0.35382324,0.716636,0,0.0,0.0,0.0,0.0,0.0,0,0,0.0,0.0,0,0,29.0,0.0,0.0,4632.820512820514,3881.0256410256416,4492.820512820514,4446.153846153847,4235.384615384616,4531.282051282052,4433.846153846154,4448.205128205129,4414.871794871796,4687.179487179488,4438.974358974359,4329.743589743591,4158.461538461539,4609.743589743591
73.06279,0.44257346,0.5887928,0.35382324,0.716636,0,0.0,0.0,0.0,0.0,0.0,0,0,0.0,0.0,0,0,41.0,0.0,0.0,4636.923076923077,3887.692307692308,4492.307692307693,4456.410256410257,4243.589743589744,4540.512820512821,4440.000000000001,4452.820512820514,4409.743589743591,4652.307692307693,4421.025641025642,4325.128205128206,4149.74358974359,4610.256410256411
73.56322,0.43925714,0.57843494,0.3517297,0.6998966,0,0.0,0.0,0.26762298,0.0,0.0,0,0,0.0,0.0,0,0,105.0,0.0,1271.0,4630.256410256411,3926.666666666667,4491.794871794872,4471.794871794872,4252.820512820514,4540.512820512821,4429.743589743591,4461.538461538462,4403.076923076924,4658.461538461539,4475.384615384616,4332.307692307693,4101.538461538462,4588.717948717949
73.81343,0.43925714,0.57843494,0.3517297,0.6998966,0,0.0,0.0,0.0,0.0,0.0,0,0,0.0,0.0,0,0,8.0,0.0,656.0,4689.743589743591,3924.615384615385,4509.2307692307695,4474.871794871796,4237.435897435898,4528.717948717949,4405.128205128206,4450.769230769231,4422.564102564103,4706.666666666667,4524.615384615385,4387.179487179487,4196.410256410257,4638.974358974359
74.06365,0.42923576,0.5727269,0.34984642,0.6848677,0,0.0,0.0,0.0,0.0,0.026340118,0,0,0.0,0.0,0,0,40.0,0.0,0.0,4669.743589743591,3891.7948717948725,4507.179487179488,4455.8974358974365,4253.333333333334,4539.48717948718,4438.974358974359,4488.717948717949,4410.769230769231,4721.025641025642,4444.615384615385,4378.974358974359,4184.102564102564,4622.564102564103
74.313866,0.42923576,0.5727269,0.34984642,0.6848677,0,0.0,0.0,0.0,0.0,0.024746932,0,0,0.0,0.0,0,0,72.0,0.0,656.0,4651.282051282052,3887.692307692308,4491.794871794872,4446.666666666667,4248.717948717949,4529.743589743591,4415.384615384616,4448.205128205129,4394.358974358975,4713.846153846154,4394.871794871796,4340.512820512821,4185.128205128206,4621.025641025642
74.56408,0.4314654,0.5527067,0.34815606,0.6713838,0,0.0,0.0,0.0,0.0,0.0,0,0,0.0,0.0,0,0,104.0,0.0,960.0,4643.076923076924,3901.538461538462,4503.076923076924,4424.615384615385,4236.410256410257,4528.205128205129,4415.384615384616,4455.8974358974365,4393.846153846154,4709.2307692307695,4375.384615384616,4308.205128205129,4160.512820512821,4625.641025641026
74.56408,0.4314654,0.5527067,0.34815606,0.6713838,0,0.0,0.0,0.0,0.0,0.0,0,0,0.0,0.0,0,0,104.0,0.0,960.0,4643.076923076924,3901.538461538462,4503.076923076924,4424.615384615385,4236.410256410257,4528.205128205129,4415.384615384616,4455.8974358974365,4393.846153846154,4709.2307692307695,4375.384615384616,4308.205128205129,4160.512820512821,4625.641025641026
75.06451,0.43431485,0.52572453,0.34828225,0.6788571,0,0.0,0.0,0.0,0.0,0.0,0,0,0.0,0.0,0,0,5.0,0.0,547.0,4622.564102564103,3900.5128205128212,4506.153846153847,4382.051282051282,4250.256410256411,4540.512820512821,4412.307692307693,4454.358974358975,4390.769230769231,4715.8974358974365,4389.743589743591,4297.948717948719,4160.512820512821,4621.025641025642
75.31472,0.43431485,0.52572453,0.34828225,0.6788571,0,0.0,0.0,0.0,0.0,0.14884456,0,0,0.0,0.0,0,0,71.0,0.0,478.0,4583.589743589744,3888.205128205129,4477.435897435898,4374.358974358975,4253.333333333334,4554.871794871796,4420.512820512821,4468.205128205129,4395.8974358974365,4703.589743589744,4531.794871794872,4307.6923076923085,4124.615384615385,4585.641025641026
75.56494,0.4178802,0.50056106,0.3509897,0.7125569,0,0.0,0.0,0.0,0.0,0.040430848,0,0,0.0,0.0,0,0,103.0,0.0,408.0,4606.153846153847,3897.9487179487182,4480.512820512821,4406.153846153847,4255.8974358974365,4546.666666666667,4413.846153846154,4443.589743589744,4380.512820512821,4691.282051282052,4535.8974358974365,4313.333333333334,4122.051282051282,4584.615384615385
75.815155,0.4178802,0.50056106,0.3509897,0.7125569,0,0.0,0.0,0.0,0.0,0.05960887,0,0,0.0,0.0,0,0,6.0,0.0,534.0,4613.333333333334,3903.076923076924,4488.717948717949,4412.820512820514,4247.6923076923085,4540.000000000001,4410.769230769231,4445.641025641026,4393.333333333334,4687.179487179488,4530.769230769231,4325.641025641026,4131.282051282052,4591.282051282052
76.06537,0.35996354,0.46858642,0.35342368,0.7521334,0,0.0,0.0,0.0,0.0,0.11220093,0,0,0.0,0.0,0,0,38.0,0.0,0.0,4593.333333333334,3930.2564102564106,4480.512820512821,4410.769230769231,4242.051282051282,4536.923076923077,4408.717948717949,4432.307692307693,4382.564102564103,4686.153846153847,4537.948717948719,4324.615384615385,4156.923076923077,4573.846153846154
76.31558,0.35996354,0.46858642,0.35342368,0.7521334,1,0.0,0.0,0.0,0.0,0.054205816,0,0,0.0,0.0,0,0,70.0,0.0,534.0,4597.435897435898,3949.2307692307695,4506.153846153847,4426.666666666667,4230.256410256411,4534.358974358975,4427.179487179487,4450.256410256411,4368.717948717949,4671.282051282052,4563.076923076924,4332.307692307693,4151.794871794872,4566.153846153847
76.565796,0.36880866,0.4592863,0.35561115,0.7874684,0,0.0,0.0,0.0,0.0,0.14585945,0,0,0.0,0.0,0,0,96.0,0.0,923.0,4559.48717948718,3953.333333333334,4488.717948717949,4440.512820512821,4216.923076923077,4528.205128205129,4420.512820512821,4409.2307692307695,4341.538461538462,4647.6923076923085,4545.128205128206,4292.307692307693,4132.307692307693,4543.076923076924
76.81602,0.36880866,0.4592863,0.35561115,0.7874684,0,0.0,0.0,0.0,0.0,0.0,0,0,0.0,0.0,0,0,5.0,0.0,547.0,4583.076923076924,3998.461538461539,4510.256410256411,4514.358974358975,4213.333333333334,4515.8974358974365,4461.025641025642,4436.923076923077,4386.666666666667,4695.8974358974365,4707.6923076923085,4378.461538461539,4125.641025641026,4535.384615384616
77.06623,0.37970722,0.46927473,0.35688037,0.8189085,0,0.0,0.0,0.0,0.0,0.0,0,0,0.0,0.0,0,0,11.0,0.0,408.0,4616.923076923077,4019.48717948718,4537.435897435898,4536.923076923077,4202.564102564103,4506.153846153847,4438.974358974359,4408.717948717949,4385.128205128206,4697.435897435898,4731.794871794872,4395.384615384616,4142.564102564103,4558.974358974359
77.06623,0.37970722,0.46927473,0.35688037,0.8189085,0,0.0,0.0,0.0,0.0,0.0,0,0,0.0,0.0,0,0,37.0,0.0,0.0,4648.205128205129,4037.9487179487182,4556.923076923077,4571.794871794872,4207.6923076923085,4514.358974358975,4454.358974358975,4427.179487179487,4408.205128205129,4745.641025641026,4755.8974358974365,4442.564102564103,4188.717948717949,4579.48717948718
77.56666,0.40812373,0.49244055,0.35596374,0.84679484,0,0.0,0.0,0.0,0.0,1.0,0,0,0.0,0.0,0,0,96.0,0.0,908.0,4689.2307692307695,4013.333333333334,4538.974358974359,4559.48717948718,4222.564102564103,4525.641025641026,4455.8974358974365,4446.666666666667,4411.282051282052,4737.435897435898,4717.435897435898,4453.846153846154,4451.794871794872,4445.128205128206
77.81687,0.40812373,0.49244055,0.35596374,0.84679484,0,0.0,0.0,0.0,0.0,0.05895259,0,0,0.0,0.0,0,0,4.0,0.0,548.0,4717.948717948719,4054.8717948717954,4535.384615384616,4567.6923076923085,4220.000000000001,4519.48717948718,4406.153846153847,4391.794871794872,4379.48717948718,4677.435897435898,4640.512820512821,4419.48717948718,4431.794871794872,4466.666666666667
77.94198,0.40812373,0.49244055,0.35596374,0.84679484,0,0.0,0.0,0.0,0.0,0.10205489,0,0,0.0,0.0,0,0,20.0,0.0,0.0,4673.846153846154,3984.1025641025644,4533.333333333334,4537.948717948719,4233.333333333334,4539.48717948718,4420.512820512821,4412.820512820514,4383.076923076924,4686.666666666667,4632.820512820514,4407.179487179487,4409.2307692307695,4458.974358974359
78.31731,0.40914753,0.5254991,0.3546094,0.86603403,0,0.0,0.0,0.0,0.0,0.0,0,0,0.0,0.16806686,0,0,68.0,0.0,548.0,4648.205128205129,3936.410256410257,4517.948717948719,4520.000000000001,4232.307692307693,4535.8974358974365,4410.769230769231,4410.769230769231,4371.282051282052,4704.615384615386,4578.461538461539,4362.564102564103,4318.974358974359,4489.743589743591
78.44241,0.40914753,0.5254991,0.3546094,0.86603403,0,0.0,0.0,0.0,0.0,0.0,0,0,0.0,0.0,0,0,84.0,0.0,914.0,4655.384615384616,3951.7948717948725,4521.538461538462,4523.076923076924,4230.256410256411,4536.410256410257,4413.333333333334,4424.615384615385,4380.000000000001,4699.48717948718,4588.205128205129,4371.794871794872,4306.666666666667,4507.6923076923085
78.56752,0.39827734,0.54052484,0.35271809,0.8752619,0,0.0,0.0,0.0,0.0,0.0,0,0,0.0,0.0,0,0,100.0,0.0,914.0,4668.205128205129,3952.820512820513,4523.589743589744,4531.794871794872,4223.589743589744,4528.717948717949,4414.358974358975,4425.128205128206,4383.076923076924,4688.717948717949,4543.076923076924,4362.051282051282,4276.410256410257,4524.102564102564
78.94284,0.39827734,0.54052484,0.35271809,0.8752619,0,0.0,0.0,0.0,0.0,0.07082723,0,0,0.0,0.0,0,0,19.0,0.0,0.0,4666.153846153847,3941.0256410256416,4536.410256410257,4533.333333333334,4238.974358974359,4538.461538461539,4454.871794871796,4442.051282051282,4394.871794871796,4741.538461538462,4593.333333333334,4394.358974358975,4230.256410256411,4550.769230769231
79.31816,0.38912964,0.5392482,0.35101297,0.8721769,0,0.0,0.0,0.0,0.0,0.0,0,0,0.0,0.0,0,0,67.0,0.0,543.0,4667.6923076923085,3904.1025641025644,4518.461538461539,4503.589743589744,4216.410256410257,4510.769230769231,4452.820512820514,4433.846153846154,4390.256410256411,4714.871794871796,4560.000000000001,4338.461538461539,4164.102564102564,4557.948717948719
79.31816,0.38912964,0.5392482,0.35101297,0.8721769,0,0.0,0.0,0.0,0.0,0.0,0,0,0.0,0.0,0,0,67.0,0.0,543.0,4667.6923076923085,3904.1025641025644,4518.461538461539,4503.589743589744,4216.410256410257,4510.769230769231,4452.820512820514,4433.846153846154,4390.256410256411,4714.871794871796,4560.000000000001,4338.461538461539,4164.102564102564,4557.948717948719
79.69349,0.37093383,0.526973,0.35055453,0.8663431,0,0.0,0.0,0.0,0.0,0.0,0,0,0.0,1.0,0,0,115.0,0.0,411.0,4623.589743589744,3862.0512820512827,4481.025641025642,4442.564102564103,4234.871794871796,4530.256410256411,4409.743589743591,4391.794871794872,4363.589743589744,4695.8974358974365,4495.384615384616,4269.74358974359,4105.128205128206,4533.333333333334
79.9437,0.37093383,0.526973,0.35055453,0.8663431,0,0.0,0.0,0.0,0.0,0.0,0,0,0.0,0.5725346,0,0,18.0,0.0,0.0,4628.205128205129,3903.076923076924,4504.102564102564,4471.794871794872,4219.48717948718,4535.384615384616,4438.461538461539,4421.025641025642,4375.384615384616,4709.743589743591,4520.512820512821,4308.205128205129,4114.358974358975,4562.564102564103
80.31902,0.39732322,0.5095492,0.3490588,0.861028,0,0.0,0.0,0.0,0.0,0.0,0,0,0.0,0.0,0,0,66.0,0.0,433.0,4572.307692307693,3885.1282051282055,4486.153846153847,4461.538461538462,4238.974358974359,4542.051282051282,4463.589743589744,4465.128205128206,4395.8974358974365,4798.461538461539,4565.641025641026,4336.923076923077,4182.564102564103,4552.307692307693
80.56924,0.39963195,0.4946592,0.347959,0.8558282,0,0.0,0.0,0.0,0.0,0.0,0,0,0.0,0.0,0,0,80.0,0.0,928.0,4576.923076923077,3911.2820512820517,4492.820512820514,4471.794871794872,4239.48717948718,4545.641025641026,4481.538461538462,4480.000000000001,4384.615384615385,4792.307692307693,4531.794871794872,4341.025641025642,4185.128205128206,4552.307692307693
80.81946,0.39963195,0.4946592,0.347959,0.8558282,0,0.0,0.0,0.14706244,0.0,0.0,0,0,0.0,0.0,0,1,1.0,0.0,445.0,4652.820512820514,4034.358974358975,4566.153846153847,4539.48717948718,4219.48717948718,4532.307692307693,4494.871794871796,4462.051282051282,4404.615384615385,4792.307692307693,4531.794871794872,4408.717948717949,4366.153846153847,4608.717948717949
80.944565,0.39963195,0.4946592,0.347959,0.8558282,0,0.0,0.0,0.13382158,0.0,0.0,0,0,0.0,0.0,0,1,17.0,0.0,0.0,4633.333333333334,4013.333333333334,4554.358974358975,4505.641025641026,4234.358974358975,4550.769230769231,4468.717948717949,4429.2307692307695,4395.384615384616,4764.102564102564,4508.205128205129,4367.179487179487,4320.512820512821,4583.589743589744
81.319885,0.408308,0.504361,0.34705123,0.8510837,0,0.0,0.0,0.0,0.0,0.0,0,0,0.0,0.50904316,0,0,65.0,0.0,445.0,4597.435897435898,3987.1794871794878,4530.769230769231,4535.8974358974365,4253.333333333334,4567.179487179488,4473.333333333334,4356.410256410257,4401.538461538462,4731.282051282052,4438.974358974359,4323.076923076924,4260.512820512821,4540.512820512821
81.44499,0.408308,0.504361,0.34705123,0.8510837,0,0.0,0.0,0.0,0.0,0.0,0,0,0.0,0.22731052,0,0,81.0,0.0,1258.0,4585.641025641026,3992.307692307693,4538.974358974359,4520.512820512821,4249.74358974359,4568.205128205129,4503.076923076924,4392.307692307693,4420.512820512821,4771.282051282052,4470.256410256411,4352.307692307693,4280.000000000001,4549.2307692307695
81.695206,0.426027,0.51592237,0.3462322,0.8491498,0,0.0,0.0,0.0,0.0,0.0,0,0,0.0,0.0,0,0,113.0,0.0,1258.0,4544.615384615385,3908.205128205129,4484.615384615385,4481.025641025642,4265.641025641026,4578.974358974359,4464.615384615385,4316.410256410257,4365.128205128206,4691.282051282052,4320.000000000001,4219.48717948718,4211.282051282052,4491.282051282052
81.695206,0.426027,0.51592237,0.3462322,0.8491498,0,0.0,0.0,0.0,0.0,0.0,0,0,0.0,0.0,0,0,113.0,0.0,1258.0,4544.615384615385,3908.205128205129,4484.615384615385,4481.025641025642,4265.641025641026,4578.974358974359,4464.615384615385,4316.410256410257,4365.128205128206,4691.282051282052,4320.000000000001,4219.48717948718,4211.282051282052,4491.282051282052
82.258194,0.46901542,0.5194489,0.34549314,0.84875625,0,0.0,0.0,0.0,0.0,0.0,0,0,0.0,0.0,0,0,56.0,0.0,0.0,4681.025641025642,3973.8461538461543,4523.589743589744,4526.666666666667,4227.6923076923085,4530.769230769231,4490.256410256411,4427.6923076923085,4437.948717948719,4816.923076923077,4475.384615384616,4289.2307692307695,4222.051282051282,4546.153846153847
82.57096,0.41840848,0.5844535,0.34427908,0.8493702,0,0.0,0.0,0.0,0.0,0.0,0,0,0.0,0.0,0,0,66.0,0.0,433.0,4632.307692307693,3918.9743589743593,4499.48717948718,4502.564102564103,4231.794871794872,4532.820512820514,4496.923076923077,4411.282051282052,4413.333333333334,4820.512820512821,4398.974358974359,4234.358974358975,4200.512820512821,4510.256410256411
82.57096,0.41840848,0.5844535,0.34427908,0.8493702,0,0.0,0.0,0.0,0.0,0.0,0,0,0.0,0.0,0,0,96.0,0.0,937.0,4611.794871794872,3893.8461538461543,4489.2307692307695,4477.948717948719,4260.512820512821,4554.871794871796,4496.923076923077,4463.076923076924,4412.820512820514,4813.333333333334,4308.717948717949,4206.666666666667,4095.3846153846157,4480.512820512821
83.07139,0.4045239,0.58542544,0.34373277,0.8472811,0,0.0,0.0,0.0,0.0,0.0,0,0,0.0,0.0,0,0,120.0,0.0,937.0,4615.384615384616,3916.410256410257,4504.615384615385,4496.923076923077,4251.282051282052,4552.820512820514,4490.769230769231,4459.48717948718,4403.589743589744,4811.282051282052,4328.205128205129,4230.256410256411,4096.923076923077,4491.794871794872
83.227776,0.4045239,0.58542544,0.34373277,0.8472811,1,0.0,0.0,0.0,0.0,0.0,0,0,0.0,0.0,0,0,51.0,0.0,0.0,4671.794871794872,4017.9487179487182,4570.769230769231,4567.179487179488,4223.076923076924,4527.6923076923085,4542.051282051282,4507.6923076923085,4491.794871794872,4895.384615384616,4446.666666666667,4405.128205128206,4246.153846153847,4575.8974358974365
83.57182,0.46299893,0.58667845,0.34421164,0.8435847,0,0.0,0.0,0.0,0.0,0.0,0,0,0.0,0.0,0,0,95.0,0.0,411.0,4385.641025641026,3888.205128205129,4538.974358974359,4536.410256410257,4263.076923076924,4587.179487179488,4449.2307692307695,4418.974358974359,4403.076923076924,4886.666666666667,4293.333333333334,4246.666666666667,4107.6923076923085,4505.128205128206
83.57182,0.46299893,0.58667845,0.34421164,0.8435847,0,0.0,0.0,0.0,0.0,0.0,0,0,0.0,0.0,0,0,95.0,0.0,411.0,4385.641025641026,3888.205128205129,4538.974358974359,4536.410256410257,4263.076923076924,4587.179487179488,4449.2307692307695,4418.974358974359,4403.076923076924,4886.666666666667,4293.333333333334,4246.666666666667,4107.6923076923085,4505.128205128206
84.07225,0.589424,0.58780617,0.34418246,0.8412791,1,0.0,0.0,0.0,0.0,0.0,0,0,0.0,0.0,0,0,125.0,0.0,1240.0,4505.641025641026,3958.461538461539,4589.743589743591,4607.179487179488,4308.205128205129,4649.743589743591,4515.8974358974365,4540.512820512821,4534.871794871796,5069.743589743591,4508.205128205129,4510.256410256411,4243.076923076924,4567.6923076923085
84.19736,0.589424,0.58780617,0.34418246,0.8412791,0,0.0,0.0,0.0,0.0,0.0,0,0,0.0,0.0,0,0,46.0,0.0,0.0,4630.256410256411,4138.974358974359,4651.794871794872,4849.743589743591,4320.512820512821,4672.307692307693,4635.384615384616,4645.128205128206,4658.461538461539,5143.589743589744,4561.538461538462,4694.871794871796,4280.000000000001,4661.538461538462
84.57268,0.593271,0.5888211,0.34415618,0.8323837,0,0.0,0.0,0.0,0.0,0.0,0,0,0.0,0.0,0,0,94.0,0.0,541.0,4478.461538461539,4109.74358974359,4600.000000000001,4742.564102564103,4251.282051282052,4577.948717948719,4582.564102564103,4505.128205128206,4663.589743589744,5151.794871794872,4364.615384615385,4537.435897435898,4201.538461538462,4597.435897435898
84.60396,0.593271,0.5888211,0.34415618,0.8323837,0,0.0,0.0,0.0,0.0,0.0,0,0,0.0,0.0,0,0,98.0,0.0,541.0,4457.435897435898,4086.1538461538466,4590.256410256411,4725.641025641026,4255.8974358974365,4583.076923076924,4587.179487179488,4516.923076923077,4657.948717948719,5161.025641025642,4353.846153846154,4528.205128205129,4196.410256410257,4588.717948717949
85.07311,0.64475083,0.58973455,0.3430739,0.8112828,0,0.0,0.0,0.0,0.0,0.0,0,0,0.0,0.0,0,0,128.0,0.0,928.0,4394.358974358975,3974.358974358975,4542.564102564103,4576.923076923077,4255.8974358974365,4588.717948717949,4428.717948717949,4421.538461538462,4598.461538461539,5062.564102564103,4186.666666666667,4335.384615384616,4105.641025641026,4547.6923076923085
85.104385,0.64475083,0.58973455,0.3430739,0.8112828,0,0.0,0.0,0.0,0.0,0.0,0,0,0.0,0.0,0,0,33.0,0.0,0.0,4489.743589743591,4025.6410256410263,4577.435897435898,4605.128205128206,4262.051282051282,4596.410256410257,4476.923076923077,4485.128205128206,4646.153846153847,4675.384615384616,4358.974358974359,4365.128205128206,4062.0512820512827,4616.923076923077
85.45625,0.64475083,0.58973455,0.3430739,0.8112828,0,0.0,0.0,0.0,0.0,0.0,0,0,0.0,1.0,0,0,77.0,0.0,1221.0,4284.615384615385,4001.0256410256416,4586.666666666667,4524.102564102564,4253.333333333334,4585.128205128206,4520.000000000001,4479.48717948718,4633.846153846154,4773.333333333334,4148.717948717949,4283.589743589744,3962.564102564103,4613.333333333334
85.70647,0.58225936,0.5905567,0.34209985,0.7853784,0,0.0,0.0,0.0,0.0,0.0,0,0,0.0,0.80547565,0,0,109.0,0.0,1221.0,4378.974358974359,4041.0256410256416,4620.000000000001,4540.512820512821,4249.74358974359,4567.6923076923085,4546.666666666667,4528.205128205129,4633.333333333334,4844.102564102564,4237.435897435898,4374.871794871796,4022.564102564103,4666.666666666667
85.89413,0.58225936,0.5905567,0.34209985,0.7853784,0,0.0,0.0,0.0,0.0,0.0,0,0,0.0,1.0,1,0,4.0,0.0,548.0,4406.666666666667,4024.615384615385,4617.948717948719,4501.025641025642,4245.641025641026,4555.8974358974365,4535.8974358974365,4513.333333333334,4621.538461538462,4807.179487179488,4294.358974358975,4358.974358974359,3994.8717948717954,4662.051282051282
86.206894,0.61669844,0.59129655,0.3412111,0.76156634,0,0.0,0.0,0.0,0.0,0.0,0,0,0.0,0.62696105,0,0,44.0,0.0,0.0,4487.6923076923085,4072.820512820513,4650.769230769231,4602.051282051282,4231.794871794872,4536.410256410257,4592.820512820514,4546.666666666667,4608.717948717949,4830.769230769231,4407.179487179487,4436.923076923077,3992.820512820513,4691.794871794872
86.457115,0.61669844,0.59129655,0.3412111,0.76156634,0,0.0,0.0,0.0,0.0,0.0,0,0,0.0,0.40448958,0,0,76.0,0.0,916.0,4453.846153846154,4070.2564102564106,4639.48717948718,4743.076923076924,4215.384615384616,4518.974358974359,4578.974358974359,4549.743589743591,4565.641025641026,4789.743589743591,4328.717948717949,4391.794871794872,3913.333333333334,4697.435897435898
86.70733,0.5911875,0.59196246,0.3404209,0.7406001,0,0.0,0.27456486,0.0,0.0,0.0,0,0,0.0,0.0,0,0,108.0,0.0,916.0,4446.153846153847,4092.820512820513,4649.2307692307695,4877.948717948719,4204.102564102564,4509.2307692307695,4609.743589743591,4561.538461538462,4522.051282051282,4780.000000000001,4261.025641025642,4384.102564102564,3896.410256410257,4718.461538461539
86.988815,0.5911875,0.59196246,0.3404209,0.7406001,1,0.0,0.22520556,0.0,0.0,0.0,0,0,0.0,0.0,0,0,15.0,0.0,409.0,4532.307692307693,4105.128205128206,4682.564102564103,4888.717948717949,4189.74358974359,4492.820512820514,4630.256410256411,4565.641025641026,4491.794871794872,4798.974358974359,4264.615384615385,4408.717948717949,3972.307692307693,4763.589743589744
87.207756,0.5575621,0.5925618,0.33970973,0.7217305,0,0.0,0.47745055,0.0,0.0,0.0,0,0,0.0,0.0,0,0,43.0,0.0,0.0,4520.512820512821,4094.8717948717954,4673.333333333334,4856.923076923077,4195.384615384616,4491.282051282052,4625.128205128206,4566.153846153847,4442.051282051282,4674.358974358975,4260.512820512821,4340.000000000001,3950.2564102564106,4728.205128205129
87.45797,0.5575621,0.5925618,0.33970973,0.7217305,0,0.0,0.0,0.64879924,0.0,0.0,0,0,0.0,0.0,0,0,75.0,0.0,409.0,4534.871794871796,4072.820512820513,4663.589743589744,4818.974358974359,4201.538461538462,4505.128205128206,4651.282051282052,4551.794871794872,4414.871794871796,4746.666666666667,4273.333333333334,4337.435897435898,4026.1538461538466,4704.102564102564
87.61436,0.48385474,0.7313237,0.3390709,0.70476454,0,0.0,0.0,0.0,0.0,0.0,0,0,0.0,1.0,0,0,95.0,0.0,409.0,4567.179487179488,4110.256410256411,4667.179487179488,4842.564102564103,4196.410256410257,4500.512820512821,4659.48717948718,4566.153846153847,4421.538461538462,4789.2307692307695,4325.641025641026,4365.641025641026,4030.2564102564106,4696.923076923077
87.958405,0.48385474,0.7313237,0.3390709,0.70476454,0,0.0,0.0,0.0,0.0,0.0,0,0,0.0,0.0,0,0,10.0,0.0,535.0,4585.641025641026,4063.076923076924,4631.282051282052,4778.461538461539,4144.615384615385,4453.333333333334,4617.948717948719,4531.794871794872,4369.743589743591,4825.641025641026,4214.358974358975,4278.461538461539,4027.692307692308,4680.512820512821
88.08351,0.49500173,0.7747508,0.33848923,0.6893101,0,0.0,0.0,0.0,0.0,0.0,0,0,0.0,0.0,0,0,26.0,0.0,0.0,4587.179487179488,4049.7435897435903,4636.410256410257,4752.307692307693,4154.358974358975,4460.000000000001,4629.743589743591,4546.666666666667,4362.051282051282,4848.205128205129,4217.435897435898,4275.384615384616,4025.1282051282055,4678.461538461539
88.08351,0.49500173,0.7747508,0.33848923,0.6893101,0,0.0,0.0,0.0,0.0,0.0,0,0,0.0,0.0,0,0,26.0,0.0,0.0,4587.179487179488,4049.7435897435903,4636.410256410257,4752.307692307693,4154.358974358975,4460.000000000001,4629.743589743591,4546.666666666667,4362.051282051282,4848.205128205129,4217.435897435898,4275.384615384616,4025.1282051282055,4678.461538461539
88.58394,0.48947576,0.7887109,0.337965,0.6754159,0,0.0,0.0,0.0,0.0,0.0,0,0,0.0,0.0,0,0,90.0,0.0,535.0,4635.8974358974365,4092.307692307693,4650.256410256411,4653.846153846154,4175.384615384616,4482.051282051282,4600.000000000001,4532.307692307693,4326.153846153847,4797.435897435898,4133.333333333334,4255.8974358974365,4128.717948717949,4709.743589743591
88.58394,0.48947576,0.7887109,0.337965,0.6754159,0,0.0,0.0,0.0,0.0,0.0,0,0,0.0,0.0,0,0,90.0,0.0,535.0,4635.8974358974365,4092.307692307693,4650.256410256411,4653.846153846154,4175.384615384616,4482.051282051282,4600.000000000001,4532.307692307693,4326.153846153847,4797.435897435898,4133.333333333334,4255.8974358974365,4128.717948717949,4709.743589743591
89.08437,0.5203438,0.7676768,0.33749253,0.6629201,0,0.0,0.0,0.0,0.0,0.0,0,0,0.0,0.0,0,0,25.0,0.0,0.0,4635.8974358974365,4112.820512820514,4659.48717948718,4593.846153846154,4157.435897435898,4470.256410256411,4645.641025641026,4597.435897435898,4324.102564102564,4817.435897435898,4137.948717948719,4273.333333333334,4223.076923076924,4715.384615384616
89.459694,0.5203438,0.7676768,0.33749253,0.6629201,0,0.0,0.0,0.023307791,0.0,0.0,0,0,0.0,0.0,0,0,73.0,0.0,505.0,4601.025641025642,4202.051282051282,4704.102564102564,4638.461538461539,4154.358974358975,4461.538461538462,4724.102564102564,4608.205128205129,4278.974358974359,4749.743589743591,4019.48717948718,4232.307692307693,4121.538461538462,4714.358974358975
89.70991,0.5079684,0.7531921,0.33706748,0.65168965,0,0.0,0.0,0.0,0.0,0.0,0,0,0.0,0.0062832027,0,0,105.0,0.0,1181.0,4587.179487179488,4216.923076923077,4730.256410256411,4652.820512820514,4138.461538461539,4443.589743589744,4723.589743589744,4617.435897435898,4245.128205128206,4706.153846153847,3947.692307692308,4186.666666666667,4063.076923076924,4718.974358974359
89.96012,0.5079684,0.7531921,0.33706748,0.65168965,0,0.0,0.0,0.0,0.0,0.0,0,0,0.0,0.1840522,0,0,8.0,0.0,642.0,4617.435897435898,4161.025641025642,4728.205128205129,4615.384615384616,4146.153846153847,4442.564102564103,4719.48717948718,4643.076923076924,4285.641025641026,4774.871794871796,3971.7948717948725,4218.974358974359,4213.846153846154,4731.282051282052
90.210335,0.56400394,0.7493683,0.3366859,0.64160496,0,0.0,0.0,0.0,0.0,0.0,0,0,0.0,0.81116796,0,0,40.0,0.0,0.0,4658.974358974359,4133.846153846154,4724.102564102564,4613.846153846154,4141.538461538462,4438.461538461539,4733.846153846154,4681.025641025642,4348.205128205129,4813.846153846154,4027.1794871794878,4245.641025641026,4287.6923076923085,4733.846153846154
90.460556,0.56400394,0.7493683,0.3366859,0.64160496,0,0.0,0.0,0.0,0.0,0.0,0,0,0.0,0.17511359,0,1,72.0,0.0,642.0,4739.48717948718,4150.256410256411,4736.923076923077,4655.384615384616,4166.666666666667,4445.641025641026,4732.307692307693,4691.282051282052,4392.307692307693,4856.410256410257,4143.076923076924,4316.410256410257,4346.666666666667,4741.538461538462
90.804596,0.5927858,0.7742486,0.33949608,0.6621958,0,0.0,0.0,0.0,0.0,0.0,0,0,0.0,0.0,0,0,116.0,0.0,913.0,4759.48717948718,4125.128205128206,4717.435897435898,4652.307692307693,4180.000000000001,4453.846153846154,4720.512820512821,4682.051282051282,4406.666666666667,4882.564102564103,4075.3846153846157,4312.307692307693,4405.641025641026,4740.512820512821
90.804596,0.5927858,0.7742486,0.33949608,0.6621958,0,0.0,0.0,0.0,0.0,0.0,0,0,0.0,0.0,0,0,116.0,0.0,913.0,4759.48717948718,4125.128205128206,4717.435897435898,4652.307692307693,4180.000000000001,4453.846153846154,4720.512820512821,4682.051282051282,4406.666666666667,4882.564102564103,4075.3846153846157,4312.307692307693,4405.641025641026,4740.512820512821
91.08609,0.5804865,0.79723036,0.34563327,0.70106727,0,0.0,0.0,0.0,0.0,0.0,0,0,0.0,0.0,0,0,23.0,0.0,0.0,4763.076923076924,4111.794871794872,4703.589743589744,4662.564102564103,4190.769230769231,4464.615384615385,4698.974358974359,4675.384615384616,4406.153846153847,4866.153846153847,4084.1025641025644,4313.333333333334,4415.384615384616,4746.153846153847
91.08609,0.5804865,0.79723036,0.34563327,0.70106727,0,0.0,0.0,0.0,0.0,0.0,0,0,0.0,0.0,0,0,23.0,0.0,0.0,4763.076923076924,4111.794871794872,4703.589743589744,4662.564102564103,4190.769230769231,4464.615384615385,4698.974358974359,4675.384615384616,4406.153846153847,4866.153846153847,4084.1025641025644,4313.333333333334,4415.384615384616,4746.153846153847
91.58652,0.61158377,0.8030774,0.3516138,0.7359772,0,0.0,0.0,0.0,0.0,0.0,0,0,0.0,0.0,0,0,87.0,0.0,409.0,4761.025641025642,4066.1538461538466,4644.102564102564,4674.871794871796,4191.794871794872,4465.641025641026,4643.589743589744,4639.48717948718,4357.435897435898,4785.641025641026,4063.589743589744,4266.666666666667,4441.538461538462,4731.794871794872
91.58652,0.61158377,0.8030774,0.3516138,0.7359772,0,0.0,0.0,0.0,0.0,0.0,0,0,0.0,0.0,0,0,87.0,0.0,409.0,4761.025641025642,4066.1538461538466,4644.102564102564,4674.871794871796,4191.794871794872,4465.641025641026,4643.589743589744,4639.48717948718,4357.435897435898,4785.641025641026,4063.589743589744,4266.666666666667,4441.538461538462,4731.794871794872
92.08695,0.6587324,0.79264134,0.3569936,0.7718621,0,0.0,0.0,0.0,0.0,0.0,0,0,0.0,0.0,0,0,22.0,0.0,0.0,4765.128205128206,4074.8717948717954,4644.102564102564,4621.025641025642,4188.717948717949,4474.358974358975,4615.384615384616,4537.948717948719,4272.307692307693,4740.512820512821,3905.1282051282055,4186.666666666667,4433.333333333334,4718.461538461539
92.08695,0.6587324,0.79264134,0.3569936,0.7718621,0,0.0,0.0,0.0,0.0,0.0,0,0,0.0,0.0,0,0,22.0,0.0,0.0,4765.128205128206,4074.8717948717954,4644.102564102564,4621.025641025642,4188.717948717949,4474.358974358975,4615.384615384616,4537.948717948719,4272.307692307693,4740.512820512821,3905.1282051282055,4186.666666666667,4433.333333333334,4718.461538461539
92.58738,0.71375597,0.750893,0.36137176,0.8043367,0,0.0,0.0,0.0,0.0,0.0,0,0,0.0,0.0,0,0,86.0,0.0,532.0,4710.256410256411,4073.333333333334,4635.8974358974365,4573.846153846154,4173.846153846154,4457.435897435898,4578.974358974359,4508.717948717949,4264.615384615385,4798.461538461539,3830.2564102564106,4142.051282051282,4383.589743589744,4702.564102564103
92.58738,0.71375597,0.750893,0.36137176,0.8043367,0,0.0,0.0,0.0,0.0,0.0,0,0,0.0,0.0,0,0,86.0,0.0,532.0,4710.256410256411,4073.333333333334,4635.8974358974365,4573.846153846154,4173.846153846154,4457.435897435898,4578.974358974359,4508.717948717949,4264.615384615385,4798.461538461539,3830.2564102564106,4142.051282051282,4383.589743589744,4702.564102564103
93.08781,0.73730755,0.70404315,0.36304903,0.8332026,0,0.0,0.0,0.0,0.0,0.0,0,0,0.0,0.0,0,0,21.0,0.0,0.0,4685.641025641026,4024.1025641025644,4589.743589743591,4524.615384615385,4188.205128205129,4464.615384615385,4545.128205128206,4492.307692307693,4265.128205128206,4687.6923076923085,3669.2307692307695,4035.8974358974365,4297.948717948719,4643.076923076924
93.08781,0.73730755,0.70404315,0.36304903,0.8332026,0,0.0,0.0,0.0,0.0,0.0,0,0,0.0,0.0,0,0,21.0,0.0,0.0,4685.641025641026,4024.1025641025644,4589.743589743591,4524.615384615385,4188.205128205129,4464.615384615385,4545.128205128206,4492.307692307693,4265.128205128206,4687.6923076923085,3669.2307692307695,4035.8974358974365,4297.948717948719,4643.076923076924
93.58824,0.73255324,0.6743265,0.36201772,0.85000956,0,0.0,0.0,0.0,0.0,0.0,0,0,0.0,0.0,0,0,85.0,0.0,1181.0,4701.538461538462,4031.2820512820517,4604.102564102564,4523.076923076924,4206.153846153847,4487.6923076923085,4553.333333333334,4493.846153846154,4246.666666666667,4682.564102564103,3696.410256410257,4030.7692307692314,4295.384615384616,4632.820512820514
93.58824,0.73255324,0.6743265,0.36201772,0.85000956,0,0.0,0.0,0.0,0.0,0.0,0,0,0.0,0.0,0,0,85.0,0.0,1181.0,4701.538461538462,4031.2820512820517,4604.102564102564,4523.076923076924,4206.153846153847,4487.6923076923085,4553.333333333334,4493.846153846154,4246.666666666667,4682.564102564103,3696.410256410257,4030.7692307692314,4295.384615384616,4632.820512820514
94.08867,0.7252804,0.64906627,0.3601441,0.87240845,0,0.0,0.0,0.0,0.0,0.0,0,0,0.0,0.0,0,0,20.0,0.0,0.0,4680.512820512821,4057.9487179487182,4605.641025641026,4529.743589743591,4203.076923076924,4487.179487179488,4566.153846153847,4526.666666666667,4234.358974358975,4608.205128205129,3648.205128205129,3994.8717948717954,4277.435897435898,4609.2307692307695
94.46399,0.7252804,0.64906627,0.3601441,0.87240845,0,0.0,0.0,0.0,0.0,0.0,0,0,0.0,0.30729803,0,0,68.0,0.0,549.0,4582.051282051282,4034.358974358975,4590.256410256411,4537.948717948719,4192.820512820514,4470.769230769231,4529.2307692307695,4519.48717948718,4289.74358974359,4627.179487179488,3637.435897435898,3925.6410256410263,3966.666666666667,4592.820512820514
94.71421,0.7350353,0.62352407,0.3580878,0.89377934,0,0.0,0.0,0.0,0.0,0.0,0,0,0.0,0.15124342,0,0,100.0,0.0,901.0,4568.205128205129,4028.717948717949,4580.000000000001,4538.974358974359,4199.48717948718,4479.48717948718,4538.461538461539,4538.974358974359,4340.512820512821,4687.179487179488,3714.358974358975,3975.8974358974365,4056.9230769230776,4586.666666666667
94.964424,0.7350353,0.62352407,0.3580878,0.89377934,0,0.0,0.0,0.0,0.0,0.0,0,0,0.0,0.2640023,0,0,3.0,0.0,547.0,4554.871794871796,3989.7435897435903,4560.512820512821,4525.641025641026,4219.48717948718,4493.846153846154,4490.256410256411,4464.102564102564,4323.076923076924,4713.846153846154,3703.589743589744,3960.5128205128212,4077.9487179487187,4569.2307692307695
95.21464,0.7148051,0.5972838,0.35620338,0.9072646,0,0.0,0.0,0.0,0.0,0.0,0,0,0.0,0.0,0,0,35.0,0.0,0.0,4527.179487179488,3946.666666666667,4540.000000000001,4493.333333333334,4228.717948717949,4504.102564102564,4453.333333333334,4425.128205128206,4324.615384615385,4691.282051282052,3742.564102564103,3947.1794871794878,4120.000000000001,4556.923076923077
95.21464,0.7148051,0.5972838,0.35620338,0.9072646,0,0.0,0.0,0.0,0.0,0.0,0,0,0.0,0.0,0,0,35.0,0.0,0.0,4527.179487179488,3946.666666666667,4540.000000000001,4493.333333333334,4228.717948717949,4504.102564102564,4453.333333333334,4425.128205128206,4324.615384615385,4691.282051282052,3742.564102564103,3947.1794871794878,4120.000000000001,4556.923076923077
95.58996,0.7561319,0.55594975,0.35409975,0.89094555,0,0.0,0.0,0.0,0.0,0.0,0,0,0.0,0.0,0,0,83.0,0.0,411.0,4470.769230769231,3856.410256410257,4484.102564102564,4426.153846153847,4250.769230769231,4520.000000000001,4384.102564102564,4361.025641025642,4298.461538461539,4666.666666666667,3773.8461538461543,3906.666666666667,4171.282051282052,4519.48717948718
95.58996,0.7561319,0.55594975,0.35409975,0.89094555,0,0.0,0.0,0.0,0.0,0.0,0,0,0.0,0.0,0,0,83.0,0.0,411.0,4470.769230769231,3856.410256410257,4484.102564102564,4426.153846153847,4250.769230769231,4520.000000000001,4384.102564102564,4361.025641025642,4298.461538461539,4666.666666666667,3773.8461538461543,3906.666666666667,4171.282051282052,4519.48717948718
96.09039,0.8332867,0.5188143,0.3519927,0.85582525,0,0.0,0.0,0.0,0.0,0.0,0,0,0.0,0.0,0,0,18.0,0.0,0.0,4520.512820512821,3858.461538461539,4474.871794871796,4414.358974358975,4245.128205128206,4521.538461538462,4347.6923076923085,4315.8974358974365,4285.128205128206,4634.871794871796,3828.205128205129,3921.538461538462,4228.717948717949,4538.974358974359
96.49699,0.8332867,0.5188143,0.3519927,0.85582525,0,0.0,0.0,0.0,0.0,0.0,0,0,0.0,0.0,0,0,70.0,0.0,532.0,4588.205128205129,3873.8461538461543,4506.666666666667,4429.743589743591,4228.717948717949,4518.461538461539,4343.076923076924,4331.282051282052,4267.179487179487,4622.051282051282,3930.2564102564106,3969.2307692307695,4282.051282051282,4585.128205128206
96.59082,0.84390396,0.48539245,0.3500873,0.8244715,0,0.0,0.0,0.0,0.0,0.0,0,0,0.0,0.0,0,0,82.0,0.0,536.0,4593.333333333334,3879.48717948718,4508.205128205129,4441.538461538462,4241.538461538462,4530.769230769231,4343.076923076924,4360.000000000001,4280.512820512821,4653.846153846154,3936.9230769230776,3990.2564102564106,4286.666666666667,4584.102564102564
96.96614,0.84390396,0.48539245,0.3500873,0.8244715,0,0.0,0.0,0.0,0.0,0.168608,0,0,0.0,0.0,0,0,1.0,0.0,437.0,4595.8974358974365,3872.820512820513,4496.410256410257,4450.769230769231,4247.6923076923085,4540.512820512821,4362.051282051282,4384.615384615385,4275.384615384616,4616.410256410257,3986.666666666667,4014.8717948717954,4315.8974358974365,4596.923076923077
97.278915,0.8344942,0.45531276,0.34837016,0.7964316,0,0.0,0.0,0.0,0.0,0.28786433,0,0,0.0,0.0,0,0,41.0,0.0,0.0,4613.333333333334,3901.0256410256416,4509.2307692307695,4458.974358974359,4255.384615384616,4541.025641025642,4373.333333333334,4398.974358974359,4277.435897435898,4578.461538461539,4034.8717948717954,4012.820512820513,4263.076923076924,4567.179487179488
97.466576,0.8344942,0.45531276,0.34837016,0.7964316,0,0.0,0.0,0.0,0.0,0.0,0,0,0.0,0.0,0,0,65.0,0.0,437.0,4613.333333333334,3883.076923076924,4506.666666666667,4445.128205128206,4247.179487179487,4533.846153846154,4361.538461538462,4360.000000000001,4264.102564102564,4547.179487179488,3958.461538461539,3977.435897435898,4234.871794871796,4551.282051282052
97.59168,0.8207279,0.42824104,0.34682906,0.78856903,0,0.0,0.0,0.0,0.0,0.0,0,0,0.0,0.0,0,0,81.0,0.0,1125.0,4599.48717948718,3873.333333333334,4495.384615384616,4426.666666666667,4235.8974358974365,4519.48717948718,4341.538461538462,4329.743589743591,4259.48717948718,4531.794871794872,3943.076923076924,3952.820512820513,4229.74358974359,4544.615384615385
97.59168,0.8207279,0.42824104,0.34682906,0.78856903,0,0.0,0.0,0.0,0.0,0.0,0,0,0.0,0.0,0,0,81.0,0.0,1125.0,4599.48717948718,3873.333333333334,4495.384615384616,4426.666666666667,4235.8974358974365,4519.48717948718,4341.538461538462,4329.743589743591,4259.48717948718,4531.794871794872,3943.076923076924,3952.820512820513,4229.74358974359,4544.615384615385
98.09211,0.8514359,0.48171046,0.34595585,0.79134595,0,0.0,0.0,0.0,0.0,0.0,0,0,0.0,0.0,0,0,16.0,0.0,0.0,4604.615384615385,3868.717948717949,4481.538461538462,4424.102564102564,4233.333333333334,4515.8974358974365,4318.461538461539,4309.743589743591,4262.051282051282,4482.564102564103,3969.7435897435903,3937.435897435898,4189.74358974359,4519.48717948718
98.09211,0.8514359,0.48171046,0.34595585,0.79134595,0,0.0,0.0,0.0,0.0,0.0,0,0,0.0,0.0,0,0,16.0,0.0,0.0,4604.615384615385,3868.717948717949,4481.538461538462,4424.102564102564,4233.333333333334,4515.8974358974365,4318.461538461539,4309.743589743591,4262.051282051282,4482.564102564103,3969.7435897435903,3937.435897435898,4189.74358974359,4519.48717948718
98.68637,0.8847166,0.47708395,0.3451682,0.79439783,1,0.0,0.0,0.0,0.0,0.0,0,0,0.0,0.0,0,0,92.0,0.0,898.0,4702.564102564103,3942.564102564103,4524.102564102564,4442.051282051282,4213.333333333334,4498.974358974359,4354.358974358975,4340.000000000001,4250.769230769231,4501.538461538462,4053.333333333334,4014.8717948717954,4281.538461538462,4577.948717948719
98.967865,0.8847166,0.47708395,0.3451682,0.79439783,0,0.0,0.0,0.0,0.0,0.0,0,0,0.0,0.10053878,0,0,128.0,0.0,898.0,4747.179487179488,3988.205128205129,4567.6923076923085,4446.666666666667,4221.025641025642,4512.307692307693,4408.717948717949,4395.8974358974365,4276.923076923077,4541.025641025642,4002.564102564103,4065.1282051282055,4303.076923076924,4578.461538461539
99.21808,0.88670343,0.48636425,0.34415048,0.79731435,0,0.0,0.0,0.0,0.0,0.0,0,0,0.0,0.0,0,0,31.0,0.0,0.0,4727.6923076923085,4021.538461538462,4573.846153846154,4441.025641025642,4225.128205128206,4522.051282051282,4419.48717948718,4401.538461538462,4289.74358974359,4550.769230769231,3960.0000000000005,4019.48717948718,3862.564102564103,4582.051282051282
99.46829,0.88670343,0.48636425,0.34415048,0.79731435,0,0.0,0.0,0.0,0.0,0.0,0,0,0.0,0.34948012,0,0,63.0,0.0,0.0,4621.025641025642,4014.8717948717954,4574.871794871796,4449.743589743591,4214.358974358975,4512.307692307693,4414.871794871796,4400.512820512821,4342.564102564103,4597.435897435898,4035.8974358974365,4074.8717948717954,4056.410256410257,4570.769230769231
99.718506,0.86249226,0.48244765,0.34356982,0.7938544,0,0.0,0.0,0.0,0.0,0.0,0,0,0.0,0.36765236,0,0,95.0,0.0,412.0,4559.48717948718,3936.9230769230776,4516.410256410257,4345.128205128206,4225.128205128206,4522.564102564103,4344.102564102564,4348.717948717949,4329.743589743591,4566.153846153847,4004.1025641025644,4002.0512820512827,4069.7435897435903,4517.948717948719
99.84361,0.86249226,0.48244765,0.34356982,0.7938544,0,0.0,0.0,0.0,0.0,0.0,0,0,0.0,0.0,0,0,111.0,0.0,412.0,4536.410256410257,3885.6410256410263,4483.589743589744,4307.6923076923085,4232.307692307693,4530.769230769231,4319.48717948718,4303.589743589744,4326.666666666667,4547.179487179488,4009.23076923077,3970.7692307692314,4058.461538461539,4502.564102564103
100.093834,0.8439716,0.4777038,0.342533,0.78919244,0,0.0,0.0,0.0,0.0,0.0,0,0,0.0,0.0,0,0,14.0,0.0,536.0,4600.000000000001,3880.512820512821,4473.333333333334,4297.948717948719,4241.025641025642,4537.948717948719,4307.179487179487,4314.358974358975,4366.153846153847,4584.615384615385,4165.641025641026,4033.333333333334,4057.9487179487182,4508.205128205129
100.093834,0.8439716,0.4777038,0.342533,0.78919244,0,0.0,0.0,0.0,0.0,0.0,0,0,0.0,0.0,0,0,14.0,0.0,536.0,4600.000000000001,3880.512820512821,4473.333333333334,4297.948717948719,4241.025641025642,4537.948717948719,4307.179487179487,4314.358974358975,4366.153846153847,4584.615384615385,4165.641025641026,4033.333333333334,4057.9487179487182,4508.205128205129
100.59426,0.85350657,0.47714147,0.34159857,0.77466595,0,0.0,0.0,0.0,0.0,0.0,0,0,0.0,0.0,0,0,78.0,0.0,536.0,4645.641025641026,3833.333333333334,4457.948717948719,4280.000000000001,4253.846153846154,4558.461538461539,4293.846153846154,4339.48717948718,4389.2307692307695,4589.743589743591,4323.076923076924,4094.8717948717954,4089.23076923077,4530.769230769231
100.59426,0.85350657,0.47714147,0.34159857,0.77466595,0,0.0,0.0,0.0,0.0,0.0,0,0,0.0,0.0,0,0,78.0,0.0,536.0,4645.641025641026,3833.333333333334,4457.948717948719,4280.000000000001,4253.846153846154,4558.461538461539,4293.846153846154,4339.48717948718,4389.2307692307695,4589.743589743591,4323.076923076924,4094.8717948717954,4089.23076923077,4530.769230769231
101.219795,0.8404535,0.4770841,0.34075648,0.7519764,0,0.0,0.2663922,0.0,0.0,0.0,0,0,0.0,0.0,0,0,29.0,0.0,0.0,4583.076923076924,3748.205128205129,4427.179487179487,4330.256410256411,4280.000000000001,4602.564102564103,4286.153846153847,4325.641025641026,4376.410256410257,4579.48717948718,4285.128205128206,4070.7692307692314,4055.8974358974365,4510.769230769231
101.47002,0.8404535,0.4770841,0.34075648,0.7519764,0,0.0,0.52655363,0.0,0.0,0.0,0,0,0.0,0.0,0,0,61.0,0.0,0.0,4623.076923076924,3806.666666666667,4466.666666666667,4626.666666666667,4268.717948717949,4585.641025641026,4337.948717948719,4441.025641025642,4445.128205128206,4666.666666666667,4466.666666666667,4253.333333333334,4146.666666666667,4556.410256410257
101.59512,0.8524438,0.49851173,0.33999887,0.7316175,0,0.0,1.0,0.0,0.0,0.0,0,0,0.0,0.0,0,0,77.0,0.0,1110.0,4635.384615384616,3799.48717948718,4479.48717948718,4702.051282051282,4274.871794871796,4583.589743589744,4379.48717948718,4471.282051282052,4458.974358974359,4661.025641025642,4552.820512820514,4302.564102564103,4177.948717948719,4573.333333333334
101.97044,0.8524438,0.49851173,0.33999887,0.7316175,0,0.0,0.0,0.0,0.0,0.0,0,0,0.0,0.0,0,0,125.0,0.0,1110.0,4666.666666666667,3910.2564102564106,4523.589743589744,4826.153846153847,4257.948717948719,4558.974358974359,4387.6923076923085,4457.435897435898,4462.051282051282,4712.307692307693,4620.000000000001,4385.641025641026,4178.974358974359,4600.512820512821
102.22066,0.793147,0.5303254,0.33931863,0.71333647,0,0.0,0.0,0.14600886,0.0,0.0,0,0,0.0,0.0,0,0,28.0,0.0,0.0,4676.410256410257,3910.7692307692314,4509.2307692307695,4792.307692307693,4262.051282051282,4562.564102564103,4380.000000000001,4428.717948717949,4456.410256410257,4710.769230769231,4622.051282051282,4366.153846153847,4189.2307692307695,4590.769230769231
102.345764,0.793147,0.5303254,0.33931863,0.71333647,0,0.0,0.0,0.0,0.0,0.0,0,0,0.0,0.0,0,0,44.0,0.0,0.0,4767.179487179488,3900.5128205128212,4504.615384615385,4766.153846153847,4267.179487179487,4567.179487179488,4403.589743589744,4446.153846153847,4455.8974358974365,4719.48717948718,4573.846153846154,4369.2307692307695,4188.717948717949,4586.153846153847
102.72109,0.780955,0.5591574,0.33871722,0.6971448,0,0.0,0.0,0.19332696,0.0,0.0,0,0,0.0,0.0,0,0,92.0,0.0,877.0,4872.307692307693,3890.7692307692314,4524.102564102564,4727.6923076923085,4249.74358974359,4555.8974358974365,4423.076923076924,4464.615384615385,4486.153846153847,4745.128205128206,4626.666666666667,4416.923076923077,4308.205128205129,4649.743589743591
102.971306,0.780955,0.5591574,0.33871722,0.6971448,0,0.0,0.0,0.048123453,0.0,0.0,0,0,0.0,0.0,0,0,124.0,0.0,877.0,4827.179487179488,3919.48717948718,4517.948717948719,4719.48717948718,4249.2307692307695,4552.820512820514,4433.846153846154,4474.358974358975,4470.769230769231,4694.358974358975,4509.743589743591,4366.666666666667,4258.974358974359,4624.615384615385
103.22152,0.7365169,0.5851062,0.33817202,0.6824382,0,0.0,0.0,0.06585664,0.0,0.0,0,0,0.0,0.0,0,0,27.0,0.0,0.0,4830.256410256411,4029.7435897435903,4537.948717948719,4718.974358974359,4230.769230769231,4529.2307692307695,4417.948717948719,4460.512820512821,4469.743589743591,4657.948717948719,4415.8974358974365,4346.666666666667,4259.48717948718,4625.641025641026
103.47173,0.7365169,0.5851062,0.33817202,0.6824382,0,0.0,0.0,0.13161126,0.0,0.0,0,0,0.0,0.0,0,0,59.0,0.0,0.0,4756.923076923077,3982.0512820512827,4509.743589743591,4638.461538461539,4239.48717948718,4536.410256410257,4411.282051282052,4450.256410256411,4452.307692307693,4630.256410256411,4345.128205128206,4250.769230769231,4019.48717948718,4562.051282051282
103.72195,0.7643235,0.6084601,0.33768135,0.6692539,0,0.0,0.0,0.08219318,0.0,0.0,0,0,0.0,0.0,0,0,91.0,0.0,414.0,4749.2307692307695,3990.2564102564106,4517.435897435898,4664.102564102564,4230.769230769231,4538.974358974359,4417.435897435898,4451.282051282052,4487.179487179488,4614.871794871796,4347.179487179487,4276.410256410257,4076.410256410257,4566.153846153847
103.97216,0.7643235,0.6084601,0.33768135,0.6692539,0,0.0,0.0,0.0,0.0,0.0,0,0,0.0,0.8383086,0,0,123.0,0.0,414.0,4727.6923076923085,3967.1794871794878,4521.538461538462,4651.282051282052,4236.410256410257,4545.128205128206,4423.589743589744,4453.846153846154,4518.461538461539,4655.384615384616,4408.717948717949,4294.871794871796,4117.948717948719,4570.256410256411
104.22238,0.7249308,0.62947863,0.33724043,0.6574044,0,0.0,0.0,0.0,0.0,0.0,0,0,0.0,0.8521811,0,0,26.0,0.0,0.0,4680.512820512821,3935.8974358974365,4506.666666666667,4603.589743589744,4241.025641025642,4540.512820512821,4393.846153846154,4415.8974358974365,4519.48717948718,4671.282051282052,4396.923076923077,4258.974358974359,4092.820512820513,4561.538461538462
104.34749,0.7249308,0.62947863,0.33724043,0.6574044,0,0.0,0.0,0.0,0.0,0.0,0,0,0.0,0.0,0,0,42.0,0.0,0.0,4661.538461538462,3921.538461538462,4491.282051282052,4570.256410256411,4242.564102564103,4543.076923076924,4393.333333333334,4421.538461538462,4528.717948717949,4661.025641025642,4434.871794871796,4253.333333333334,4075.8974358974365,4550.769230769231
104.72281,0.6875321,0.5985391,0.3368431,0.64674306,0,0.0,0.0,0.0,0.0,0.0,0,0,0.0,0.0,0,0,90.0,0.0,536.0,4672.820512820514,3953.333333333334,4509.743589743591,4627.179487179488,4236.410256410257,4541.025641025642,4401.025641025642,4447.179487179487,4576.923076923077,4707.6923076923085,4573.846153846154,4333.846153846154,4112.820512820514,4573.846153846154
104.72281,0.6875321,0.5985391,0.3368431,0.64674306,0,0.0,0.0,0.0,0.0,0.0,0,0,0.0,0.0,0,0,90.0,0.0,536.0,4672.820512820514,3953.333333333334,4509.743589743591,4627.179487179488,4236.410256410257,4541.025641025642,4401.025641025642,4447.179487179487,4576.923076923077,4707.6923076923085,4573.846153846154,4333.846153846154,4112.820512820514,4573.846153846154
105.09813,0.69603485,0.57806146,0.33648503,0.63716775,0,0.0,0.0,0.0,0.0,0.0,0,0,0.0,0.0,0,0,9.0,0.0,515.0,4541.538461538462,3818.461538461539,4416.923076923077,4609.743589743591,4274.871794871796,4587.179487179488,4298.974358974359,4384.615384615385,4497.435897435898,4572.307692307693,4455.8974358974365,4185.128205128206,4027.1794871794878,4473.846153846154
105.09813,0.69603485,0.57806146,0.33648503,0.63716775,0,0.0,0.0,0.0,0.0,0.0,0,0,0.0,0.0,0,0,9.0,0.0,515.0,4541.538461538462,3818.461538461539,4416.923076923077,4609.743589743591,4274.871794871796,4587.179487179488,4298.974358974359,4384.615384615385,4497.435897435898,4572.307692307693,4455.8974358974365,4185.128205128206,4027.1794871794878,4473.846153846154
105.8175,0.76376694,0.5598432,0.33890113,0.6466369,0,0.0,0.0,0.0,0.0,0.0,0,0,0.0,1.0,0,0,101.0,0.0,1099.0,4677.948717948719,3904.1025641025644,4512.820512820514,4617.435897435898,4239.48717948718,4547.6923076923085,4500.512820512821,4594.358974358975,4679.48717948718,4821.538461538462,4941.538461538462,4580.512820512821,4352.820512820514,4643.589743589744
105.973885,0.76376694,0.5598432,0.33890113,0.6466369,0,0.0,0.0,0.0,0.0,0.0,0,0,0.0,0.19343258,0,0,121.0,0.0,1099.0,4652.820512820514,3902.564102564103,4492.820512820514,4584.615384615385,4263.589743589744,4560.512820512821,4522.051282051282,4605.641025641026,4659.48717948718,4825.641025641026,4857.435897435898,4562.564102564103,4312.307692307693,4619.48717948718
106.13027,0.78763,0.5434467,0.34108794,0.65528226,0,0.0,0.0,0.0,0.0,0.0,0,0,0.0,0.0,0,0,12.0,0.0,873.0,4710.256410256411,3995.3846153846157,4530.256410256411,4595.8974358974365,4295.384615384616,4586.153846153847,4551.794871794872,4626.666666666667,4672.820512820514,4893.333333333334,4938.974358974359,4653.846153846154,4426.666666666667,4663.076923076924
106.13027,0.78763,0.5434467,0.34108794,0.65528226,0,0.0,0.0,0.0,0.0,0.0,0,0,0.0,0.0,0,0,12.0,0.0,873.0,4710.256410256411,3995.3846153846157,4530.256410256411,4595.8974358974365,4295.384615384616,4586.153846153847,4551.794871794872,4626.666666666667,4672.820512820514,4893.333333333334,4938.974358974359,4653.846153846154,4426.666666666667,4663.076923076924
106.72453,0.8250703,0.5286899,0.34304255,0.662933,0,0.0,0.0,0.22937801,0.0,0.0,0,0,0.0,0.0,0,0,88.0,0.0,873.0,4693.333333333334,4029.23076923077,4528.717948717949,4597.948717948719,4307.179487179487,4598.461538461539,4584.615384615385,4581.025641025642,4603.589743589744,4817.435897435898,4547.6923076923085,4446.666666666667,4193.333333333334,4565.128205128206
106.97475,0.8250703,0.5286899,0.34304255,0.662933,0,0.0,0.0,0.50337374,0.0,0.0,0,0,0.0,0.0,0,0,120.0,0.0,873.0,4623.589743589744,3937.435897435898,4468.717948717949,4552.307692307693,4276.410256410257,4575.384615384616,4518.974358974359,4525.641025641026,4614.871794871796,4825.641025641026,4394.871794871796,4363.076923076924,4171.282051282052,4542.051282051282
107.22496,0.8841167,0.5154088,0.3448018,0.66980225,0,0.0,0.0,0.5076665,0.0,0.0,0,0,0.0,0.0,0,0,23.0,0.0,0.0,4618.461538461539,3908.717948717949,4436.410256410257,4529.743589743591,4250.769230769231,4547.179487179488,4444.102564102564,4491.282051282052,4609.2307692307695,4842.051282051283,4375.384615384616,4322.564102564103,4118.974358974359,4537.948717948719
107.475174,0.8841167,0.5154088,0.3448018,0.66980225,0,0.0,0.0,0.021735149,0.0,0.0,0,0,0.0,0.0,0,0,55.0,0.0,0.0,4660.000000000001,3892.820512820513,4428.205128205129,4508.717948717949,4241.538461538462,4529.743589743591,4418.974358974359,4467.6923076923085,4601.538461538462,4802.051282051282,4372.820512820514,4307.179487179487,4073.8461538461543,4521.538461538462
107.72539,0.871911,0.5034558,0.34363914,0.657917,0,0.0,0.0,0.08057566,0.0,0.0,0,0,0.0,0.0,0,0,87.0,0.0,414.0,4660.000000000001,3820.0000000000005,4425.641025641026,4441.538461538462,4246.666666666667,4524.615384615385,4412.820512820514,4463.589743589744,4586.153846153847,4914.358974358975,4422.564102564103,4350.769230769231,4214.358974358975,4552.307692307693
107.9756,0.871911,0.5034558,0.34363914,0.657917,0,0.0,0.0,0.0,0.0,0.11388282,0,0,0.0,0.0,0,0,119.0,0.0,414.0,4609.2307692307695,3813.8461538461543,4412.307692307693,4490.256410256411,4248.717948717949,4517.435897435898,4388.717948717949,4431.794871794872,4567.179487179488,4887.6923076923085,4411.794871794872,4345.128205128206,4231.794871794872,4513.333333333334
108.22582,0.79196477,0.49269807,0.34259135,0.64722353,0,0.0,0.0,0.095225655,0.0,0.0,0,0,0.0,0.0,0,0,22.0,0.0,0.0,4604.615384615385,3836.9230769230776,4404.615384615385,4498.974358974359,4262.051282051282,4530.256410256411,4379.48717948718,4440.512820512821,4576.410256410257,4846.153846153847,4416.410256410257,4353.333333333334,4224.615384615385,4512.307692307693
108.476036,0.79196477,0.49269807,0.34259135,0.64722353,0,0.0,0.56865335,0.0,0.0,0.0,0,0,0.0,0.0,0,0,54.0,0.0,0.0,4589.743589743591,3830.2564102564106,4422.051282051282,4480.000000000001,4256.923076923077,4531.794871794872,4368.205128205129,4427.179487179487,4589.743589743591,4818.974358974359,4469.743589743591,4360.512820512821,4226.666666666667,4524.615384615385
108.72625,0.80323553,0.5079765,0.34164712,0.6376005,0,0.0,0.45087638,0.0,0.0,0.0,0,0,0.0,0.0,0,0,86.0,0.0,536.0,4580.512820512821,3837.9487179487182,4414.358974358975,4415.384615384616,4237.435897435898,4513.846153846154,4334.871794871796,4397.435897435898,4543.589743589744,4744.615384615386,4356.923076923077,4293.846153846154,4166.666666666667,4520.000000000001
108.97646,0.80323553,0.5079765,0.34164712,0.6376005,0,0.0,0.0,0.0,0.0,0.0,0,0,0.0,0.0,0,0,118.0,0.0,536.0,4606.153846153847,3837.9487179487182,4429.2307692307695,4350.769230769231,4230.256410256411,4506.153846153847,4342.051282051282,4411.794871794872,4549.743589743591,4753.333333333334,4444.102564102564,4308.717948717949,4227.6923076923085,4540.512820512821
109.10157,0.6829418,0.53429925,0.3456631,0.63689077,0,0.0,0.0,0.0,0.0,0.0,0,0,0.0,0.0,0,0,5.0,0.0,550.0,4595.384615384616,3844.615384615385,4429.743589743591,4430.769230769231,4224.102564102564,4505.641025641026,4331.282051282052,4387.179487179487,4527.179487179488,4723.589743589744,4346.666666666667,4281.538461538462,4201.025641025642,4524.102564102564
109.10157,0.6829418,0.53429925,0.3456631,0.63689077,0,0.0,0.0,0.0,0.0,0.0,0,0,0.0,0.0,0,0,5.0,0.0,550.0,4595.384615384616,3844.615384615385,4429.743589743591,4430.769230769231,4224.102564102564,4505.641025641026,4331.282051282052,4387.179487179487,4527.179487179488,4723.589743589744,4346.666666666667,4281.538461538462,4201.025641025642,4524.102564102564
109.602005,0.6134278,0.559852,0.35451427,0.64743954,0,0.0,0.0,0.0,0.0,0.0,0,0,0.0,0.0,0,0,69.0,0.0,550.0,4565.128205128206,3881.0256410256416,4444.102564102564,4424.102564102564,4217.435897435898,4500.000000000001,4326.666666666667,4374.871794871796,4493.846153846154,4679.48717948718,4254.871794871796,4243.589743589744,4104.615384615385,4495.384615384616
109.602005,0.6134278,0.559852,0.35451427,0.64743954,0,0.0,0.0,0.0,0.0,0.0,0,0,0.0,0.0,0,0,69.0,0.0,550.0,4565.128205128206,3881.0256410256416,4444.102564102564,4424.102564102564,4217.435897435898,4500.000000000001,4326.666666666667,4374.871794871796,4493.846153846154,4679.48717948718,4254.871794871796,4243.589743589744,4104.615384615385,4495.384615384616
110.25882,0.635063,0.5856886,0.36297172,0.6601961,1,0.0,0.37394854,0.0,0.0,0.0,0,0,0.0,0.0,0,0,24.0,0.0,0.0,4674.871794871796,3980.0000000000005,4500.000000000001,4594.871794871796,4176.410256410257,4491.282051282052,4410.256410256411,4466.153846153847,4565.641025641026,4728.205128205129,4359.48717948718,4408.205128205129,4287.179487179487,4537.948717948719
110.44648,0.635063,0.5856886,0.36297172,0.6601961,0,0.0,1.0,0.0,0.0,0.0,0,0,0.0,0.0,0,1,48.0,0.0,0.0,4755.384615384616,4050.7692307692314,4557.435897435898,4688.205128205129,4110.769230769231,4476.410256410257,4436.923076923077,4516.923076923077,4614.358974358975,4842.564102564103,4510.256410256411,4529.743589743591,4316.410256410257,4617.948717948719
110.79053,0.70568645,0.6093062,0.37057918,0.6744261,0,0.0,0.0,0.9780709,0.0,0.0,0,0,0.0,0.0,0,0,92.0,0.0,883.0,4684.615384615386,3973.8461538461543,4507.6923076923085,4604.615384615385,4144.615384615385,4502.051282051282,4428.717948717949,4482.564102564103,4562.051282051282,4786.666666666667,4454.358974358975,4439.48717948718,4206.153846153847,4558.461538461539
110.97819,0.70568645,0.6093062,0.37057918,0.6744261,0,0.0,0.0,0.6831559,0.0,0.0,0,0,0.0,0.0,0,0,116.0,0.0,883.0,4642.051282051282,3951.7948717948725,4486.153846153847,4545.128205128206,4161.025641025642,4503.076923076924,4409.743589743591,4440.000000000001,4540.512820512821,4734.871794871796,4426.666666666667,4380.000000000001,4177.435897435898,4536.923076923077
111.2284,0.7410926,0.63056207,0.37797374,0.69302166,0,0.0,0.0,0.93985844,0.0,0.0,0,0,0.0,0.0,0,0,19.0,0.0,0.0,4622.051282051282,3970.2564102564106,4494.358974358975,4495.384615384616,4176.410256410257,4513.333333333334,4397.435897435898,4412.307692307693,4510.769230769231,4680.512820512821,4343.076923076924,4340.000000000001,4130.769230769231,4526.153846153847
111.478615,0.7410926,0.63056207,0.37797374,0.69302166,0,0.0,0.0,0.18539605,0.0,0.0,0,0,0.0,0.0,0,0,51.0,0.0,0.0,4568.205128205129,3973.333333333334,4488.717948717949,4393.846153846154,4183.076923076924,4516.923076923077,4405.641025641026,4391.282051282052,4508.205128205129,4676.410256410257,4256.923076923077,4305.641025641026,4128.717948717949,4533.333333333334
111.72883,0.6996101,0.64969236,0.38584065,0.71627593,0,0.0,0.0,0.0,0.0,0.0,0,0,0.0,0.0,0,0,83.0,0.0,414.0,4552.820512820514,3964.1025641025644,4490.256410256411,4368.205128205129,4202.564102564103,4522.564102564103,4422.051282051282,4421.538461538462,4502.051282051282,4695.384615384616,4286.153846153847,4314.358974358975,4129.2307692307695,4520.512820512821
111.72883,0.6996101,0.64969236,0.38584065,0.71627593,0,0.0,0.0,0.0,0.0,0.0,0,0,0.0,0.0,0,0,83.0,0.0,414.0,4552.820512820514,3964.1025641025644,4490.256410256411,4368.205128205129,4202.564102564103,4522.564102564103,4422.051282051282,4421.538461538462,4502.051282051282,4695.384615384616,4286.153846153847,4314.358974358975,4129.2307692307695,4520.512820512821
112.22926,0.6252334,0.66690964,0.39156497,0.7379554,0,0.0,0.0,0.0,0.0,0.042986386,0,0,0.0,0.0,0,0,18.0,0.0,0.0,4571.794871794872,3956.410256410257,4493.333333333334,4377.948717948719,4214.358974358975,4537.948717948719,4436.410256410257,4414.358974358975,4508.717948717949,4741.025641025642,4451.282051282052,4383.076923076924,4192.307692307693,4553.333333333334
112.47948,0.6252334,0.66690964,0.39156497,0.7379554,0,0.0,0.0,0.0,0.0,0.14776698,0,0,0.0,0.0,0,0,50.0,0.0,0.0,4583.076923076924,3954.358974358975,4492.307692307693,4395.384615384616,4236.923076923077,4555.384615384616,4441.538461538462,4405.128205128206,4496.923076923077,4733.846153846154,4420.512820512821,4378.974358974359,4181.538461538462,4540.000000000001
112.72969,0.5511968,0.61521804,0.3940178,0.76236737,0,0.0,0.0,0.0,0.0,0.0,0,0,0.0,0.2747424,0,0,82.0,0.0,536.0,4571.794871794872,3924.1025641025644,4473.333333333334,4385.641025641026,4241.025641025642,4554.358974358975,4424.615384615385,4390.256410256411,4484.102564102564,4698.974358974359,4362.051282051282,4329.2307692307695,4157.435897435898,4469.2307692307695
112.979904,0.5511968,0.61521804,0.3940178,0.76236737,0,0.0,0.0,0.0,0.0,0.27299523,0,0,0.0,0.0,0,0,114.0,0.0,536.0,4599.48717948718,3936.410256410257,4487.179487179488,4398.461538461539,4247.179487179487,4551.282051282052,4441.025641025642,4404.102564102564,4489.743589743591,4699.48717948718,4438.974358974359,4364.102564102564,4163.589743589744,4530.769230769231
113.23012,0.501953,0.57010305,0.39315867,0.78415203,0,0.0,0.0,0.0,0.0,0.49221745,0,0,0.0,0.0,0,0,17.0,0.0,0.0,4613.846153846154,3939.48717948718,4488.717948717949,4411.282051282052,4233.846153846154,4561.025641025642,4440.000000000001,4411.282051282052,4471.794871794872,4662.051282051282,4463.076923076924,4350.769230769231,4170.256410256411,4489.743589743591
113.48033,0.501953,0.57010305,0.39315867,0.78415203,0,0.0,0.0,0.0,0.0,0.17603295,0,0,0.0,0.0,0,0,49.0,0.0,0.0,4617.948717948719,3929.7435897435903,4488.205128205129,4427.179487179487,4222.564102564103,4554.358974358975,4454.358974358975,4444.102564102564,4492.307692307693,4659.48717948718,4447.179487179487,4347.179487179487,4167.179487179487,4506.666666666667
113.73055,0.43038452,0.5336417,0.39208725,0.79853594,0,0.0,0.0,0.0,0.0,0.09146073,0,0,0.0,0.0,0,0,81.0,0.0,1107.0,4608.717948717949,3932.820512820513,4476.923076923077,4430.769230769231,4217.948717948719,4545.641025641026,4430.256410256411,4400.512820512821,4458.974358974359,4632.820512820514,4423.589743589744,4313.333333333334,4184.615384615385,4503.589743589744
113.98077,0.43038452,0.5336417,0.39208725,0.79853594,0,0.0,0.0,0.0,0.0,0.10504501,0,0,0.0,0.0,0,0,113.0,0.0,1107.0,4594.871794871796,3937.9487179487182,4489.743589743591,4436.410256410257,4220.000000000001,4540.000000000001,4440.512820512821,4414.871794871796,4458.461538461539,4622.564102564103,4372.307692307693,4306.153846153847,4184.102564102564,4503.589743589744
114.23098,0.38617757,0.49459887,0.39029062,0.81026113,0,0.0,0.0,0.0,0.0,0.0,0,0,0.0,0.14175695,0,0,16.0,0.0,0.0,4603.076923076924,3951.2820512820517,4494.358974358975,4444.102564102564,4216.410256410257,4532.820512820514,4440.000000000001,4410.256410256411,4283.589743589744,4623.076923076924,4293.333333333334,4243.589743589744,4176.923076923077,4521.538461538462
114.35609,0.38617757,0.49459887,0.39029062,0.81026113,0,0.0,0.0,0.0,0.0,0.0,0,0,0.0,0.0,0,0,32.0,0.0,0.0,4602.051282051282,3955.3846153846157,4494.871794871796,4448.717948717949,4210.769230769231,4524.615384615385,4440.000000000001,4409.2307692307695,4295.8974358974365,4630.769230769231,4233.846153846154,4228.205128205129,4178.461538461539,4517.948717948719
114.63758,0.30237043,0.45175394,0.3881411,0.8138691,0,0.0,0.0,0.0,0.0,0.0,0,0,0.0,0.0,0,0,68.0,0.0,550.0,4586.666666666667,3948.717948717949,4485.641025641026,4426.666666666667,4212.307692307693,4523.589743589744,4438.461538461539,4407.6923076923085,4289.74358974359,4640.512820512821,4264.102564102564,4201.025641025642,4175.8974358974365,4505.641025641026
114.63758,0.30237043,0.45175394,0.3881411,0.8138691,0,0.0,0.0,0.0,0.0,0.0,0,0,0.0,0.0,0,0,68.0,0.0,550.0,4586.666666666667,3948.717948717949,4485.641025641026,4426.666666666667,4212.307692307693,4523.589743589744,4438.461538461539,4407.6923076923085,4289.74358974359,4640.512820512821,4264.102564102564,4201.025641025642,4175.8974358974365,4505.641025641026
115.13801,0.26666203,0.41555482,0.38430429,0.8063868,0,0.0,0.0,0.0,0.0,0.0,0,0,0.0,0.0,0,0,3.0,0.0,544.0,4610.256410256411,3924.615384615385,4483.076923076924,4409.2307692307695,4212.820512820514,4524.615384615385,4424.102564102564,4395.384615384616,4346.666666666667,4663.589743589744,4307.179487179487,4218.974358974359,4150.256410256411,4517.435897435898
115.857376,0.2946064,0.39715466,0.37914518,0.7854575,0,0.0,0.0,0.0,0.0,0.07504918,0,0,0.0,0.0,0,0,95.0,0.0,414.0,4636.923076923077,3876.410256410257,4489.743589743591,4408.205128205129,4242.564102564103,4546.666666666667,4436.410256410257,4434.871794871796,4399.48717948718,4768.717948717949,4427.179487179487,4333.333333333334,4275.8974358974365,4606.666666666667
115.857376,0.2946064,0.39715466,0.37914518,0.7854575,0,0.0,0.0,0.0,0.0,0.07504918,0,0,0.0,0.0,0,0,95.0,0.0,414.0,4636.923076923077,3876.410256410257,4489.743589743591,4408.205128205129,4242.564102564103,4546.666666666667,4436.410256410257,4434.871794871796,4399.48717948718,4768.717948717949,4427.179487179487,4333.333333333334,4275.8974358974365,4606.666666666667
115.98248,0.2946064,0.39715466,0.37914518,0.7854575,0,0.0,0.0,0.0,0.0,0.028305672,0,0,0.0,0.0,0,0,111.0,0.0,414.0,4629.743589743591,3893.333333333334,4488.205128205129,4428.205128205129,4243.076923076924,4546.153846153847,4436.923076923077,4411.794871794872,4374.871794871796,4749.743589743591,4413.333333333334,4322.564102564103,4268.205128205129,4600.512820512821
116.232704,0.28991428,0.38507512,0.37449637,0.7616575,0,0.0,0.0,0.0,0.0,0.06280145,0,0,0.0,0.0,0,0,14.0,0.0,536.0,4622.051282051282,3904.615384615385,4490.256410256411,4444.615384615385,4249.2307692307695,4554.358974358975,4452.307692307693,4426.153846153847,4369.2307692307695,4752.820512820514,4454.358974358975,4334.871794871796,4285.128205128206,4597.948717948719
116.48292,0.28991428,0.38507512,0.37449637,0.7616575,0,0.0,0.0,0.0,0.0,0.03404373,0,0,0.0,0.0,0,0,46.0,0.0,0.0,4632.307692307693,3928.205128205129,4492.820512820514,4480.000000000001,4254.358974358975,4558.974358974359,4461.025641025642,4434.871794871796,4394.358974358975,4749.2307692307695,4425.128205128206,4347.6923076923085,4265.128205128206,4594.358974358975
116.73313,0.29986057,0.38578892,0.37030742,0.7403073,0,0.0,0.0,0.0,0.0,0.041842524,0,0,0.0,0.0,0,0,78.0,0.0,536.0,4629.743589743591,3929.7435897435903,4492.307692307693,4470.256410256411,4230.769230769231,4544.615384615385,4444.615384615385,4403.076923076924,4375.8974358974365,4713.333333333334,4376.410256410257,4315.384615384616,4228.205128205129,4596.410256410257
116.983345,0.29986057,0.38578892,0.37030742,0.7403073,0,0.0,0.1341926,0.0,0.0,0.0,0,0,0.0,0.0,0,0,110.0,0.0,536.0,4626.153846153847,3943.589743589744,4505.641025641026,4458.461538461539,4230.769230769231,4544.102564102564,4445.641025641026,4407.179487179487,4361.538461538462,4720.000000000001,4364.615384615385,4312.820512820514,4232.307692307693,4606.153846153847
117.23356,0.28221422,0.38603312,0.36653888,0.7211228,1,0.0,1.0,0.0,0.0,0.0,0,0,0.0,0.0,0,0,13.0,0.0,1109.0,4676.923076923077,4044.1025641025644,4557.435897435898,4518.974358974359,4182.564102564103,4535.384615384616,4533.846153846154,4489.2307692307695,4401.025641025642,4784.102564102564,4438.461538461539,4383.076923076924,4282.051282051282,4623.076923076924
117.389946,0.28221422,0.38603312,0.36653888,0.7211228,0,0.0,0.0,0.0,0.0,0.0,0,0,0.0,0.0,0,0,33.0,0.0,0.0,4678.974358974359,4078.461538461539,4574.358974358975,4522.564102564103,4171.282051282052,4525.641025641026,4545.128205128206,4481.025641025642,4393.333333333334,4774.871794871796,4393.333333333334,4357.435897435898,4240.000000000001,4622.564102564103
117.64016,0.34895155,0.3862529,0.36319423,0.7041335,0,0.0,0.0,0.0,0.0,0.0,0,0,0.0,0.0,0,0,65.0,0.0,449.0,4674.871794871796,4132.820512820514,4610.256410256411,4533.333333333334,4181.538461538462,4535.384615384616,4533.333333333334,4495.8974358974365,4428.205128205129,4810.769230769231,4317.435897435898,4377.435897435898,4271.794871794872,4676.410256410257
117.98421,0.34895155,0.3862529,0.36319423,0.7041335,0,0.0,0.0,0.0,0.0,0.47227323,0,0,0.0,0.0,0,0,109.0,0.0,1109.0,4652.307692307693,4118.974358974359,4603.589743589744,4497.948717948719,4187.179487179487,4530.769230769231,4573.846153846154,4521.538461538462,4474.358974358975,4854.871794871796,4424.615384615385,4409.743589743591,4214.358974358975,4680.512820512821
118.23442,0.3626748,0.3864507,0.36016333,0.6886914,0,0.0,0.0,0.0,0.0,0.030214371,0,0,0.0,0.0,0,0,12.0,0.0,868.0,4645.641025641026,4079.48717948718,4580.000000000001,4489.2307692307695,4194.871794871796,4527.6923076923085,4569.2307692307695,4488.205128205129,4485.128205128206,4845.641025641026,4413.333333333334,4381.538461538462,4187.6923076923085,4662.564102564103
118.35953,0.3626748,0.3864507,0.36016333,0.6886914,0,0.0,0.0,0.0,0.0,0.0,0,0,0.0,0.0,0,0,28.0,0.0,0.0,4648.717948717949,4041.538461538462,4567.179487179488,4472.820512820514,4200.000000000001,4522.564102564103,4570.256410256411,4490.256410256411,4493.846153846154,4836.410256410257,4407.6923076923085,4363.589743589744,4152.820512820514,4649.2307692307695
118.60974,0.44289914,0.38662872,0.35744148,0.6748487,0,0.0,0.0,0.0,0.0,0.0,0,0,0.0,0.0,0,0,60.0,0.0,0.0,4658.461538461539,3989.7435897435903,4531.794871794872,4434.358974358975,4200.512820512821,4517.435897435898,4527.6923076923085,4479.48717948718,4486.153846153847,4841.025641025642,4476.410256410257,4327.6923076923085,4130.769230769231,4630.256410256411
118.98507,0.44289914,0.38662872,0.35744148,0.6748487,0,0.0,0.0,0.0,0.0,0.07062658,0,0,0.0,0.0,0,0,108.0,0.0,868.0,4706.153846153847,3975.3846153846157,4547.179487179488,4444.615384615385,4235.384615384616,4550.256410256411,4541.538461538462,4508.205128205129,4482.564102564103,4845.128205128206,4558.461538461539,4347.179487179487,4138.461538461539,4634.358974358975
119.110176,0.45520324,0.40335524,0.35499233,0.66242456,0,0.0,0.0,0.0,0.0,0.0,0,0,0.0,0.0,0,0,124.0,0.0,868.0,4700.000000000001,3943.076923076924,4524.102564102564,4428.717948717949,4227.6923076923085,4538.974358974359,4521.538461538462,4495.8974358974365,4456.923076923077,4809.743589743591,4547.6923076923085,4313.333333333334,4116.923076923077,4617.948717948719
119.110176,0.45520324,0.40335524,0.35499233,0.66242456,0,0.0,0.0,0.0,0.0,0.0,0,0,0.0,0.0,0,0,124.0,0.0,868.0,4700.000000000001,3943.076923076924,4524.102564102564,4428.717948717949,4227.6923076923085,4538.974358974359,4521.538461538462,4495.8974358974365,4456.923076923077,4809.743589743591,4547.6923076923085,4313.333333333334,4116.923076923077,4617.948717948719
119.6106,0.44970664,0.38957226,0.35279208,0.6512572,0,0.0,0.0,0.0,0.0,0.0,0,0,0.0,0.0,0,0,59.0,0.0,0.0,4684.615384615386,3918.461538461539,4510.769230769231,4448.717948717949,4229.2307692307695,4536.410256410257,4478.974358974359,4496.410256410257,4454.871794871796,4758.974358974359,4478.461538461539,4309.743589743591,4136.410256410257,4590.256410256411
120.017204,0.44970664,0.38957226,0.35279208,0.6512572,0,0.0,0.0,0.0,0.0,0.0,0,0,0.0,0.0,0,0,111.0,0.0,414.0,4729.2307692307695,3952.307692307693,4527.6923076923085,4487.179487179488,4229.74358974359,4537.948717948719,4471.282051282052,4504.102564102564,4476.410256410257,4781.025641025642,4572.820512820514,4387.179487179487,4182.051282051282,4624.615384615385
120.11103,0.45522165,0.3991369,0.35080945,0.6412274,0,0.0,0.0,0.0,0.0,0.0,0,0,0.0,0.0,0,0,123.0,0.0,414.0,4691.794871794872,3925.6410256410263,4502.051282051282,4463.589743589744,4240.512820512821,4552.820512820514,4475.384615384616,4492.820512820514,4456.923076923077,4757.435897435898,4569.743589743591,4360.000000000001,4152.307692307693,4585.641025641026
120.11103,0.45522165,0.3991369,0.35080945,0.6412274,0,0.0,0.0,0.0,0.0,0.0,0,0,0.0,0.0,0,0,123.0,0.0,414.0,4691.794871794872,3925.6410256410263,4502.051282051282,4463.589743589744,4240.512820512821,4552.820512820514,4475.384615384616,4492.820512820514,4456.923076923077,4757.435897435898,4569.743589743591,4360.000000000001,4152.307692307693,4585.641025641026
120.611465,0.40966216,0.4240124,0.34902287,0.65174127,0,0.0,0.0,0.0,0.0,0.0,0,0,0.0,0.0,0,0,58.0,0.0,0.0,4669.743589743591,3910.2564102564106,4484.615384615385,4457.948717948719,4241.538461538462,4554.358974358975,4452.307692307693,4449.743589743591,4409.2307692307695,4727.179487179488,4478.974358974359,4317.435897435898,4153.846153846154,4569.743589743591
120.611465,0.40966216,0.4240124,0.34902287,0.65174127,0,0.0,0.0,0.0,0.0,0.0,0,0,0.0,0.0,0,0,58.0,0.0,0.0,4669.743589743591,3910.2564102564106,4484.615384615385,4457.948717948719,4241.538461538462,4554.358974358975,4452.307692307693,4449.743589743591,4409.2307692307695,4727.179487179488,4478.974358974359,4317.435897435898,4153.846153846154,4569.743589743591
121.237,0.45441195,0.42597413,0.34768912,0.6695205,0,0.0,0.41451195,0.0,0.0,0.0,0,0,0.0,0.0,0,0,9.0,0.0,507.0,4672.307692307693,3928.717948717949,4489.743589743591,4452.820512820514,4257.435897435898,4564.102564102564,4437.948717948719,4454.358974358975,4391.794871794872,4702.564102564103,4400.512820512821,4296.410256410257,4164.102564102564,4552.307692307693
121.48721,0.45441195,0.42597413,0.34768912,0.6695205,0,0.0,0.072473034,0.0,0.0,0.0,0,0,0.0,0.0,0,0,41.0,0.0,0.0,4666.153846153847,3922.564102564103,4476.923076923077,4443.589743589744,4265.641025641026,4576.923076923077,4451.282051282052,4484.615384615385,4379.48717948718,4705.641025641026,4353.333333333334,4277.435897435898,4164.102564102564,4536.410256410257
121.737434,0.47355115,0.42007908,0.34681037,0.69371873,0,0.0,0.0,0.024459897,0.0,0.0,0,0,0.0,0.0,0,0,73.0,0.0,507.0,4639.48717948718,3892.820512820513,4468.717948717949,4428.717948717949,4256.923076923077,4567.6923076923085,4454.871794871796,4483.589743589744,4361.538461538462,4692.820512820514,4350.769230769231,4254.871794871796,4177.948717948719,4518.974358974359
121.98765,0.47355115,0.42007908,0.34681037,0.69371873,0,0.0,0.0,0.0,0.0,0.0,0,0,0.0,0.06558434,0,0,105.0,0.0,1105.0,4616.923076923077,3895.3846153846157,4467.6923076923085,4430.769230769231,4245.641025641026,4562.564102564103,4442.564102564103,4464.102564102564,4355.8974358974365,4683.589743589744,4328.717948717949,4243.076923076924,4163.589743589744,4512.820512820514
122.23786,0.43734723,0.38576177,0.34601778,0.7183542,0,0.0,0.0,0.0,0.0,0.0,0,0,0.0,0.0,0,0,8.0,0.0,598.0,4642.564102564103,3914.358974358975,4485.641025641026,4438.461538461539,4243.076923076924,4565.641025641026,4436.923076923077,4453.333333333334,4354.871794871796,4700.512820512821,4346.666666666667,4263.076923076924,4184.615384615385,4522.051282051282
122.23786,0.43734723,0.38576177,0.34601778,0.7183542,0,0.0,0.0,0.0,0.0,0.0,0,0,0.0,0.0,0,0,8.0,0.0,598.0,4642.564102564103,3914.358974358975,4485.641025641026,4438.461538461539,4243.076923076924,4565.641025641026,4436.923076923077,4453.333333333334,4354.871794871796,4700.512820512821,4346.666666666667,4263.076923076924,4184.615384615385,4522.051282051282
122.61318,0.3808944,0.34641504,0.34444198,0.7404114,0,0.0,0.0,0.0,0.0,0.0,0,0,0.0,0.0,0,0,56.0,0.0,0.0,4616.410256410257,3883.076923076924,4476.410256410257,4420.000000000001,4236.410256410257,4558.461538461539,4451.282051282052,4445.128205128206,4352.307692307693,4695.8974358974365,4300.512820512821,4253.846153846154,4212.307692307693,4547.179487179488
122.61318,0.3808944,0.34641504,0.34444198,0.7404114,0,0.0,0.0,0.0,0.0,0.0,0,0,0.0,0.0,0,0,56.0,0.0,0.0,4616.410256410257,3883.076923076924,4476.410256410257,4420.000000000001,4236.410256410257,4558.461538461539,4451.282051282052,4445.128205128206,4352.307692307693,4695.8974358974365,4300.512820512821,4253.846153846154,4212.307692307693,4547.179487179488
123.11362,0.37076962,0.31271866,0.3427085,0.76012886,0,0.0,0.0,0.0,0.0,0.0,0,0,0.0,0.0,0,0,120.0,0.0,861.0,4647.179487179488,3900.0000000000005,4493.846153846154,4404.102564102564,4241.025641025642,4555.8974358974365,4437.435897435898,4438.461538461539,4380.000000000001,4733.846153846154,4442.051282051282,4289.74358974359,4240.512820512821,4569.2307692307695
123.11362,0.37076962,0.31271866,0.3427085,0.76012886,0,0.0,0.0,0.0,0.0,0.0,0,0,0.0,0.0,0,0,120.0,0.0,861.0,4647.179487179488,3900.0000000000005,4493.846153846154,4404.102564102564,4241.025641025642,4555.8974358974365,4437.435897435898,4438.461538461539,4380.000000000001,4733.846153846154,4442.051282051282,4289.74358974359,4240.512820512821,4569.2307692307695
123.73915,0.31078,0.29747948,0.34114718,0.7782508,0,0.0,0.0,0.0,0.0,0.0,0,0,0.0,0.21508408,0,0,71.0,0.0,478.0,4596.923076923077,3924.615384615385,4505.128205128206,4399.48717948718,4233.846153846154,4550.769230769231,4429.2307692307695,4434.871794871796,4357.948717948719,4718.974358974359,4400.000000000001,4212.307692307693,4222.564102564103,4558.974358974359
123.86426,0.31078,0.29747948,0.34114718,0.7782508,0,0.0,0.0,0.0,0.0,0.0,0,0,0.0,0.0,0,0,87.0,0.0,414.0,4600.512820512821,3942.0512820512827,4497.948717948719,4400.512820512821,4229.74358974359,4540.000000000001,4422.564102564103,4456.410256410257,4354.871794871796,4735.384615384616,4376.410256410257,4204.102564102564,4232.307692307693,4542.564102564103
124.11447,0.3221133,0.2944929,0.3390234,0.80766374,0,0.0,0.0,0.0,0.0,0.0,0,0,0.0,0.0,0,0,119.0,0.0,414.0,4617.435897435898,3996.410256410257,4528.717948717949,4316.923076923077,4222.564102564103,4540.000000000001,4439.48717948718,4462.051282051282,4344.615384615385,4747.179487179488,4294.358974358975,4214.358974358975,4271.794871794872,4567.179487179488
124.11447,0.3221133,0.2944929,0.3390234,0.80766374,0,0.0,0.0,0.0,0.0,0.0,0,0,0.0,0.0,0,0,119.0,0.0,414.0,4617.435897435898,3996.410256410257,4528.717948717949,4316.923076923077,4222.564102564103,4540.000000000001,4439.48717948718,4462.051282051282,4344.615384615385,4747.179487179488,4294.358974358975,4214.358974358975,4271.794871794872,4567.179487179488
124.74001,0.26205692,0.29356077,0.33648458,0.8462322,0,0.0,0.0,0.0,0.0,0.0,0,0,0.0,0.12971593,0,0,70.0,0.0,535.0,4661.538461538462,4035.8974358974365,4569.743589743591,4276.410256410257,4207.6923076923085,4531.282051282052,4475.8974358974365,4467.179487179487,4358.461538461539,4761.538461538462,4287.179487179487,4220.000000000001,4292.307692307693,4572.820512820514
