timestamp,excitement,frustration,meditation,engagementBoredom,blink,clench,laugh,smile,eyebrow,furrowBrow,lookLeft,lookRight,smirkLeft,smirkRight,winkLeft,winkRight,eeg0,eeg1,eeg2,eeg3,eeg4,eeg5,eeg6,eeg7,eeg8,eeg9,eeg10,eeg11,eeg12,eeg13,eeg14,eeg15,eeg16
1576.3625,0.55052483,0.72035974,0.47630435,0.5302433,0,0.0,0.0,0.0,0.0,0.0,0,0,0.0,0.0,0,0,87.0,0.0,441.0,4639.48717948718,3945.6410256410263,4508.717948717949,4397.948717948719,4263.589743589744,4573.846153846154,4463.589743589744,4443.589743589744,4408.205128205129,4750.256410256411,4303.589743589744,4206.153846153847,4034.8717948717954,4578.974358974359
1576.3625,0.55052483,0.72035974,0.47630435,0.5302433,0,0.0,0.0,0.0,0.0,0.0,0,0,0.0,0.0,0,0,87.0,0.0,441.0,4639.48717948718,3945.6410256410263,4508.717948717949,4397.948717948719,4263.589743589744,4573.846153846154,4463.589743589744,4443.589743589744,4408.205128205129,4750.256410256411,4303.589743589744,4206.153846153847,4034.8717948717954,4578.974358974359
1576.8629,0.53520834,0.76021725,0.46197587,0.5324468,0,0.0,0.0,0.0,0.0,0.0,0,0,0.0,0.0,0,0,22.0,0.0,0.0,4618.461538461539,3947.692307692308,4486.153846153847,4397.948717948719,4269.2307692307695,4572.307692307693,4437.948717948719,4396.923076923077,4396.923076923077,4800.512820512821,4317.948717948719,4256.923076923077,4169.74358974359,4531.794871794872
1577.1132,0.53520834,0.76021725,0.46197587,0.5324468,0,0.0,0.0,0.0,0.0,0.09001224,0,0,0.0,0.0,0,0,54.0,0.0,0.0,4619.48717948718,3940.5128205128212,4475.8974358974365,4394.358974358975,4276.410256410257,4565.641025641026,4378.974358974359,4356.923076923077,4389.2307692307695,4825.641025641026,4322.564102564103,4248.205128205129,4308.205128205129,4514.358974358975
1577.3634,0.49862775,0.7856168,0.4490789,0.5344302,0,0.0,0.0,0.0,0.0,0.004787042,0,0,0.0,0.0,0,0,86.0,0.0,525.0,4648.205128205129,3972.307692307693,4471.282051282052,4416.410256410257,4290.256410256411,4577.435897435898,4392.307692307693,4373.333333333334,4395.384615384616,4914.871794871796,4341.538461538462,4244.102564102564,4390.256410256411,4550.256410256411
1577.6135,0.49862775,0.7856168,0.4490789,0.5344302,0,0.0,0.0,0.21880524,0.0,0.0,0,0,0.0,0.0,0,0,118.0,0.0,525.0,4633.846153846154,3952.307692307693,4466.153846153847,4413.333333333334,4332.820512820514,4603.076923076924,4397.948717948719,4361.025641025642,4382.564102564103,4929.2307692307695,4341.538461538462,4258.974358974359,4391.282051282052,4489.743589743591
1577.8638,0.56847477,0.79066133,0.43747276,0.53621525,0,0.0,0.0,0.0,0.0,0.0,0,0,0.0,0.0,0,0,21.0,0.0,0.0,4634.358974358975,3959.48717948718,4487.179487179488,4507.6923076923085,4338.461538461539,4593.333333333334,4437.948717948719,4378.461538461539,4390.256410256411,4923.589743589744,4385.128205128206,4362.051282051282,4401.025641025642,4496.923076923077
1577.8638,0.56847477,0.79066133,0.43747276,0.53621525,0,0.0,0.0,0.0,0.0,0.0,0,0,0.0,0.0,0,0,21.0,0.0,0.0,4634.358974358975,3959.48717948718,4487.179487179488,4507.6923076923085,4338.461538461539,4593.333333333334,4437.948717948719,4378.461538461539,4390.256410256411,4923.589743589744,4385.128205128206,4362.051282051282,4401.025641025642,4496.923076923077
1578.3643,0.52585155,0.76401424,0.42703074,0.53782135,0,0.0,0.0,0.0,0.0,0.0,0,0,0.0,0.0,0,0,59.0,0.0,0.0,4626.666666666667,3955.8974358974365,4508.717948717949,4698.974358974359,4329.2307692307695,4581.025641025642,4437.435897435898,4393.333333333334,4397.435897435898,4906.153846153847,4422.051282051282,4429.2307692307695,4409.2307692307695,4512.307692307693
1578.3643,0.52585155,0.76401424,0.42703074,0.53782135,0,0.0,0.0,0.0,0.0,0.0,0,0,0.0,0.0,0,0,85.0,0.0,819.0,4635.384615384616,3972.820512820513,4512.820512820514,4693.846153846154,4300.000000000001,4569.743589743591,4500.512820512821,4404.102564102564,4388.205128205129,4841.025641025642,4432.307692307693,4391.794871794872,4372.307692307693,4517.948717948719
1578.8646,0.5068206,0.74333966,0.43090197,0.5305103,0,0.0,0.0,0.0,0.0,0.0,0,0,0.0,0.0,0,0,0.0,0.0,530.0,4670.769230769231,3983.589743589744,4575.8974358974365,4624.615384615385,4212.820512820514,4536.923076923077,4582.051282051282,4530.256410256411,4433.333333333334,4824.615384615386,4516.410256410257,4327.179487179487,4371.794871794872,4546.153846153847
1578.8646,0.5068206,0.74333966,0.43090197,0.5305103,0,0.0,0.0,0.0,0.0,0.0,0,0,0.0,0.0,0,0,20.0,0.0,0.0,4667.179487179488,3973.333333333334,4560.512820512821,4585.128205128206,4204.102564102564,4542.564102564103,4556.410256410257,4488.205128205129,4417.948717948719,4768.205128205129,4470.256410256411,4317.435897435898,4311.282051282052,4541.538461538462
1579.3651,0.50272906,0.7334542,0.44905034,0.50710964,0,0.0,0.0,0.0,0.0,0.0,0,0,0.0,0.0,0,0,60.0,0.0,0.0,4680.512820512821,3985.1282051282055,4569.743589743591,4538.974358974359,4211.282051282052,4550.256410256411,4566.153846153847,4502.051282051282,4424.615384615385,4768.717948717949,4459.48717948718,4451.282051282052,4255.384615384616,4586.153846153847
1579.3651,0.50272906,0.7334542,0.44905034,0.50710964,0,0.0,0.0,0.0,0.0,0.0,0,0,0.0,0.0,0,0,84.0,0.0,530.0,4655.384615384616,3969.2307692307695,4553.846153846154,4522.051282051282,4211.794871794872,4550.256410256411,4552.307692307693,4481.538461538462,4417.435897435898,4724.102564102564,4454.871794871796,4395.8974358974365,4178.461538461539,4555.384615384616
1579.8969,0.47970307,0.7517142,0.4736599,0.47677308,0,0.0,0.0,0.0,0.0,0.0,0,0,0.0,0.0,0,0,23.0,0.0,0.0,4676.410256410257,3965.6410256410263,4558.461538461539,4493.333333333334,4228.717948717949,4550.769230769231,4546.666666666667,4499.48717948718,4438.461538461539,4705.128205128206,4423.589743589744,4385.128205128206,4119.48717948718,4596.923076923077
1580.1157,0.47970307,0.7517142,0.4736599,0.47677308,0,0.0,0.0,0.0,0.0,0.0,0,0,0.0,0.0,0,0,51.0,0.0,0.0,4662.051282051282,3957.9487179487182,4554.871794871796,4474.871794871796,4242.564102564103,4565.641025641026,4549.743589743591,4504.102564102564,4453.846153846154,4706.666666666667,4402.564102564103,4314.358974358975,4105.641025641026,4589.2307692307695
1580.366,0.58275694,0.7307374,0.49640828,0.44947755,0,0.0,0.0,0.0,0.0,0.0,0,0,0.0,0.0,0,0,83.0,0.0,441.0,4674.358974358975,3973.8461538461543,4572.307692307693,4465.641025641026,4226.666666666667,4548.205128205129,4530.769230769231,4480.512820512821,4447.6923076923085,4701.025641025642,4402.051282051282,4291.794871794872,4096.410256410257,4608.717948717949
1580.366,0.58275694,0.7307374,0.49640828,0.44947755,0,0.0,0.0,0.0,0.0,0.0,0,0,0.0,0.0,0,0,83.0,0.0,441.0,4674.358974358975,3973.8461538461543,4572.307692307693,4465.641025641026,4226.666666666667,4548.205128205129,4530.769230769231,4480.512820512821,4447.6923076923085,4701.025641025642,4402.051282051282,4291.794871794872,4096.410256410257,4608.717948717949
1580.8663,0.5093094,0.7334786,0.51687443,0.42492288,0,0.0,0.0,0.0,0.0,0.0,0,0,0.0,0.0,0,0,124.0,0.0,530.0,4676.923076923077,3975.8974358974365,4560.000000000001,4449.2307692307695,4230.256410256411,4549.743589743591,4497.948717948719,4437.948717948719,4433.846153846154,4717.948717948719,4413.846153846154,4337.948717948719,4162.564102564103,4619.48717948718
1580.8663,0.5093094,0.7334786,0.51687443,0.42492288,0,0.0,0.0,0.0,0.0,0.0,0,0,0.0,0.0,0,0,18.0,0.0,0.0,4652.820512820514,3924.1025641025644,4553.333333333334,4417.948717948719,4245.128205128206,4555.384615384616,4514.871794871796,4470.256410256411,4445.128205128206,4720.000000000001,4397.948717948719,4250.769230769231,4149.74358974359,4589.2307692307695
1581.3668,0.49485147,0.7356343,0.53528553,0.40721408,0,0.0,0.0,0.0,0.0,0.0,0,0,0.0,0.0,0,0,59.0,0.0,0.0,4620.512820512821,3934.358974358975,4533.846153846154,4405.641025641026,4247.6923076923085,4562.051282051282,4506.666666666667,4469.743589743591,4438.974358974359,4709.2307692307695,4344.102564102564,4312.307692307693,4098.974358974359,4544.615384615385
1581.3668,0.49485147,0.7356343,0.53528553,0.40721408,0,0.0,0.0,0.0,0.0,0.0,0,0,0.0,0.0,0,0,82.0,0.0,524.0,4639.48717948718,3952.307692307693,4542.564102564103,4430.256410256411,4265.128205128206,4573.846153846154,4503.076923076924,4460.000000000001,4446.153846153847,4727.6923076923085,4385.128205128206,4326.666666666667,4146.153846153847,4561.025641025642
1581.8672,0.5152863,0.7100713,0.551846,0.40174925,0,0.0,0.0,0.0,0.0,0.0,0,0,0.0,0.0,0,0,121.0,0.0,818.0,4616.923076923077,3946.1538461538466,4529.743589743591,4430.256410256411,4252.307692307693,4560.512820512821,4478.974358974359,4427.179487179487,4449.743589743591,4730.769230769231,4353.333333333334,4234.871794871796,4135.8974358974365,4533.846153846154
1581.8672,0.5152863,0.7100713,0.551846,0.40174925,0,0.0,0.0,0.0,0.0,0.0,0,0,0.0,0.0,0,0,17.0,0.0,0.0,4608.717948717949,3937.9487179487182,4514.358974358975,4408.205128205129,4264.102564102564,4567.6923076923085,4451.794871794872,4377.435897435898,4421.538461538462,4721.538461538462,4338.974358974359,4317.948717948719,4141.538461538462,4524.102564102564
1582.3677,0.47323114,0.71094966,0.55777186,0.4058916,0,0.0,0.0,0.0,0.0,0.0,0,0,0.0,0.0,0,0,71.0,0.0,467.0,4609.2307692307695,3993.333333333334,4516.923076923077,4426.666666666667,4280.000000000001,4582.564102564103,4452.820512820514,4374.871794871796,4421.025641025642,4681.025641025642,4255.384615384616,4241.025641025642,4059.48717948718,4504.102564102564
1582.3989,0.47323114,0.71094966,0.55777186,0.4058916,0,0.0,0.0,0.0,0.0,0.0,0,0,0.0,0.0,0,0,85.0,0.0,818.0,4617.948717948719,3983.589743589744,4511.794871794872,4415.384615384616,4266.153846153847,4567.6923076923085,4465.641025641026,4411.794871794872,4436.410256410257,4697.948717948719,4282.564102564103,4255.384615384616,4078.461538461539,4510.256410256411
1582.868,0.45854533,0.6689117,0.55620354,0.41722837,0,0.0,0.0,0.0,0.0,0.0,0,0,0.0,0.0,0,0,14.0,0.0,524.0,4609.743589743591,3949.2307692307695,4487.6923076923085,4396.923076923077,4271.282051282052,4576.410256410257,4463.589743589744,4416.410256410257,4415.8974358974365,4692.307692307693,4241.025641025642,4177.435897435898,4071.2820512820517,4465.641025641026
1582.868,0.45854533,0.6689117,0.55620354,0.41722837,0,0.0,0.0,0.0,0.0,0.0,0,0,0.0,0.0,0,0,16.0,0.0,0.0,4612.820512820514,3952.820512820513,4489.2307692307695,4404.615384615385,4269.74358974359,4578.461538461539,4447.6923076923085,4403.589743589744,4417.948717948719,4691.794871794872,4249.74358974359,4182.564102564103,4089.7435897435903,4473.333333333334
1583.3685,0.5153308,0.64363545,0.54227936,0.42742816,0,0.0,0.0,0.0,0.0,0.0,0,0,0.0,0.0,0,0,75.0,0.0,441.0,4634.871794871796,3977.9487179487182,4521.025641025642,4427.6923076923085,4272.307692307693,4577.435897435898,4478.974358974359,4436.410256410257,4416.410256410257,4707.179487179488,4277.435897435898,4286.153846153847,4127.6923076923085,4485.641025641026
1583.3685,0.5153308,0.64363545,0.54227936,0.42742816,0,0.0,0.0,0.0,0.0,0.0,0,0,0.0,0.0,0,0,80.0,0.0,532.0,4636.410256410257,3976.9230769230776,4517.435897435898,4424.102564102564,4267.179487179487,4575.8974358974365,4464.102564102564,4432.307692307693,4409.2307692307695,4725.641025641026,4284.615384615385,4275.384615384616,4140.512820512821,4494.358974358975
1583.8689,0.46119687,0.6250958,0.5213811,0.43991122,0,0.0,0.0,0.0,0.0,0.0,0,0,0.0,0.0,0,0,117.0,0.0,818.0,4652.820512820514,3984.1025641025644,4539.48717948718,4433.333333333334,4260.512820512821,4571.282051282052,4498.974358974359,4438.461538461539,4408.717948717949,4709.743589743591,4300.000000000001,4366.666666666667,4168.205128205129,4506.153846153847
1583.9003,0.46119687,0.6250958,0.5213811,0.43991122,0,0.0,0.0,0.0,0.0,0.0,0,0,0.0,0.0,0,0,19.0,0.0,0.0,4644.102564102564,3985.1282051282055,4532.307692307693,4435.8974358974365,4267.179487179487,4574.871794871796,4494.871794871796,4428.205128205129,4405.641025641026,4733.846153846154,4312.820512820514,4243.589743589744,4182.051282051282,4510.256410256411
1584.3694,0.4470816,0.61112416,0.5025349,0.45116955,0,0.0,0.0,0.0,0.0,0.0,0,0,0.0,0.0,0,0,79.0,0.0,441.0,4614.871794871796,3955.3846153846157,4531.794871794872,4420.000000000001,4276.410256410257,4585.128205128206,4516.923076923077,4454.358974358975,4409.2307692307695,4775.8974358974365,4370.769230769231,4294.871794871796,4222.051282051282,4508.717948717949
1584.3694,0.4470816,0.61112416,0.5025349,0.45116955,0,0.0,0.0,0.0,0.0,0.0,0,0,0.0,0.0,0,0,79.0,0.0,441.0,4614.871794871796,3955.3846153846157,4531.794871794872,4420.000000000001,4276.410256410257,4585.128205128206,4516.923076923077,4454.358974358975,4409.2307692307695,4775.8974358974365,4370.769230769231,4294.871794871796,4222.051282051282,4508.717948717949
1584.8699,0.46230233,0.6055658,0.4855725,0.46130162,0,0.0,0.0,0.0,0.0,0.0,0,0,0.0,0.0,0,0,14.0,0.0,524.0,4637.435897435898,3970.7692307692314,4536.923076923077,4444.102564102564,4254.358974358975,4564.102564102564,4534.358974358975,4495.384615384616,4415.8974358974365,4787.179487179488,4428.717948717949,4362.564102564103,4256.410256410257,4560.512820512821
1584.8699,0.46230233,0.6055658,0.4855725,0.46130162,0,0.0,0.0,0.0,0.0,0.0,0,0,0.0,0.0,0,0,14.0,0.0,524.0,4637.435897435898,3970.7692307692314,4536.923076923077,4444.102564102564,4254.358974358975,4564.102564102564,4534.358974358975,4495.384615384616,4415.8974358974365,4787.179487179488,4428.717948717949,4362.564102564103,4256.410256410257,4560.512820512821
1585.3702,0.40125588,0.59761846,0.47030884,0.4704185,0,0.0,0.0,0.0,0.0,0.0,0,0,0.0,0.0,0,0,78.0,0.0,524.0,4582.564102564103,3971.7948717948725,4499.48717948718,4434.358974358975,4278.461538461539,4572.307692307693,4465.641025641026,4445.128205128206,4402.564102564103,4838.461538461539,4410.769230769231,4328.205128205129,4328.717948717949,4534.358974358975
1585.3702,0.40125588,0.59761846,0.47030884,0.4704185,0,0.0,0.0,0.0,0.0,0.0,0,0,0.0,0.0,0,0,78.0,0.0,524.0,4582.564102564103,3971.7948717948725,4499.48717948718,4434.358974358975,4278.461538461539,4572.307692307693,4465.641025641026,4445.128205128206,4402.564102564103,4838.461538461539,4410.769230769231,4328.205128205129,4328.717948717949,4534.358974358975
1585.8707,0.39577776,0.6178493,0.45657328,0.4786223,0,0.0,0.0,0.0,0.0,0.0,0,0,0.0,0.0,0,0,13.0,0.0,821.0,4547.6923076923085,3951.2820512820517,4463.589743589744,4397.435897435898,4383.076923076924,4633.333333333334,4404.102564102564,4371.794871794872,4382.051282051282,4896.410256410257,4412.307692307693,4284.102564102564,4410.769230769231,4456.410256410257
1585.8707,0.39577776,0.6178493,0.45657328,0.4786223,0,0.0,0.0,0.0,0.0,0.0,0,0,0.0,0.0,0,0,13.0,0.0,821.0,4547.6923076923085,3951.2820512820517,4463.589743589744,4397.435897435898,4383.076923076924,4633.333333333334,4404.102564102564,4371.794871794872,4382.051282051282,4896.410256410257,4412.307692307693,4284.102564102564,4410.769230769231,4456.410256410257
1586.3711,0.50544447,0.6265733,0.44421563,0.4860061,0,0.0,0.0,0.0,0.0,0.0,0,0,0.0,0.0,0,0,77.0,0.0,821.0,4596.923076923077,3959.48717948718,4493.846153846154,4430.769230769231,4393.846153846154,4633.333333333334,4458.461538461539,4399.48717948718,4386.153846153847,4908.717948717949,4433.846153846154,4438.974358974359,4513.846153846154,4463.076923076924
1586.3711,0.50544447,0.6265733,0.44421563,0.4860061,0,0.0,0.0,0.0,0.0,0.0,0,0,0.0,0.0,0,0,77.0,0.0,821.0,4596.923076923077,3959.48717948718,4493.846153846154,4430.769230769231,4393.846153846154,4633.333333333334,4458.461538461539,4399.48717948718,4386.153846153847,4908.717948717949,4433.846153846154,4438.974358974359,4513.846153846154,4463.076923076924
1586.8716,0.6547911,0.6210462,0.44790527,0.492652,0,0.0,0.0,0.0,0.0,0.0,0,0,0.0,0.0,0,0,12.0,0.0,532.0,4568.205128205129,3935.8974358974365,4503.076923076924,4422.051282051282,4325.641025641026,4589.743589743591,4432.820512820514,4382.051282051282,4376.410256410257,4809.743589743591,4376.410256410257,4311.282051282052,4404.615384615385,4438.974358974359
1586.8716,0.6547911,0.6210462,0.44790527,0.492652,0,0.0,0.0,0.0,0.0,0.0,0,0,0.0,0.0,0,0,12.0,0.0,532.0,4568.205128205129,3935.8974358974365,4503.076923076924,4422.051282051282,4325.641025641026,4589.743589743591,4432.820512820514,4382.051282051282,4376.410256410257,4809.743589743591,4376.410256410257,4311.282051282052,4404.615384615385,4438.974358974359
1587.372,0.6155795,0.62440133,0.47442827,0.4986308,0,0.0,0.0,0.0,0.0,0.0,0,0,0.0,0.0,0,0,76.0,0.0,532.0,4617.435897435898,3956.9230769230776,4547.179487179488,4447.6923076923085,4262.564102564103,4543.076923076924,4494.871794871796,4464.615384615385,4401.538461538462,4785.641025641026,4436.410256410257,4320.000000000001,4359.48717948718,4501.538461538462
1587.372,0.6155795,0.62440133,0.47442827,0.4986308,0,0.0,0.0,0.0,0.0,0.0,0,0,0.0,0.0,0,0,76.0,0.0,532.0,4617.435897435898,3956.9230769230776,4547.179487179488,4447.6923076923085,4262.564102564103,4543.076923076924,4494.871794871796,4464.615384615385,4401.538461538462,4785.641025641026,4436.410256410257,4320.000000000001,4359.48717948718,4501.538461538462
1587.8724,0.5283425,0.60894495,0.49829262,0.49258813,0,0.0,0.0,0.0,0.0,0.0,0,0,0.0,0.0,0,0,11.0,0.0,441.0,4625.641025641026,3945.1282051282055,4553.333333333334,4462.051282051282,4239.48717948718,4542.564102564103,4517.435897435898,4503.589743589744,4417.435897435898,4745.641025641026,4433.846153846154,4292.820512820514,4222.564102564103,4500.000000000001
1587.8724,0.5283425,0.60894495,0.49829262,0.49258813,0,0.0,0.0,0.0,0.0,0.0,0,0,0.0,0.0,0,0,11.0,0.0,441.0,4625.641025641026,3945.1282051282055,4553.333333333334,4462.051282051282,4239.48717948718,4542.564102564103,4517.435897435898,4503.589743589744,4417.435897435898,4745.641025641026,4433.846153846154,4292.820512820514,4222.564102564103,4500.000000000001
1588.3728,0.49047926,0.6226916,0.5206181,0.48712906,0,0.0,0.0,0.0,0.0,0.0,0,0,0.0,0.0,0,0,75.0,0.0,441.0,4620.000000000001,3991.2820512820517,4541.538461538462,4495.8974358974365,4250.769230769231,4554.871794871796,4506.153846153847,4459.48717948718,4432.307692307693,4654.871794871796,4323.076923076924,4183.076923076924,4021.0256410256416,4449.2307692307695
1588.623,0.49047926,0.6226916,0.5206181,0.48712906,0,0.0,0.0,0.0,0.0,0.082786694,0,0,0.0,0.0,0,0,107.0,0.0,441.0,4637.948717948719,3990.7692307692314,4530.769230769231,4482.564102564103,4249.2307692307695,4556.923076923077,4498.461538461539,4455.384615384616,4431.282051282052,4652.820512820514,4330.256410256411,4252.820512820514,4031.2820512820517,4467.6923076923085
1588.8733,0.57861453,0.6406244,0.53230685,0.48995247,0,0.0,0.0,0.0,0.0,0.0,0,0,0.0,0.0,0,0,10.0,0.0,522.0,4628.205128205129,3988.205128205129,4524.102564102564,4474.871794871796,4244.615384615385,4553.333333333334,4480.000000000001,4425.641025641026,4413.846153846154,4633.333333333334,4310.769230769231,4243.589743589744,4007.1794871794878,4460.512820512821
1588.8733,0.57861453,0.6406244,0.53230685,0.48995247,0,0.0,0.0,0.0,0.0,0.0,0,0,0.0,0.0,0,0,10.0,0.0,522.0,4628.205128205129,3988.205128205129,4524.102564102564,4474.871794871796,4244.615384615385,4553.333333333334,4480.000000000001,4425.641025641026,4413.846153846154,4633.333333333334,4310.769230769231,4243.589743589744,4007.1794871794878,4460.512820512821
1589.3737,0.6006803,0.6647357,0.54293513,0.48548886,0,0.0,0.0,0.0,0.0,0.0,0,0,0.0,0.0,0,0,74.0,0.0,522.0,4635.8974358974365,3916.410256410257,4520.512820512821,4441.025641025642,4247.6923076923085,4563.076923076924,4489.743589743591,4475.384615384616,4441.538461538462,4740.000000000001,4405.641025641026,4279.48717948718,4134.358974358975,4521.538461538462
1589.3737,0.6006803,0.6647357,0.54293513,0.48548886,0,0.0,0.0,0.0,0.0,0.0,0,0,0.0,0.0,0,0,74.0,0.0,522.0,4635.8974358974365,3916.410256410257,4520.512820512821,4441.025641025642,4247.6923076923085,4563.076923076924,4489.743589743591,4475.384615384616,4441.538461538462,4740.000000000001,4405.641025641026,4279.48717948718,4134.358974358975,4521.538461538462
1589.8741,0.6254771,0.6776045,0.5500317,0.4746815,0,0.0,0.0,0.0,0.0,0.0,0,0,0.0,0.0,0,0,9.0,0.0,453.0,4622.564102564103,3925.6410256410263,4492.307692307693,4462.051282051282,4242.051282051282,4559.48717948718,4445.128205128206,4418.461538461539,4420.000000000001,4678.974358974359,4356.410256410257,4268.717948717949,4093.8461538461543,4485.641025641026
1589.8741,0.6254771,0.6776045,0.5500317,0.4746815,0,0.0,0.0,0.0,0.0,0.0,0,0,0.0,0.0,0,0,9.0,0.0,453.0,4622.564102564103,3925.6410256410263,4492.307692307693,4462.051282051282,4242.051282051282,4559.48717948718,4445.128205128206,4418.461538461539,4420.000000000001,4678.974358974359,4356.410256410257,4268.717948717949,4093.8461538461543,4485.641025641026
1590.3745,0.68327427,0.6488662,0.55641127,0.46495828,0,0.0,0.0,0.0,0.0,0.0,0,0,0.0,0.0,0,0,73.0,0.0,453.0,4648.717948717949,3966.666666666667,4505.641025641026,4464.102564102564,4258.974358974359,4571.794871794872,4480.512820512821,4434.871794871796,4421.538461538462,4725.128205128206,4385.128205128206,4284.615384615385,4115.384615384616,4502.564102564103
1590.3745,0.68327427,0.6488662,0.55641127,0.46495828,0,0.0,0.0,0.0,0.0,0.0,0,0,0.0,0.0,0,0,73.0,0.0,453.0,4648.717948717949,3966.666666666667,4505.641025641026,4464.102564102564,4258.974358974359,4571.794871794872,4480.512820512821,4434.871794871796,4421.538461538462,4725.128205128206,4385.128205128206,4284.615384615385,4115.384615384616,4502.564102564103
1590.875,0.6060675,0.61960673,0.5646068,0.45621127,0,0.0,0.0,0.0,0.0,0.0,0,0,0.0,0.0,0,0,8.0,0.0,392.0,4627.179487179488,3973.8461538461543,4510.769230769231,4464.615384615385,4265.128205128206,4569.743589743591,4476.923076923077,4420.512820512821,4423.076923076924,4741.538461538462,4382.564102564103,4357.435897435898,4127.179487179487,4513.333333333334
1590.875,0.6060675,0.61960673,0.5646068,0.45621127,0,0.0,0.0,0.0,0.0,0.0,0,0,0.0,0.0,0,0,8.0,0.0,392.0,4627.179487179488,3973.8461538461543,4510.769230769231,4464.615384615385,4265.128205128206,4569.743589743591,4476.923076923077,4420.512820512821,4423.076923076924,4741.538461538462,4382.564102564103,4357.435897435898,4127.179487179487,4513.333333333334
1591.3754,0.5214006,0.5834236,0.5682226,0.44834334,0,0.0,0.0,0.0,0.0,0.0,0,0,0.0,0.0,0,0,72.0,0.0,392.0,4609.743589743591,3968.205128205129,4513.333333333334,4464.102564102564,4254.358974358975,4558.974358974359,4480.000000000001,4440.000000000001,4451.282051282052,4764.102564102564,4396.410256410257,4404.615384615385,4158.974358974359,4514.871794871796
1591.3754,0.5214006,0.5834236,0.5682226,0.44834334,0,0.0,0.0,0.0,0.0,0.0,0,0,0.0,0.0,0,0,72.0,0.0,392.0,4609.743589743591,3968.205128205129,4513.333333333334,4464.102564102564,4254.358974358975,4558.974358974359,4480.000000000001,4440.000000000001,4451.282051282052,4764.102564102564,4396.410256410257,4404.615384615385,4158.974358974359,4514.871794871796
1591.8759,0.45611647,0.5543621,0.5775109,0.44126692,0,0.0,0.0,0.0,0.0,0.0,0,0,0.0,0.0,0,0,7.0,0.0,467.0,4600.512820512821,3970.2564102564106,4496.923076923077,4448.717948717949,4249.2307692307695,4551.282051282052,4461.025641025642,4435.8974358974365,4437.948717948719,4769.2307692307695,4399.48717948718,4363.589743589744,4153.846153846154,4525.641025641026
1591.8759,0.45611647,0.5543621,0.5775109,0.44126692,0,0.0,0.0,0.0,0.0,0.0,0,0,0.0,0.0,0,0,7.0,0.0,467.0,4600.512820512821,3970.2564102564106,4496.923076923077,4448.717948717949,4249.2307692307695,4551.282051282052,4461.025641025642,4435.8974358974365,4437.948717948719,4769.2307692307695,4399.48717948718,4363.589743589744,4153.846153846154,4525.641025641026
1592.3762,0.42935005,0.53528714,0.5834711,0.44046515,0,0.0,0.0,0.0,0.0,0.0,0,0,0.0,0.0,0,0,71.0,0.0,467.0,4626.153846153847,3981.538461538462,4522.051282051282,4456.410256410257,4228.205128205129,4537.435897435898,4493.846153846154,4466.153846153847,4437.435897435898,4767.6923076923085,4412.820512820514,4358.461538461539,4167.6923076923085,4561.025641025642
1592.3762,0.42935005,0.53528714,0.5834711,0.44046515,0,0.0,0.0,0.0,0.0,0.0,0,0,0.0,0.0,0,0,71.0,0.0,467.0,4626.153846153847,3981.538461538462,4522.051282051282,4456.410256410257,4228.205128205129,4537.435897435898,4493.846153846154,4466.153846153847,4437.435897435898,4767.6923076923085,4412.820512820514,4358.461538461539,4167.6923076923085,4561.025641025642
1592.8767,0.4376932,0.5240352,0.58882636,0.4469962,0,0.0,0.0,0.0,0.0,0.0,0,0,0.0,0.0,0,0,6.0,0.0,526.0,4630.256410256411,3990.7692307692314,4526.153846153847,4455.384615384616,4234.358974358975,4542.564102564103,4499.48717948718,4472.820512820514,4452.307692307693,4772.307692307693,4420.000000000001,4371.794871794872,4185.641025641026,4576.410256410257
1592.8767,0.4376932,0.5240352,0.58882636,0.4469962,0,0.0,0.0,0.0,0.0,0.0,0,0,0.0,0.0,0,0,6.0,0.0,526.0,4630.256410256411,3990.7692307692314,4526.153846153847,4455.384615384616,4234.358974358975,4542.564102564103,4499.48717948718,4472.820512820514,4452.307692307693,4772.307692307693,4420.000000000001,4371.794871794872,4185.641025641026,4576.410256410257
1593.3771,0.40373525,0.502687,0.58541125,0.4528749,0,0.0,0.0,0.0,0.0,0.0,0,0,0.0,0.0,0,0,70.0,0.0,526.0,4630.769230769231,4022.0512820512827,4530.256410256411,4455.384615384616,4254.358974358975,4562.051282051282,4493.846153846154,4434.358974358975,4443.076923076924,4771.282051282052,4421.025641025642,4388.717948717949,4186.153846153847,4571.282051282052
1593.3771,0.40373525,0.502687,0.58541125,0.4528749,0,0.0,0.0,0.0,0.0,0.0,0,0,0.0,0.0,0,0,70.0,0.0,526.0,4630.769230769231,4022.0512820512827,4530.256410256411,4455.384615384616,4254.358974358975,4562.051282051282,4493.846153846154,4434.358974358975,4443.076923076924,4771.282051282052,4421.025641025642,4388.717948717949,4186.153846153847,4571.282051282052
1593.8776,0.33582303,0.47329086,0.57822484,0.45816654,0,0.0,0.0,0.0,0.0,0.0,0,0,0.0,0.0,0,0,5.0,0.0,537.0,4614.871794871796,4002.564102564103,4509.2307692307695,4457.435897435898,4261.538461538462,4568.205128205129,4486.153846153847,4425.128205128206,4437.948717948719,4764.102564102564,4389.2307692307695,4300.512820512821,4170.769230769231,4563.589743589744
1593.8776,0.33582303,0.47329086,0.57822484,0.45816654,0,0.0,0.0,0.0,0.0,0.0,0,0,0.0,0.0,0,0,5.0,0.0,537.0,4614.871794871796,4002.564102564103,4509.2307692307695,4457.435897435898,4261.538461538462,4568.205128205129,4486.153846153847,4425.128205128206,4437.948717948719,4764.102564102564,4389.2307692307695,4300.512820512821,4170.769230769231,4563.589743589744
1594.3779,0.31041166,0.43755424,0.57096666,0.45901346,0,0.0,0.0,0.0,0.0,0.0,0,0,0.0,0.0,0,0,69.0,0.0,537.0,4615.384615384616,3988.717948717949,4534.358974358975,4443.076923076924,4249.74358974359,4559.48717948718,4483.076923076924,4437.435897435898,4436.923076923077,4763.589743589744,4403.076923076924,4255.8974358974365,4176.410256410257,4587.179487179488
1594.3779,0.31041166,0.43755424,0.57096666,0.45901346,0,0.0,0.0,0.0,0.0,0.0,0,0,0.0,0.0,0,0,69.0,0.0,537.0,4615.384615384616,3988.717948717949,4534.358974358975,4443.076923076924,4249.74358974359,4559.48717948718,4483.076923076924,4437.435897435898,4436.923076923077,4763.589743589744,4403.076923076924,4255.8974358974365,4176.410256410257,4587.179487179488
1594.8784,0.3029521,0.40210626,0.559315,0.44897306,0,0.0,0.0,0.0,0.0,0.0,0,0,0.0,0.0,0,0,4.0,0.0,540.0,4637.435897435898,3993.333333333334,4518.461538461539,4430.256410256411,4244.102564102564,4552.820512820514,4454.358974358975,4395.8974358974365,4417.948717948719,4737.435897435898,4394.358974358975,4272.307692307693,4172.820512820514,4579.48717948718
1594.8784,0.3029521,0.40210626,0.559315,0.44897306,0,0.0,0.0,0.0,0.0,0.0,0,0,0.0,0.0,0,0,4.0,0.0,540.0,4637.435897435898,3993.333333333334,4518.461538461539,4430.256410256411,4244.102564102564,4552.820512820514,4454.358974358975,4395.8974358974365,4417.948717948719,4737.435897435898,4394.358974358975,4272.307692307693,4172.820512820514,4579.48717948718
1595.3789,0.282018,0.36981368,0.5488261,0.43951246,0,0.0,0.0,0.0,0.0,0.0,0,0,0.0,0.0,0,0,68.0,0.0,540.0,4622.051282051282,3971.7948717948725,4498.461538461539,4406.666666666667,4276.923076923077,4575.8974358974365,4442.051282051282,4411.794871794872,4424.102564102564,4793.846153846154,4395.384615384616,4270.256410256411,4246.153846153847,4578.461538461539
1595.3789,0.282018,0.36981368,0.5488261,0.43951246,0,0.0,0.0,0.0,0.0,0.0,0,0,0.0,0.0,0,0,68.0,0.0,540.0,4622.051282051282,3971.7948717948725,4498.461538461539,4406.666666666667,4276.923076923077,4575.8974358974365,4442.051282051282,4411.794871794872,4424.102564102564,4793.846153846154,4395.384615384616,4270.256410256411,4246.153846153847,4578.461538461539
1595.8793,0.3227763,0.33990267,0.5393834,0.431004,0,0.0,0.0,0.0,0.0,0.12297062,0,0,0.0,0.0,0,0,3.0,0.0,522.0,4568.205128205129,3955.3846153846157,4455.8974358974365,4382.564102564103,4299.48717948718,4587.179487179488,4428.205128205129,4352.307692307693,4393.846153846154,4714.871794871796,4343.589743589744,4215.8974358974365,4238.974358974359,4511.794871794872
1596.1295,0.3227763,0.33990267,0.5393834,0.431004,0,0.0,0.0,0.0,0.0,0.0,0,0,0.0,0.0,0,0,35.0,0.0,0.0,4590.256410256411,3964.615384615385,4466.666666666667,4385.128205128206,4284.615384615385,4572.820512820514,4419.48717948718,4362.564102564103,4400.000000000001,4722.564102564103,4363.589743589744,4202.564102564103,4264.102564102564,4532.307692307693
1596.3798,0.37853128,0.3258779,0.5264759,0.4233529,1,0.0,0.0,0.0,0.0,0.0,0,0,0.0,0.0,0,0,67.0,0.0,522.0,4563.076923076924,3932.307692307693,4486.153846153847,4361.025641025642,4348.205128205129,4609.2307692307695,4443.589743589744,4389.2307692307695,4405.641025641026,4704.615384615386,4324.615384615385,4215.8974358974365,4242.051282051282,4499.48717948718
1596.5986,0.37853128,0.3258779,0.5264759,0.4233529,1,0.0,0.0,0.0,0.0,0.0,0,0,0.0,0.0,0,0,95.0,0.0,441.0,4603.076923076924,3973.333333333334,4515.384615384616,4378.461538461539,4291.794871794872,4590.256410256411,4461.538461538462,4411.794871794872,4416.923076923077,4710.769230769231,4333.846153846154,4282.564102564103,4269.74358974359,4532.307692307693
1596.8801,0.38561913,0.34033597,0.51090425,0.43045452,0,0.0,0.0,0.0,0.0,0.02332271,0,0,0.0,0.0,0,0,2.0,0.0,430.0,4567.6923076923085,3947.692307692308,4511.794871794872,4363.589743589744,4269.74358974359,4590.256410256411,4480.000000000001,4441.025641025642,4431.794871794872,4713.846153846154,4291.794871794872,4214.358974358975,4213.846153846154,4528.205128205129
1597.1304,0.38561913,0.34033597,0.51090425,0.43045452,0,0.0,0.0,0.0,0.0,0.038914043,0,0,0.0,0.0,0,0,34.0,0.0,0.0,4605.128205128206,3953.333333333334,4523.076923076924,4381.025641025642,4264.615384615385,4583.076923076924,4514.871794871796,4491.282051282052,4433.846153846154,4686.153846153847,4284.102564102564,4226.666666666667,4177.948717948719,4544.615384615385
1597.3806,0.35938668,0.37179527,0.49629113,0.4426597,0,0.0,0.0,0.0,0.0,0.08476758,0,0,0.0,0.0,0,0,66.0,0.0,430.0,4628.717948717949,3975.3846153846157,4527.6923076923085,4410.769230769231,4248.717948717949,4567.6923076923085,4491.794871794872,4490.769230769231,4437.948717948719,4699.48717948718,4320.512820512821,4255.8974358974365,4183.589743589744,4568.205128205129
1597.6307,0.35938668,0.37179527,0.49629113,0.4426597,0,0.0,0.0,0.0,0.0,0.019259878,0,0,0.0,0.0,0,0,98.0,0.0,524.0,4635.8974358974365,3982.564102564103,4535.384615384616,4415.384615384616,4256.410256410257,4572.307692307693,4499.48717948718,4470.769230769231,4435.8974358974365,4713.333333333334,4332.820512820514,4233.333333333334,4172.820512820514,4552.307692307693
1597.881,0.34346852,0.39802232,0.47996178,0.45364356,0,0.0,0.0,0.0,0.0,0.013277687,0,0,0.0,0.0,0,0,1.0,0.0,477.0,4632.307692307693,3969.7435897435903,4532.307692307693,4425.641025641026,4257.948717948719,4571.282051282052,4490.256410256411,4478.974358974359,4436.410256410257,4728.717948717949,4352.307692307693,4266.666666666667,4170.769230769231,4566.153846153847
1598.1312,0.34346852,0.39802232,0.47996178,0.45364356,0,0.0,0.0,0.0,0.0,0.0,0,0,0.0,0.0,0,0,33.0,0.0,0.0,4609.2307692307695,3946.1538461538466,4517.948717948719,4422.051282051282,4252.307692307693,4562.564102564103,4494.358974358975,4473.846153846154,4433.846153846154,4729.2307692307695,4351.794871794872,4233.333333333334,4169.2307692307695,4563.076923076924
1598.3815,0.33912975,0.39645952,0.46526417,0.46352872,0,0.0,0.0,0.0,0.0,0.0,0,0,0.0,0.0,0,0,65.0,0.0,477.0,4625.641025641026,3958.9743589743593,4523.076923076924,4427.6923076923085,4244.102564102564,4551.794871794872,4474.871794871796,4457.435897435898,4418.974358974359,4683.589743589744,4339.48717948718,4213.846153846154,4138.461538461539,4573.846153846154
1598.3815,0.33912975,0.39645952,0.46526417,0.46352872,0,0.0,0.0,0.0,0.0,0.0,0,0,0.0,0.0,0,0,65.0,0.0,477.0,4625.641025641026,3958.9743589743593,4523.076923076924,4427.6923076923085,4244.102564102564,4551.794871794872,4474.871794871796,4457.435897435898,4418.974358974359,4683.589743589744,4339.48717948718,4213.846153846154,4138.461538461539,4573.846153846154
1598.8818,0.35546076,0.3811024,0.45203498,0.47242367,0,0.0,0.0,0.0,0.0,0.0,0,0,0.0,0.0,0,0,0.0,0.0,484.0,4615.8974358974365,3959.48717948718,4521.025641025642,4437.435897435898,4251.794871794872,4554.358974358975,4457.948717948719,4493.333333333334,4431.794871794872,4703.589743589744,4357.948717948719,4191.282051282052,4152.307692307693,4581.538461538462
1598.8818,0.35546076,0.3811024,0.45203498,0.47242367,0,0.0,0.0,0.0,0.0,0.0,0,0,0.0,0.0,0,0,0.0,0.0,484.0,4615.8974358974365,3959.48717948718,4521.025641025642,4437.435897435898,4251.794871794872,4554.358974358975,4457.948717948719,4493.333333333334,4431.794871794872,4703.589743589744,4357.948717948719,4191.282051282052,4152.307692307693,4581.538461538462
1599.3823,0.31429756,0.37163553,0.44013283,0.4804261,0,0.0,0.0,0.0,0.0,0.0,0,0,0.0,0.0,0,0,64.0,0.0,484.0,4612.307692307693,3957.435897435898,4524.615384615385,4443.076923076924,4265.641025641026,4562.051282051282,4482.051282051282,4493.333333333334,4434.358974358975,4738.974358974359,4384.615384615385,4225.128205128206,4175.8974358974365,4592.820512820514
1599.6324,0.31429756,0.37163553,0.44013283,0.4804261,0,0.0,0.0,0.0,0.0,0.12616412,0,0,0.0,0.0,0,0,96.0,0.0,532.0,4607.6923076923085,3958.461538461539,4522.564102564103,4436.410256410257,4264.102564102564,4563.589743589744,4494.358974358975,4464.615384615385,4431.282051282052,4742.051282051282,4378.461538461539,4282.564102564103,4172.307692307693,4594.871794871796
1599.8827,0.26074967,0.35825464,0.43879306,0.48762873,0,0.0,0.0,0.0,0.0,0.0,0,0,0.0,0.0,0,0,128.0,0.0,532.0,4671.794871794872,4010.7692307692314,4558.461538461539,4461.538461538462,4240.000000000001,4536.923076923077,4464.102564102564,4447.6923076923085,4424.102564102564,4734.358974358975,4427.179487179487,4353.333333333334,4254.358974358975,4653.333333333334
1600.1329,0.26074967,0.35825464,0.43879306,0.48762873,0,0.0,0.0,0.0,0.0,0.0,0,0,0.0,0.0,0,0,31.0,0.0,0.0,4607.179487179488,3969.7435897435903,4530.256410256411,4435.384615384616,4262.564102564103,4557.435897435898,4482.564102564103,4468.717948717949,4436.923076923077,4752.820512820514,4388.205128205129,4226.153846153847,4194.358974358975,4594.871794871796
1600.3832,0.19975825,0.36812413,0.44258198,0.49411157,0,0.0,0.0,0.0,0.0,0.0,0,0,0.0,0.0,0,0,63.0,0.0,0.0,4586.666666666667,3960.5128205128212,4510.256410256411,4428.717948717949,4272.307692307693,4567.179487179488,4469.2307692307695,4452.820512820514,4430.256410256411,4767.179487179488,4378.974358974359,4271.282051282052,4216.410256410257,4581.538461538462
1600.3832,0.19975825,0.36812413,0.44258198,0.49411157,0,0.0,0.0,0.0,0.0,0.0,0,0,0.0,0.0,0,0,63.0,0.0,0.0,4586.666666666667,3960.5128205128212,4510.256410256411,4428.717948717949,4272.307692307693,4567.179487179488,4469.2307692307695,4452.820512820514,4430.256410256411,4767.179487179488,4378.974358974359,4271.282051282052,4216.410256410257,4581.538461538462
1600.8835,0.22247119,0.3805824,0.4459896,0.5030682,0,0.0,0.0,0.0,0.0,0.0,0,0,0.0,0.0,0,0,127.0,0.0,441.0,4576.923076923077,3971.2820512820517,4493.333333333334,4405.641025641026,4265.128205128206,4564.615384615385,4431.282051282052,4405.641025641026,4428.205128205129,4780.512820512821,4350.769230769231,4191.282051282052,4223.589743589744,4571.794871794872
1600.8835,0.22247119,0.3805824,0.4459896,0.5030682,0,0.0,0.0,0.0,0.0,0.0,0,0,0.0,0.0,0,0,127.0,0.0,441.0,4576.923076923077,3971.2820512820517,4493.333333333334,4405.641025641026,4265.128205128206,4564.615384615385,4431.282051282052,4405.641025641026,4428.205128205129,4780.512820512821,4350.769230769231,4191.282051282052,4223.589743589744,4571.794871794872
1601.384,0.27227992,0.36860272,0.4567526,0.51581806,0,0.0,0.0,0.0,0.0,0.0,0,0,0.0,0.0,0,0,62.0,0.0,0.0,4593.846153846154,3970.2564102564106,4500.000000000001,4416.410256410257,4266.153846153847,4566.153846153847,4457.948717948719,4429.743589743591,4417.948717948719,4752.820512820514,4355.384615384616,4226.153846153847,4212.307692307693,4572.820512820514
1601.6343,0.27227992,0.36860272,0.4567526,0.51581806,1,0.0,0.0,0.0,0.0,0.0,0,0,0.20830713,0.0,0,0,94.0,0.0,524.0,4647.6923076923085,3987.692307692308,4534.358974358975,4445.128205128206,4263.589743589744,4557.435897435898,4465.128205128206,4425.128205128206,4433.333333333334,4767.6923076923085,4376.923076923077,4240.000000000001,4243.589743589744,4604.615384615385
1601.8844,0.24885193,0.41990405,0.46643585,0.5342698,0,0.0,0.08899342,0.0,0.0,0.0,0,0,0.0,0.0,0,0,126.0,0.0,524.0,4694.871794871796,4034.8717948717954,4573.846153846154,4467.179487179487,4299.48717948718,4587.179487179488,4514.358974358975,4488.205128205129,4447.179487179487,4755.8974358974365,4441.538461538462,4331.282051282052,4297.948717948719,4666.666666666667
1602.1346,0.24885193,0.41990405,0.46643585,0.5342698,0,0.0,0.118223116,0.0,0.0,0.0,0,0,0.0,0.0,0,0,29.0,0.0,0.0,4605.641025641026,3945.6410256410263,4517.948717948719,4405.641025641026,4281.025641025642,4574.358974358975,4471.282051282052,4442.051282051282,4430.256410256411,4778.461538461539,4369.743589743591,4246.153846153847,4223.076923076924,4588.205128205129
1602.3849,0.2851967,0.45583147,0.46747366,0.5508764,0,0.0,0.6032921,0.0,0.0,0.0,0,0,0.0,0.0,0,0,61.0,0.0,0.0,4575.384615384616,3937.9487179487182,4491.282051282052,4386.666666666667,4308.717948717949,4593.333333333334,4471.282051282052,4458.461538461539,4435.8974358974365,4831.282051282052,4345.128205128206,4252.820512820514,4271.282051282052,4534.358974358975
1602.6351,0.2851967,0.45583147,0.46747366,0.5508764,0,0.0,0.2031518,0.0,0.0,0.0,0,0,0.0,0.0,0,0,93.0,0.0,815.0,4583.589743589744,3945.6410256410263,4488.717948717949,4386.666666666667,4325.128205128206,4604.615384615385,4415.8974358974365,4405.128205128206,4415.384615384616,4870.256410256411,4346.153846153847,4249.74358974359,4370.769230769231,4533.846153846154
1602.8853,0.2966307,0.48915997,0.46060753,0.55884236,0,0.0,0.0,0.0,0.0,0.03764138,0,0,0.0,0.0,0,0,125.0,0.0,815.0,4557.948717948719,3925.6410256410263,4460.512820512821,4373.846153846154,4318.461538461539,4611.794871794872,4411.282051282052,4352.820512820514,4397.948717948719,4865.128205128206,4308.205128205129,4233.333333333334,4404.615384615385,4490.769230769231
1603.1355,0.2966307,0.48915997,0.46060753,0.55884236,0,0.0,0.0,0.0,0.0,0.017539589,0,0,0.0,0.0,0,0,28.0,0.0,0.0,4573.846153846154,3944.1025641025644,4476.923076923077,4408.205128205129,4337.435897435898,4628.205128205129,4421.538461538462,4378.461538461539,4400.000000000001,4844.615384615386,4311.282051282052,4244.102564102564,4392.307692307693,4495.8974358974365
1603.3857,0.43559873,0.5351012,0.44944447,0.56287915,0,0.0,0.0,0.0,0.0,0.0,0,0,0.43287936,0.0,0,0,60.0,0.0,0.0,4642.564102564103,3992.307692307693,4522.051282051282,4442.051282051282,4314.871794871796,4607.179487179488,4436.410256410257,4411.794871794872,4414.358974358975,4881.538461538462,4413.333333333334,4317.948717948719,4496.410256410257,4574.871794871796
1603.6046,0.43559873,0.5351012,0.44944447,0.56287915,0,0.0,0.0,0.0,0.0,0.0,0,0,0.0,0.0,0,0,88.0,0.0,532.0,4630.256410256411,3990.7692307692314,4530.769230769231,4467.179487179487,4320.000000000001,4609.743589743591,4473.333333333334,4456.923076923077,4428.205128205129,4869.2307692307695,4411.794871794872,4351.282051282052,4423.589743589744,4546.153846153847
1603.8861,0.38635758,0.5513109,0.4378113,0.5618135,0,0.0,0.0,0.0,0.0,0.0,0,0,0.0,0.0,0,0,124.0,0.0,532.0,4655.384615384616,4006.1538461538466,4542.051282051282,4490.769230769231,4282.051282051282,4570.769230769231,4492.820512820514,4468.717948717949,4424.102564102564,4802.564102564103,4390.769230769231,4282.051282051282,4332.820512820514,4546.153846153847
1603.8861,0.38635758,0.5513109,0.4378113,0.5618135,0,0.0,0.0,0.0,0.0,0.0,0,0,0.0,0.0,0,0,124.0,0.0,532.0,4655.384615384616,4006.1538461538466,4542.051282051282,4490.769230769231,4282.051282051282,4570.769230769231,4492.820512820514,4468.717948717949,4424.102564102564,4802.564102564103,4390.769230769231,4282.051282051282,4332.820512820514,4546.153846153847
1604.3866,0.36756906,0.5984187,0.42734006,0.5608539,0,0.0,0.0,0.0,0.0,0.17563498,0,0,0.0,0.0,0,0,54.0,0.0,0.0,4703.076923076924,4025.6410256410263,4569.743589743591,4524.615384615385,4249.74358974359,4539.48717948718,4487.6923076923085,4463.589743589744,4410.769230769231,4751.794871794872,4395.384615384616,4327.179487179487,4224.102564102564,4568.717948717949
1604.5117,0.36756906,0.5984187,0.42734006,0.5608539,0,0.0,0.0,0.0,0.0,0.0,0,0,0.0,0.0,0,0,75.0,0.0,441.0,4675.8974358974365,4056.9230769230776,4548.205128205129,4528.205128205129,4266.153846153847,4555.384615384616,4482.051282051282,4440.000000000001,4410.769230769231,4732.820512820514,4325.641025641026,4257.435897435898,4132.307692307693,4526.666666666667
1604.887,0.43307576,0.62584263,0.41791472,0.55999,0,0.0,0.0,0.0,0.0,0.0,0,0,0.0,0.0,0,0,123.0,0.0,441.0,4625.641025641026,3990.7692307692314,4515.8974358974365,4470.256410256411,4265.128205128206,4554.871794871796,4446.666666666667,4389.743589743591,4385.128205128206,4742.564102564103,4303.589743589744,4206.153846153847,4137.435897435898,4484.102564102564
1604.887,0.43307576,0.62584263,0.41791472,0.55999,0,0.0,0.0,0.0,0.0,0.0,0,0,0.0,0.0,0,0,123.0,0.0,441.0,4625.641025641026,3990.7692307692314,4515.8974358974365,4470.256410256411,4265.128205128206,4554.871794871796,4446.666666666667,4389.743589743591,4385.128205128206,4742.564102564103,4303.589743589744,4206.153846153847,4137.435897435898,4484.102564102564
1605.3875,0.4513008,0.6381946,0.4276816,0.5563424,0,0.0,0.0,0.0,0.0,0.10090106,0,0,0.0,0.0,0,0,58.0,0.0,0.0,4610.256410256411,3925.6410256410263,4522.051282051282,4444.102564102564,4275.8974358974365,4558.461538461539,4452.307692307693,4422.564102564103,4406.153846153847,4829.2307692307695,4375.8974358974365,4266.666666666667,4267.6923076923085,4514.871794871796
1605.6377,0.4513008,0.6381946,0.4276816,0.5563424,0,0.0,0.0,0.0,0.0,0.09940132,0,0,0.0,0.0,0,0,90.0,0.0,524.0,4656.923076923077,4020.0000000000005,4526.153846153847,4542.564102564103,4258.461538461539,4546.153846153847,4430.256410256411,4362.564102564103,4380.512820512821,4728.717948717949,4316.410256410257,4222.051282051282,4180.512820512821,4521.025641025642
1605.888,0.45443183,0.6223016,0.45562008,0.55305964,0,0.0,0.0,0.0,0.0,0.10727848,0,0,0.0,0.0,0,0,122.0,0.0,524.0,4649.743589743591,3968.717948717949,4523.076923076924,4525.641025641026,4256.923076923077,4545.641025641026,4439.48717948718,4376.410256410257,4396.923076923077,4767.179487179488,4358.461538461539,4222.051282051282,4206.153846153847,4533.333333333334
1606.1381,0.45443183,0.6223016,0.45562008,0.55305964,0,0.0,0.0,0.0,0.0,0.07759774,0,0,0.0,0.0,0,0,25.0,0.0,0.0,4656.923076923077,3964.1025641025644,4540.000000000001,4521.538461538462,4283.076923076924,4570.256410256411,4477.948717948719,4427.179487179487,4413.846153846154,4796.410256410257,4404.102564102564,4315.384615384616,4228.717948717949,4561.538461538462
1606.3883,0.46171975,0.59858733,0.48075956,0.5501053,0,0.0,0.0,0.0,0.0,0.08621138,0,0,0.0,0.0,0,0,57.0,0.0,0.0,4647.179487179488,3946.1538461538466,4526.153846153847,4495.8974358974365,4267.179487179487,4562.051282051282,4451.282051282052,4434.358974358975,4422.051282051282,4827.179487179488,4413.846153846154,4291.282051282052,4231.794871794872,4563.589743589744
1606.6385,0.46171975,0.59858733,0.48075956,0.5501053,0,0.0,0.0,0.0,0.0,0.19235401,0,0,0.0,0.0,0,0,89.0,0.0,813.0,4592.820512820514,3919.48717948718,4490.769230769231,4467.6923076923085,4271.794871794872,4566.153846153847,4447.6923076923085,4430.769230769231,4415.8974358974365,4836.923076923077,4380.000000000001,4248.205128205129,4181.025641025642,4522.051282051282
1606.8888,0.42458004,0.6168569,0.50337857,0.5491318,0,0.0,0.0,0.0,0.0,0.0209339,0,0,0.0,0.0,0,0,121.0,0.0,813.0,4594.358974358975,3923.076923076924,4488.717948717949,4470.769230769231,4273.333333333334,4562.564102564103,4438.974358974359,4427.179487179487,4431.794871794872,4837.948717948719,4421.538461538462,4250.256410256411,4172.820512820514,4521.538461538462
1607.1389,0.42458004,0.6168569,0.50337857,0.5491318,0,0.0,0.0,0.0,0.0,0.1517455,0,0,0.0,0.0,0,0,24.0,0.0,0.0,4667.6923076923085,4031.2820512820517,4513.846153846154,4506.666666666667,4251.794871794872,4540.000000000001,4420.512820512821,4383.076923076924,4402.051282051282,4750.769230769231,4400.000000000001,4246.153846153847,4130.256410256411,4537.948717948719
1607.3892,0.43726137,0.6661387,0.5216357,0.5455144,0,0.0,0.0,0.0,0.0,0.20867512,0,0,0.0,0.0,0,0,56.0,0.0,0.0,4609.2307692307695,3978.461538461539,4488.205128205129,4491.282051282052,4276.923076923077,4560.512820512821,4412.307692307693,4380.000000000001,4403.589743589744,4770.256410256411,4397.435897435898,4270.769230769231,4162.051282051282,4505.128205128206
1607.6394,0.43726137,0.6661387,0.5216357,0.5455144,0,0.0,0.0,0.0,0.0,0.20959087,0,0,0.0,0.0,0,0,88.0,0.0,532.0,4616.923076923077,3996.9230769230776,4510.256410256411,4512.820512820514,4314.358974358975,4593.333333333334,4434.871794871796,4383.589743589744,4403.589743589744,4790.769230769231,4427.179487179487,4283.076923076924,4280.512820512821,4518.461538461539
1607.8896,0.45656553,0.68975496,0.5342333,0.54225886,0,0.0,0.0,0.0,0.0,0.0073011615,0,0,0.0,0.0,0,0,120.0,0.0,532.0,4629.2307692307695,4013.333333333334,4532.307692307693,4520.000000000001,4334.358974358975,4608.717948717949,4423.076923076924,4380.000000000001,4395.384615384616,4825.641025641026,4445.128205128206,4340.000000000001,4367.6923076923085,4536.923076923077
1608.1398,0.45656553,0.68975496,0.5342333,0.54225886,0,0.0,0.0,0.0,0.0,0.0631905,0,0,0.0,0.0,0,0,23.0,0.0,0.0,4577.435897435898,3971.7948717948725,4492.820512820514,4460.000000000001,4310.256410256411,4583.589743589744,4385.128205128206,4330.256410256411,4380.000000000001,4800.000000000001,4404.615384615385,4267.6923076923085,4377.948717948719,4508.717948717949
1608.39,0.5499765,0.6642565,0.541053,0.53619194,0,0.0,0.0,0.0,0.0,0.0,0,0,0.0,0.0,0,0,55.0,0.0,0.0,4565.641025641026,3954.8717948717954,4472.820512820514,4428.205128205129,4290.256410256411,4576.923076923077,4358.461538461539,4322.564102564103,4373.846153846154,4779.48717948718,4362.051282051282,4231.282051282052,4334.358974358975,4489.743589743591
1608.39,0.5499765,0.6642565,0.541053,0.53619194,0,0.0,0.0,0.0,0.0,0.0,0,0,0.0,0.0,0,0,55.0,0.0,0.0,4565.641025641026,3954.8717948717954,4472.820512820514,4428.205128205129,4290.256410256411,4576.923076923077,4358.461538461539,4322.564102564103,4373.846153846154,4779.48717948718,4362.051282051282,4231.282051282052,4334.358974358975,4489.743589743591
1608.8905,0.47000545,0.6582655,0.5446613,0.51331204,0,0.0,0.0,0.0,0.0,0.0,0,0,0.0,0.0,0,0,90.0,0.0,524.0,4544.102564102564,3929.2307692307695,4471.794871794872,4407.6923076923085,4288.205128205129,4580.000000000001,4389.743589743591,4340.512820512821,4375.8974358974365,4806.153846153847,4353.333333333334,4235.8974358974365,4284.102564102564,4480.000000000001
1608.8905,0.47000545,0.6582655,0.5446613,0.51331204,0,0.0,0.0,0.0,0.0,0.0,0,0,0.0,0.0,0,0,119.0,0.0,441.0,4579.48717948718,3957.9487179487182,4500.000000000001,4440.512820512821,4283.076923076924,4575.8974358974365,4419.48717948718,4367.179487179487,4394.871794871796,4789.743589743591,4352.820512820514,4194.871794871796,4243.076923076924,4492.307692307693
1609.3909,0.47828683,0.6424023,0.54790264,0.49272212,0,0.0,0.0,0.0,0.0,0.0,0,0,0.0,0.0,0,0,54.0,0.0,0.0,4655.384615384616,3949.2307692307695,4553.846153846154,4463.589743589744,4248.717948717949,4552.820512820514,4488.205128205129,4458.461538461539,4430.256410256411,4836.410256410257,4496.923076923077,4273.846153846154,4270.769230769231,4571.282051282052
1609.3909,0.47828683,0.6424023,0.54790264,0.49272212,0,0.0,0.0,0.0,0.0,0.0,0,0,0.0,0.0,0,0,54.0,0.0,0.0,4655.384615384616,3949.2307692307695,4553.846153846154,4463.589743589744,4248.717948717949,4552.820512820514,4488.205128205129,4458.461538461539,4430.256410256411,4836.410256410257,4496.923076923077,4273.846153846154,4270.769230769231,4571.282051282052
1609.8914,0.4868133,0.6263265,0.5514776,0.47201693,0,0.0,0.0,0.0,0.0,0.046129946,0,0,0.0,0.0,0,0,118.0,0.0,524.0,4671.794871794872,3956.410256410257,4566.153846153847,4466.153846153847,4245.128205128206,4554.358974358975,4501.538461538462,4449.743589743591,4433.333333333334,4786.666666666667,4453.846153846154,4258.974358974359,4166.153846153847,4566.666666666667
1610.1415,0.4868133,0.6263265,0.5514776,0.47201693,0,0.0,0.0,0.0,0.0,0.044681568,0,0,0.0,0.0,0,0,21.0,0.0,0.0,4670.256410256411,3970.7692307692314,4554.358974358975,4478.461538461539,4253.846153846154,4557.948717948719,4505.128205128206,4455.384615384616,4432.820512820514,4784.102564102564,4433.846153846154,4341.025641025642,4134.871794871796,4568.717948717949
1610.3917,0.49583018,0.6091398,0.5546887,0.45338792,0,0.0,0.0,0.0,0.0,0.08645086,0,0,0.0,0.0,0,0,51.0,0.0,0.0,4670.769230769231,3963.076923076924,4543.589743589744,4465.128205128206,4241.538461538462,4549.2307692307695,4483.589743589744,4416.923076923077,4427.179487179487,4766.666666666667,4413.333333333334,4251.282051282052,4114.358974358975,4556.410256410257
1610.5168,0.49583018,0.6091398,0.5546887,0.45338792,0,0.0,0.0,0.0,0.0,0.0,0,0,0.0,0.0,0,0,69.0,0.0,537.0,4671.794871794872,3964.1025641025644,4540.512820512821,4464.615384615385,4236.923076923077,4546.153846153847,4484.615384615385,4422.564102564103,4430.256410256411,4765.128205128206,4397.435897435898,4253.333333333334,4112.820512820514,4556.923076923077
1610.8922,0.47199208,0.5902179,0.55692655,0.44500712,0,0.0,0.0,0.0,0.0,0.0,0,0,0.0,0.0,0,0,90.0,0.0,814.0,4666.666666666667,3974.358974358975,4541.025641025642,4465.128205128206,4243.076923076924,4544.102564102564,4482.564102564103,4421.025641025642,4427.179487179487,4756.923076923077,4390.256410256411,4290.256410256411,4125.128205128206,4564.615384615385
1611.1425,0.47199208,0.5902179,0.55692655,0.44500712,0,0.0,0.0,0.0,0.0,0.18200038,0,0,0.0,0.0,0,0,20.0,0.0,0.0,4624.102564102564,3957.9487179487182,4519.48717948718,4452.307692307693,4254.358974358975,4551.794871794872,4463.076923076924,4411.794871794872,4411.794871794872,4716.923076923077,4338.461538461539,4227.6923076923085,4109.74358974359,4518.461538461539
1611.3926,0.43468907,0.5447173,0.5567581,0.43862855,0,0.0,0.0,0.0,0.0,0.07686901,0,0,0.0,0.0,0,0,52.0,0.0,0.0,4602.564102564103,3932.307692307693,4504.102564102564,4425.128205128206,4253.846153846154,4549.743589743591,4433.333333333334,4373.846153846154,4396.923076923077,4694.871794871796,4327.6923076923085,4195.8974358974365,4128.205128205129,4501.025641025642
1611.6428,0.43468907,0.5447173,0.5567581,0.43862855,0,0.0,0.0,0.0,0.0,0.039755717,0,0,0.0,0.0,0,0,84.0,0.0,532.0,4598.974358974359,3927.1794871794878,4496.410256410257,4413.846153846154,4262.564102564103,4555.8974358974365,4440.512820512821,4384.102564102564,4404.102564102564,4720.512820512821,4348.717948717949,4229.2307692307695,4162.564102564103,4512.307692307693
1611.768,0.43468907,0.5447173,0.5567581,0.43862855,0,0.0,0.0,0.0,0.0,0.060110185,0,0,0.0,0.0,0,0,100.0,0.0,532.0,4604.615384615385,3937.435897435898,4505.641025641026,4417.948717948719,4265.128205128206,4560.000000000001,4443.076923076924,4406.153846153847,4413.846153846154,4740.512820512821,4371.794871794872,4225.641025641026,4191.794871794872,4533.846153846154
1612.0182,0.4257227,0.50292134,0.5553459,0.44306648,0,0.0,0.0,0.0,0.0,0.0,0,0,0.0,0.0,0,0,3.0,0.0,522.0,4610.769230769231,3946.1538461538466,4524.102564102564,4429.743589743591,4264.615384615385,4565.128205128206,4454.871794871796,4417.435897435898,4417.948717948719,4772.820512820514,4375.8974358974365,4234.871794871796,4193.846153846154,4543.076923076924
1612.0182,0.4257227,0.50292134,0.5553459,0.44306648,0,0.0,0.0,0.0,0.0,0.0,0,0,0.0,0.0,0,0,3.0,0.0,522.0,4610.769230769231,3946.1538461538466,4524.102564102564,4429.743589743591,4264.615384615385,4565.128205128206,4454.871794871796,4417.435897435898,4417.948717948719,4772.820512820514,4375.8974358974365,4234.871794871796,4193.846153846154,4543.076923076924
1612.3934,0.40778863,0.47026965,0.54676867,0.44575763,0,0.0,0.0,0.0,0.0,0.0,0,0,0.0,0.0,0,0,51.0,0.0,0.0,4633.846153846154,3978.461538461539,4548.717948717949,4462.051282051282,4267.179487179487,4570.256410256411,4482.051282051282,4425.128205128206,4421.538461538462,4732.307692307693,4375.8974358974365,4270.256410256411,4164.615384615385,4556.923076923077
1612.8939,0.45741054,0.4440865,0.5349084,0.45681536,0,0.0,0.0,0.0,0.0,0.0,0,0,0.0,0.0,0,0,64.0,0.0,484.0,4634.871794871796,3983.589743589744,4550.769230769231,4466.666666666667,4265.641025641026,4567.179487179488,4494.871794871796,4446.153846153847,4427.179487179487,4720.512820512821,4378.461538461539,4274.358974358975,4155.8974358974365,4556.923076923077
1613.1442,0.45741054,0.4440865,0.5349084,0.45681536,0,0.0,0.0,0.0,0.0,0.18811084,0,0,0.0,0.0,0,0,18.0,0.0,0.0,4627.6923076923085,3945.6410256410263,4538.461538461539,4433.846153846154,4268.717948717949,4565.641025641026,4488.717948717949,4478.974358974359,4444.615384615385,4842.564102564103,4446.153846153847,4274.358974358975,4265.128205128206,4576.923076923077
1613.2692,0.45741054,0.4440865,0.5349084,0.45681536,0,0.0,0.0,0.0,0.0,0.22881576,0,0,0.0,0.0,0,0,34.0,0.0,0.0,4593.846153846154,3929.7435897435903,4507.179487179488,4424.615384615385,4291.282051282052,4584.102564102564,4484.615384615385,4455.8974358974365,4437.435897435898,4863.076923076924,4447.179487179487,4263.589743589744,4297.948717948719,4554.871794871796
1613.6445,0.4829957,0.4202995,0.5189602,0.46637568,0,0.0,0.0,0.0,0.0,0.0,0,0,0.0,0.0,0,0,82.0,0.0,525.0,4576.410256410257,3927.692307692308,4487.179487179488,4422.564102564103,4313.333333333334,4588.717948717949,4463.076923076924,4430.256410256411,4421.025641025642,4813.333333333334,4398.461538461539,4259.48717948718,4278.461538461539,4514.871794871796
1613.8948,0.5207758,0.42014334,0.500358,0.47497872,1,0.0,0.0,0.0,0.0,0.0,0,0,0.0,0.0,0,0,108.0,0.0,532.0,4551.794871794872,3884.615384615385,4428.717948717949,4358.974358974359,4244.615384615385,4524.102564102564,4386.666666666667,4349.2307692307695,4386.153846153847,4729.2307692307695,4309.2307692307695,4163.589743589744,4206.666666666667,4469.743589743591
1613.9573,0.5207758,0.42014334,0.500358,0.47497872,0,0.0,0.0,0.0,0.0,0.0,0,0,0.0,0.0,0,0,122.0,0.0,525.0,4565.128205128206,3891.7948717948725,4438.974358974359,4364.615384615385,4249.74358974359,4526.153846153847,4407.6923076923085,4394.358974358975,4396.410256410257,4753.333333333334,4323.589743589744,4169.74358974359,4211.794871794872,4470.769230769231
1613.9573,0.5207758,0.42014334,0.500358,0.47497872,0,0.0,0.0,0.0,0.0,0.0,0,0,0.0,0.0,0,0,122.0,0.0,525.0,4565.128205128206,3891.7948717948725,4438.974358974359,4364.615384615385,4249.74358974359,4526.153846153847,4407.6923076923085,4394.358974358975,4396.410256410257,4753.333333333334,4323.589743589744,4169.74358974359,4211.794871794872,4470.769230769231
1614.3951,0.53980976,0.43849057,0.4836151,0.48272178,0,0.0,0.0,0.0,0.0,0.0,0,0,0.0,0.0,0,0,49.0,0.0,0.0,4584.615384615385,3941.538461538462,4472.307692307693,4388.717948717949,4258.461538461539,4541.025641025642,4455.8974358974365,4420.512820512821,4409.2307692307695,4720.512820512821,4338.461538461539,4296.410256410257,4152.307692307693,4486.153846153847
1614.3951,0.53980976,0.43849057,0.4836151,0.48272178,0,0.0,0.0,0.0,0.0,0.0,0,0,0.0,0.0,0,0,49.0,0.0,0.0,4584.615384615385,3941.538461538462,4472.307692307693,4388.717948717949,4258.461538461539,4541.025641025642,4455.8974358974365,4420.512820512821,4409.2307692307695,4720.512820512821,4338.461538461539,4296.410256410257,4152.307692307693,4486.153846153847
1615.0833,0.5519953,0.44354185,0.46854535,0.48968843,0,0.0,0.0,0.0,0.0,0.0,0,0,0.0,0.0,0,0,8.0,0.0,391.0,4624.102564102564,3967.1794871794878,4523.589743589744,4463.076923076924,4240.512820512821,4545.641025641026,4486.666666666667,4454.871794871796,4430.769230769231,4750.256410256411,4369.743589743591,4224.102564102564,4134.358974358975,4560.512820512821
1615.0833,0.5519953,0.44354185,0.46854535,0.48968843,0,0.0,0.0,0.0,0.0,0.0,0,0,0.0,0.0,0,0,8.0,0.0,391.0,4624.102564102564,3967.1794871794878,4523.589743589744,4463.076923076924,4240.512820512821,4545.641025641026,4486.666666666667,4454.871794871796,4430.769230769231,4750.256410256411,4369.743589743591,4224.102564102564,4134.358974358975,4560.512820512821
1615.396,0.46421012,0.45095783,0.45498744,0.49595892,0,0.0,0.0,0.0,0.0,0.0,0,0,0.0,0.0,0,0,48.0,0.0,0.0,4631.794871794872,3945.6410256410263,4521.025641025642,4533.846153846154,4226.153846153847,4535.384615384616,4490.769230769231,4491.794871794872,4446.153846153847,4771.794871794872,4411.794871794872,4287.179487179487,4179.48717948718,4580.000000000001
1615.396,0.46421012,0.45095783,0.45498744,0.49595892,0,0.0,0.0,0.0,0.0,0.0,0,0,0.0,0.0,0,0,48.0,0.0,0.0,4631.794871794872,3945.6410256410263,4521.025641025642,4533.846153846154,4226.153846153847,4535.384615384616,4490.769230769231,4491.794871794872,4446.153846153847,4771.794871794872,4411.794871794872,4287.179487179487,4179.48717948718,4580.000000000001
1616.0216,0.44863218,0.45294592,0.46124443,0.5016029,0,0.0,0.0,0.0,0.0,0.14793357,0,0,0.0,0.0,0,0,128.0,0.0,532.0,4677.435897435898,3978.461538461539,4534.871794871796,4521.025641025642,4218.974358974359,4531.794871794872,4467.179487179487,4456.923076923077,4443.076923076924,4733.333333333334,4375.384615384616,4246.153846153847,4136.923076923077,4568.205128205129
1616.2719,0.44863218,0.45294592,0.46124443,0.5016029,1,0.0,0.0,0.0,0.0,0.0,0,0,0.0,0.0,0,0,31.0,0.0,0.0,4747.6923076923085,4055.8974358974365,4578.461538461539,4569.743589743591,4227.6923076923085,4536.410256410257,4479.48717948718,4464.615384615385,4449.743589743591,4754.871794871796,4417.435897435898,4295.384615384616,4191.794871794872,4609.743589743591
1616.522,0.56782347,0.44733283,0.47566777,0.50668305,0,0.0,0.0,0.0,0.0,0.0857478,0,0,0.0,0.0,0,0,63.0,0.0,0.0,4657.948717948719,3987.692307692308,4530.769230769231,4503.076923076924,4233.333333333334,4545.128205128206,4484.615384615385,4471.282051282052,4458.461538461539,4745.128205128206,4370.769230769231,4283.589743589744,4141.025641025642,4581.538461538462
1616.7722,0.56782347,0.44733283,0.47566777,0.50668305,0,0.0,0.0,0.0,0.0,0.039080568,0,0,0.0,0.0,0,0,95.0,0.0,441.0,4662.051282051282,3983.589743589744,4524.102564102564,4497.435897435898,4222.051282051282,4534.871794871796,4473.333333333334,4447.6923076923085,4449.743589743591,4744.102564102564,4359.48717948718,4255.8974358974365,4137.435897435898,4576.923076923077
1617.0225,0.6137511,0.43741032,0.48864412,0.51295537,0,0.0,0.0,0.0,0.0,0.0,0,0,0.0,0.0,0,0,127.0,0.0,441.0,4662.564102564103,3989.23076923077,4553.333333333334,4514.871794871796,4247.6923076923085,4555.384615384616,4517.948717948719,4504.102564102564,4471.794871794872,4779.48717948718,4408.717948717949,4320.512820512821,4186.666666666667,4594.358974358975
1617.2727,0.6137511,0.43741032,0.48864412,0.51295537,0,0.0,0.039612573,0.0,0.0,0.0,0,0,0.0,0.0,0,0,30.0,0.0,0.0,4653.333333333334,3975.8974358974365,4542.051282051282,4488.205128205129,4240.512820512821,4551.282051282052,4488.717948717949,4420.512820512821,4442.564102564103,4740.000000000001,4366.153846153847,4244.102564102564,4158.974358974359,4575.384615384616
1617.5228,0.5549142,0.43689877,0.5003539,0.5185903,0,0.0,0.048610408,0.0,0.0,0.0,0,0,0.0,0.0,0,0,62.0,0.0,0.0,4663.076923076924,3987.692307692308,4556.410256410257,4502.051282051282,4256.923076923077,4565.641025641026,4507.6923076923085,4489.743589743591,4462.051282051282,4719.48717948718,4382.051282051282,4286.666666666667,4163.589743589744,4590.769230769231
1617.7731,0.5549142,0.43689877,0.5003539,0.5185903,0,0.0,0.08852755,0.0,0.0,0.0,0,0,0.0,0.0,0,0,94.0,0.0,525.0,4660.000000000001,3988.717948717949,4550.256410256411,4498.461538461539,4261.538461538462,4567.179487179488,4510.256410256411,4445.128205128206,4459.48717948718,4735.8974358974365,4397.435897435898,4273.333333333334,4196.923076923077,4594.871794871796
1618.0233,0.5740592,0.43844405,0.4977425,0.5236663,0,0.0,0.0,0.0,0.0,0.018128676,0,0,0.0,0.0,0,0,126.0,0.0,525.0,4656.410256410257,3990.7692307692314,4558.974358974359,4497.948717948719,4263.076923076924,4568.205128205129,4524.102564102564,4481.538461538462,4464.615384615385,4742.051282051282,4407.6923076923085,4297.435897435898,4194.871794871796,4585.128205128206
1618.2736,0.5740592,0.43844405,0.4977425,0.5236663,0,0.0,0.0,0.0,0.0,0.0,0,0,0.0,0.0,0,0,29.0,0.0,0.0,4654.871794871796,3988.717948717949,4548.717948717949,4496.410256410257,4262.051282051282,4566.153846153847,4518.461538461539,4486.153846153847,4467.6923076923085,4752.307692307693,4412.820512820514,4289.2307692307695,4196.923076923077,4575.384615384616
1618.3987,0.5704682,0.42949703,0.48660794,0.52823514,0,0.0,0.0,0.0,0.0,0.0,0,0,0.0,0.0,0,0,45.0,0.0,0.0,4681.025641025642,4019.48717948718,4576.923076923077,4519.48717948718,4287.179487179487,4593.846153846154,4530.769230769231,4481.025641025642,4473.333333333334,4768.205128205129,4438.974358974359,4365.641025641026,4226.666666666667,4594.871794871796
1618.3987,0.5704682,0.42949703,0.48660794,0.52823514,0,0.0,0.0,0.0,0.0,0.0,0,0,0.0,0.0,0,0,45.0,0.0,0.0,4681.025641025642,4019.48717948718,4576.923076923077,4519.48717948718,4287.179487179487,4593.846153846154,4530.769230769231,4481.025641025642,4473.333333333334,4768.205128205129,4438.974358974359,4365.641025641026,4226.666666666667,4594.871794871796
1618.899,0.6388866,0.4296286,0.47124988,0.5306406,0,0.0,0.0,0.0,0.0,0.0,0,0,0.0,0.0,0,0,109.0,0.0,813.0,4667.6923076923085,4005.1282051282055,4556.923076923077,4506.153846153847,4270.256410256411,4576.923076923077,4528.205128205129,4494.358974358975,4463.589743589744,4741.538461538462,4445.641025641026,4322.564102564103,4211.282051282052,4608.717948717949
1619.2744,0.6388866,0.4296286,0.47124988,0.5306406,0,0.0,0.0,0.0,0.0,0.14550881,0,0,0.0,0.0,0,0,28.0,0.0,0.0,4597.948717948719,3990.2564102564106,4503.589743589744,4431.794871794872,4270.769230769231,4571.794871794872,4483.589743589744,4433.846153846154,4433.846153846154,4687.179487179488,4344.102564102564,4202.564102564103,4110.256410256411,4522.564102564103
1619.6497,0.6225001,0.44073176,0.45742634,0.5328054,0,0.0,0.0,0.0,0.0,0.0,0,0,0.0,0.0,0,0,66.0,0.0,430.0,4592.307692307693,4001.0256410256416,4504.615384615385,4443.589743589744,4297.948717948719,4591.282051282052,4475.384615384616,4420.000000000001,4432.307692307693,4695.384615384616,4337.948717948719,4260.000000000001,4135.8974358974365,4523.076923076924
1619.6497,0.6225001,0.44073176,0.45742634,0.5328054,0,0.0,0.0,0.0,0.0,0.0,0,0,0.0,0.0,0,0,76.0,0.0,532.0,4615.8974358974365,4023.589743589744,4529.743589743591,4468.205128205129,4321.538461538462,4610.256410256411,4487.179487179488,4440.000000000001,4443.076923076924,4700.000000000001,4353.333333333334,4289.2307692307695,4160.512820512821,4547.6923076923085
1619.8999,0.68523616,0.45894516,0.44498384,0.53475314,0,0.0,0.0,0.0,0.0,0.0,0,0,0.0,0.0,0,0,108.0,0.0,532.0,4594.871794871796,3992.820512820513,4508.717948717949,4453.846153846154,4317.948717948719,4602.564102564103,4468.205128205129,4420.512820512821,4427.6923076923085,4708.717948717949,4344.615384615385,4256.410256410257,4167.179487179487,4536.410256410257
1619.8999,0.68523616,0.45894516,0.44498384,0.53475314,0,0.0,0.0,0.0,0.0,0.0,0,0,0.0,0.0,0,0,108.0,0.0,532.0,4594.871794871796,3992.820512820513,4508.717948717949,4453.846153846154,4317.948717948719,4602.564102564103,4468.205128205129,4420.512820512821,4427.6923076923085,4708.717948717949,4344.615384615385,4256.410256410257,4167.179487179487,4536.410256410257
1620.4004,0.7152006,0.49957833,0.44685385,0.5255416,0,0.0,0.0,0.0,0.0,0.0,0,0,0.0,0.0,0,0,43.0,0.0,0.0,4595.384615384616,3980.0000000000005,4511.282051282052,4440.512820512821,4289.74358974359,4576.410256410257,4472.820512820514,4442.051282051282,4441.025641025642,4724.615384615386,4338.974358974359,4269.2307692307695,4176.923076923077,4551.282051282052
1620.8695,0.7152006,0.49957833,0.44685385,0.5255416,0,0.0,0.0,0.0,0.0,0.0,0,0,0.0,0.0,0,0,103.0,0.0,441.0,4652.307692307693,3975.3846153846157,4565.128205128206,4463.589743589744,4290.769230769231,4592.307692307693,4525.128205128206,4507.6923076923085,4461.025641025642,4782.051282051282,4426.666666666667,4398.974358974359,4278.461538461539,4621.538461538462
1620.9008,0.7547227,0.5999602,0.45266482,0.51553726,0,0.0,0.0,0.0,0.0,0.0,0,0,0.0,0.0,0,0,107.0,0.0,441.0,4640.512820512821,3966.1538461538466,4552.307692307693,4454.871794871796,4293.846153846154,4592.820512820514,4520.000000000001,4504.102564102564,4457.948717948719,4778.461538461539,4413.333333333334,4375.384615384616,4269.2307692307695,4608.717948717949
1620.9008,0.7547227,0.5999602,0.45266482,0.51553726,0,0.0,0.0,0.0,0.0,0.0,0,0,0.0,0.0,0,0,107.0,0.0,441.0,4640.512820512821,3966.1538461538466,4552.307692307693,4454.871794871796,4293.846153846154,4592.820512820514,4520.000000000001,4504.102564102564,4457.948717948719,4778.461538461539,4413.333333333334,4375.384615384616,4269.2307692307695,4608.717948717949
1621.4012,0.71315926,0.63261646,0.46055672,0.5065344,0,0.0,0.0,0.0,0.0,0.0,0,0,0.0,0.0,0,0,42.0,0.0,0.0,4557.948717948719,3925.1282051282055,4472.307692307693,4383.076923076924,4303.076923076924,4584.615384615385,4438.974358974359,4414.358974358975,4405.128205128206,4828.205128205129,4341.538461538462,4272.820512820514,4328.205128205129,4524.102564102564
1621.4012,0.71315926,0.63261646,0.46055672,0.5065344,0,0.0,0.0,0.0,0.0,0.0,0,0,0.0,0.0,0,0,42.0,0.0,0.0,4557.948717948719,3925.1282051282055,4472.307692307693,4383.076923076924,4303.076923076924,4584.615384615385,4438.974358974359,4414.358974358975,4405.128205128206,4828.205128205129,4341.538461538462,4272.820512820514,4328.205128205129,4524.102564102564
1622.1519,0.7262505,0.6190004,0.4728516,0.49843314,0,0.0,0.0,0.0,0.0,0.0,0,0,0.0,0.0,0,0,7.0,0.0,467.0,4513.846153846154,3957.9487179487182,4449.2307692307695,4364.102564102564,4311.794871794872,4589.743589743591,4370.769230769231,4348.717948717949,4364.615384615385,4805.128205128206,4307.179487179487,4233.333333333334,4445.128205128206,4453.846153846154
1622.1519,0.7262505,0.6190004,0.4728516,0.49843314,0,0.0,0.0,0.0,0.0,0.0,0,0,0.0,0.0,0,0,9.0,0.0,454.0,4529.743589743591,3966.1538461538466,4461.025641025642,4374.358974358975,4308.205128205129,4586.666666666667,4370.256410256411,4347.179487179487,4367.6923076923085,4812.820512820514,4337.435897435898,4261.025641025642,4483.589743589744,4489.2307692307695
1622.4021,0.8166998,0.6356779,0.4776362,0.49277115,0,0.0,0.0,0.0,0.0,0.0,0,0,0.0,0.0,0,0,41.0,0.0,0.0,4516.410256410257,3949.2307692307695,4463.076923076924,4396.923076923077,4315.8974358974365,4593.333333333334,4410.256410256411,4363.076923076924,4376.923076923077,4807.179487179488,4324.102564102564,4244.102564102564,4404.615384615385,4446.153846153847
1622.4021,0.8166998,0.6356779,0.4776362,0.49277115,0,0.0,0.0,0.0,0.0,0.0,0,0,0.0,0.0,0,0,41.0,0.0,0.0,4516.410256410257,3949.2307692307695,4463.076923076924,4396.923076923077,4315.8974358974365,4593.333333333334,4410.256410256411,4363.076923076924,4376.923076923077,4807.179487179488,4324.102564102564,4244.102564102564,4404.615384615385,4446.153846153847
1622.9025,0.7905654,0.61467487,0.474076,0.4915155,0,0.0,0.0,0.0,0.0,0.0,0,0,0.0,0.0,0,0,105.0,0.0,810.0,4576.410256410257,3966.666666666667,4535.8974358974365,4456.410256410257,4290.769230769231,4580.000000000001,4487.6923076923085,4449.743589743591,4422.051282051282,4817.948717948719,4416.923076923077,4296.923076923077,4376.410256410257,4504.615384615385
1622.9025,0.7905654,0.61467487,0.474076,0.4915155,0,0.0,0.0,0.0,0.0,0.0,0,0,0.0,0.0,0,0,105.0,0.0,810.0,4576.410256410257,3966.666666666667,4535.8974358974365,4456.410256410257,4290.769230769231,4580.000000000001,4487.6923076923085,4449.743589743591,4422.051282051282,4817.948717948719,4416.923076923077,4296.923076923077,4376.410256410257,4504.615384615385
1623.403,0.71887475,0.61599565,0.4684816,0.49544695,0,0.0,0.0,0.0,0.0,0.0,0,0,0.0,0.0,0,0,40.0,0.0,0.0,4611.794871794872,3994.8717948717954,4556.410256410257,4477.435897435898,4234.358974358975,4531.282051282052,4486.666666666667,4461.538461538462,4428.717948717949,4771.282051282052,4405.128205128206,4299.48717948718,4231.282051282052,4514.358974358975
1623.7782,0.71887475,0.61599565,0.4684816,0.49544695,0,0.0,0.0,0.0,0.0,0.18212837,0,0,0.0,0.0,0,0,88.0,0.0,532.0,4642.051282051282,3989.23076923077,4562.564102564103,4490.769230769231,4225.128205128206,4529.2307692307695,4482.051282051282,4478.461538461539,4436.410256410257,4805.128205128206,4420.000000000001,4300.000000000001,4182.564102564103,4527.6923076923085
1624.0284,0.72914135,0.6313535,0.46484077,0.5008962,0,0.0,0.0,0.0,0.0,0.23505725,0,0,0.0,0.0,0,0,120.0,0.0,532.0,4663.076923076924,3982.564102564103,4568.717948717949,4493.846153846154,4226.153846153847,4531.282051282052,4485.641025641026,4482.051282051282,4439.48717948718,4794.358974358975,4397.435897435898,4293.333333333334,4130.769230769231,4517.435897435898
1624.2787,0.72914135,0.6313535,0.46484077,0.5008962,0,0.0,0.0,0.0,0.0,0.24501778,0,0,0.0,0.0,0,0,23.0,0.0,0.0,4685.128205128206,3993.333333333334,4564.615384615385,4496.410256410257,4223.589743589744,4530.256410256411,4487.6923076923085,4473.333333333334,4439.48717948718,4786.666666666667,4379.48717948718,4306.153846153847,4094.8717948717954,4522.564102564103
1624.5914,0.68907756,0.61312586,0.45749176,0.50287294,1,0.0,0.0,0.0,0.0,0.36064532,0,0,0.0,0.0,0,0,63.0,0.0,0.0,4711.794871794872,4006.1538461538466,4565.641025641026,4496.410256410257,4229.74358974359,4535.8974358974365,4490.769230769231,4466.666666666667,4448.205128205129,4780.000000000001,4377.948717948719,4314.871794871796,4103.589743589744,4551.794871794872
1624.7792,0.68907756,0.61312586,0.45749176,0.50287294,0,0.0,0.0,0.0,0.0,0.15222815,0,0,0.0,0.0,0,0,87.0,0.0,441.0,4701.025641025642,3994.8717948717954,4566.153846153847,4490.256410256411,4232.820512820514,4538.974358974359,4488.205128205129,4452.307692307693,4440.512820512821,4776.923076923077,4377.948717948719,4297.948717948719,4089.23076923077,4558.974358974359
1625.0293,0.62918776,0.60687774,0.44708538,0.5052929,0,0.0,0.0,0.0,0.0,0.09330191,0,0,0.0,0.0,0,0,119.0,0.0,441.0,4690.769230769231,3986.666666666667,4551.794871794872,4474.358974358975,4223.589743589744,4529.2307692307695,4483.589743589744,4444.615384615385,4434.871794871796,4765.641025641026,4376.410256410257,4291.282051282052,4096.923076923077,4570.256410256411
1625.2795,0.62918776,0.60687774,0.44708538,0.5052929,0,0.0,0.0,0.0,0.0,0.0,0,0,0.0,0.0,0,0,22.0,0.0,0.0,4684.102564102564,3990.2564102564106,4557.435897435898,4477.948717948719,4249.74358974359,4556.410256410257,4485.641025641026,4466.153846153847,4443.076923076924,4801.538461538462,4376.923076923077,4294.358974358975,4144.615384615385,4576.923076923077
1625.4047,0.6092522,0.59684265,0.4367263,0.5111247,0,0.0,0.0,0.0,0.0,0.0,0,0,0.0,0.0,0,0,38.0,0.0,0.0,4644.102564102564,3961.0256410256416,4520.512820512821,4447.6923076923085,4247.6923076923085,4555.384615384616,4480.000000000001,4461.538461538462,4432.820512820514,4781.025641025642,4325.641025641026,4254.358974358975,4113.846153846154,4540.000000000001
1625.4047,0.6092522,0.59684265,0.4367263,0.5111247,0,0.0,0.0,0.0,0.0,0.0,0,0,0.0,0.0,0,0,38.0,0.0,0.0,4644.102564102564,3961.0256410256416,4520.512820512821,4447.6923076923085,4247.6923076923085,4555.384615384616,4480.000000000001,4461.538461538462,4432.820512820514,4781.025641025642,4325.641025641026,4254.358974358975,4113.846153846154,4540.000000000001
1625.905,0.5837272,0.5741238,0.42740172,0.5257059,0,0.0,0.0,0.0,0.0,0.0,0,0,0.0,0.0,0,0,102.0,0.0,524.0,4629.743589743591,3944.1025641025644,4496.923076923077,4430.769230769231,4270.256410256411,4571.794871794872,4453.846153846154,4416.923076923077,4420.512820512821,4733.846153846154,4317.948717948719,4248.205128205129,4160.000000000001,4540.000000000001
1625.905,0.5837272,0.5741238,0.42740172,0.5257059,0,0.0,0.0,0.0,0.0,0.0,0,0,0.0,0.0,0,0,102.0,0.0,524.0,4629.743589743591,3944.1025641025644,4496.923076923077,4430.769230769231,4270.256410256411,4571.794871794872,4453.846153846154,4416.923076923077,4420.512820512821,4733.846153846154,4317.948717948719,4248.205128205129,4160.000000000001,4540.000000000001
1626.4055,0.5844875,0.57190204,0.4190083,0.538105,0,0.0,0.0,0.0,0.0,0.0,0,0,0.0,0.0,0,0,37.0,0.0,0.0,4645.128205128206,3970.7692307692314,4527.6923076923085,4475.8974358974365,4287.6923076923085,4584.102564102564,4490.256410256411,4438.974358974359,4438.461538461539,4735.8974358974365,4366.153846153847,4281.538461538462,4198.461538461539,4531.794871794872
1626.4055,0.5844875,0.57190204,0.4190083,0.538105,0,0.0,0.0,0.0,0.0,0.0,0,0,0.0,0.0,0,0,37.0,0.0,0.0,4645.128205128206,3970.7692307692314,4527.6923076923085,4475.8974358974365,4287.6923076923085,4584.102564102564,4490.256410256411,4438.974358974359,4438.461538461539,4735.8974358974365,4366.153846153847,4281.538461538462,4198.461538461539,4531.794871794872
1626.9059,0.57964385,0.55603224,0.411453,0.54633385,0,0.0,0.0,0.0,0.0,0.0,0,0,0.0,0.0,0,0,101.0,0.0,814.0,4636.410256410257,3959.48717948718,4522.564102564103,4464.615384615385,4252.820512820514,4557.435897435898,4500.000000000001,4458.974358974359,4452.307692307693,4710.256410256411,4355.384615384616,4268.717948717949,4159.48717948718,4513.333333333334
1627.3439,0.57964385,0.55603224,0.411453,0.54633385,0,0.0,0.0,0.0,0.0,0.0,0,0,0.0,0.0,0,0,28.0,0.0,0.0,4643.076923076924,3929.7435897435903,4505.641025641026,4439.48717948718,4217.435897435898,4526.666666666667,4489.2307692307695,4446.666666666667,4449.743589743591,4705.641025641026,4368.205128205129,4231.282051282052,4183.589743589744,4513.846153846154
1627.4064,0.5789671,0.56661004,0.404661,0.54711884,0,0.0,0.0,0.0,0.0,0.0,0,0,0.0,0.0,0,0,36.0,0.0,0.0,4646.666666666667,3934.8717948717954,4520.000000000001,4440.512820512821,4219.48717948718,4526.153846153847,4503.589743589744,4444.615384615385,4449.743589743591,4705.128205128206,4376.923076923077,4235.8974358974365,4180.000000000001,4516.923076923077
1627.4064,0.5789671,0.56661004,0.404661,0.54711884,0,0.0,0.0,0.0,0.0,0.0,0,0,0.0,0.0,0,0,36.0,0.0,0.0,4646.666666666667,3934.8717948717954,4520.000000000001,4440.512820512821,4219.48717948718,4526.153846153847,4503.589743589744,4444.615384615385,4449.743589743591,4705.128205128206,4376.923076923077,4235.8974358974365,4180.000000000001,4516.923076923077
1627.9069,0.60192305,0.57676363,0.39949337,0.5285554,0,0.0,0.0,0.0,0.0,0.0,0,0,0.0,0.0,0,0,100.0,0.0,532.0,4641.025641025642,3942.0512820512827,4510.769230769231,4454.358974358975,4220.000000000001,4528.717948717949,4493.333333333334,4446.153846153847,4448.205128205129,4710.256410256411,4365.128205128206,4251.282051282052,4184.102564102564,4515.8974358974365
1627.9069,0.60192305,0.57676363,0.39949337,0.5285554,0,0.0,0.0,0.0,0.0,0.0,0,0,0.0,0.0,0,0,100.0,0.0,532.0,4641.025641025642,3942.0512820512827,4510.769230769231,4454.358974358975,4220.000000000001,4528.717948717949,4493.333333333334,4446.153846153847,4448.205128205129,4710.256410256411,4365.128205128206,4251.282051282052,4184.102564102564,4515.8974358974365
1628.5323,0.5411543,0.60521764,0.39559352,0.5085974,0,0.0,0.0,0.0,0.0,0.120991886,0,0,0.0,0.0,0,0,51.0,0.0,0.0,4633.846153846154,3976.410256410257,4538.974358974359,4472.307692307693,4233.846153846154,4538.461538461539,4504.102564102564,4473.333333333334,4444.102564102564,4685.641025641026,4340.512820512821,4277.948717948719,4135.8974358974365,4508.717948717949
1628.7826,0.5411543,0.60521764,0.39559352,0.5085974,0,0.0,0.0,0.0,0.0,0.0,0,0,0.0,0.0,0,0,83.0,0.0,441.0,4615.8974358974365,3990.7692307692314,4522.051282051282,4466.153846153847,4246.153846153847,4549.2307692307695,4487.6923076923085,4451.282051282052,4422.051282051282,4698.974358974359,4321.538461538462,4260.512820512821,4128.205128205129,4516.410256410257
1628.9077,0.50481594,0.6236375,0.39208266,0.49063718,0,0.0,0.0,0.0,0.0,0.0,0,0,0.0,0.0,0,0,99.0,0.0,441.0,4591.282051282052,4000.5128205128212,4498.974358974359,4457.435897435898,4265.641025641026,4565.128205128206,4475.8974358974365,4423.076923076924,4406.153846153847,4709.743589743591,4282.564102564103,4218.974358974359,4107.6923076923085,4478.461538461539
1628.9077,0.50481594,0.6236375,0.39208266,0.49063718,0,0.0,0.0,0.0,0.0,0.0,0,0,0.0,0.0,0,0,99.0,0.0,441.0,4591.282051282052,4000.5128205128212,4498.974358974359,4457.435897435898,4265.641025641026,4565.128205128206,4475.8974358974365,4423.076923076924,4406.153846153847,4709.743589743591,4282.564102564103,4218.974358974359,4107.6923076923085,4478.461538461539
1629.4081,0.5055567,0.59732777,0.3881383,0.47485474,0,0.0,0.0,0.0,0.0,0.0,0,0,0.0,0.0,0,0,34.0,0.0,0.0,4551.282051282052,3962.0512820512827,4465.128205128206,4410.256410256411,4300.512820512821,4585.641025641026,4463.076923076924,4406.153846153847,4388.717948717949,4701.025641025642,4280.512820512821,4228.717948717949,4221.538461538462,4446.153846153847
1629.4081,0.5055567,0.59732777,0.3881383,0.47485474,0,0.0,0.0,0.0,0.0,0.0,0,0,0.0,0.0,0,0,34.0,0.0,0.0,4551.282051282052,3962.0512820512827,4465.128205128206,4410.256410256411,4300.512820512821,4585.641025641026,4463.076923076924,4406.153846153847,4388.717948717949,4701.025641025642,4280.512820512821,4228.717948717949,4221.538461538462,4446.153846153847
1629.9086,0.57735324,0.59369063,0.3823,0.4823433,0,0.0,0.0,0.0,0.0,0.0,0,0,0.0,0.0,0,0,98.0,0.0,524.0,4586.666666666667,3945.6410256410263,4491.282051282052,4410.256410256411,4287.6923076923085,4570.769230769231,4550.256410256411,4397.948717948719,4388.205128205129,4733.846153846154,4375.384615384616,4235.8974358974365,4360.000000000001,4515.8974358974365
1629.9086,0.57735324,0.59369063,0.3823,0.4823433,0,0.0,0.0,0.0,0.0,0.0,0,0,0.0,0.0,0,0,98.0,0.0,524.0,4586.666666666667,3945.6410256410263,4491.282051282052,4410.256410256411,4287.6923076923085,4570.769230769231,4550.256410256411,4397.948717948719,4388.205128205129,4733.846153846154,4375.384615384616,4235.8974358974365,4360.000000000001,4515.8974358974365
1630.4089,0.5854022,0.5717576,0.3777973,0.50044686,0,0.0,0.0,0.0,0.0,0.0,0,0,0.0,0.0,0,0,33.0,0.0,0.0,4561.025641025642,3949.7435897435903,4500.000000000001,4416.923076923077,4295.384615384616,4577.948717948719,4567.179487179488,4462.564102564103,4417.948717948719,4750.256410256411,4390.769230769231,4318.461538461539,4285.641025641026,4517.435897435898
1630.4089,0.5854022,0.5717576,0.3777973,0.50044686,0,0.0,0.0,0.0,0.0,0.0,0,0,0.0,0.0,0,0,33.0,0.0,0.0,4561.025641025642,3949.7435897435903,4500.000000000001,4416.923076923077,4295.384615384616,4577.948717948719,4567.179487179488,4462.564102564103,4417.948717948719,4750.256410256411,4390.769230769231,4318.461538461539,4285.641025641026,4517.435897435898
1630.9094,0.54505485,0.5627956,0.37374416,0.51673996,0,0.0,0.0,0.0,0.0,0.0,0,0,0.0,0.0,0,0,97.0,0.0,808.0,4624.615384615385,3971.2820512820517,4518.461538461539,4447.6923076923085,4282.051282051282,4571.282051282052,4563.589743589744,4490.256410256411,4437.435897435898,4767.179487179488,4397.948717948719,4269.74358974359,4205.641025641026,4565.641025641026
1630.9094,0.54505485,0.5627956,0.37374416,0.51673996,0,0.0,0.0,0.0,0.0,0.0,0,0,0.0,0.0,0,0,97.0,0.0,808.0,4624.615384615385,3971.2820512820517,4518.461538461539,4447.6923076923085,4282.051282051282,4571.282051282052,4563.589743589744,4490.256410256411,4437.435897435898,4767.179487179488,4397.948717948719,4269.74358974359,4205.641025641026,4565.641025641026
1631.5662,0.497104,0.56578875,0.372652,0.53140396,0,0.0,0.0,0.0,0.0,0.0,0,0,0.0,0.0,0,0,52.0,0.0,0.0,4682.564102564103,3977.9487179487182,4566.153846153847,4461.025641025642,4234.358974358975,4528.717948717949,4528.205128205129,4487.6923076923085,4440.512820512821,4734.871794871796,4392.307692307693,4290.256410256411,4149.74358974359,4597.948717948719
1631.7852,0.497104,0.56578875,0.372652,0.53140396,0,0.0,0.0,0.0,0.0,0.057162274,0,0,0.0,0.0,0,0,80.0,0.0,532.0,4672.820512820514,3975.3846153846157,4559.48717948718,4464.615384615385,4230.769230769231,4530.256410256411,4528.717948717949,4474.871794871796,4437.948717948719,4757.435897435898,4397.948717948719,4300.000000000001,4153.333333333334,4594.871794871796
1632.0354,0.48567188,0.55925804,0.37419057,0.5312753,0,0.0,0.0,0.0,0.0,0.0,0,0,0.0,0.0,0,0,112.0,0.0,532.0,4664.615384615386,3969.7435897435903,4553.846153846154,4467.6923076923085,4229.74358974359,4529.2307692307695,4515.384615384616,4470.256410256411,4435.384615384616,4741.025641025642,4379.48717948718,4269.2307692307695,4135.8974358974365,4565.128205128206
1632.0354,0.48567188,0.55925804,0.37419057,0.5312753,0,0.0,0.0,0.0,0.0,0.0,0,0,0.0,0.0,0,0,112.0,0.0,532.0,4664.615384615386,3969.7435897435903,4553.846153846154,4467.6923076923085,4229.74358974359,4529.2307692307695,4515.384615384616,4470.256410256411,4435.384615384616,4741.025641025642,4379.48717948718,4269.2307692307695,4135.8974358974365,4565.128205128206
1632.4106,0.4983716,0.5517317,0.37557456,0.5292439,0,0.0,0.0,0.0,0.0,0.0,0,0,0.0,0.0,0,0,31.0,0.0,0.0,4655.384615384616,4008.205128205129,4548.717948717949,4504.615384615385,4231.794871794872,4535.8974358974365,4496.923076923077,4432.307692307693,4422.051282051282,4695.8974358974365,4318.974358974359,4254.871794871796,4074.8717948717954,4533.846153846154
1632.4106,0.4983716,0.5517317,0.37557456,0.5292439,0,0.0,0.0,0.0,0.0,0.0,0,0,0.0,0.0,0,0,31.0,0.0,0.0,4655.384615384616,4008.205128205129,4548.717948717949,4504.615384615385,4231.794871794872,4535.8974358974365,4496.923076923077,4432.307692307693,4422.051282051282,4695.8974358974365,4318.974358974359,4254.871794871796,4074.8717948717954,4533.846153846154
1632.9111,0.44608134,0.5465698,0.3768194,0.52741605,0,0.0,0.0,0.0,0.0,0.0,0,0,0.0,0.0,0,0,95.0,0.0,441.0,4603.076923076924,3962.0512820512827,4514.871794871796,4448.717948717949,4269.74358974359,4559.48717948718,4458.461538461539,4397.435897435898,4396.923076923077,4720.512820512821,4306.666666666667,4202.564102564103,4092.307692307693,4498.461538461539
1632.9111,0.44608134,0.5465698,0.3768194,0.52741605,0,0.0,0.0,0.0,0.0,0.0,0,0,0.0,0.0,0,0,95.0,0.0,441.0,4603.076923076924,3962.0512820512827,4514.871794871796,4448.717948717949,4269.74358974359,4559.48717948718,4458.461538461539,4397.435897435898,4396.923076923077,4720.512820512821,4306.666666666667,4202.564102564103,4092.307692307693,4498.461538461539
1633.4115,0.47174302,0.5017706,0.38346276,0.52577144,0,0.0,0.0,0.0,0.0,0.0,0,0,0.0,0.0,0,0,30.0,0.0,0.0,4577.435897435898,3935.3846153846157,4487.179487179488,4408.205128205129,4277.948717948719,4565.128205128206,4437.435897435898,4392.307692307693,4393.846153846154,4722.051282051282,4288.717948717949,4210.256410256411,4093.8461538461543,4475.384615384616
1633.4115,0.47174302,0.5017706,0.38346276,0.52577144,0,0.0,0.0,0.0,0.0,0.0,0,0,0.0,0.0,0,0,30.0,0.0,0.0,4577.435897435898,3935.3846153846157,4487.179487179488,4408.205128205129,4277.948717948719,4565.128205128206,4437.435897435898,4392.307692307693,4393.846153846154,4722.051282051282,4288.717948717949,4210.256410256411,4093.8461538461543,4475.384615384616
1633.912,0.50056005,0.48380724,0.38679332,0.5373881,0,0.0,0.0,0.0,0.0,0.0,0,0,0.0,0.0,0,0,94.0,0.0,524.0,4601.538461538462,3950.7692307692314,4507.6923076923085,4426.153846153847,4271.794871794872,4562.051282051282,4466.666666666667,4402.564102564103,4397.948717948719,4716.410256410257,4324.102564102564,4234.358974358975,4145.641025641026,4508.717948717949
1633.912,0.50056005,0.48380724,0.38679332,0.5373881,0,0.0,0.0,0.0,0.0,0.0,0,0,0.0,0.0,0,0,94.0,0.0,524.0,4601.538461538462,3950.7692307692314,4507.6923076923085,4426.153846153847,4271.794871794872,4562.051282051282,4466.666666666667,4402.564102564103,4397.948717948719,4716.410256410257,4324.102564102564,4234.358974358975,4145.641025641026,4508.717948717949
1634.4124,0.42368472,0.46697098,0.38301417,0.5569258,0,0.0,0.0,0.0,0.0,0.0,0,0,0.0,0.0,0,0,29.0,0.0,0.0,4607.179487179488,3950.2564102564106,4514.358974358975,4428.717948717949,4251.282051282052,4543.076923076924,4471.282051282052,4416.923076923077,4403.076923076924,4707.6923076923085,4338.974358974359,4250.256410256411,4158.974358974359,4500.000000000001
1634.4124,0.42368472,0.46697098,0.38301417,0.5569258,0,0.0,0.0,0.0,0.0,0.0,0,0,0.0,0.0,0,0,29.0,0.0,0.0,4607.179487179488,3950.2564102564106,4514.358974358975,4428.717948717949,4251.282051282052,4543.076923076924,4471.282051282052,4416.923076923077,4403.076923076924,4707.6923076923085,4338.974358974359,4250.256410256411,4158.974358974359,4500.000000000001
1634.9128,0.38029784,0.43932965,0.3848163,0.57450956,0,0.0,0.0,0.0,0.0,0.0,0,0,0.0,0.0,0,0,93.0,0.0,813.0,4540.000000000001,3949.2307692307695,4453.846153846154,4398.461538461539,4314.871794871796,4600.000000000001,4501.025641025642,4370.769230769231,4362.564102564103,4756.923076923077,4292.307692307693,4294.358974358975,4303.589743589744,4433.333333333334
1634.9128,0.38029784,0.43932965,0.3848163,0.57450956,0,0.0,0.0,0.0,0.0,0.0,0,0,0.0,0.0,0,0,93.0,0.0,813.0,4540.000000000001,3949.2307692307695,4453.846153846154,4398.461538461539,4314.871794871796,4600.000000000001,4501.025641025642,4370.769230769231,4362.564102564103,4756.923076923077,4292.307692307693,4294.358974358975,4303.589743589744,4433.333333333334
1635.4132,0.34941143,0.40892923,0.39431706,0.5903343,0,0.0,0.0,0.0,0.0,0.0,0,0,0.0,0.0,0,0,28.0,0.0,0.0,4517.435897435898,4000.0000000000005,4456.923076923077,4424.615384615385,4307.6923076923085,4588.717948717949,4576.410256410257,4338.461538461539,4332.820512820514,4708.717948717949,4245.641025641026,4268.205128205129,4411.282051282052,4399.48717948718
1635.4132,0.34941143,0.40892923,0.39431706,0.5903343,0,0.0,0.0,0.0,0.0,0.0,0,0,0.0,0.0,0,0,28.0,0.0,0.0,4517.435897435898,4000.0000000000005,4456.923076923077,4424.615384615385,4307.6923076923085,4588.717948717949,4576.410256410257,4338.461538461539,4332.820512820514,4708.717948717949,4245.641025641026,4268.205128205129,4411.282051282052,4399.48717948718
1635.9137,0.39514005,0.39253205,0.40286648,0.5986727,0,0.0,0.0,0.0,0.0,0.0,0,0,0.0,0.0,0,0,92.0,0.0,532.0,4507.179487179488,3950.7692307692314,4474.871794871796,4434.871794871796,4297.435897435898,4587.179487179488,4575.384615384616,4386.153846153847,4363.589743589744,4771.794871794872,4281.538461538462,4245.128205128206,4388.205128205129,4427.179487179487
1635.9137,0.39514005,0.39253205,0.40286648,0.5986727,0,0.0,0.0,0.0,0.0,0.0,0,0,0.0,0.0,0,0,92.0,0.0,532.0,4507.179487179488,3950.7692307692314,4474.871794871796,4434.871794871796,4297.435897435898,4587.179487179488,4575.384615384616,4386.153846153847,4363.589743589744,4771.794871794872,4281.538461538462,4245.128205128206,4388.205128205129,4427.179487179487
1636.4141,0.42730102,0.45166308,0.40878776,0.601945,0,0.0,0.0,0.0,0.0,0.0,0,0,0.0,0.0,0,0,27.0,0.0,0.0,4611.794871794872,3922.564102564103,4534.871794871796,4460.512820512821,4242.564102564103,4544.102564102564,4568.717948717949,4470.256410256411,4402.564102564103,4825.641025641026,4387.6923076923085,4305.128205128206,4352.307692307693,4527.179487179488
1636.4141,0.42730102,0.45166308,0.40878776,0.601945,0,0.0,0.0,0.0,0.0,0.0,0,0,0.0,0.0,0,0,27.0,0.0,0.0,4611.794871794872,3922.564102564103,4534.871794871796,4460.512820512821,4242.564102564103,4544.102564102564,4568.717948717949,4470.256410256411,4402.564102564103,4825.641025641026,4387.6923076923085,4305.128205128206,4352.307692307693,4527.179487179488
1636.9146,0.3647697,0.53179663,0.4152178,0.5972594,0,0.0,0.0,0.0,0.0,0.0,0,0,0.0,0.0,0,0,91.0,0.0,441.0,4679.48717948718,3957.435897435898,4560.512820512821,4487.6923076923085,4241.538461538462,4550.256410256411,4539.48717948718,4485.641025641026,4424.615384615385,4793.846153846154,4395.8974358974365,4328.717948717949,4271.794871794872,4549.2307692307695
1636.9146,0.3647697,0.53179663,0.4152178,0.5972594,0,0.0,0.0,0.0,0.0,0.0,0,0,0.0,0.0,0,0,91.0,0.0,441.0,4679.48717948718,3957.435897435898,4560.512820512821,4487.6923076923085,4241.538461538462,4550.256410256411,4539.48717948718,4485.641025641026,4424.615384615385,4793.846153846154,4395.8974358974365,4328.717948717949,4271.794871794872,4549.2307692307695
1637.4149,0.3688094,0.61359304,0.42596254,0.59304184,0,0.0,0.0,0.0,0.0,0.0,0,0,0.0,0.0,0,0,26.0,0.0,0.0,4655.384615384616,3963.589743589744,4558.461538461539,4526.666666666667,4224.102564102564,4532.307692307693,4528.205128205129,4461.025641025642,4424.615384615385,4722.051282051282,4356.923076923077,4257.435897435898,4140.512820512821,4521.538461538462
1637.4149,0.3688094,0.61359304,0.42596254,0.59304184,0,0.0,0.0,0.0,0.0,0.0,0,0,0.0,0.0,0,0,26.0,0.0,0.0,4655.384615384616,3963.589743589744,4558.461538461539,4526.666666666667,4224.102564102564,4532.307692307693,4528.205128205129,4461.025641025642,4424.615384615385,4722.051282051282,4356.923076923077,4257.435897435898,4140.512820512821,4521.538461538462
1637.9154,0.44959864,0.66704506,0.4450702,0.59236246,0,0.0,0.0,0.0,0.0,0.0,0,0,0.0,0.0,0,0,90.0,0.0,522.0,4672.820512820514,3950.7692307692314,4557.948717948719,4494.871794871796,4220.000000000001,4530.256410256411,4500.000000000001,4471.282051282052,4431.794871794872,4729.2307692307695,4375.384615384616,4258.974358974359,4146.666666666667,4544.102564102564
1637.9154,0.44959864,0.66704506,0.4450702,0.59236246,0,0.0,0.0,0.0,0.0,0.0,0,0,0.0,0.0,0,0,90.0,0.0,522.0,4672.820512820514,3950.7692307692314,4557.948717948719,4494.871794871796,4220.000000000001,4530.256410256411,4500.000000000001,4471.282051282052,4431.794871794872,4729.2307692307695,4375.384615384616,4258.974358974359,4146.666666666667,4544.102564102564
1638.4159,0.55406386,0.6704464,0.4619695,0.5925471,0,0.0,0.0,0.0,0.0,0.0,0,0,0.0,0.0,0,0,25.0,0.0,0.0,4665.128205128206,3966.1538461538466,4549.743589743591,4500.000000000001,4234.871794871796,4545.128205128206,4483.076923076924,4458.461538461539,4430.769230769231,4727.6923076923085,4379.48717948718,4257.435897435898,4136.923076923077,4552.820512820514
1638.4159,0.55406386,0.6704464,0.4619695,0.5925471,0,0.0,0.0,0.0,0.0,0.0,0,0,0.0,0.0,0,0,25.0,0.0,0.0,4665.128205128206,3966.1538461538466,4549.743589743591,4500.000000000001,4234.871794871796,4545.128205128206,4483.076923076924,4458.461538461539,4430.769230769231,4727.6923076923085,4379.48717948718,4257.435897435898,4136.923076923077,4552.820512820514
1638.9163,0.5670566,0.63982296,0.47717467,0.59406674,0,0.0,0.0,0.0,0.0,0.0,0,0,0.0,0.0,0,0,89.0,0.0,815.0,4726.666666666667,3989.7435897435903,4571.282051282052,4502.051282051282,4240.512820512821,4555.8974358974365,4497.948717948719,4484.102564102564,4444.102564102564,4763.076923076924,4439.48717948718,4332.820512820514,4237.435897435898,4597.948717948719
1638.9163,0.5670566,0.63982296,0.47717467,0.59406674,0,0.0,0.0,0.0,0.0,0.0,0,0,0.0,0.0,0,0,89.0,0.0,815.0,4726.666666666667,3989.7435897435903,4571.282051282052,4502.051282051282,4240.512820512821,4555.8974358974365,4497.948717948719,4484.102564102564,4444.102564102564,4763.076923076924,4439.48717948718,4332.820512820514,4237.435897435898,4597.948717948719
1639.4167,0.539809,0.62157875,0.49085456,0.59639466,0,0.0,0.0,0.0,0.0,0.0,0,0,0.0,0.0,0,0,24.0,0.0,0.0,4673.846153846154,3960.5128205128212,4540.000000000001,4478.974358974359,4265.641025641026,4579.48717948718,4505.128205128206,4470.769230769231,4444.102564102564,4727.179487179488,4373.333333333334,4303.589743589744,4146.666666666667,4521.538461538462
1639.4167,0.539809,0.62157875,0.49085456,0.59639466,0,0.0,0.0,0.0,0.0,0.0,0,0,0.0,0.0,0,0,24.0,0.0,0.0,4673.846153846154,3960.5128205128212,4540.000000000001,4478.974358974359,4265.641025641026,4579.48717948718,4505.128205128206,4470.769230769231,4444.102564102564,4727.179487179488,4373.333333333334,4303.589743589744,4146.666666666667,4521.538461538462
1639.9171,0.5562243,0.5932136,0.5031612,0.59848887,0,0.0,0.0,0.0,0.0,0.0,0,0,0.0,0.0,0,0,88.0,0.0,531.0,4625.641025641026,3937.9487179487182,4510.769230769231,4452.307692307693,4239.48717948718,4546.666666666667,4473.846153846154,4447.6923076923085,4438.974358974359,4720.000000000001,4354.358974358975,4223.589743589744,4150.256410256411,4489.743589743591
1639.9171,0.5562243,0.5932136,0.5031612,0.59848887,0,0.0,0.0,0.0,0.0,0.0,0,0,0.0,0.0,0,0,88.0,0.0,531.0,4625.641025641026,3937.9487179487182,4510.769230769231,4452.307692307693,4239.48717948718,4546.666666666667,4473.846153846154,4447.6923076923085,4438.974358974359,4720.000000000001,4354.358974358975,4223.589743589744,4150.256410256411,4489.743589743591
1640.4176,0.5526932,0.553588,0.5142315,0.5948935,0,0.0,0.0,0.0,0.0,0.0,0,0,0.0,0.0,0,0,23.0,0.0,0.0,4625.641025641026,3989.23076923077,4496.923076923077,4503.076923076924,4287.179487179487,4553.333333333334,4451.282051282052,4435.384615384616,4435.384615384616,4655.384615384616,4287.179487179487,4225.128205128206,4088.205128205129,4458.461538461539
1640.4176,0.5526932,0.553588,0.5142315,0.5948935,0,0.0,0.0,0.0,0.0,0.0,0,0,0.0,0.0,0,0,23.0,0.0,0.0,4625.641025641026,3989.23076923077,4496.923076923077,4503.076923076924,4287.179487179487,4553.333333333334,4451.282051282052,4435.384615384616,4435.384615384616,4655.384615384616,4287.179487179487,4225.128205128206,4088.205128205129,4458.461538461539
1640.918,0.562559,0.51302314,0.52195984,0.5901732,0,0.0,0.0,0.0,0.0,0.0,0,0,0.0,0.0,0,0,87.0,0.0,441.0,4547.179487179488,3920.0000000000005,4434.871794871796,4431.282051282052,4368.205128205129,4612.820512820514,4397.948717948719,4348.205128205129,4386.666666666667,4721.025641025642,4250.769230769231,4175.384615384616,4166.666666666667,4426.666666666667
1640.918,0.562559,0.51302314,0.52195984,0.5901732,0,0.0,0.0,0.0,0.0,0.0,0,0,0.0,0.0,0,0,87.0,0.0,441.0,4547.179487179488,3920.0000000000005,4434.871794871796,4431.282051282052,4368.205128205129,4612.820512820514,4397.948717948719,4348.205128205129,4386.666666666667,4721.025641025642,4250.769230769231,4175.384615384616,4166.666666666667,4426.666666666667
1641.4185,0.62006766,0.46723813,0.533372,0.59031206,0,0.0,0.0,0.0,0.0,0.0,0,0,0.0,0.0,0,0,22.0,0.0,0.0,4502.564102564103,3916.410256410257,4385.641025641026,4409.743589743591,4389.2307692307695,4630.769230769231,4371.794871794872,4276.923076923077,4338.974358974359,4685.641025641026,4187.6923076923085,4154.871794871796,4302.051282051282,4377.435897435898
1641.4185,0.62006766,0.46723813,0.533372,0.59031206,0,0.0,0.0,0.0,0.0,0.0,0,0,0.0,0.0,0,0,22.0,0.0,0.0,4502.564102564103,3916.410256410257,4385.641025641026,4409.743589743591,4389.2307692307695,4630.769230769231,4371.794871794872,4276.923076923077,4338.974358974359,4685.641025641026,4187.6923076923085,4154.871794871796,4302.051282051282,4377.435897435898
1641.9188,0.75565964,0.43254763,0.54568523,0.578738,0,0.0,0.0,0.0,0.0,0.0,0,0,0.0,0.0,0,0,86.0,0.0,526.0,4516.923076923077,3935.3846153846157,4435.8974358974365,4439.48717948718,4364.102564102564,4614.871794871796,4394.358974358975,4289.2307692307695,4346.666666666667,4715.8974358974365,4262.564102564103,4170.256410256411,4320.512820512821,4413.846153846154
1641.9188,0.75565964,0.43254763,0.54568523,0.578738,0,0.0,0.0,0.0,0.0,0.0,0,0,0.0,0.0,0,0,86.0,0.0,526.0,4516.923076923077,3935.3846153846157,4435.8974358974365,4439.48717948718,4364.102564102564,4614.871794871796,4394.358974358975,4289.2307692307695,4346.666666666667,4715.8974358974365,4262.564102564103,4170.256410256411,4320.512820512821,4413.846153846154
1642.4193,0.77621347,0.41207188,0.5567589,0.5611969,0,0.0,0.0,0.0,0.0,0.0,0,0,0.0,0.0,0,0,21.0,0.0,0.0,4544.615384615385,3915.8974358974365,4488.205128205129,4459.48717948718,4318.974358974359,4584.102564102564,4478.974358974359,4419.48717948718,4390.256410256411,4731.282051282052,4318.461538461539,4277.948717948719,4316.923076923077,4494.358974358975
1642.4193,0.77621347,0.41207188,0.5567589,0.5611969,0,0.0,0.0,0.0,0.0,0.0,0,0,0.0,0.0,0,0,21.0,0.0,0.0,4544.615384615385,3915.8974358974365,4488.205128205129,4459.48717948718,4318.974358974359,4584.102564102564,4478.974358974359,4419.48717948718,4390.256410256411,4731.282051282052,4318.461538461539,4277.948717948719,4316.923076923077,4494.358974358975
1642.9197,0.747907,0.39542383,0.5646667,0.55253506,0,0.0,0.0,0.0,0.0,0.0,0,0,0.0,0.0,0,0,85.0,0.0,816.0,4595.8974358974365,3939.48717948718,4520.000000000001,4480.512820512821,4284.102564102564,4567.6923076923085,4466.666666666667,4433.846153846154,4400.512820512821,4725.128205128206,4360.512820512821,4255.384615384616,4213.846153846154,4555.384615384616
1642.9197,0.747907,0.39542383,0.5646667,0.55253506,0,0.0,0.0,0.0,0.0,0.0,0,0,0.0,0.0,0,0,85.0,0.0,816.0,4595.8974358974365,3939.48717948718,4520.000000000001,4480.512820512821,4284.102564102564,4567.6923076923085,4466.666666666667,4433.846153846154,4400.512820512821,4725.128205128206,4360.512820512821,4255.384615384616,4213.846153846154,4555.384615384616
1643.5453,0.7562394,0.42812896,0.56959987,0.5522058,0,0.0,0.0,0.0,0.0,0.0,0,0,0.0,0.0,0,0,36.0,0.0,0.0,4654.358974358975,3931.2820512820517,4547.6923076923085,4472.820512820514,4251.794871794872,4550.256410256411,4507.6923076923085,4498.974358974359,4429.743589743591,4769.743589743591,4414.358974358975,4287.179487179487,4176.923076923077,4612.820512820514
1643.5453,0.7562394,0.42812896,0.56959987,0.5522058,0,0.0,0.0,0.0,0.0,0.0,0,0,0.0,0.0,0,0,36.0,0.0,0.0,4654.358974358975,3931.2820512820517,4547.6923076923085,4472.820512820514,4251.794871794872,4550.256410256411,4507.6923076923085,4498.974358974359,4429.743589743591,4769.743589743591,4414.358974358975,4287.179487179487,4176.923076923077,4612.820512820514
1643.9205,0.7212645,0.47172856,0.57417256,0.5585838,0,0.0,0.0,0.0,0.0,0.0,0,0,0.0,0.0,0,0,84.0,0.0,532.0,4645.128205128206,3932.820512820513,4543.589743589744,4464.615384615385,4243.076923076924,4547.6923076923085,4486.666666666667,4482.564102564103,4434.871794871796,4771.282051282052,4404.615384615385,4369.2307692307695,4131.794871794872,4623.589743589744
1643.9205,0.7212645,0.47172856,0.57417256,0.5585838,0,0.0,0.0,0.0,0.0,0.0,0,0,0.0,0.0,0,0,84.0,0.0,532.0,4645.128205128206,3932.820512820513,4543.589743589744,4464.615384615385,4243.076923076924,4547.6923076923085,4486.666666666667,4482.564102564103,4434.871794871796,4771.282051282052,4404.615384615385,4369.2307692307695,4131.794871794872,4623.589743589744
1644.421,0.74158394,0.52495635,0.57889634,0.56944853,0,0.0,0.0,0.0,0.0,0.0,0,0,0.0,0.0,0,0,19.0,0.0,0.0,4649.743589743591,3928.717948717949,4536.923076923077,4451.794871794872,4241.538461538462,4560.512820512821,4487.6923076923085,4494.871794871796,4450.769230769231,4775.384615384616,4389.2307692307695,4310.256410256411,4136.410256410257,4630.256410256411
1644.421,0.74158394,0.52495635,0.57889634,0.56944853,0,0.0,0.0,0.0,0.0,0.0,0,0,0.0,0.0,0,0,19.0,0.0,0.0,4649.743589743591,3928.717948717949,4536.923076923077,4451.794871794872,4241.538461538462,4560.512820512821,4487.6923076923085,4494.871794871796,4450.769230769231,4775.384615384616,4389.2307692307695,4310.256410256411,4136.410256410257,4630.256410256411
1644.9214,0.72525936,0.5454272,0.57776725,0.5800228,0,0.0,0.0,0.0,0.0,0.0,0,0,0.0,0.0,0,0,83.0,0.0,440.0,4664.615384615386,3957.9487179487182,4548.717948717949,4478.974358974359,4234.358974358975,4552.307692307693,4493.333333333334,4496.923076923077,4454.358974358975,4793.846153846154,4421.538461538462,4342.564102564103,4184.615384615385,4650.256410256411
1644.9214,0.72525936,0.5454272,0.57776725,0.5800228,0,0.0,0.0,0.0,0.0,0.0,0,0,0.0,0.0,0,0,83.0,0.0,440.0,4664.615384615386,3957.9487179487182,4548.717948717949,4478.974358974359,4234.358974358975,4552.307692307693,4493.333333333334,4496.923076923077,4454.358974358975,4793.846153846154,4421.538461538462,4342.564102564103,4184.615384615385,4650.256410256411
1645.4219,0.7029598,0.5252033,0.5748622,0.60021126,0,0.0,0.0,0.0,0.0,0.0,0,0,0.0,0.0,0,0,18.0,0.0,0.0,4652.820512820514,4000.0000000000005,4548.717948717949,4474.871794871796,4245.128205128206,4565.128205128206,4499.48717948718,4494.871794871796,4448.205128205129,4756.923076923077,4393.846153846154,4376.410256410257,4169.2307692307695,4632.307692307693
1645.7971,0.7029598,0.5252033,0.5748622,0.60021126,0,0.0,0.0,0.0,0.0,0.16600083,0,0,0.0,0.0,0,0,66.0,0.0,428.0,4659.48717948718,4054.8717948717954,4555.384615384616,4496.923076923077,4250.769230769231,4567.179487179488,4488.205128205129,4488.205128205129,4447.6923076923085,4728.205128205129,4343.589743589744,4374.871794871796,4107.6923076923085,4610.256410256411
1646.0474,0.7128974,0.52125853,0.57329834,0.6185341,0,0.0,0.0,0.0,0.0,0.11368441,0,0,0.0,0.0,0,0,98.0,0.0,525.0,4617.948717948719,4018.461538461539,4526.666666666667,4472.820512820514,4245.641025641026,4556.923076923077,4491.794871794872,4492.307692307693,4440.000000000001,4733.846153846154,4362.564102564103,4327.179487179487,4142.051282051282,4601.538461538462
1646.2976,0.7128974,0.52125853,0.57329834,0.6185341,0,0.0,0.0,0.0,0.0,0.0,0,0,0.0,0.0,0,0,1.0,0.0,477.0,4620.000000000001,4007.692307692308,4530.256410256411,4469.743589743591,4252.820512820514,4560.512820512821,4491.282051282052,4480.000000000001,4444.102564102564,4752.820512820514,4380.000000000001,4360.000000000001,4181.025641025642,4605.128205128206
1646.5479,0.65380394,0.53317237,0.5694126,0.635021,0,0.0,0.0,0.0,0.0,0.01982206,0,0,0.0,0.0,0,0,33.0,0.0,0.0,4607.6923076923085,3977.435897435898,4521.025641025642,4444.615384615385,4246.153846153847,4552.820512820514,4490.256410256411,4479.48717948718,4431.794871794872,4702.564102564103,4330.256410256411,4303.076923076924,4160.000000000001,4593.846153846154
1646.7981,0.65380394,0.53317237,0.5694126,0.635021,0,0.0,0.0,0.0,0.0,0.15820028,0,0,0.0,0.0,0,0,65.0,0.0,477.0,4663.589743589744,4015.3846153846157,4551.794871794872,4465.641025641026,4259.48717948718,4565.641025641026,4501.025641025642,4478.461538461539,4431.282051282052,4698.461538461539,4365.641025641026,4310.769230769231,4208.717948717949,4641.025641025642
1647.0482,0.6303197,0.54705125,0.5659106,0.64285177,0,0.0,0.0,0.0,0.0,0.0,0,0,1.0,0.0,0,0,97.0,0.0,809.0,4695.384615384616,4045.1282051282055,4601.025641025642,4510.769230769231,4151.282051282052,4528.205128205129,4549.2307692307695,4540.512820512821,4453.846153846154,4753.846153846154,4392.820512820514,4359.48717948718,4195.8974358974365,4645.641025641026
1647.2985,0.6303197,0.54705125,0.5659106,0.64285177,0,0.0,0.0,0.0,0.0,0.0,0,0,0.3006618,0.0,0,0,0.0,0.0,482.0,4685.128205128206,4043.076923076924,4583.076923076924,4497.948717948719,4208.717948717949,4563.076923076924,4538.461538461539,4541.538461538462,4441.025641025642,4733.846153846154,4363.076923076924,4334.871794871796,4189.2307692307695,4618.974358974359
1647.5487,0.58862936,0.5657919,0.562754,0.6411681,0,0.0,0.0,0.0,0.0,0.0,0,0,0.3753578,0.0,0,0,32.0,0.0,0.0,4663.589743589744,4021.538461538462,4538.461538461539,4455.8974358974365,4230.256410256411,4574.871794871796,4491.794871794872,4471.282051282052,4408.717948717949,4746.153846153847,4323.076923076924,4289.74358974359,4201.538461538462,4608.717948717949
1647.799,0.58862936,0.5657919,0.562754,0.6411681,0,0.0,0.40294382,0.0,0.0,0.0,0,0,0.0,0.0,0,0,64.0,0.0,482.0,4646.153846153847,4024.615384615385,4542.564102564103,4451.282051282052,4256.923076923077,4598.461538461539,4474.358974358975,4483.076923076924,4418.461538461539,4833.333333333334,4376.923076923077,4328.205128205129,4355.8974358974365,4601.025641025642
1648.0491,0.564788,0.5842956,0.56179273,0.63809484,0,0.0,0.09190062,0.0,0.0,0.0,0,0,0.0,0.0,0,0,96.0,0.0,531.0,4608.717948717949,3976.410256410257,4505.128205128206,4398.974358974359,4242.051282051282,4581.538461538462,4456.923076923077,4445.641025641026,4390.769230769231,4770.256410256411,4334.358974358975,4252.307692307693,4385.128205128206,4535.8974358974365
1648.2993,0.564788,0.5842956,0.56179273,0.63809484,0,0.0,0.0,0.0,0.0,0.0,0,0,0.26780254,0.0,0,0,128.0,0.0,531.0,4623.589743589744,3999.48717948718,4514.358974358975,4422.051282051282,4272.307692307693,4602.051282051282,4458.461538461539,4442.051282051282,4385.128205128206,4766.666666666667,4336.410256410257,4249.2307692307695,4411.282051282052,4546.666666666667
1648.5496,0.5833819,0.6033314,0.5619924,0.6353277,0,0.0,0.0,0.0,0.0,0.0,0,0,0.09524052,0.0,0,0,31.0,0.0,0.0,4663.589743589744,3998.9743589743593,4521.538461538462,4434.871794871796,4262.051282051282,4586.666666666667,4470.256410256411,4429.2307692307695,4380.512820512821,4764.615384615386,4340.000000000001,4316.410256410257,4363.589743589744,4571.282051282052
1648.7998,0.5833819,0.6033314,0.5619924,0.6353277,0,0.0,0.0,0.0,0.0,0.0,0,0,0.0,0.0,0,0,63.0,0.0,0.0,4664.615384615386,3987.692307692308,4520.000000000001,4428.205128205129,4251.282051282052,4565.128205128206,4448.205128205129,4418.461538461539,4380.000000000001,4757.948717948719,4349.2307692307695,4286.666666666667,4309.743589743591,4577.948717948719
1649.0499,0.5843778,0.6224275,0.56584996,0.63283604,0,0.0,0.0,0.0,0.0,0.4513396,0,0,0.0,0.0,0,0,95.0,0.0,440.0,4732.307692307693,4060.0000000000005,4538.461538461539,4483.076923076924,4249.2307692307695,4553.846153846154,4443.076923076924,4392.307692307693,4370.256410256411,4653.846153846154,4282.564102564103,4253.333333333334,4200.000000000001,4583.589743589744
1649.3002,0.5843778,0.6224275,0.56584996,0.63283604,0,0.0,0.0,0.0,0.0,0.09846313,0,0,0.0,0.0,0,0,127.0,0.0,440.0,4658.461538461539,3943.589743589744,4507.179487179488,4441.538461538462,4254.358974358975,4553.846153846154,4482.051282051282,4432.307692307693,4381.538461538462,4680.512820512821,4333.846153846154,4209.2307692307695,4162.564102564103,4545.128205128206
1649.5504,0.50909996,0.6608378,0.5751612,0.61772513,0,0.0,0.0,0.0,0.0,0.065726966,0,0,0.0,0.0,0,0,30.0,0.0,0.0,4695.384615384616,3985.1282051282055,4560.000000000001,4491.794871794872,4292.307692307693,4590.256410256411,4493.333333333334,4466.153846153847,4393.333333333334,4711.282051282052,4364.615384615385,4262.564102564103,4186.153846153847,4580.000000000001
1649.8007,0.50909996,0.6608378,0.5751612,0.61772513,0,0.0,0.0,0.0,0.0,0.0,0,0,0.0,0.0,0,0,62.0,0.0,0.0,4686.153846153847,3986.1538461538466,4552.820512820514,4477.435897435898,4282.051282051282,4581.538461538462,4472.820512820514,4457.948717948719,4402.564102564103,4724.102564102564,4385.641025641026,4256.410256410257,4176.410256410257,4592.307692307693
1649.9258,0.5487253,0.6717337,0.5798412,0.6142934,0,0.0,0.0,0.0,0.0,0.0,0,0,0.0,0.0,0,0,78.0,0.0,522.0,4723.076923076924,4029.23076923077,4593.333333333334,4536.410256410257,4316.923076923077,4609.2307692307695,4532.820512820514,4516.410256410257,4409.2307692307695,4764.102564102564,4425.128205128206,4322.564102564103,4201.025641025642,4626.666666666667
1649.9258,0.5487253,0.6717337,0.5798412,0.6142934,0,0.0,0.0,0.0,0.0,0.0,0,0,0.0,0.0,0,0,78.0,0.0,522.0,4723.076923076924,4029.23076923077,4593.333333333334,4536.410256410257,4316.923076923077,4609.2307692307695,4532.820512820514,4516.410256410257,4409.2307692307695,4764.102564102564,4425.128205128206,4322.564102564103,4201.025641025642,4626.666666666667
1650.4261,0.6260047,0.67238885,0.58048207,0.629012,0,0.0,0.0,0.0,0.0,0.0,0,0,0.0,0.0,0,0,13.0,0.0,811.0,4664.615384615386,3962.0512820512827,4528.717948717949,4462.564102564103,4237.948717948719,4530.769230769231,4443.589743589744,4435.384615384616,4374.871794871796,4695.384615384616,4329.2307692307695,4263.076923076924,4114.871794871796,4601.025641025642
1650.4261,0.6260047,0.67238885,0.58048207,0.629012,0,0.0,0.0,0.0,0.0,0.0,0,0,0.0,0.0,0,0,13.0,0.0,811.0,4664.615384615386,3962.0512820512827,4528.717948717949,4462.564102564103,4237.948717948719,4530.769230769231,4443.589743589744,4435.384615384616,4374.871794871796,4695.384615384616,4329.2307692307695,4263.076923076924,4114.871794871796,4601.025641025642
1650.9266,0.60932344,0.67497814,0.5810522,0.6446694,0,0.0,0.0,0.0,0.0,0.0,0,0,0.0,0.0,0,1,77.0,0.0,811.0,4695.8974358974365,3883.589743589744,4532.820512820514,4425.641025641026,4214.358974358975,4509.2307692307695,4457.948717948719,4475.8974358974365,4390.256410256411,4762.564102564103,4417.948717948719,4301.025641025642,4235.8974358974365,4706.153846153847
1651.3019,0.60932344,0.67497814,0.5810522,0.6446694,0,0.0,0.0,0.0,0.0,0.06793858,0,0,0.0,0.0,0,0,125.0,0.0,811.0,4649.743589743591,3891.7948717948725,4505.641025641026,4423.589743589744,4237.948717948719,4533.846153846154,4466.666666666667,4476.923076923077,4388.205128205129,4737.435897435898,4369.2307692307695,4246.153846153847,4142.051282051282,4652.820512820514
1651.5521,0.5728401,0.6626365,0.574697,0.6563407,0,0.0,0.0,0.0,0.0,0.0,0,0,0.0,0.0,0,0,28.0,0.0,0.0,4673.846153846154,3921.538461538462,4528.717948717949,4447.179487179487,4235.8974358974365,4530.256410256411,4478.974358974359,4485.128205128206,4390.769230769231,4748.205128205129,4378.461538461539,4298.461538461539,4160.512820512821,4649.743589743591
1651.5521,0.5728401,0.6626365,0.574697,0.6563407,0,0.0,0.0,0.0,0.0,0.0,0,0,0.0,0.0,0,0,28.0,0.0,0.0,4673.846153846154,3921.538461538462,4528.717948717949,4447.179487179487,4235.8974358974365,4530.256410256411,4478.974358974359,4485.128205128206,4390.769230769231,4748.205128205129,4378.461538461539,4298.461538461539,4160.512820512821,4649.743589743591
1651.9275,0.5337818,0.642417,0.5620916,0.6632316,0,0.0,0.0,0.0,0.0,0.0,0,0,0.0,0.0,0,0,76.0,0.0,531.0,4672.820512820514,3926.1538461538466,4516.923076923077,4450.769230769231,4236.410256410257,4531.794871794872,4457.948717948719,4458.461538461539,4391.794871794872,4734.871794871796,4371.282051282052,4276.923076923077,4165.641025641026,4590.256410256411
1651.9275,0.5337818,0.642417,0.5620916,0.6632316,0,0.0,0.0,0.0,0.0,0.0,0,0,0.0,0.0,0,0,76.0,0.0,531.0,4672.820512820514,3926.1538461538466,4516.923076923077,4450.769230769231,4236.410256410257,4531.794871794872,4457.948717948719,4458.461538461539,4391.794871794872,4734.871794871796,4371.282051282052,4276.923076923077,4165.641025641026,4590.256410256411
1652.4279,0.5340332,0.61642295,0.54966,0.66942865,0,0.0,0.0,0.0,0.0,0.0,0,0,0.0,0.0,0,0,11.0,0.0,439.0,4670.256410256411,3934.358974358975,4512.820512820514,4443.076923076924,4242.564102564103,4534.871794871796,4445.641025641026,4455.8974358974365,4384.615384615385,4754.358974358975,4363.589743589744,4266.666666666667,4160.000000000001,4547.6923076923085
1652.4279,0.5340332,0.61642295,0.54966,0.66942865,0,0.0,0.0,0.0,0.0,0.0,0,0,0.0,0.0,0,0,11.0,0.0,439.0,4670.256410256411,3934.358974358975,4512.820512820514,4443.076923076924,4242.564102564103,4534.871794871796,4445.641025641026,4455.8974358974365,4384.615384615385,4754.358974358975,4363.589743589744,4266.666666666667,4160.000000000001,4547.6923076923085
1652.9283,0.5145468,0.5761323,0.5368313,0.66315126,0,0.0,0.0,0.0,0.0,0.0,0,0,0.0,0.0,0,0,75.0,0.0,439.0,4655.8974358974365,3931.2820512820517,4494.871794871796,4417.948717948719,4257.435897435898,4535.384615384616,4412.820512820514,4420.000000000001,4377.948717948719,4715.8974358974365,4323.076923076924,4208.717948717949,4128.717948717949,4531.794871794872
1652.9283,0.5145468,0.5761323,0.5368313,0.66315126,0,0.0,0.0,0.0,0.0,0.0,0,0,0.0,0.0,0,0,75.0,0.0,439.0,4655.8974358974365,3931.2820512820517,4494.871794871796,4417.948717948719,4257.435897435898,4535.384615384616,4412.820512820514,4420.000000000001,4377.948717948719,4715.8974358974365,4323.076923076924,4208.717948717949,4128.717948717949,4531.794871794872
1653.5851,0.46811303,0.53626394,0.52242744,0.6510805,1,0.0,0.0,0.0,0.0,0.0,0,0,0.0,0.0,0,0,30.0,0.0,0.0,4679.48717948718,3962.564102564103,4513.846153846154,4449.2307692307695,4270.769230769231,4534.358974358975,4434.871794871796,4424.102564102564,4388.205128205129,4724.102564102564,4367.6923076923085,4307.179487179487,4181.025641025642,4580.512820512821
1653.7415,0.46811303,0.53626394,0.52242744,0.6510805,0,0.0,0.0,0.0,0.0,0.0,0,0,0.0,0.0,0,0,50.0,0.0,0.0,4639.48717948718,3916.410256410257,4473.333333333334,4410.769230769231,4316.923076923077,4564.615384615385,4416.410256410257,4422.051282051282,4375.384615384616,4698.974358974359,4318.461538461539,4246.666666666667,4130.256410256411,4541.025641025642
1653.9292,0.48635963,0.51208586,0.5133726,0.64021736,0,0.0,0.0,0.0,0.0,0.0,0,0,0.0,0.0,0,0,74.0,0.0,522.0,4646.153846153847,3928.205128205129,4481.538461538462,4428.205128205129,4312.307692307693,4555.384615384616,4413.333333333334,4416.410256410257,4369.743589743591,4672.307692307693,4316.923076923077,4247.179487179487,4122.564102564103,4544.615384615385
1653.9292,0.48635963,0.51208586,0.5133726,0.64021736,0,0.0,0.0,0.0,0.0,0.0,0,0,0.0,0.0,0,0,74.0,0.0,522.0,4646.153846153847,3928.205128205129,4481.538461538462,4428.205128205129,4312.307692307693,4555.384615384616,4413.333333333334,4416.410256410257,4369.743589743591,4672.307692307693,4316.923076923077,4247.179487179487,4122.564102564103,4544.615384615385
1654.4296,0.5067331,0.49991384,0.5052209,0.6304406,0,0.0,0.0,0.0,0.0,0.0,0,0,0.0,0.0,0,0,9.0,0.0,453.0,4663.589743589744,3985.1282051282055,4536.410256410257,4485.641025641026,4324.615384615385,4589.743589743591,4498.461538461539,4481.025641025642,4404.102564102564,4746.666666666667,4387.6923076923085,4319.48717948718,4173.333333333334,4569.2307692307695
1654.4296,0.5067331,0.49991384,0.5052209,0.6304406,0,0.0,0.0,0.0,0.0,0.0,0,0,0.0,0.0,0,0,9.0,0.0,453.0,4663.589743589744,3985.1282051282055,4536.410256410257,4485.641025641026,4324.615384615385,4589.743589743591,4498.461538461539,4481.025641025642,4404.102564102564,4746.666666666667,4387.6923076923085,4319.48717948718,4173.333333333334,4569.2307692307695
1654.93,0.5094894,0.48964858,0.49397072,0.6286802,0,0.0,0.0,0.0,0.0,0.0,0,0,0.0,0.0,0,0,73.0,0.0,453.0,4630.769230769231,3977.9487179487182,4517.435897435898,4466.153846153847,4281.538461538462,4575.8974358974365,4484.102564102564,4482.051282051282,4397.948717948719,4736.923076923077,4370.769230769231,4310.769230769231,4165.641025641026,4536.923076923077
1655.3053,0.5094894,0.48964858,0.49397072,0.6286802,1,0.0,0.0,0.0,0.0,0.0,0,0,0.0,0.0,0,0,121.0,0.0,811.0,4701.025641025642,3987.692307692308,4552.307692307693,4478.461538461539,4250.769230769231,4545.128205128206,4475.8974358974365,4480.512820512821,4395.384615384616,4725.641025641026,4400.512820512821,4337.435897435898,4221.025641025642,4585.641025641026
1655.4618,0.4246143,0.507554,0.47943968,0.6406769,0,0.0,0.0,0.0,0.0,0.0,0,0,0.0,0.0,0,0,12.0,0.0,531.0,4653.333333333334,3961.0256410256416,4546.153846153847,4468.717948717949,4256.410256410257,4545.641025641026,4453.333333333334,4448.205128205129,4382.564102564103,4705.641025641026,4384.615384615385,4312.307692307693,4178.974358974359,4562.051282051282
1655.4618,0.4246143,0.507554,0.47943968,0.6406769,0,0.0,0.0,0.0,0.0,0.0,0,0,0.0,0.0,0,0,12.0,0.0,531.0,4653.333333333334,3961.0256410256416,4546.153846153847,4468.717948717949,4256.410256410257,4545.641025641026,4453.333333333334,4448.205128205129,4382.564102564103,4705.641025641026,4384.615384615385,4312.307692307693,4178.974358974359,4562.051282051282
1655.9309,0.35444522,0.49507964,0.46214092,0.6614822,0,0.0,0.0,0.0,0.0,0.0,0,0,0.0,0.0,0,0,72.0,0.0,391.0,4636.923076923077,3994.8717948717954,4527.6923076923085,4463.589743589744,4260.000000000001,4556.410256410257,4456.923076923077,4441.538461538462,4387.179487179487,4734.871794871796,4390.256410256411,4246.153846153847,4191.794871794872,4571.282051282052
1655.9309,0.35444522,0.49507964,0.46214092,0.6614822,0,0.0,0.0,0.0,0.0,0.0,0,0,0.0,0.0,0,0,72.0,0.0,391.0,4636.923076923077,3994.8717948717954,4527.6923076923085,4463.589743589744,4260.000000000001,4556.410256410257,4456.923076923077,4441.538461538462,4387.179487179487,4734.871794871796,4390.256410256411,4246.153846153847,4191.794871794872,4571.282051282052
1656.4313,0.29934707,0.47930187,0.44657096,0.6801975,0,0.0,0.0,0.0,0.0,0.0,0,0,0.0,0.0,0,0,7.0,0.0,464.0,4631.282051282052,3961.538461538462,4518.461538461539,4452.820512820514,4266.666666666667,4566.666666666667,4470.769230769231,4439.48717948718,4387.6923076923085,4735.8974358974365,4392.307692307693,4277.948717948719,4195.8974358974365,4571.282051282052
1656.4313,0.29934707,0.47930187,0.44657096,0.6801975,0,0.0,0.0,0.0,0.0,0.0,0,0,0.0,0.0,0,0,7.0,0.0,464.0,4631.282051282052,3961.538461538462,4518.461538461539,4452.820512820514,4266.666666666667,4566.666666666667,4470.769230769231,4439.48717948718,4387.6923076923085,4735.8974358974365,4392.307692307693,4277.948717948719,4195.8974358974365,4571.282051282052
1656.9318,0.2916878,0.4540258,0.43255687,0.6970295,0,0.0,0.0,0.0,0.0,0.0,0,0,0.0,0.0,0,0,71.0,0.0,464.0,4624.615384615385,3950.2564102564106,4525.128205128206,4447.6923076923085,4262.051282051282,4569.743589743591,4475.8974358974365,4452.820512820514,4396.410256410257,4735.384615384616,4395.384615384616,4345.128205128206,4203.076923076924,4564.102564102564
1656.9318,0.2916878,0.4540258,0.43255687,0.6970295,0,0.0,0.0,0.0,0.0,0.0,0,0,0.0,0.0,0,0,71.0,0.0,464.0,4624.615384615385,3950.2564102564106,4525.128205128206,4447.6923076923085,4262.051282051282,4569.743589743591,4475.8974358974365,4452.820512820514,4396.410256410257,4735.384615384616,4395.384615384616,4345.128205128206,4203.076923076924,4564.102564102564
1657.4321,0.34595278,0.4215497,0.42098212,0.70594704,0,0.0,0.0,0.0,0.0,0.0,0,0,0.0,0.0,0,0,6.0,0.0,527.0,4621.538461538462,3954.8717948717954,4539.48717948718,4457.948717948719,4263.076923076924,4569.743589743591,4479.48717948718,4456.923076923077,4393.333333333334,4739.48717948718,4402.051282051282,4357.948717948719,4211.794871794872,4564.615384615385
1657.4321,0.34595278,0.4215497,0.42098212,0.70594704,0,0.0,0.0,0.0,0.0,0.0,0,0,0.0,0.0,0,0,6.0,0.0,527.0,4621.538461538462,3954.8717948717954,4539.48717948718,4457.948717948719,4263.076923076924,4569.743589743591,4479.48717948718,4456.923076923077,4393.333333333334,4739.48717948718,4402.051282051282,4357.948717948719,4211.794871794872,4564.615384615385
1657.9326,0.28034505,0.39682195,0.41517454,0.6994706,0,0.0,0.0,0.0,0.0,0.0,0,0,0.0,0.0,0,0,70.0,0.0,527.0,4585.641025641026,3957.435897435898,4504.615384615385,4446.153846153847,4296.410256410257,4595.8974358974365,4492.820512820514,4461.538461538462,4394.358974358975,4773.333333333334,4360.512820512821,4355.8974358974365,4214.871794871796,4536.923076923077
1657.9326,0.28034505,0.39682195,0.41517454,0.6994706,0,0.0,0.0,0.0,0.0,0.0,0,0,0.0,0.0,0,0,70.0,0.0,527.0,4585.641025641026,3957.435897435898,4504.615384615385,4446.153846153847,4296.410256410257,4595.8974358974365,4492.820512820514,4461.538461538462,4394.358974358975,4773.333333333334,4360.512820512821,4355.8974358974365,4214.871794871796,4536.923076923077
1658.433,0.34926152,0.37000352,0.41252673,0.6799646,0,0.0,0.0,0.0,0.0,0.0,0,0,0.0,0.0,0,0,5.0,0.0,537.0,4563.076923076924,3940.5128205128212,4472.820512820514,4413.846153846154,4276.923076923077,4572.820512820514,4456.923076923077,4391.282051282052,4362.564102564103,4726.153846153847,4336.410256410257,4253.846153846154,4194.871794871796,4506.153846153847
1658.433,0.34926152,0.37000352,0.41252673,0.6799646,0,0.0,0.0,0.0,0.0,0.0,0,0,0.0,0.0,0,0,5.0,0.0,537.0,4563.076923076924,3940.5128205128212,4472.820512820514,4413.846153846154,4276.923076923077,4572.820512820514,4456.923076923077,4391.282051282052,4362.564102564103,4726.153846153847,4336.410256410257,4253.846153846154,4194.871794871796,4506.153846153847
1658.9335,0.3707009,0.34956902,0.4112665,0.6545096,0,0.0,0.0,0.0,0.0,0.0,0,0,0.0,0.0,0,0,69.0,0.0,537.0,4592.307692307693,3960.5128205128212,4493.333333333334,4453.846153846154,4281.025641025642,4571.794871794872,4466.153846153847,4418.461538461539,4378.974358974359,4708.205128205129,4367.179487179487,4261.538461538462,4194.358974358975,4521.538461538462
1658.9335,0.3707009,0.34956902,0.4112665,0.6545096,0,0.0,0.0,0.0,0.0,0.0,0,0,0.0,0.0,0,0,69.0,0.0,537.0,4592.307692307693,3960.5128205128212,4493.333333333334,4453.846153846154,4281.025641025642,4571.794871794872,4466.153846153847,4418.461538461539,4378.974358974359,4708.205128205129,4367.179487179487,4261.538461538462,4194.358974358975,4521.538461538462
