timestamp,excitement,frustration,meditation,engagementBoredom,blink,clench,laugh,smile,eyebrow,furrowBrow,lookLeft,lookRight,smirkLeft,smirkRight,winkLeft,winkRight,eeg0,eeg1,eeg2,eeg3,eeg4,eeg5,eeg6,eeg7,eeg8,eeg9,eeg10,eeg11,eeg12,eeg13,eeg14,eeg15,eeg16
904.04254,0.5464731,0.7376719,0.36647812,0.5776619,0,0.0,0.0,0.0,0.0,0.09124694,0,0,0.0,0.0,0,0,17.0,0.0,0.0,4597.948717948719,3898.461538461539,4505.641025641026,4416.410256410257,4228.717948717949,4549.743589743591,4438.974358974359,4420.512820512821,4400.512820512821,4693.333333333334,4286.153846153847,4284.102564102564,4127.179487179487,4483.076923076924
904.2928,0.46692675,0.717793,0.36976442,0.570048,0,0.0,0.0,0.0,0.0,0.09742649,0,0,0.0,0.0,0,0,49.0,0.0,0.0,4586.666666666667,3945.1282051282055,4495.8974358974365,4456.410256410257,4224.102564102564,4539.48717948718,4422.051282051282,4397.948717948719,4381.538461538462,4646.153846153847,4198.974358974359,4249.2307692307695,4034.358974358975,4443.076923076924
904.54297,0.46692675,0.717793,0.36976442,0.570048,0,0.0,0.0,0.0,0.0,0.059254095,0,0,0.0,0.0,0,0,81.0,0.0,653.0,4565.128205128206,3912.307692307693,4474.358974358975,4432.820512820514,4222.051282051282,4538.974358974359,4413.846153846154,4376.410256410257,4380.000000000001,4652.307692307693,4217.948717948719,4238.974358974359,4041.538461538462,4445.641025641026
904.7932,0.53051513,0.68481433,0.38070258,0.5542208,0,0.0,0.0,0.0,0.0,0.0,0,0,0.0,0.0,0,0,113.0,0.0,653.0,4576.410256410257,3913.8461538461543,4486.666666666667,4430.769230769231,4215.8974358974365,4534.358974358975,4403.076923076924,4363.076923076924,4376.923076923077,4661.538461538462,4225.641025641026,4246.666666666667,4058.461538461539,4454.358974358975
904.7932,0.53051513,0.68481433,0.38070258,0.5542208,0,0.0,0.0,0.0,0.0,0.0,0,0,0.0,0.0,0,0,113.0,0.0,653.0,4576.410256410257,3913.8461538461543,4486.666666666667,4430.769230769231,4215.8974358974365,4534.358974358975,4403.076923076924,4363.076923076924,4376.923076923077,4661.538461538462,4225.641025641026,4246.666666666667,4058.461538461539,4454.358974358975
905.29364,0.54368937,0.6375937,0.3928166,0.53399384,0,0.0,0.0,0.0,0.0,0.0,0,0,0.0,0.0,0,0,48.0,0.0,0.0,4593.333333333334,3858.9743589743593,4511.282051282052,4413.846153846154,4216.410256410257,4524.615384615385,4424.615384615385,4380.512820512821,4412.307692307693,4772.820512820514,4443.076923076924,4333.846153846154,4263.076923076924,4594.871794871796
905.5438,0.54368937,0.6375937,0.3928166,0.53399384,0,0.0,0.0,0.0,0.0,0.38703936,0,0,0.0,0.0,0,0,80.0,0.0,545.0,4554.871794871796,3840.0000000000005,4482.051282051282,4382.564102564103,4225.128205128206,4541.538461538462,4402.564102564103,4365.128205128206,4393.333333333334,4667.179487179488,4312.307692307693,4285.128205128206,4135.384615384616,4563.076923076924
905.79407,0.49050358,0.6528552,0.4037167,0.51579064,0,0.0,0.0,0.0,0.0,0.2712647,0,0,0.0,0.0,0,0,112.0,0.0,545.0,4576.410256410257,3896.410256410257,4498.461538461539,4404.615384615385,4232.307692307693,4538.461538461539,4407.179487179487,4372.820512820514,4387.6923076923085,4652.307692307693,4259.48717948718,4257.948717948719,4061.0256410256416,4539.48717948718
906.04425,0.49050358,0.6528552,0.4037167,0.51579064,0,0.0,0.0,0.27466083,0.0,0.0,0,0,0.0,0.0,0,0,15.0,0.0,444.0,4586.666666666667,3893.333333333334,4496.923076923077,4408.717948717949,4229.74358974359,4543.076923076924,4385.128205128206,4334.358974358975,4392.307692307693,4655.384615384616,4294.358974358975,4312.307692307693,4078.461538461539,4521.538461538462
906.2945,0.44744948,0.6454398,0.41506022,0.4994103,0,0.0,0.0,0.051156145,0.0,0.0,0,0,0.0,0.0,0,0,47.0,0.0,0.0,4605.128205128206,3905.1282051282055,4516.410256410257,4406.666666666667,4234.871794871796,4534.358974358975,4399.48717948718,4362.564102564103,4391.794871794872,4658.461538461539,4302.564102564103,4280.000000000001,4092.307692307693,4527.179487179488
906.5447,0.44744948,0.6454398,0.41506022,0.4994103,0,0.0,0.0,0.0,0.0,0.034664635,0,0,0.0,0.0,0,0,79.0,0.0,444.0,4586.153846153847,3888.717948717949,4513.846153846154,4415.384615384616,4231.282051282052,4542.051282051282,4432.820512820514,4421.538461538462,4430.256410256411,4708.717948717949,4351.794871794872,4304.615384615385,4128.717948717949,4515.8974358974365
906.8262,0.41017434,0.6454335,0.4252657,0.48696423,1,0.0,0.0,0.0,0.0,0.05616764,0,0,0.0,0.0,0,0,115.0,0.0,444.0,4624.615384615385,3923.589743589744,4533.333333333334,4424.102564102564,4237.948717948719,4548.205128205129,4416.923076923077,4412.307692307693,4414.871794871796,4769.743589743591,4391.282051282052,4327.6923076923085,4204.102564102564,4556.410256410257
906.98254,0.41017434,0.6454335,0.4252657,0.48696423,0,0.0,0.0,0.0,0.0,0.0,0,0,0.0,0.0,0,0,6.0,0.0,536.0,4590.256410256411,3915.8974358974365,4522.051282051282,4410.769230769231,4255.384615384616,4556.410256410257,4421.025641025642,4398.974358974359,4405.641025641026,4818.461538461539,4373.333333333334,4324.102564102564,4208.205128205129,4522.564102564103
907.2797,0.35541755,0.6744385,0.43795678,0.48048365,0,0.0,0.0,0.0,0.0,0.1357076,0,0,0.0,0.0,0,0,46.0,0.0,0.0,4563.589743589744,3916.410256410257,4494.358974358975,4393.333333333334,4284.615384615385,4580.512820512821,4413.846153846154,4378.461538461539,4387.179487179487,4897.435897435898,4386.153846153847,4310.256410256411,4235.8974358974365,4486.153846153847
907.5299,0.35541755,0.6744385,0.43795678,0.48048365,0,0.0,0.0,0.19690898,0.0,0.0,0,0,0.0,0.0,0,0,78.0,0.0,528.0,4583.076923076924,3991.7948717948725,4507.6923076923085,4442.564102564103,4277.435897435898,4565.641025641026,4412.820512820514,4400.000000000001,4358.461538461539,4906.666666666667,4349.2307692307695,4297.948717948719,4253.846153846154,4484.102564102564
907.78015,0.40911168,0.69007486,0.45695102,0.4746551,0,0.0,0.0,0.103433795,0.0,0.0,0,0,0.0,0.0,0,0,110.0,0.0,528.0,4551.282051282052,3934.358974358975,4482.051282051282,4408.717948717949,4280.000000000001,4576.923076923077,4412.820512820514,4295.8974358974365,4313.333333333334,4847.179487179488,4297.948717948719,4239.48717948718,4242.051282051282,4450.256410256411
908.03033,0.40911168,0.69007486,0.45695102,0.4746551,0,0.0,0.0,0.10065045,0.0,0.0,0,0,0.0,0.0,0,0,13.0,0.0,655.0,4574.871794871796,3961.538461538462,4494.358974358975,4443.589743589744,4269.74358974359,4558.974358974359,4429.2307692307695,4349.743589743591,4333.846153846154,4817.435897435898,4290.256410256411,4253.333333333334,4241.538461538462,4445.128205128206
908.2806,0.41619572,0.7264185,0.47885114,0.4694137,0,0.0,0.0,0.0,0.0,0.04603694,0,0,0.0,0.0,0,0,45.0,0.0,0.0,4589.743589743591,3955.8974358974365,4501.025641025642,4425.128205128206,4253.846153846154,4548.717948717949,4427.179487179487,4362.564102564103,4349.2307692307695,4750.256410256411,4277.948717948719,4246.666666666667,4231.282051282052,4469.2307692307695
908.53076,0.41619572,0.7264185,0.47885114,0.4694137,0,0.0,0.0,0.0,0.0,0.1581076,0,0,0.0,0.0,0,0,77.0,0.0,655.0,4699.48717948718,3991.7948717948725,4563.076923076924,4469.2307692307695,4236.923076923077,4526.153846153847,4445.128205128206,4377.435897435898,4363.076923076924,4730.769230769231,4415.384615384616,4332.307692307693,4336.410256410257,4594.358974358975
908.781,0.40850857,0.76196253,0.505498,0.46470103,0,0.0,0.0,0.0,0.0,0.052635502,0,0,0.0,0.0,0,0,109.0,0.0,655.0,4597.948717948719,3921.0256410256416,4510.256410256411,4398.461538461539,4259.48717948718,4558.974358974359,4460.512820512821,4420.512820512821,4361.538461538462,4752.820512820514,4298.974358974359,4292.307692307693,4191.794871794872,4481.025641025642
909.0312,0.40850857,0.76196253,0.505498,0.46470103,0,0.0,0.0,0.0,0.0,0.13268362,0,0,0.0,0.0,0,0,12.0,0.0,545.0,4465.641025641026,3867.692307692308,4430.256410256411,4312.820512820514,4262.051282051282,4580.512820512821,4365.641025641026,4281.538461538462,4291.794871794872,4743.076923076924,4141.538461538462,4166.666666666667,4117.435897435898,4275.384615384616
909.3127,0.38939694,0.8193989,0.5295502,0.46081388,0,0.0,0.0,0.0,0.0,0.34307525,0,0,0.0,0.0,0,0,48.0,0.0,0.0,4528.717948717949,3928.205128205129,4461.025641025642,4372.820512820514,4276.923076923077,4581.538461538462,4407.6923076923085,4397.435897435898,4304.615384615385,4857.435897435898,4184.102564102564,4206.153846153847,4265.128205128206,4319.48717948718
909.5316,0.38939694,0.8193989,0.5295502,0.46081388,0,0.0,0.0,0.0,0.0,0.11288071,0,0,0.0,0.0,0,0,76.0,0.0,546.0,4557.435897435898,3961.0256410256416,4444.102564102564,4439.48717948718,4327.6923076923085,4604.615384615385,4442.051282051282,4474.871794871796,4323.076923076924,4911.282051282052,4262.564102564103,4248.717948717949,4298.461538461539,4362.564102564103
909.8131,0.5498295,0.8489487,0.54424363,0.4602573,0,0.0,0.0,0.0,0.0,0.034859512,0,0,0.0,0.0,0,0,112.0,0.0,546.0,4608.717948717949,3987.692307692308,4400.512820512821,4489.743589743591,4334.358974358975,4608.205128205129,4437.435897435898,4509.743589743591,4346.666666666667,4986.666666666667,4310.256410256411,4273.846153846154,4309.743589743591,4376.923076923077
910.03204,0.5498295,0.8489487,0.54424363,0.4602573,0,0.0,0.0,0.0,0.0,0.0,0,0,0.0,0.0,0,0,11.0,0.0,446.0,4636.410256410257,3998.461538461539,4396.410256410257,4496.410256410257,4327.179487179487,4599.48717948718,4411.794871794872,4487.6923076923085,4348.205128205129,4855.8974358974365,4254.871794871796,4238.974358974359,4263.589743589744,4378.974358974359
910.31354,0.59366465,0.8650461,0.54139423,0.46510983,0,0.0,0.0,0.0,0.0,0.4712129,0,0,0.0,0.0,0,0,47.0,0.0,0.0,4705.641025641026,3996.410256410257,4436.410256410257,4530.256410256411,4310.256410256411,4588.205128205129,4427.6923076923085,4498.974358974359,4370.256410256411,4801.538461538462,4353.333333333334,4292.820512820514,4342.564102564103,4467.179487179487
910.5325,0.59366465,0.8650461,0.54139423,0.46510983,0,0.0,0.0,0.0,0.0,0.23326342,0,0,0.0,0.0,0,0,75.0,0.0,446.0,4690.769230769231,3960.5128205128212,4455.384615384616,4549.2307692307695,4306.666666666667,4590.256410256411,4449.2307692307695,4510.769230769231,4384.615384615385,4755.384615384616,4339.48717948718,4289.74358974359,4269.2307692307695,4480.000000000001
910.7827,0.54218,0.8781476,0.52050763,0.47385004,0,0.0,0.0,0.0,0.0,0.09470535,0,0,0.0,0.0,0,0,107.0,0.0,446.0,4726.153846153847,3994.8717948717954,4434.871794871796,4582.051282051282,4309.743589743591,4601.538461538462,4477.948717948719,4508.205128205129,4396.410256410257,4709.2307692307695,4311.282051282052,4303.589743589744,4203.589743589744,4514.358974358975
911.0329,0.54218,0.8781476,0.52050763,0.47385004,0,0.0,0.0,0.0,0.0,0.20169619,0,0,0.0,0.0,0,0,10.0,0.0,528.0,4704.615384615386,3936.410256410257,4432.307692307693,4556.410256410257,4280.000000000001,4586.666666666667,4480.512820512821,4518.974358974359,4384.102564102564,4609.743589743591,4358.461538461539,4291.794871794872,4168.205128205129,4558.974358974359
911.28314,0.66633457,0.8616038,0.5017089,0.48171678,0,0.0,0.0,0.0,0.0,0.1302135,0,0,0.0,0.0,0,0,42.0,0.0,0.0,4666.153846153847,3912.307692307693,4457.435897435898,4541.538461538462,4242.564102564103,4561.025641025642,4464.102564102564,4580.000000000001,4370.256410256411,4614.871794871796,4401.538461538462,4287.6923076923085,4160.000000000001,4580.000000000001
911.5333,0.66633457,0.8616038,0.5017089,0.48171678,0,0.0,0.0,0.0,0.0,0.04067698,0,0,0.0,0.0,0,0,74.0,0.0,528.0,4642.564102564103,3918.9743589743593,4501.025641025642,4536.410256410257,4245.128205128206,4550.256410256411,4460.512820512821,4575.384615384616,4367.179487179487,4601.538461538462,4403.589743589744,4302.051282051282,4155.8974358974365,4578.974358974359
911.78357,0.7428814,0.82850355,0.48478848,0.48879758,0,0.0,0.0,0.0,0.0,0.09243727,0,0,0.0,0.0,0,0,106.0,0.0,528.0,4650.769230769231,3915.3846153846157,4521.538461538462,4524.102564102564,4253.333333333334,4557.435897435898,4468.717948717949,4586.666666666667,4374.871794871796,4644.102564102564,4446.666666666667,4338.974358974359,4167.179487179487,4592.307692307693
912.0338,0.7428814,0.82850355,0.48478848,0.48879758,0,0.0,0.0,0.0,0.0,0.009381208,0,0,0.0,0.0,0,0,9.0,0.0,462.0,4631.282051282052,3894.8717948717954,4538.461538461539,4495.8974358974365,4233.333333333334,4547.6923076923085,4445.128205128206,4531.794871794872,4369.743589743591,4625.128205128206,4407.179487179487,4308.717948717949,4167.6923076923085,4579.48717948718
912.284,0.7354683,0.8053262,0.46956408,0.49516898,1,0.0,0.0,0.0,0.0,0.11939679,0,0,0.0,0.0,0,0,41.0,0.0,0.0,4649.743589743591,3898.9743589743593,4576.410256410257,4481.538461538462,4217.948717948719,4530.256410256411,4473.333333333334,4564.615384615385,4405.641025641026,4669.2307692307695,4437.948717948719,4357.948717948719,4231.282051282052,4670.769230769231
912.53424,0.7354683,0.8053262,0.46956408,0.49516898,0,0.0,0.0,0.0,0.0,0.085487664,0,0,0.0,0.0,0,0,73.0,0.0,462.0,4600.000000000001,3910.7692307692314,4537.435897435898,4484.102564102564,4220.000000000001,4530.256410256411,4445.641025641026,4504.102564102564,4378.974358974359,4621.025641025642,4293.333333333334,4300.000000000001,4084.615384615385,4614.358974358975
912.7844,0.7719585,0.7505923,0.45587137,0.5009042,0,0.0,0.0,0.15413794,0.0,0.0,0,0,0.0,0.0,0,0,105.0,0.0,652.0,4574.871794871796,3895.3846153846157,4521.538461538462,4442.564102564103,4205.128205128206,4522.051282051282,4453.333333333334,4508.717948717949,4386.666666666667,4630.769230769231,4285.128205128206,4287.179487179487,4073.333333333334,4615.8974358974365
913.03467,0.7719585,0.7505923,0.45587137,0.5009042,0,0.0,0.0,0.094607264,0.0,0.0,0,0,0.0,0.0,0,0,8.0,0.0,418.0,4570.256410256411,3931.2820512820517,4548.205128205129,4425.128205128206,4202.051282051282,4519.48717948718,4446.666666666667,4498.974358974359,4396.410256410257,4684.102564102564,4356.410256410257,4327.179487179487,4160.000000000001,4652.307692307693
913.28485,0.7865333,0.71093005,0.44802085,0.50606275,0,0.0,0.0,0.0,0.0,0.0,0,0,0.0,0.0,0,0,40.0,0.0,0.0,4587.179487179488,3958.9743589743593,4558.461538461539,4428.717948717949,4215.384615384616,4528.205128205129,4462.051282051282,4541.025641025642,4414.871794871796,4736.923076923077,4351.794871794872,4353.333333333334,4168.205128205129,4659.48717948718
913.5351,0.7865333,0.71093005,0.44802085,0.50606275,0,0.0,0.0,0.0,0.0,0.04034136,0,0,0.0,0.0,0,0,72.0,0.0,418.0,4602.564102564103,3960.0000000000005,4553.333333333334,4445.128205128206,4221.538461538462,4530.256410256411,4440.512820512821,4514.358974358975,4398.974358974359,4700.000000000001,4332.820512820514,4342.051282051282,4144.102564102564,4689.2307692307695
913.7853,0.6752254,0.6733027,0.44609764,0.5019607,0,0.0,0.0,0.0,0.0,0.18804833,0,0,0.0,0.0,0,0,104.0,0.0,546.0,4578.461538461539,3937.9487179487182,4535.8974358974365,4425.128205128206,4228.205128205129,4541.025641025642,4455.8974358974365,4530.769230769231,4409.743589743591,4725.128205128206,4331.794871794872,4338.974358974359,4124.615384615385,4688.717948717949
914.0355,0.6752254,0.6733027,0.44609764,0.5019607,0,0.0,0.0,0.0,0.0,0.09936102,0,0,0.0,0.0,0,0,7.0,0.0,468.0,4654.871794871796,3976.410256410257,4564.102564102564,4448.205128205129,4208.205128205129,4521.025641025642,4429.743589743591,4501.538461538462,4393.333333333334,4713.333333333334,4333.846153846154,4360.000000000001,4175.384615384616,4715.384615384616
914.2857,0.5459488,0.6377551,0.45753148,0.48608637,0,0.0,0.0,0.0,0.0,0.120944835,0,0,0.0,0.0,0,0,39.0,0.0,0.0,4568.205128205129,3901.538461538462,4528.205128205129,4392.820512820514,4234.871794871796,4538.974358974359,4482.564102564103,4547.6923076923085,4409.2307692307695,4717.435897435898,4311.794871794872,4355.8974358974365,4110.769230769231,4628.205128205129
914.53595,0.5459488,0.6377551,0.45753148,0.48608637,0,0.0,0.0,0.0,0.0,0.093666114,0,0,0.0,0.0,0,0,71.0,0.0,468.0,4564.102564102564,3907.1794871794878,4532.820512820514,4423.076923076924,4233.333333333334,4542.564102564103,4497.435897435898,4587.6923076923085,4427.6923076923085,4718.461538461539,4296.410256410257,4386.153846153847,4129.74358974359,4678.974358974359
914.78613,0.47018558,0.6131051,0.46781537,0.4718052,0,0.0,0.0,0.026762143,0.0,0.0,0,0,0.0,0.0,0,0,103.0,0.0,444.0,4561.538461538462,3886.666666666667,4502.051282051282,4414.358974358975,4215.8974358974365,4526.666666666667,4526.666666666667,4574.871794871796,4414.871794871796,4698.461538461539,4227.179487179487,4354.871794871796,4100.512820512821,4743.589743589744
915.0364,0.47018558,0.6131051,0.46781537,0.4718052,0,0.0,0.0,0.069423065,0.0,0.0,0,0,0.0,0.0,0,0,6.0,0.0,536.0,4589.743589743591,3903.076923076924,4510.256410256411,4425.128205128206,4216.410256410257,4522.564102564103,4495.8974358974365,4556.410256410257,4410.256410256411,4689.2307692307695,4243.589743589744,4357.435897435898,4137.435897435898,4808.717948717949
915.28656,0.44451588,0.58513933,0.47638905,0.46976554,0,0.0,0.0,0.0,0.0,0.15961465,0,0,0.0,0.0,0,0,38.0,0.0,0.0,4617.948717948719,3900.0000000000005,4512.820512820514,4402.051282051282,4196.410256410257,4519.48717948718,4457.948717948719,4543.589743589744,4398.461538461539,4688.717948717949,4224.102564102564,4332.307692307693,4146.153846153847,4822.051282051282
915.5524,0.44451588,0.58513933,0.47638905,0.46976554,0,0.0,0.0,0.0,0.0,0.04947468,0,0,0.0,0.0,0,0,70.0,0.0,536.0,4629.743589743591,3920.0000000000005,4519.48717948718,4429.2307692307695,4214.358974358975,4532.307692307693,4475.8974358974365,4508.205128205129,4400.000000000001,4733.846153846154,4353.333333333334,4358.461538461539,4169.74358974359,4784.615384615386
915.8339,0.49725726,0.56062275,0.4797128,0.4658297,0,0.0,0.0,0.0,0.0,0.04738575,0,0,0.0,0.0,0,0,106.0,0.0,528.0,4620.000000000001,3918.461538461539,4516.410256410257,4418.974358974359,4218.974358974359,4527.179487179488,4443.589743589744,4450.769230769231,4385.128205128206,4747.179487179488,4430.256410256411,4355.8974358974365,4182.051282051282,4774.871794871796
916.05286,0.49725726,0.56062275,0.4797128,0.4658297,0,0.0,0.1830151,0.0,0.0,0.0,0,0,0.0,0.0,0,0,5.0,0.0,547.0,4652.820512820514,3932.820512820513,4530.256410256411,4475.384615384616,4260.000000000001,4565.641025641026,4508.205128205129,4527.6923076923085,4416.923076923077,4693.333333333334,4540.000000000001,4419.48717948718,4208.717948717949,4904.615384615386
916.33435,0.5435873,0.53361666,0.46507487,0.47447062,0,0.0,0.0,0.14371683,0.0,0.0,0,0,0.0,0.0,0,1,41.0,0.0,0.0,4651.282051282052,3945.1282051282055,4534.358974358975,4527.6923076923085,4276.923076923077,4590.769230769231,4522.564102564103,4480.512820512821,4420.000000000001,4693.333333333334,4521.538461538462,4426.666666666667,4134.871794871796,4850.769230769231
916.5611,0.5435873,0.53361666,0.46507487,0.47447062,0,0.0,0.0,0.17280723,0.0,0.0,0,0,0.0,0.0,0,0,69.0,0.0,547.0,4661.538461538462,3974.8717948717954,4546.153846153847,4541.025641025642,4262.051282051282,4582.564102564103,4529.2307692307695,4531.794871794872,4442.051282051282,4809.743589743591,4513.846153846154,4451.794871794872,4142.564102564103,4806.153846153847
916.8426,0.49093926,0.52404445,0.4519007,0.4822474,0,0.0,1.0,0.0,0.0,0.0,0,0,0.0,0.0,0,0,105.0,0.0,644.0,4647.6923076923085,4088.205128205129,4542.051282051282,4536.923076923077,4254.358974358975,4573.846153846154,4504.615384615385,4531.794871794872,4449.2307692307695,4935.8974358974365,4472.307692307693,4474.358974358975,4157.948717948719,4825.128205128206
917.0615,0.49093926,0.52404445,0.4519007,0.4822474,0,0.0,0.20868567,0.0,0.0,0.0,0,0,0.0,0.0,0,0,4.0,0.0,548.0,4650.769230769231,4066.666666666667,4534.871794871796,4514.358974358975,4258.461538461539,4577.435897435898,4518.974358974359,4571.794871794872,4473.846153846154,4916.923076923077,4436.410256410257,4474.871794871796,4166.666666666667,4850.769230769231
917.343,0.4557547,0.53013057,0.44004396,0.48924655,0,0.0,0.2699351,0.0,0.0,0.0,0,0,0.0,0.0,0,0,40.0,0.0,0.0,4613.846153846154,3942.0512820512827,4497.948717948719,4425.641025641026,4245.641025641026,4576.923076923077,4527.6923076923085,4548.717948717949,4449.2307692307695,4803.076923076924,4322.051282051282,4414.871794871796,4137.948717948719,4828.205128205129
917.56195,0.4557547,0.53013057,0.44004396,0.48924655,0,0.0,0.0,0.109117724,0.0,0.0,0,0,0.0,0.0,0,0,68.0,0.0,548.0,4626.666666666667,3898.461538461539,4506.153846153847,4395.384615384616,4244.102564102564,4571.794871794872,4530.256410256411,4539.48717948718,4433.846153846154,4758.974358974359,4255.8974358974365,4380.000000000001,4164.102564102564,4789.2307692307695
917.84344,0.40503025,0.55320466,0.4293729,0.49554577,0,0.0,0.0,0.25162128,0.0,0.0,0,0,0.0,0.0,0,0,104.0,0.0,541.0,4592.820512820514,3885.6410256410263,4488.205128205129,4369.743589743591,4241.025641025642,4580.000000000001,4521.538461538462,4578.461538461539,4451.282051282052,4727.6923076923085,4241.025641025642,4360.512820512821,4175.8974358974365,4717.948717948719
918.0624,0.40503025,0.55320466,0.4293729,0.49554577,1,0.0,0.0,0.0,0.0,0.17926455,0,0,0.0,0.0,0,0,3.0,0.0,530.0,4618.974358974359,3907.1794871794878,4495.8974358974365,4383.589743589744,4248.717948717949,4579.48717948718,4490.256410256411,4531.282051282052,4437.435897435898,4695.8974358974365,4256.410256410257,4351.794871794872,4176.923076923077,4717.435897435898
918.3126,0.35116047,0.5633344,0.419739,0.5012306,0,0.0,0.0,0.0,0.0,0.16111885,0,0,0.0,0.0,0,0,35.0,0.0,0.0,4685.128205128206,3961.538461538462,4518.461538461539,4411.282051282052,4257.948717948719,4582.564102564103,4502.051282051282,4548.205128205129,4453.333333333334,4696.410256410257,4296.923076923077,4381.025641025642,4260.000000000001,4740.512820512821
918.5628,0.35116047,0.5633344,0.419739,0.5012306,0,0.0,0.0,0.0,0.0,0.07066734,0,0,0.0,0.0,0,0,67.0,0.0,530.0,4688.717948717949,3980.0000000000005,4518.461538461539,4408.717948717949,4268.717948717949,4584.102564102564,4455.8974358974365,4491.282051282052,4440.512820512821,4682.051282051282,4290.769230769231,4361.538461538462,4231.282051282052,4762.564102564103
918.81305,0.29991484,0.60711205,0.41106623,0.50634784,0,0.0,0.0,0.0,0.0,0.025056707,0,0,0.0,0.0,0,0,99.0,0.0,436.0,4683.076923076924,3981.538461538462,4511.282051282052,4391.282051282052,4275.384615384616,4574.358974358975,4445.128205128206,4476.410256410257,4438.461538461539,4684.615384615386,4287.179487179487,4349.2307692307695,4207.179487179487,4735.384615384616
919.06323,0.29991484,0.60711205,0.41106623,0.50634784,0,0.0,0.0,0.0,0.0,0.12593424,0,0,0.0,0.0,0,0,2.0,0.0,444.0,4587.179487179488,3892.307692307693,4482.564102564103,4341.538461538462,4277.948717948719,4574.358974358975,4466.666666666667,4502.564102564103,4451.282051282052,4700.512820512821,4278.461538461539,4325.128205128206,4155.384615384616,4687.6923076923085
919.3135,0.3122571,0.7082928,0.40325862,0.51095426,0,0.0,0.0,0.0,0.0,0.07097908,0,0,0.0,0.0,0,0,34.0,0.0,0.0,4611.282051282052,3891.2820512820517,4482.564102564103,4346.666666666667,4271.794871794872,4561.538461538462,4465.641025641026,4468.717948717949,4439.48717948718,4692.820512820514,4291.794871794872,4314.871794871796,4150.256410256411,4687.6923076923085
919.5637,0.3122571,0.7082928,0.40325862,0.51095426,0,0.0,0.0,0.0,0.0,0.051399242,0,0,0.0,0.0,0,0,66.0,0.0,444.0,4605.641025641026,3878.461538461539,4487.6923076923085,4363.076923076924,4268.717948717949,4562.051282051282,4457.435897435898,4427.6923076923085,4427.6923076923085,4670.769230769231,4289.74358974359,4301.025641025642,4106.153846153847,4676.410256410257
919.8139,0.33949557,0.7731004,0.39623258,0.5150995,0,0.0,0.0,0.0,0.0,0.0,0,0,0.0,0.0,0,0,98.0,0.0,528.0,4612.307692307693,3905.1282051282055,4495.8974358974365,4315.8974358974365,4275.384615384616,4570.256410256411,4447.179487179487,4448.205128205129,4439.48717948718,4701.538461538462,4321.025641025642,4315.8974358974365,4171.794871794872,4672.820512820514
920.06415,0.33949557,0.7731004,0.39623258,0.5150995,0,0.0,0.0,0.0,0.0,0.019529773,0,0,0.0,0.0,0,0,1.0,0.0,483.0,4611.794871794872,3913.8461538461543,4494.358974358975,4344.615384615385,4263.076923076924,4554.358974358975,4432.820512820514,4422.051282051282,4430.256410256411,4690.769230769231,4317.435897435898,4312.307692307693,4181.538461538462,4653.333333333334
920.31433,0.27600414,0.7601676,0.38991266,0.51882845,0,0.0,0.0,0.0,0.0,0.1768768,0,0,0.0,0.0,0,0,33.0,0.0,0.0,4701.538461538462,3967.692307692308,4536.923076923077,4390.769230769231,4254.358974358975,4548.717948717949,4437.948717948719,4437.435897435898,4427.179487179487,4709.743589743591,4375.8974358974365,4355.384615384616,4238.974358974359,4686.153846153847
920.5646,0.27600414,0.7601676,0.38991266,0.51882845,0,0.0,0.0,0.0,0.0,0.16005331,0,0,0.0,0.0,0,0,65.0,0.0,483.0,4640.512820512821,3924.1025641025644,4515.8974358974365,4377.948717948719,4266.153846153847,4558.461538461539,4454.358974358975,4481.538461538462,4438.974358974359,4718.461538461539,4345.128205128206,4344.102564102564,4163.076923076924,4598.461538461539
920.81476,0.27164242,0.77415663,0.38422307,0.5221853,0,0.0,0.0,0.0,0.0,0.1359316,0,0,0.0,0.0,0,0,97.0,0.0,651.0,4638.974358974359,3931.7948717948725,4524.102564102564,4388.205128205129,4267.179487179487,4563.076923076924,4464.615384615385,4480.512820512821,4442.564102564103,4696.923076923077,4354.358974358975,4353.333333333334,4161.538461538462,4584.615384615385
921.065,0.27164242,0.77415663,0.38422307,0.5221853,0,0.0,0.0,0.0,0.0,0.20671186,0,0,0.0,0.0,0,0,0.0,0.0,488.0,4630.256410256411,3942.0512820512827,4512.820512820514,4379.48717948718,4262.564102564103,4562.051282051282,4459.48717948718,4445.641025641026,4429.2307692307695,4707.6923076923085,4338.461538461539,4344.102564102564,4188.717948717949,4566.666666666667
921.3152,0.2662466,0.7832224,0.3791009,0.52520716,1,0.0,0.0,0.0,0.0,0.06174028,0,0,0.0,0.0,0,0,32.0,0.0,0.0,4625.641025641026,3933.8461538461543,4514.358974358975,4392.307692307693,4270.256410256411,4567.6923076923085,4469.2307692307695,4422.051282051282,4422.051282051282,4693.333333333334,4315.8974358974365,4334.871794871796,4166.666666666667,4561.025641025642
921.5654,0.2662466,0.7832224,0.3791009,0.52520716,0,0.0,0.0,0.0,0.0,0.10642901,0,0,0.0,0.0,0,0,64.0,0.0,488.0,4624.615384615385,3945.1282051282055,4512.307692307693,4386.153846153847,4249.74358974359,4549.2307692307695,4432.307692307693,4406.153846153847,4424.102564102564,4708.205128205129,4339.48717948718,4339.48717948718,4215.384615384616,4572.820512820514
921.8156,0.22599044,0.82063,0.3710459,0.53918654,0,0.0,0.0,0.0,0.0,0.1319435,0,0,0.0,0.0,0,0,96.0,0.0,543.0,4611.794871794872,3939.48717948718,4513.333333333334,4409.2307692307695,4262.051282051282,4557.435897435898,4444.615384615385,4429.743589743591,4421.538461538462,4722.564102564103,4332.820512820514,4345.641025641026,4211.282051282052,4545.641025641026
922.06586,0.22599044,0.82063,0.3710459,0.53918654,0,0.0,0.0,0.0,0.0,0.09706814,0,0,0.0,0.0,0,0,128.0,0.0,543.0,4617.435897435898,3936.410256410257,4514.358974358975,4400.512820512821,4269.2307692307695,4561.538461538462,4467.179487179487,4462.564102564103,4427.179487179487,4732.820512820514,4340.512820512821,4350.769230769231,4206.666666666667,4527.6923076923085
922.31604,0.2801148,0.85369265,0.36332294,0.56605625,0,0.0,0.0,0.0,0.0,0.06508376,0,0,0.0,0.0,0,0,31.0,0.0,0.0,4629.2307692307695,3940.5128205128212,4507.6923076923085,4418.974358974359,4272.820512820514,4568.717948717949,4486.153846153847,4446.153846153847,4431.794871794872,4736.923076923077,4344.102564102564,4361.025641025642,4215.384615384616,4517.948717948719
922.5663,0.2801148,0.85369265,0.36332294,0.56605625,0,0.0,0.0,0.0,0.0,0.053228445,0,0,0.0,0.0,0,0,63.0,0.0,0.0,4627.6923076923085,3936.9230769230776,4513.846153846154,4388.205128205129,4261.538461538462,4562.051282051282,4485.641025641026,4424.615384615385,4421.538461538462,4726.666666666667,4335.384615384616,4348.205128205129,4209.2307692307695,4502.564102564103
922.81647,0.29099056,0.80230874,0.35485736,0.590238,0,0.0,0.0,0.0,0.0,0.070705794,0,0,0.0,0.0,0,0,95.0,0.0,439.0,4618.974358974359,3946.666666666667,4530.256410256411,4383.076923076924,4265.128205128206,4567.179487179488,4492.820512820514,4436.923076923077,4419.48717948718,4737.435897435898,4354.358974358975,4355.8974358974365,4208.205128205129,4504.615384615385
923.0667,0.29099056,0.80230874,0.35485736,0.590238,0,0.0,0.0,0.0,0.0,0.0,0,0,0.0,0.0,0,0,127.0,0.0,439.0,4607.179487179488,3943.589743589744,4517.948717948719,4394.358974358975,4261.025641025642,4566.153846153847,4484.615384615385,4426.153846153847,4414.358974358975,4726.153846153847,4334.358974358975,4340.000000000001,4196.410256410257,4486.666666666667
923.3169,0.26604718,0.72764736,0.34379122,0.6119981,0,0.0,0.0,0.0,0.0,0.0,0,0,0.0,0.0,0,0,30.0,0.0,0.0,4585.641025641026,3942.564102564103,4513.333333333334,4401.538461538462,4256.923076923077,4564.102564102564,4489.2307692307695,4456.923076923077,4415.8974358974365,4723.589743589744,4327.179487179487,4337.948717948719,4162.051282051282,4471.282051282052
923.5358,0.26604718,0.72764736,0.34379122,0.6119981,1,0.0,0.0,0.0,0.0,0.0,0,0,0.0,0.0,0,0,58.0,0.0,0.0,4637.948717948719,3972.820512820513,4546.153846153847,4437.948717948719,4250.256410256411,4553.333333333334,4487.6923076923085,4455.8974358974365,4414.871794871796,4711.794871794872,4357.435897435898,4367.179487179487,4185.128205128206,4516.923076923077
923.8173,0.23944068,0.66690445,0.33399326,0.62515074,0,0.0,0.0,0.0,0.0,0.153394,0,0,0.0,0.0,0,0,94.0,0.0,528.0,4633.846153846154,3967.1794871794878,4543.589743589744,4436.410256410257,4256.923076923077,4562.564102564103,4503.076923076924,4460.000000000001,4422.051282051282,4736.410256410257,4369.743589743591,4369.743589743591,4188.205128205129,4487.6923076923085
924.06757,0.23944068,0.66690445,0.33399326,0.62515074,0,0.0,0.0,0.0,0.0,0.041581795,0,0,0.0,0.0,0,0,126.0,0.0,528.0,4621.538461538462,3952.820512820513,4525.641025641026,4427.179487179487,4252.307692307693,4555.384615384616,4475.384615384616,4426.666666666667,4411.282051282052,4717.435897435898,4343.589743589744,4344.102564102564,4162.051282051282,4480.000000000001
924.31775,0.20209375,0.65013015,0.3261941,0.6305252,1,0.0,0.0,0.0,0.0,0.15008402,0,0,0.0,0.0,0,0,29.0,0.0,0.0,4633.333333333334,3966.666666666667,4531.794871794872,4419.48717948718,4253.333333333334,4555.384615384616,4481.538461538462,4433.846153846154,4421.025641025642,4731.282051282052,4360.000000000001,4363.589743589744,4180.512820512821,4500.000000000001
924.568,0.20209375,0.65013015,0.3261941,0.6305252,0,0.0,0.0,0.0,0.0,0.11219687,0,0,0.0,0.0,0,0,61.0,0.0,0.0,4688.717948717949,3993.333333333334,4555.384615384616,4430.769230769231,4248.717948717949,4554.871794871796,4500.000000000001,4443.589743589744,4423.589743589744,4723.076923076924,4401.025641025642,4391.282051282052,4234.871794871796,4550.256410256411
924.81824,0.20761958,0.6655783,0.31751475,0.63377804,0,0.0,0.0,0.0,0.0,0.10831392,0,0,0.0,0.0,0,0,93.0,0.0,653.0,4617.435897435898,3951.2820512820517,4532.820512820514,4414.358974358975,4265.641025641026,4571.282051282052,4508.717948717949,4459.48717948718,4433.846153846154,4747.179487179488,4369.2307692307695,4369.2307692307695,4183.076923076924,4503.076923076924
925.0684,0.20761958,0.6655783,0.31751475,0.63377804,0,0.0,0.0,0.0,0.0,0.08745741,0,0,0.0,0.0,0,0,125.0,0.0,653.0,4634.871794871796,3954.358974358975,4532.307692307693,4410.256410256411,4265.128205128206,4570.769230769231,4501.538461538462,4454.871794871796,4429.743589743591,4751.794871794872,4373.333333333334,4369.2307692307695,4189.2307692307695,4508.205128205129
925.31866,0.1519074,0.6805238,0.30970386,0.63670176,0,0.0,0.0,0.0,0.0,0.0,0,0,0.0,0.0,0,0,28.0,0.0,0.0,4631.282051282052,3942.0512820512827,4522.051282051282,4408.205128205129,4252.307692307693,4557.948717948719,4469.2307692307695,4414.871794871796,4406.153846153847,4714.358974358975,4358.974358974359,4347.6923076923085,4170.256410256411,4494.358974358975
925.31866,0.1519074,0.6805238,0.30970386,0.63670176,0,0.0,0.0,0.0,0.0,0.0,0,0,0.0,0.0,0,0,28.0,0.0,0.0,4631.282051282052,3942.0512820512827,4522.051282051282,4408.205128205129,4252.307692307693,4557.948717948719,4469.2307692307695,4414.871794871796,4406.153846153847,4714.358974358975,4358.974358974359,4347.6923076923085,4170.256410256411,4494.358974358975
925.8191,0.16751198,0.6580907,0.30267486,0.6393292,0,0.0,0.0,0.0,0.0,0.0,0,0,0.0,0.0,0,0,92.0,0.0,543.0,4634.871794871796,3947.1794871794878,4522.564102564103,4427.6923076923085,4261.538461538462,4569.2307692307695,4435.8974358974365,4380.512820512821,4402.051282051282,4717.435897435898,4357.948717948719,4335.8974358974365,4166.153846153847,4482.564102564103
926.0693,0.16751198,0.6580907,0.30267486,0.6393292,0,0.0,0.0,0.0,0.0,0.0,0,0,0.0,0.0,0,0,124.0,0.0,543.0,4634.358974358975,3944.615384615385,4515.384615384616,4446.666666666667,4269.2307692307695,4572.307692307693,4424.102564102564,4384.615384615385,4408.717948717949,4731.282051282052,4369.2307692307695,4341.025641025642,4172.307692307693,4467.179487179487
926.3195,0.20531996,0.60518914,0.2963498,0.64168996,0,0.0,0.0,0.0,0.0,0.029135369,0,0,0.0,0.0,0,0,27.0,0.0,0.0,4625.128205128206,3940.5128205128212,4518.974358974359,4427.6923076923085,4267.179487179487,4567.6923076923085,4422.564102564103,4416.410256410257,4416.923076923077,4746.153846153847,4376.923076923077,4347.179487179487,4184.102564102564,4470.256410256411
926.5697,0.20531996,0.60518914,0.2963498,0.64168996,0,0.0,0.0,0.0,0.0,0.042836804,0,0,0.0,0.0,0,0,59.0,0.0,0.0,4638.974358974359,3938.9743589743593,4524.102564102564,4430.769230769231,4263.076923076924,4564.102564102564,4415.8974358974365,4411.282051282052,4410.769230769231,4729.743589743591,4375.8974358974365,4340.512820512821,4176.410256410257,4471.282051282052
926.81995,0.1263617,0.54980403,0.29065856,0.6440411,0,0.0,0.0,0.0,0.0,0.12386988,0,0,0.0,0.0,0,0,91.0,0.0,442.0,4645.128205128206,3941.0256410256416,4531.282051282052,4444.615384615385,4266.153846153847,4564.615384615385,4429.2307692307695,4404.615384615385,4413.333333333334,4718.461538461539,4376.410256410257,4343.076923076924,4168.717948717949,4467.179487179487
927.0701,0.1263617,0.54980403,0.29065856,0.6440411,1,0.0,0.0,0.0,0.0,0.089370556,0,0,0.0,0.0,0,0,123.0,0.0,442.0,4649.2307692307695,3926.666666666667,4525.641025641026,4426.153846153847,4257.948717948719,4555.8974358974365,4438.461538461539,4406.666666666667,4416.410256410257,4722.051282051282,4364.102564102564,4342.564102564103,4175.384615384616,4464.615384615385
927.3204,0.08498717,0.50513095,0.27983394,0.64724594,0,0.0,0.0,0.0,0.0,0.081198916,0,0,0.0,0.0,0,0,26.0,0.0,0.0,4651.282051282052,3927.1794871794878,4527.6923076923085,4434.358974358975,4270.769230769231,4568.205128205129,4454.871794871796,4408.205128205129,4425.128205128206,4742.051282051282,4355.384615384616,4352.820512820514,4187.6923076923085,4462.051282051282
927.57056,0.08498717,0.50513095,0.27983394,0.64724594,0,0.0,0.0,0.0,0.0,0.059865147,0,0,0.0,0.0,0,0,58.0,0.0,0.0,4676.923076923077,3948.205128205129,4526.153846153847,4464.102564102564,4274.358974358975,4576.923076923077,4463.589743589744,4412.820512820514,4427.179487179487,4753.846153846154,4362.051282051282,4365.128205128206,4184.615384615385,4461.538461538462
927.8208,0.08078042,0.47853613,0.27108443,0.6509036,0,0.0,0.0,0.0,0.0,0.038377974,0,0,0.0,0.0,0,0,90.0,0.0,528.0,4667.179487179488,3941.538461538462,4513.846153846154,4428.205128205129,4264.615384615385,4568.205128205129,4452.307692307693,4409.743589743591,4415.8974358974365,4721.025641025642,4334.871794871796,4343.589743589744,4172.307692307693,4458.974358974359
928.071,0.08078042,0.47853613,0.27108443,0.6509036,0,0.0,0.0,0.0,0.0,0.14453511,0,0,0.0,0.0,0,0,122.0,0.0,528.0,4709.2307692307695,3954.8717948717954,4531.794871794872,4466.666666666667,4255.384615384616,4562.051282051282,4448.717948717949,4413.333333333334,4421.538461538462,4748.205128205129,4384.102564102564,4374.871794871796,4232.820512820514,4507.179487179488
928.3212,0.06349694,0.47813287,0.2632123,0.6521629,0,0.0,0.0,0.0,0.0,0.13214871,0,0,0.0,0.0,0,0,25.0,0.0,0.0,4672.820512820514,3932.307692307693,4517.435897435898,4463.589743589744,4257.435897435898,4564.102564102564,4446.666666666667,4421.538461538462,4423.589743589744,4744.102564102564,4350.256410256411,4353.846153846154,4187.6923076923085,4466.153846153847
928.5714,0.06349694,0.47813287,0.2632123,0.6521629,0,0.0,0.0,0.0,0.0,0.058423918,0,0,0.0,0.0,0,0,57.0,0.0,0.0,4641.538461538462,3901.0256410256416,4504.102564102564,4430.769230769231,4241.538461538462,4544.102564102564,4421.538461538462,4411.794871794872,4415.384615384616,4740.512820512821,4340.000000000001,4330.256410256411,4175.8974358974365,4460.000000000001
928.82166,0.073731,0.47275275,0.25630453,0.65108424,0,0.0,0.0,0.0,0.0,0.06812968,0,0,0.0,0.0,0,0,89.0,0.0,655.0,4653.333333333334,3910.7692307692314,4512.307692307693,4440.512820512821,4241.538461538462,4540.000000000001,4420.000000000001,4412.307692307693,4411.794871794872,4705.641025641026,4349.743589743591,4330.256410256411,4166.153846153847,4464.615384615385
929.07184,0.073731,0.47275275,0.25630453,0.65108424,0,0.0,0.0,0.0,0.0,0.09821179,0,0,0.0,0.0,0,0,121.0,0.0,655.0,4653.333333333334,3926.666666666667,4505.641025641026,4446.153846153847,4233.846153846154,4536.923076923077,4414.358974358975,4401.025641025642,4404.615384615385,4714.871794871796,4333.846153846154,4326.666666666667,4167.179487179487,4458.461538461539
929.3221,0.09586478,0.4497402,0.2564496,0.648379,0,0.0,0.0,0.0,0.0,0.0,0,0,0.0,0.0,0,0,24.0,0.0,0.0,4625.641025641026,3914.8717948717954,4484.102564102564,4422.564102564103,4223.076923076924,4530.769230769231,4402.051282051282,4390.256410256411,4394.871794871796,4713.846153846154,4321.025641025642,4309.2307692307695,4157.435897435898,4455.384615384616
929.3221,0.09586478,0.4497402,0.2564496,0.648379,0,0.0,0.0,0.0,0.0,0.0,0,0,0.0,0.0,0,0,24.0,0.0,0.0,4625.641025641026,3914.8717948717954,4484.102564102564,4422.564102564103,4223.076923076924,4530.769230769231,4402.051282051282,4390.256410256411,4394.871794871796,4713.846153846154,4321.025641025642,4309.2307692307695,4157.435897435898,4455.384615384616
929.8225,0.08922596,0.43585962,0.25658277,0.63936734,0,0.0,0.0,0.0,0.0,0.0,0,0,0.0,0.0,0,0,88.0,0.0,543.0,4623.589743589744,3911.2820512820517,4490.769230769231,4420.512820512821,4222.051282051282,4534.871794871796,4398.974358974359,4389.743589743591,4394.358974358975,4702.564102564103,4329.2307692307695,4306.153846153847,4150.256410256411,4444.615384615385
929.8225,0.08922596,0.43585962,0.25658277,0.63936734,0,0.0,0.0,0.0,0.0,0.0,0,0,0.0,0.0,0,0,88.0,0.0,543.0,4623.589743589744,3911.2820512820517,4490.769230769231,4420.512820512821,4222.051282051282,4534.871794871796,4398.974358974359,4389.743589743591,4394.358974358975,4702.564102564103,4329.2307692307695,4306.153846153847,4150.256410256411,4444.615384615385
930.32294,0.08630067,0.4014395,0.25670514,0.6268977,0,0.0,0.0,0.0,0.0,0.0,0,0,0.0,0.0,0,0,23.0,0.0,0.0,4609.743589743591,3922.0512820512827,4481.025641025642,4370.256410256411,4227.179487179487,4534.871794871796,4395.8974358974365,4398.461538461539,4396.410256410257,4690.256410256411,4338.974358974359,4298.974358974359,4143.076923076924,4436.410256410257
930.32294,0.08630067,0.4014395,0.25670514,0.6268977,0,0.0,0.0,0.0,0.0,0.0,0,0,0.0,0.0,0,0,23.0,0.0,0.0,4609.743589743591,3922.0512820512827,4481.025641025642,4370.256410256411,4227.179487179487,4534.871794871796,4395.8974358974365,4398.461538461539,4396.410256410257,4690.256410256411,4338.974358974359,4298.974358974359,4143.076923076924,4436.410256410257
930.82336,0.09616915,0.3834729,0.2571606,0.60992825,0,0.0,0.0,0.0,0.0,0.0,0,0,0.0,0.0,0,0,87.0,0.0,443.0,4682.051282051282,3990.2564102564106,4530.256410256411,4403.589743589744,4200.512820512821,4514.358974358975,4389.743589743591,4372.307692307693,4381.538461538462,4674.871794871796,4355.8974358974365,4321.025641025642,4200.000000000001,4496.410256410257
931.0736,0.09616915,0.3834729,0.2571606,0.60992825,0,0.0,0.0,0.0,0.0,0.10078222,0,0,0.0,0.0,0,0,119.0,0.0,443.0,4662.051282051282,3961.0256410256416,4532.307692307693,4404.102564102564,4201.538461538462,4518.974358974359,4387.6923076923085,4391.794871794872,4388.205128205129,4699.48717948718,4362.564102564103,4323.076923076924,4191.282051282052,4496.410256410257
931.3238,0.02891858,0.39804712,0.257573,0.5866761,0,0.0,0.0,0.0,0.0,0.10872942,0,0,0.0,0.0,0,0,22.0,0.0,0.0,4572.307692307693,3887.692307692308,4497.948717948719,4345.128205128206,4209.2307692307695,4522.051282051282,4398.461538461539,4408.717948717949,4389.2307692307695,4709.743589743591,4311.282051282052,4285.641025641026,4123.076923076924,4422.051282051282
931.57404,0.02891858,0.39804712,0.257573,0.5866761,1,0.0,0.0,0.0,0.0,0.101440765,0,0,0.0,0.0,0,0,54.0,0.0,0.0,4597.435897435898,3913.333333333334,4501.538461538462,4365.128205128206,4203.076923076924,4522.564102564103,4410.256410256411,4428.205128205129,4408.717948717949,4735.384615384616,4351.794871794872,4314.358974358975,4174.358974358975,4457.948717948719
931.8242,0.041672133,0.4130236,0.2561524,0.5646676,0,0.0,0.0,0.0,0.0,0.16291082,0,0,0.0,0.0,0,0,86.0,0.0,528.0,4577.435897435898,3907.692307692308,4503.076923076924,4372.820512820514,4207.6923076923085,4523.589743589744,4411.794871794872,4413.846153846154,4397.435897435898,4706.153846153847,4338.974358974359,4297.435897435898,4156.410256410257,4449.743589743591
932.07446,0.041672133,0.4130236,0.2561524,0.5646676,1,0.0,0.0,0.0,0.0,0.08675665,0,0,0.0,0.0,0,0,118.0,0.0,528.0,4589.743589743591,3914.8717948717954,4497.948717948719,4385.128205128206,4224.615384615385,4536.923076923077,4442.564102564103,4433.846153846154,4402.051282051282,4720.512820512821,4321.538461538462,4309.743589743591,4141.538461538462,4455.8974358974365
932.32465,0.04739698,0.48110458,0.2555266,0.5448596,0,0.0,0.0,0.07449337,0.0,0.0,0,0,0.0,0.0,0,0,21.0,0.0,0.0,4620.000000000001,3928.717948717949,4523.589743589744,4412.820512820514,4237.948717948719,4550.256410256411,4441.025641025642,4413.333333333334,4413.333333333334,4729.743589743591,4333.846153846154,4334.358974358975,4172.307692307693,4493.333333333334
932.5749,0.04739698,0.48110458,0.2555266,0.5448596,0,0.0,0.0,0.09063356,0.0,0.0,0,0,0.0,0.0,0,0,53.0,0.0,0.0,4667.179487179488,3988.717948717949,4561.538461538462,4450.256410256411,4228.205128205129,4540.512820512821,4443.076923076924,4417.948717948719,4417.435897435898,4734.871794871796,4375.384615384616,4372.307692307693,4246.666666666667,4558.461538461539
932.8251,0.021443749,0.59720635,0.25942498,0.5244374,0,0.0,0.0,0.0,0.0,0.0,0,0,0.0,0.0,0,0,85.0,0.0,666.0,4668.205128205129,3973.333333333334,4537.435897435898,4441.025641025642,4233.846153846154,4549.2307692307695,4429.2307692307695,4404.102564102564,4415.384615384616,4725.128205128206,4383.589743589744,4370.256410256411,4240.000000000001,4561.025641025642
933.0753,0.021443749,0.59720635,0.25942498,0.5244374,0,0.0,0.0,0.0,0.0,0.095295504,0,0,0.0,0.0,0,0,117.0,0.0,666.0,4620.000000000001,3930.2564102564106,4522.051282051282,4419.48717948718,4249.2307692307695,4564.102564102564,4440.512820512821,4417.435897435898,4419.48717948718,4717.435897435898,4349.743589743591,4350.769230769231,4188.717948717949,4522.564102564103
933.3255,0.028802676,0.7063165,0.26564652,0.5030936,0,0.0,0.0,0.0,0.0,0.078221574,0,0,0.0,0.0,0,0,20.0,0.0,0.0,4612.820512820514,3931.7948717948725,4513.333333333334,4427.6923076923085,4245.641025641026,4559.48717948718,4430.769230769231,4403.076923076924,4414.871794871796,4720.512820512821,4341.538461538462,4346.666666666667,4185.128205128206,4525.641025641026
933.57574,0.028802676,0.7063165,0.26564652,0.5030936,0,0.0,0.0,0.0,0.0,0.16272458,0,0,0.0,0.0,0,0,52.0,0.0,0.0,4615.8974358974365,3934.358974358975,4512.820512820514,4429.2307692307695,4251.282051282052,4565.641025641026,4445.128205128206,4401.025641025642,4420.000000000001,4736.410256410257,4334.358974358975,4352.820512820514,4173.333333333334,4534.871794871796
933.8259,0.03301861,0.75485456,0.27124783,0.48388863,0,0.0,0.0,0.0,0.0,0.0822283,0,0,0.0,0.0,0,0,84.0,0.0,543.0,4605.641025641026,3932.307692307693,4503.076923076924,4427.179487179487,4232.307692307693,4550.256410256411,4436.923076923077,4400.000000000001,4413.846153846154,4723.589743589744,4338.974358974359,4337.435897435898,4155.8974358974365,4516.923076923077
933.95105,0.03301861,0.75485456,0.27124783,0.48388863,0,0.0,0.0,0.0,0.0,0.0,0,0,0.0,0.0,0,0,100.0,0.0,543.0,4613.333333333334,3945.1282051282055,4501.538461538462,4435.384615384616,4240.512820512821,4554.871794871796,4455.384615384616,4409.743589743591,4422.051282051282,4711.794871794872,4343.589743589744,4342.564102564103,4164.615384615385,4529.2307692307695
934.32635,0.0,0.74303335,0.27629086,0.466611,0,0.0,0.0,0.0,0.0,0.0,0,0,0.0,0.0,0,0,19.0,0.0,0.0,4604.102564102564,3915.8974358974365,4515.384615384616,4435.384615384616,4233.333333333334,4552.307692307693,4457.435897435898,4403.589743589744,4415.384615384616,4722.051282051282,4340.000000000001,4331.794871794872,4152.307692307693,4501.538461538462
934.32635,0.0,0.74303335,0.27629086,0.466611,0,0.0,0.0,0.0,0.0,0.0,0,0,0.0,0.0,0,0,19.0,0.0,0.0,4604.102564102564,3915.8974358974365,4515.384615384616,4435.384615384616,4233.333333333334,4552.307692307693,4457.435897435898,4403.589743589744,4415.384615384616,4722.051282051282,4340.000000000001,4331.794871794872,4152.307692307693,4501.538461538462
934.8268,0.0,0.6931771,0.28083125,0.4510704,0,0.0,0.0,0.0,0.0,0.0,0,0,0.0,0.0,0,0,83.0,0.0,444.0,4624.615384615385,3939.48717948718,4526.153846153847,4443.076923076924,4243.076923076924,4553.846153846154,4456.410256410257,4409.743589743591,4414.358974358975,4726.153846153847,4366.153846153847,4341.538461538462,4164.102564102564,4492.820512820514
935.077,0.0,0.6931771,0.28083125,0.4510704,0,0.0,0.0,0.0,0.0,0.12117577,0,0,0.0,0.0,0,0,115.0,0.0,444.0,4612.307692307693,3924.615384615385,4513.846153846154,4419.48717948718,4244.615384615385,4552.820512820514,4456.410256410257,4404.102564102564,4407.6923076923085,4723.589743589744,4360.000000000001,4327.6923076923085,4158.461538461539,4478.461538461539
935.3272,0.0,0.6267882,0.28265512,0.4449449,0,0.0,0.0,0.0,0.0,0.047727413,0,0,0.0,0.0,0,0,18.0,0.0,0.0,4620.512820512821,3923.589743589744,4512.820512820514,4436.410256410257,4245.128205128206,4554.358974358975,4448.717948717949,4408.717948717949,4415.8974358974365,4736.410256410257,4364.102564102564,4331.282051282052,4168.205128205129,4484.615384615385
935.57745,0.0,0.6267882,0.28265512,0.4449449,0,0.0,0.0,0.0,0.0,0.057082824,0,0,0.0,0.0,0,0,50.0,0.0,0.0,4622.564102564103,3933.333333333334,4513.333333333334,4432.820512820514,4248.717948717949,4560.512820512821,4447.6923076923085,4407.179487179487,4413.333333333334,4730.769230769231,4349.743589743591,4334.871794871796,4167.6923076923085,4490.256410256411
935.8277,0.0317324,0.5655713,0.27737892,0.4603115,0,0.0,0.0,0.0,0.0,0.048974544,0,0,0.0,0.0,0,0,82.0,0.0,528.0,4652.307692307693,3949.2307692307695,4526.666666666667,4444.102564102564,4255.8974358974365,4567.179487179488,4458.461538461539,4441.538461538462,4424.615384615385,4751.794871794872,4379.48717948718,4351.794871794872,4179.48717948718,4500.000000000001
936.0779,0.0317324,0.5655713,0.27737892,0.4603115,0,0.0,0.0,0.0,0.0,0.04781124,0,0,0.0,0.0,0,0,114.0,0.0,528.0,4656.410256410257,3956.9230769230776,4535.384615384616,4455.384615384616,4265.641025641026,4581.538461538462,4466.666666666667,4432.307692307693,4425.641025641026,4756.923076923077,4378.974358974359,4364.615384615385,4188.205128205129,4507.6923076923085
936.3281,0.008922967,0.51174706,0.26676354,0.48847258,0,0.0,0.0,0.0,0.0,0.14766966,0,0,0.0,0.0,0,0,17.0,0.0,0.0,4669.2307692307695,3966.666666666667,4544.102564102564,4451.794871794872,4262.564102564103,4571.794871794872,4461.538461538462,4440.000000000001,4433.333333333334,4753.846153846154,4407.6923076923085,4372.307692307693,4215.384615384616,4528.205128205129
936.5783,0.008922967,0.51174706,0.26676354,0.48847258,0,0.0,0.0,0.0,0.0,0.08643141,0,0,0.0,0.0,0,0,49.0,0.0,0.0,4645.128205128206,3938.461538461539,4518.461538461539,4393.846153846154,4266.666666666667,4578.461538461539,4468.717948717949,4453.333333333334,4435.8974358974365,4772.820512820514,4375.8974358974365,4355.8974358974365,4184.102564102564,4497.435897435898
936.82855,0.032076724,0.4645531,0.25584066,0.5138159,0,0.0,0.0,0.0,0.0,0.033593785,0,0,0.0,0.0,0,0,81.0,0.0,678.0,4626.153846153847,3944.615384615385,4511.794871794872,4349.2307692307695,4258.974358974359,4566.153846153847,4446.666666666667,4426.666666666667,4420.512820512821,4750.769230769231,4355.384615384616,4331.794871794872,4175.384615384616,4497.435897435898
936.9536,0.032076724,0.4645531,0.25584066,0.5138159,0,0.0,0.0,0.0,0.0,0.0,0,0,0.0,0.0,0,0,97.0,0.0,678.0,4622.564102564103,3941.0256410256416,4510.769230769231,4366.666666666667,4254.871794871796,4561.025641025642,4447.179487179487,4438.974358974359,4418.974358974359,4732.820512820514,4351.794871794872,4325.641025641026,4169.74358974359,4496.923076923077
937.329,0.0,0.4226452,0.24601339,0.53662497,0,0.0,0.0,0.0,0.0,0.0,0,0,0.0,0.0,0,0,16.0,0.0,0.0,4637.435897435898,3940.5128205128212,4505.128205128206,4365.641025641026,4245.641025641026,4553.846153846154,4445.641025641026,4436.410256410257,4415.8974358974365,4729.2307692307695,4362.051282051282,4330.769230769231,4178.461538461539,4491.282051282052
937.329,0.0,0.4226452,0.24601339,0.53662497,0,0.0,0.0,0.0,0.0,0.0,0,0,0.0,0.0,0,0,16.0,0.0,0.0,4637.435897435898,3940.5128205128212,4505.128205128206,4365.641025641026,4245.641025641026,4553.846153846154,4445.641025641026,4436.410256410257,4415.8974358974365,4729.2307692307695,4362.051282051282,4330.769230769231,4178.461538461539,4491.282051282052
937.8294,0.0,0.38359976,0.23908713,0.55486095,0,0.0,0.0,0.0,0.0,0.0,0,0,0.0,0.0,0,0,80.0,0.0,543.0,4600.000000000001,3912.820512820513,4464.102564102564,4354.871794871796,4224.102564102564,4530.256410256411,4416.410256410257,4417.435897435898,4406.666666666667,4705.641025641026,4329.2307692307695,4305.128205128206,4155.8974358974365,4468.205128205129
937.8294,0.0,0.38359976,0.23908713,0.55486095,0,0.0,0.0,0.0,0.0,0.0,0,0,0.0,0.0,0,0,80.0,0.0,543.0,4600.000000000001,3912.820512820513,4464.102564102564,4354.871794871796,4224.102564102564,4530.256410256411,4416.410256410257,4417.435897435898,4406.666666666667,4705.641025641026,4329.2307692307695,4305.128205128206,4155.8974358974365,4468.205128205129
938.32983,0.043591056,0.34552345,0.23311862,0.56078565,0,0.0,0.0,0.0,0.0,0.0,0,0,0.0,0.0,0,0,15.0,0.0,444.0,4678.461538461539,3957.435897435898,4489.743589743591,4396.410256410257,4214.358974358975,4520.512820512821,4426.153846153847,4413.846153846154,4413.333333333334,4699.48717948718,4353.333333333334,4331.282051282052,4201.538461538462,4497.435897435898
938.32983,0.043591056,0.34552345,0.23311862,0.56078565,0,0.0,0.0,0.0,0.0,0.0,0,0,0.0,0.0,0,0,15.0,0.0,444.0,4678.461538461539,3957.435897435898,4489.743589743591,4396.410256410257,4214.358974358975,4520.512820512821,4426.153846153847,4413.846153846154,4413.333333333334,4699.48717948718,4353.333333333334,4331.282051282052,4201.538461538462,4497.435897435898
938.83026,0.007932395,0.3333057,0.22947659,0.56358385,0,0.0,0.0,0.0,0.0,0.1646983,0,0,0.0,0.0,0,0,79.0,0.0,444.0,4613.333333333334,3912.820512820513,4477.948717948719,4416.923076923077,4220.512820512821,4533.333333333334,4429.2307692307695,4427.179487179487,4409.2307692307695,4718.461538461539,4329.743589743591,4317.948717948719,4143.589743589744,4440.512820512821
939.08044,0.007932395,0.3333057,0.22947659,0.56358385,0,0.0,0.0,0.0,0.0,0.0,0,0,0.0,0.0,0,0,111.0,0.0,444.0,4634.358974358975,3915.3846153846157,4474.358974358975,4437.948717948719,4228.205128205129,4539.48717948718,4430.256410256411,4411.282051282052,4411.282051282052,4708.717948717949,4340.000000000001,4327.179487179487,4156.923076923077,4449.2307692307695
939.3307,0.037493113,0.33108813,0.22933692,0.5661019,0,0.0,0.0,0.0,0.0,0.0,0,0,0.0,0.0,0,0,14.0,0.0,528.0,4648.717948717949,3917.9487179487182,4470.769230769231,4441.025641025642,4224.102564102564,4539.48717948718,4435.8974358974365,4420.000000000001,4418.974358974359,4710.256410256411,4352.307692307693,4331.794871794872,4156.923076923077,4455.384615384616
939.3307,0.037493113,0.33108813,0.22933692,0.5661019,0,0.0,0.0,0.0,0.0,0.0,0,0,0.0,0.0,0,0,14.0,0.0,528.0,4648.717948717949,3917.9487179487182,4470.769230769231,4441.025641025642,4224.102564102564,4539.48717948718,4435.8974358974365,4420.000000000001,4418.974358974359,4710.256410256411,4352.307692307693,4331.794871794872,4156.923076923077,4455.384615384616
939.8311,0.052683927,0.3509169,0.23049377,0.56832504,1,0.0,0.0,0.0,0.0,0.0,0,0,0.0,0.0,0,0,78.0,0.0,528.0,4627.179487179488,3912.820512820513,4481.538461538462,4438.461538461539,4229.74358974359,4537.435897435898,4445.641025641026,4430.769230769231,4414.358974358975,4697.435897435898,4352.307692307693,4329.743589743591,4149.74358974359,4460.000000000001
939.86237,0.052683927,0.3509169,0.23049377,0.56832504,0,0.0,0.0,0.0,0.0,0.0,0,0,0.0,0.0,0,0,82.0,0.0,528.0,4640.000000000001,3924.1025641025644,4486.666666666667,4441.538461538462,4234.358974358975,4541.025641025642,4437.948717948719,4428.717948717949,4413.333333333334,4710.769230769231,4361.025641025642,4338.461538461539,4163.589743589744,4476.923076923077
940.33154,0.0,0.35421503,0.230259,0.5703254,0,0.0,0.0,0.0,0.0,0.0,0,0,0.0,0.0,0,0,13.0,0.0,679.0,4635.384615384616,3934.358974358975,4482.051282051282,4429.743589743591,4235.384615384616,4547.6923076923085,4436.410256410257,4416.923076923077,4406.666666666667,4702.564102564103,4344.102564102564,4327.179487179487,4146.666666666667,4458.974358974359
940.33154,0.0,0.35421503,0.230259,0.5703254,0,0.0,0.0,0.0,0.0,0.0,0,0,0.0,0.0,0,0,13.0,0.0,679.0,4635.384615384616,3934.358974358975,4482.051282051282,4429.743589743591,4235.384615384616,4547.6923076923085,4436.410256410257,4416.923076923077,4406.666666666667,4702.564102564103,4344.102564102564,4327.179487179487,4146.666666666667,4458.974358974359
940.832,0.041416876,0.33190992,0.22780918,0.57212514,0,0.0,0.0,0.0,0.0,0.0,0,0,0.0,0.0,0,0,77.0,0.0,679.0,4644.102564102564,3928.205128205129,4498.974358974359,4425.128205128206,4222.564102564103,4532.820512820514,4413.333333333334,4411.282051282052,4413.846153846154,4712.820512820514,4337.435897435898,4321.538461538462,4153.333333333334,4460.512820512821
940.832,0.041416876,0.33190992,0.22780918,0.57212514,0,0.0,0.0,0.0,0.0,0.0,0,0,0.0,0.0,0,0,77.0,0.0,679.0,4644.102564102564,3928.205128205129,4498.974358974359,4425.128205128206,4222.564102564103,4532.820512820514,4413.333333333334,4411.282051282052,4413.846153846154,4712.820512820514,4337.435897435898,4321.538461538462,4153.333333333334,4460.512820512821
941.3324,0.042349253,0.31004882,0.22560824,0.5753214,0,0.0,0.0,0.0,0.0,0.0,0,0,0.0,0.0,0,0,12.0,0.0,544.0,4656.410256410257,3934.358974358975,4516.923076923077,4432.307692307693,4237.435897435898,4546.666666666667,4422.051282051282,4426.666666666667,4407.6923076923085,4720.000000000001,4349.2307692307695,4333.333333333334,4152.307692307693,4471.794871794872
941.3324,0.042349253,0.31004882,0.22560824,0.5753214,0,0.0,0.0,0.0,0.0,0.0,0,0,0.0,0.0,0,0,12.0,0.0,544.0,4656.410256410257,3934.358974358975,4516.923076923077,4432.307692307693,4237.435897435898,4546.666666666667,4422.051282051282,4426.666666666667,4407.6923076923085,4720.000000000001,4349.2307692307695,4333.333333333334,4152.307692307693,4471.794871794872
941.8328,0.0,0.29143503,0.22111745,0.57819724,0,0.0,0.0,0.0,0.0,0.0,0,0,0.0,0.0,0,0,76.0,0.0,544.0,4619.48717948718,3906.666666666667,4486.153846153847,4396.923076923077,4229.74358974359,4537.948717948719,4426.153846153847,4434.871794871796,4407.6923076923085,4702.051282051282,4329.743589743591,4307.179487179487,4136.923076923077,4461.538461538462
942.08307,0.0,0.29143503,0.22111745,0.57819724,0,0.0,0.0,0.0,0.0,0.06424831,0,0,0.0,0.0,0,0,108.0,0.0,544.0,4637.435897435898,3911.7948717948725,4501.538461538462,4404.102564102564,4230.769230769231,4536.923076923077,4428.717948717949,4435.384615384616,4414.358974358975,4715.8974358974365,4335.384615384616,4311.794871794872,4156.410256410257,4474.871794871796
942.33325,0.0,0.27016604,0.21708025,0.5761517,0,0.0,0.0,0.0,0.0,0.1513613,0,0,0.0,0.0,0,0,11.0,0.0,444.0,4721.538461538462,3997.9487179487182,4533.846153846154,4446.666666666667,4218.974358974359,4524.615384615385,4414.358974358975,4408.717948717949,4400.512820512821,4683.076923076924,4350.256410256411,4338.461538461539,4193.846153846154,4532.307692307693
942.5835,0.0,0.27016604,0.21708025,0.5761517,0,0.0,0.0,0.0,0.0,0.12418987,0,0,0.0,0.0,0,0,43.0,0.0,0.0,4636.410256410257,3912.820512820513,4506.666666666667,4409.743589743591,4235.384615384616,4543.589743589744,4428.205128205129,4412.820512820514,4396.923076923077,4708.205128205129,4330.769230769231,4313.333333333334,4154.871794871796,4478.974358974359
942.8337,0.0,0.29891625,0.21345139,0.5734951,0,0.0,0.0,0.0,0.0,0.11010791,0,0,0.0,0.0,0,0,75.0,0.0,444.0,4637.435897435898,3916.410256410257,4498.974358974359,4401.025641025642,4234.358974358975,4542.051282051282,4447.179487179487,4443.589743589744,4423.076923076924,4725.641025641026,4335.384615384616,4325.128205128206,4161.538461538462,4487.179487179488
943.0839,0.0,0.29891625,0.21345139,0.5734951,0,0.0,0.0,0.0,0.0,0.10254656,0,0,0.0,0.0,0,0,107.0,0.0,444.0,4637.435897435898,3902.0512820512827,4500.512820512821,4394.358974358975,4233.333333333334,4543.076923076924,4440.512820512821,4426.153846153847,4405.128205128206,4711.282051282052,4322.564102564103,4310.769230769231,4141.538461538462,4469.743589743591
943.3341,0.0,0.33851486,0.21200967,0.575158,0,0.0,0.0,0.0,0.0,0.0,0,0,0.0,0.0,0,0,10.0,0.0,528.0,4642.564102564103,3911.7948717948725,4506.153846153847,4393.333333333334,4236.410256410257,4542.564102564103,4432.307692307693,4429.2307692307695,4409.743589743591,4709.2307692307695,4337.435897435898,4325.128205128206,4151.794871794872,4482.564102564103
943.3341,0.0,0.33851486,0.21200967,0.575158,0,0.0,0.0,0.0,0.0,0.0,0,0,0.0,0.0,0,0,10.0,0.0,528.0,4642.564102564103,3911.7948717948725,4506.153846153847,4393.333333333334,4236.410256410257,4542.564102564103,4432.307692307693,4429.2307692307695,4409.743589743591,4709.2307692307695,4337.435897435898,4325.128205128206,4151.794871794872,4482.564102564103
943.83453,0.007703975,0.33263692,0.21246378,0.5795364,0,0.0,0.0,0.0,0.0,0.0,0,0,0.0,0.0,0,0,74.0,0.0,528.0,4665.128205128206,3905.1282051282055,4503.589743589744,4396.410256410257,4226.666666666667,4534.871794871796,4418.461538461539,4413.333333333334,4391.282051282052,4686.153846153847,4321.025641025642,4312.307692307693,4155.384615384616,4488.717948717949
944.0848,0.007703975,0.33263692,0.21246378,0.5795364,0,0.0,0.0,0.0,0.0,0.114804134,0,0,0.0,0.0,0,0,106.0,0.0,528.0,4644.615384615385,3906.666666666667,4498.461538461539,4398.461538461539,4228.205128205129,4538.461538461539,4424.615384615385,4418.974358974359,4397.435897435898,4685.128205128206,4305.128205128206,4307.6923076923085,4136.923076923077,4501.025641025642
944.33496,0.0,0.32605943,0.21446294,0.5826604,0,0.0,0.0,0.0,0.0,0.11213913,0,0,0.0,0.0,0,0,9.0,0.0,460.0,4667.6923076923085,3921.0256410256416,4509.2307692307695,4401.025641025642,4236.923076923077,4548.205128205129,4431.282051282052,4427.6923076923085,4396.923076923077,4686.666666666667,4321.538461538462,4318.461538461539,4150.769230769231,4512.820512820514
944.4601,0.0,0.32605943,0.21446294,0.5826604,0,0.0,0.0,0.0,0.0,0.0,0,0,0.0,0.0,0,0,25.0,0.0,0.0,4664.615384615386,3920.0000000000005,4499.48717948718,4410.769230769231,4234.358974358975,4541.025641025642,4413.333333333334,4411.282051282052,4392.307692307693,4692.307692307693,4316.923076923077,4309.743589743591,4152.307692307693,4507.6923076923085
944.8354,0.0,0.3032699,0.21626607,0.5780924,0,0.0,0.0,0.0,0.0,0.0,0,0,0.0,0.0,0,0,73.0,0.0,460.0,4666.666666666667,3917.435897435898,4507.179487179488,4398.461538461539,4240.000000000001,4549.743589743591,4421.025641025642,4430.256410256411,4403.076923076924,4735.384615384616,4327.6923076923085,4327.6923076923085,4165.641025641026,4521.538461538462
944.8354,0.0,0.3032699,0.21626607,0.5780924,0,0.0,0.0,0.0,0.0,0.0,0,0,0.0,0.0,0,0,73.0,0.0,460.0,4666.666666666667,3917.435897435898,4507.179487179488,4398.461538461539,4240.000000000001,4549.743589743591,4421.025641025642,4430.256410256411,4403.076923076924,4735.384615384616,4327.6923076923085,4327.6923076923085,4165.641025641026,4521.538461538462
945.3358,0.038718473,0.28628743,0.21789272,0.57399154,0,0.0,0.0,0.0,0.0,0.0,0,0,0.0,0.0,0,0,95.0,0.0,444.0,4674.358974358975,3924.1025641025644,4513.846153846154,4410.256410256411,4230.769230769231,4536.923076923077,4424.615384615385,4426.153846153847,4401.025641025642,4722.564102564103,4327.6923076923085,4325.128205128206,4175.8974358974365,4530.769230769231
945.3358,0.038718473,0.28628743,0.21789272,0.57399154,0,0.0,0.0,0.0,0.0,0.0,0,0,0.0,0.0,0,0,8.0,0.0,418.0,4674.871794871796,3912.820512820513,4492.820512820514,4407.179487179487,4222.051282051282,4527.179487179488,4413.846153846154,4411.282051282052,4391.282051282052,4692.307692307693,4312.820512820514,4311.794871794872,4164.615384615385,4501.538461538462
945.83624,0.033516638,0.26666984,0.21936052,0.5661127,0,0.0,0.0,0.0,0.0,0.0,0,0,0.0,0.0,0,0,27.0,0.0,0.0,4673.333333333334,3925.6410256410263,4503.589743589744,4417.435897435898,4222.564102564103,4530.256410256411,4419.48717948718,4437.948717948719,4411.282051282052,4712.307692307693,4327.6923076923085,4325.641025641026,4172.820512820514,4510.256410256411
946.0865,0.033516638,0.26666984,0.21936052,0.5661127,0,0.0,0.0,0.0,0.0,0.045700844,0,0,0.0,0.0,0,0,104.0,0.0,545.0,4651.282051282052,3911.7948717948725,4498.974358974359,4414.358974358975,4216.923076923077,4526.666666666667,4427.179487179487,4421.538461538462,4389.743589743591,4689.743589743591,4293.333333333334,4313.333333333334,4141.025641025642,4489.743589743591
946.3367,0.024256362,0.23710306,0.22041893,0.5587117,0,0.0,0.0,0.0,0.0,0.19289458,0,0,0.0,0.0,0,0,127.0,0.0,444.0,4620.000000000001,3906.666666666667,4494.358974358975,4396.410256410257,4216.923076923077,4529.743589743591,4426.153846153847,4415.8974358974365,4393.846153846154,4686.666666666667,4298.974358974359,4305.641025641026,4141.538461538462,4482.564102564103
946.5869,0.024256362,0.23710306,0.22041893,0.5587117,0,0.0,0.0,0.0,0.0,0.12834942,0,0,0.0,0.0,0,0,39.0,0.0,0.0,4623.076923076924,3913.8461538461543,4505.128205128206,4403.076923076924,4223.589743589744,4529.743589743591,4426.153846153847,4418.974358974359,4399.48717948718,4691.794871794872,4311.794871794872,4324.615384615385,4160.512820512821,4496.923076923077
946.71204,0.024256362,0.23710306,0.22041893,0.5587117,0,0.0,0.0,0.0,0.0,0.085763074,0,0,0.0,0.0,0,0,55.0,0.0,0.0,4638.974358974359,3925.1282051282055,4515.384615384616,4417.435897435898,4222.564102564103,4536.923076923077,4434.871794871796,4428.717948717949,4403.076923076924,4701.025641025642,4311.794871794872,4330.256410256411,4170.256410256411,4503.076923076924
946.83716,0.032594576,0.2119334,0.22067294,0.5520507,0,0.0,0.0,0.0,0.0,0.0,0,0,0.0,0.0,0,0,71.0,0.0,470.0,4624.102564102564,3922.0512820512827,4513.846153846154,4407.179487179487,4225.641025641026,4533.846153846154,4435.384615384616,4427.6923076923085,4402.051282051282,4692.820512820514,4311.794871794872,4325.641025641026,4163.076923076924,4501.538461538462
947.3376,0.04139753,0.19089189,0.21876389,0.5462224,0,0.0,0.0,0.0,0.0,0.0,0,0,0.0,0.0,0,0,79.0,0.0,444.0,4619.48717948718,3921.538461538462,4503.076923076924,4397.435897435898,4221.025641025642,4530.769230769231,4430.256410256411,4414.358974358975,4394.871794871796,4688.205128205129,4306.153846153847,4321.538461538462,4156.923076923077,4500.000000000001
947.58777,0.04139753,0.19089189,0.21876389,0.5462224,1,0.0,0.0,0.0,0.0,0.167273,0,0,0.0,0.0,0,0,38.0,0.0,0.0,4633.846153846154,3924.615384615385,4501.538461538462,4412.820512820514,4242.051282051282,4547.6923076923085,4451.282051282052,4444.102564102564,4396.410256410257,4714.358974358975,4333.846153846154,4335.384615384616,4164.102564102564,4500.000000000001
947.7129,0.04139753,0.19089189,0.21876389,0.5462224,0,0.0,0.0,0.0,0.0,0.110344805,0,0,0.0,0.0,0,0,54.0,0.0,0.0,4616.923076923077,3917.9487179487182,4490.769230769231,4415.384615384616,4237.435897435898,4540.512820512821,4443.589743589744,4446.153846153847,4404.102564102564,4704.615384615386,4337.435897435898,4333.846153846154,4157.435897435898,4504.615384615385
948.0882,0.0,0.18951006,0.21698187,0.54097706,0,0.0,0.0,0.0,0.0,0.09040288,0,0,0.0,0.0,0,0,102.0,0.0,528.0,4611.794871794872,3920.0000000000005,4504.102564102564,4410.769230769231,4235.8974358974365,4544.102564102564,4449.743589743591,4452.307692307693,4411.282051282052,4719.48717948718,4344.615384615385,4341.538461538462,4170.256410256411,4518.461538461539
948.33844,0.0,0.19522975,0.21376441,0.5365557,0,0.0,0.0,0.0,0.0,0.0,0,0,0.0,0.0,0,0,124.0,0.0,545.0,4603.076923076924,3926.1538461538466,4489.2307692307695,4400.512820512821,4228.717948717949,4537.948717948719,4431.794871794872,4424.102564102564,4396.410256410257,4681.538461538462,4331.282051282052,4322.564102564103,4153.846153846154,4504.615384615385
948.33844,0.0,0.19522975,0.21376441,0.5365557,0,0.0,0.0,0.0,0.0,0.0,0,0,0.0,0.0,0,0,5.0,0.0,547.0,4614.358974358975,3929.7435897435903,4504.102564102564,4425.641025641026,4244.102564102564,4552.820512820514,4435.8974358974365,4429.2307692307695,4401.538461538462,4696.923076923077,4330.769230769231,4335.384615384616,4153.333333333334,4509.743589743591
948.745,0.0,0.19522975,0.21376441,0.5365557,1,0.0,0.0,0.0,0.0,0.1978502,0,0,0.0,0.0,0,0,57.0,0.0,0.0,4631.282051282052,3990.2564102564106,4510.769230769231,4438.461538461539,4227.179487179487,4535.8974358974365,4413.846153846154,4405.641025641026,4383.589743589744,4631.794871794872,4285.641025641026,4310.256410256411,4109.74358974359,4513.846153846154
949.08905,0.0,0.20979524,0.21087335,0.5326302,0,0.0,0.0,0.0,0.0,0.24800768,0,0,0.0,0.0,0,0,101.0,0.0,683.0,4627.179487179488,3912.307692307693,4498.461538461539,4410.256410256411,4232.820512820514,4540.512820512821,4428.717948717949,4425.641025641026,4397.948717948719,4696.410256410257,4326.153846153847,4328.717948717949,4192.820512820514,4540.000000000001
949.2142,0.0,0.20979524,0.21087335,0.5326302,0,0.0,0.0,0.0,0.0,0.14494686,0,0,0.0,0.0,0,0,117.0,0.0,683.0,4606.153846153847,3895.8974358974365,4496.410256410257,4397.435897435898,4241.025641025642,4550.256410256411,4445.641025641026,4444.615384615385,4405.641025641026,4709.2307692307695,4323.076923076924,4322.564102564103,4170.769230769231,4528.205128205129
949.5895,0.039806247,0.26978406,0.21048811,0.53358704,0,0.0,0.0,0.0,0.0,0.025579039,0,0,0.0,0.0,0,0,36.0,0.0,0.0,4617.435897435898,3930.2564102564106,4514.358974358975,4430.769230769231,4254.871794871796,4555.384615384616,4452.820512820514,4440.512820512821,4402.564102564103,4706.666666666667,4333.846153846154,4336.410256410257,4178.974358974359,4535.384615384616
949.8397,0.09813944,0.31425053,0.210773,0.5399456,0,0.0,0.0,0.0,0.0,0.058644548,0,0,0.0,0.0,0,0,68.0,0.0,548.0,4692.820512820514,3979.48717948718,4542.051282051282,4464.102564102564,4233.846153846154,4538.461538461539,4433.846153846154,4424.102564102564,4398.974358974359,4685.128205128206,4342.564102564103,4358.461538461539,4236.923076923077,4594.871794871796
950.0899,0.09813944,0.31425053,0.210773,0.5399456,0,0.0,0.0,0.0,0.0,0.090212785,0,0,0.0,0.0,0,0,100.0,0.0,545.0,4595.384615384616,3910.7692307692314,4493.333333333334,4405.128205128206,4230.769230769231,4540.000000000001,4438.974358974359,4391.794871794872,4388.717948717949,4658.461538461539,4277.435897435898,4291.282051282052,4138.461538461539,4494.871794871796
950.34015,0.113305725,0.3910804,0.21679357,0.54566866,0,0.0,0.0,0.0,0.0,0.06807646,0,0,0.0,0.0,0,0,3.0,0.0,530.0,4592.307692307693,3937.435897435898,4509.743589743591,4403.589743589744,4251.282051282052,4570.769230769231,4470.256410256411,4484.615384615385,4428.717948717949,4713.846153846154,4293.333333333334,4333.333333333334,4199.48717948718,4527.6923076923085
950.59033,0.113305725,0.3910804,0.21679357,0.54566866,0,0.0,0.0,0.0,0.0,0.16186199,0,0,0.0,0.0,0,0,35.0,0.0,0.0,4603.589743589744,3929.2307692307695,4508.205128205129,4381.025641025642,4230.769230769231,4561.025641025642,4488.205128205129,4499.48717948718,4435.384615384616,4694.871794871796,4254.358974358975,4327.6923076923085,4202.051282051282,4571.794871794872
950.8406,0.15391216,0.3976337,0.23107766,0.5508195,0,0.0,0.0,0.043000914,0.0,0.0,0,0,0.0,0.0,0,0,67.0,0.0,530.0,4604.102564102564,3925.6410256410263,4501.538461538462,4377.435897435898,4217.948717948719,4551.794871794872,4489.743589743591,4502.564102564103,4433.846153846154,4697.435897435898,4202.051282051282,4309.743589743591,4168.205128205129,4573.333333333334
951.09076,0.15391216,0.3976337,0.23107766,0.5508195,0,0.0,0.0,0.07973714,0.0,0.0,0,0,0.0,0.0,0,0,99.0,0.0,444.0,4620.512820512821,3925.1282051282055,4487.6923076923085,4352.820512820514,4218.461538461539,4548.717948717949,4464.615384615385,4458.461538461539,4408.717948717949,4691.282051282052,4136.410256410257,4287.6923076923085,4202.564102564103,4573.846153846154
951.341,0.1484154,0.39270955,0.25092676,0.54968375,0,0.0,0.0,0.13464324,0.0,0.0,0,0,0.0,0.0,0,0,2.0,0.0,444.0,4650.256410256411,3937.9487179487182,4494.358974358975,4325.641025641026,4221.025641025642,4547.179487179488,4468.717948717949,4460.000000000001,4414.871794871796,4724.102564102564,4135.8974358974365,4300.000000000001,4292.307692307693,4588.717948717949
951.5912,0.1484154,0.39270955,0.25092676,0.54968375,0,0.0,0.0,0.05986347,0.0,0.0,0,0,0.0,0.0,0,0,34.0,0.0,0.0,4669.743589743591,3956.410256410257,4502.564102564103,4362.564102564103,4230.256410256411,4545.641025641026,4465.128205128206,4443.589743589744,4415.384615384616,4728.205128205129,4166.666666666667,4312.820512820514,4320.000000000001,4594.358974358975
951.84143,0.14699686,0.3930702,0.2705953,0.5438831,0,0.0,0.0,0.082041934,0.0,0.0,0,0,0.0,0.0,0,0,66.0,0.0,444.0,4660.000000000001,3932.307692307693,4486.153846153847,4328.205128205129,4231.282051282052,4542.564102564103,4465.641025641026,4443.076923076924,4410.256410256411,4713.846153846154,4186.153846153847,4303.589743589744,4290.769230769231,4578.974358974359
952.0917,0.14699686,0.3930702,0.2705953,0.5438831,0,0.0,0.0,0.0,0.0,0.0,0,0,0.20829886,0.0,0,0,98.0,0.0,528.0,4659.48717948718,3948.717948717949,4493.333333333334,4366.666666666667,4234.871794871796,4545.641025641026,4475.384615384616,4447.179487179487,4406.153846153847,4719.48717948718,4203.076923076924,4322.564102564103,4299.48717948718,4608.205128205129
952.34186,0.16938965,0.38338003,0.28829837,0.53866273,0,0.0,0.0,0.0,0.0,0.0,0,0,0.4132728,0.0,0,0,1.0,0.0,482.0,4683.076923076924,3962.564102564103,4518.461538461539,4395.8974358974365,4249.74358974359,4562.564102564103,4468.205128205129,4425.128205128206,4398.974358974359,4692.820512820514,4291.282051282052,4333.333333333334,4180.000000000001,4677.435897435898
952.5921,0.16938965,0.38338003,0.28829837,0.53866273,0,0.0,0.0,0.29187793,0.0,0.0,0,0,0.0,0.0,0,0,33.0,0.0,0.0,4657.435897435898,3941.538461538462,4497.435897435898,4400.000000000001,4244.615384615385,4555.384615384616,4458.974358974359,4427.179487179487,4403.076923076924,4691.794871794872,4288.205128205129,4317.948717948719,4133.846153846154,4661.538461538462
952.8423,0.26862937,0.37345934,0.30324888,0.5339648,0,0.0,0.0,0.15835114,0.0,0.0,0,0,0.0,0.0,0,0,65.0,0.0,482.0,4662.051282051282,3932.820512820513,4509.743589743591,4411.794871794872,4229.2307692307695,4544.102564102564,4449.743589743591,4435.8974358974365,4401.025641025642,4682.564102564103,4282.564102564103,4313.333333333334,4133.846153846154,4654.358974358975
953.0925,0.26862937,0.37345934,0.30324888,0.5339648,0,0.0,0.0,0.0,0.0,0.090116665,0,0,0.0,0.0,0,0,97.0,0.0,675.0,4667.179487179488,3934.8717948717954,4514.358974358975,4402.051282051282,4218.461538461539,4533.846153846154,4437.948717948719,4418.461538461539,4392.820512820514,4671.282051282052,4291.282051282052,4305.128205128206,4134.871794871796,4643.076923076924
953.3427,0.30111063,0.35712218,0.3124801,0.52771527,0,0.0,0.0,0.0,0.0,0.0,0,0,0.0,0.0,0,0,0.0,0.0,489.0,4676.923076923077,3920.0000000000005,4516.410256410257,4422.051282051282,4214.358974358975,4531.794871794872,4436.410256410257,4401.538461538462,4386.666666666667,4656.410256410257,4304.102564102564,4304.615384615385,4153.846153846154,4642.051282051282
953.3427,0.30111063,0.35712218,0.3124801,0.52771527,0,0.0,0.0,0.0,0.0,0.0,0,0,0.0,0.0,0,0,0.0,0.0,489.0,4676.923076923077,3920.0000000000005,4516.410256410257,4422.051282051282,4214.358974358975,4531.794871794872,4436.410256410257,4401.538461538462,4386.666666666667,4656.410256410257,4304.102564102564,4304.615384615385,4153.846153846154,4642.051282051282
953.84314,0.3169496,0.3414292,0.31873345,0.5192474,0,0.0,0.0,0.0,0.0,0.0,0,0,0.0,0.0,0,0,64.0,0.0,489.0,4644.102564102564,3905.6410256410263,4498.461538461539,4391.282051282052,4202.051282051282,4521.538461538462,4437.435897435898,4415.8974358974365,4390.769230769231,4684.615384615386,4281.025641025642,4278.461538461539,4125.128205128206,4593.333333333334
954.0934,0.3169496,0.3414292,0.31873345,0.5192474,1,0.0,0.0,0.0,0.0,0.1241174,0,0,0.0,0.0,0,0,96.0,0.0,545.0,4671.794871794872,3926.666666666667,4530.256410256411,4424.102564102564,4220.512820512821,4537.435897435898,4447.179487179487,4405.641025641026,4393.846153846154,4677.435897435898,4320.512820512821,4309.743589743591,4166.153846153847,4618.461538461539
954.34357,0.3144722,0.3340912,0.32436195,0.51162773,0,0.0,0.0,0.0,0.0,0.1937748,0,0,0.0,0.0,0,0,128.0,0.0,545.0,4676.923076923077,3953.333333333334,4533.846153846154,4429.743589743591,4235.384615384616,4549.2307692307695,4464.615384615385,4422.564102564103,4400.000000000001,4708.717948717949,4348.717948717949,4324.102564102564,4177.435897435898,4616.923076923077
954.5938,0.3144722,0.3340912,0.32436195,0.51162773,0,0.0,0.0,0.0,0.0,0.051941056,0,0,0.0,0.0,0,0,31.0,0.0,0.0,4652.307692307693,3931.2820512820517,4511.794871794872,4412.307692307693,4223.076923076924,4535.8974358974365,4433.846153846154,4405.128205128206,4388.717948717949,4694.871794871796,4318.461538461539,4296.410256410257,4158.461538461539,4598.974358974359
954.844,0.3001297,0.330064,0.32728007,0.5019461,0,0.0,0.0,0.0,0.0,0.0,0,0,0.0,0.0,0,0,63.0,0.0,0.0,4644.615384615385,3947.692307692308,4522.564102564103,4423.589743589744,4234.871794871796,4546.666666666667,4460.000000000001,4422.051282051282,4393.846153846154,4717.948717948719,4337.948717948719,4307.179487179487,4167.6923076923085,4602.051282051282
954.844,0.3001297,0.330064,0.32728007,0.5019461,0,0.0,0.0,0.0,0.0,0.0,0,0,0.0,0.0,0,0,63.0,0.0,0.0,4644.615384615385,3947.692307692308,4522.564102564103,4423.589743589744,4234.871794871796,4546.666666666667,4460.000000000001,4422.051282051282,4393.846153846154,4717.948717948719,4337.948717948719,4307.179487179487,4167.6923076923085,4602.051282051282
955.3444,0.2549312,0.31206778,0.32768884,0.49323526,0,0.0,0.0,0.0,0.0,0.0,0,0,0.0,0.0,0,0,117.0,0.0,545.0,4637.948717948719,3944.1025641025644,4520.000000000001,4435.8974358974365,4241.025641025642,4552.820512820514,4465.641025641026,4438.461538461539,4396.923076923077,4684.615384615386,4337.948717948719,4313.846153846154,4174.358974358975,4606.153846153847
955.3444,0.2549312,0.31206778,0.32768884,0.49323526,0,0.0,0.0,0.0,0.0,0.0,0,0,0.0,0.0,0,0,127.0,0.0,444.0,4658.974358974359,3960.0000000000005,4541.538461538462,4438.974358974359,4244.615384615385,4556.923076923077,4460.000000000001,4431.282051282052,4396.923076923077,4703.076923076924,4359.48717948718,4329.743589743591,4194.358974358975,4614.871794871796
955.84485,0.26011294,0.30039346,0.32710266,0.4853987,0,0.0,0.0,0.0,0.0,0.0,0,0,0.0,0.0,0,0,38.0,0.0,0.0,4647.6923076923085,3966.1538461538466,4525.641025641026,4449.2307692307695,4253.846153846154,4566.153846153847,4478.461538461539,4455.8974358974365,4413.333333333334,4742.564102564103,4387.6923076923085,4340.000000000001,4203.589743589744,4617.948717948719
955.84485,0.26011294,0.30039346,0.32710266,0.4853987,0,0.0,0.0,0.0,0.0,0.0,0,0,0.0,0.0,0,0,62.0,0.0,0.0,4646.153846153847,3960.5128205128212,4531.282051282052,4449.2307692307695,4246.666666666667,4556.923076923077,4466.153846153847,4426.153846153847,4392.307692307693,4720.000000000001,4369.2307692307695,4326.153846153847,4191.794871794872,4611.282051282052
956.3453,0.2360183,0.2755511,0.32564443,0.4784451,0,0.0,0.0,0.0,0.0,0.0,0,0,0.0,0.0,0,0,116.0,0.0,545.0,4652.820512820514,3966.1538461538466,4543.589743589744,4455.384615384616,4246.153846153847,4553.333333333334,4466.666666666667,4446.153846153847,4394.871794871796,4702.564102564103,4366.666666666667,4326.666666666667,4190.256410256411,4611.282051282052
956.5955,0.2360183,0.2755511,0.32564443,0.4784451,0,0.0,0.0,0.0,0.0,0.017322117,0,0,0.0,0.0,0,0,29.0,0.0,0.0,4623.589743589744,3953.333333333334,4531.282051282052,4438.461538461539,4241.538461538462,4543.076923076924,4453.333333333334,4485.128205128206,4389.743589743591,4706.666666666667,4355.8974358974365,4318.974358974359,4176.923076923077,4587.179487179488
956.8457,0.18981199,0.24686873,0.31804144,0.47529668,0,0.0,0.0,0.0,0.0,0.03235657,0,0,0.0,0.0,0,0,61.0,0.0,0.0,4625.641025641026,3948.205128205129,4542.564102564103,4434.871794871796,4244.102564102564,4547.6923076923085,4477.948717948719,4529.2307692307695,4394.871794871796,4698.461538461539,4360.000000000001,4325.128205128206,4175.8974358974365,4579.48717948718
957.09595,0.18981199,0.24686873,0.31804144,0.47529668,0,0.0,0.0,0.0,0.0,0.033512183,0,0,0.0,0.0,0,0,93.0,0.0,670.0,4632.820512820514,3963.589743589744,4549.2307692307695,4467.179487179487,4259.48717948718,4560.512820512821,4461.025641025642,4507.179487179488,4401.538461538462,4724.102564102564,4353.846153846154,4328.205128205129,4182.051282051282,4576.410256410257
957.3462,0.18719824,0.22280373,0.30612108,0.47873273,0,0.0,0.0,0.0,0.0,0.0,0,0,0.0,0.0,0,0,125.0,0.0,670.0,4622.564102564103,3950.7692307692314,4537.435897435898,4452.307692307693,4246.666666666667,4546.153846153847,4452.307692307693,4463.589743589744,4398.974358974359,4728.205128205129,4360.000000000001,4317.948717948719,4190.256410256411,4577.435897435898
957.3462,0.18719824,0.22280373,0.30612108,0.47873273,0,0.0,0.0,0.0,0.0,0.0,0,0,0.0,0.0,0,0,125.0,0.0,670.0,4622.564102564103,3950.7692307692314,4537.435897435898,4452.307692307693,4246.666666666667,4546.153846153847,4452.307692307693,4463.589743589744,4398.974358974359,4728.205128205129,4360.000000000001,4317.948717948719,4190.256410256411,4577.435897435898
957.8466,0.14423677,0.20698234,0.29373935,0.48789826,0,0.0,0.0,0.0,0.0,0.16459915,0,0,0.0,0.0,0,0,43.0,0.0,0.0,4613.333333333334,3944.615384615385,4531.794871794872,4446.666666666667,4258.974358974359,4553.846153846154,4453.846153846154,4455.8974358974365,4400.512820512821,4697.948717948719,4353.333333333334,4298.461538461539,4173.333333333334,4553.846153846154
958.0968,0.14423677,0.20698234,0.29373935,0.48789826,0,0.0,0.0,0.0,0.0,0.045980845,0,0,0.0,0.0,0,0,92.0,0.0,545.0,4617.948717948719,3962.564102564103,4535.384615384616,4457.948717948719,4253.333333333334,4556.410256410257,4460.512820512821,4461.025641025642,4406.153846153847,4731.282051282052,4376.410256410257,4323.076923076924,4202.051282051282,4566.153846153847
958.34705,0.123213336,0.20358041,0.28259724,0.49614772,0,0.0,0.0,0.0,0.0,0.0,0,0,0.0,0.0,0,0,124.0,0.0,545.0,4625.128205128206,3959.48717948718,4522.564102564103,4437.435897435898,4249.74358974359,4552.820512820514,4463.589743589744,4452.307692307693,4402.051282051282,4702.051282051282,4364.102564102564,4304.615384615385,4188.717948717949,4549.2307692307695
958.34705,0.123213336,0.20358041,0.28259724,0.49614772,0,0.0,0.0,0.0,0.0,0.0,0,0,0.0,0.0,0,0,124.0,0.0,545.0,4625.128205128206,3959.48717948718,4522.564102564103,4437.435897435898,4249.74358974359,4552.820512820514,4463.589743589744,4452.307692307693,4402.051282051282,4702.051282051282,4364.102564102564,4304.615384615385,4188.717948717949,4549.2307692307695
958.8475,0.10931157,0.20759821,0.27257127,0.50435907,0,0.0,0.0,0.0,0.0,0.0,0,0,0.0,0.0,0,0,5.0,0.0,547.0,4632.307692307693,3951.7948717948725,4530.256410256411,4437.435897435898,4242.564102564103,4548.717948717949,4465.128205128206,4445.641025641026,4400.512820512821,4693.846153846154,4363.589743589744,4306.666666666667,4184.615384615385,4550.256410256411
958.8475,0.10931157,0.20759821,0.27257127,0.50435907,0,0.0,0.0,0.0,0.0,0.0,0,0,0.0,0.0,0,0,59.0,0.0,0.0,4670.769230769231,3998.461538461539,4550.769230769231,4378.461538461539,4235.384615384616,4532.820512820514,4474.358974358975,4482.564102564103,4406.153846153847,4707.179487179488,4395.384615384616,4341.538461538462,4224.615384615385,4589.743589743591
959.3479,0.15342043,0.22597788,0.26544303,0.51201266,0,0.0,0.0,0.0,0.0,0.094908096,0,0,0.0,0.0,0,0,80.0,0.0,545.0,4605.641025641026,3942.564102564103,4521.025641025642,4353.846153846154,4241.025641025642,4540.000000000001,4480.512820512821,4486.666666666667,4407.6923076923085,4708.205128205129,4372.307692307693,4317.948717948719,4175.384615384616,4546.153846153847
959.5981,0.15342043,0.22597788,0.26544303,0.51201266,0,0.0,0.0,0.0,0.0,0.08729017,0,0,0.0,0.0,0,0,26.0,0.0,0.0,4627.179487179488,3948.717948717949,4521.025641025642,4390.256410256411,4239.48717948718,4534.871794871796,4466.666666666667,4455.8974358974365,4397.435897435898,4683.589743589744,4336.410256410257,4313.846153846154,4158.974358974359,4554.358974358975
959.8483,0.11650875,0.224129,0.25848365,0.52079177,0,0.0,0.0,0.0,0.0,0.06748045,0,0,0.0,0.0,0,0,58.0,0.0,0.0,4626.153846153847,3938.461538461539,4507.179487179488,4386.153846153847,4231.794871794872,4531.282051282052,4471.794871794872,4455.8974358974365,4401.025641025642,4705.128205128206,4356.923076923077,4326.666666666667,4182.564102564103,4572.307692307693
959.97345,0.11650875,0.224129,0.25848365,0.52079177,0,0.0,0.0,0.0,0.0,0.0,0,0,0.0,0.0,0,0,74.0,0.0,528.0,4634.871794871796,3945.6410256410263,4516.410256410257,4408.717948717949,4233.846153846154,4538.974358974359,4487.179487179488,4455.8974358974365,4412.307692307693,4709.2307692307695,4357.948717948719,4336.923076923077,4193.846153846154,4574.871794871796
959.97345,0.11650875,0.224129,0.25848365,0.52079177,0,0.0,0.0,0.0,0.0,0.0,0,0,0.0,0.0,0,0,74.0,0.0,528.0,4634.871794871796,3945.6410256410263,4516.410256410257,4408.717948717949,4233.846153846154,4538.974358974359,4487.179487179488,4455.8974358974365,4412.307692307693,4709.2307692307695,4357.948717948719,4336.923076923077,4193.846153846154,4574.871794871796
960.34875,0.09263998,0.2201863,0.252223,0.5268028,0,0.0,0.0,0.0,0.0,0.0,0,0,0.0,0.0,0,0,122.0,0.0,528.0,4641.025641025642,3960.0000000000005,4517.948717948719,4404.615384615385,4248.717948717949,4553.846153846154,4493.333333333334,4485.128205128206,4418.974358974359,4727.6923076923085,4369.2307692307695,4348.717948717949,4198.461538461539,4572.820512820514
960.8492,0.090718925,0.21974756,0.24900182,0.529624,0,0.0,0.0,0.0,0.0,0.0,0,0,0.0,0.0,0,0,6.0,0.0,536.0,4653.846153846154,3968.205128205129,4528.205128205129,4424.102564102564,4249.74358974359,4554.871794871796,4501.025641025642,4492.820512820514,4415.8974358974365,4728.205128205129,4369.2307692307695,4351.282051282052,4196.923076923077,4580.512820512821
960.8492,0.090718925,0.21974756,0.24900182,0.529624,0,0.0,0.0,0.0,0.0,0.0,0,0,0.0,0.0,0,0,57.0,0.0,0.0,4669.2307692307695,3983.076923076924,4558.974358974359,4438.461538461539,4263.076923076924,4563.589743589744,4483.589743589744,4492.820512820514,4404.102564102564,4706.153846153847,4362.051282051282,4349.2307692307695,4182.564102564103,4573.333333333334
961.3496,0.086844616,0.21758421,0.24437207,0.5321636,0,0.0,0.0,0.0,0.0,0.120653,0,0,0.0,0.0,0,0,75.0,0.0,444.0,4680.000000000001,3996.9230769230776,4560.512820512821,4454.871794871796,4270.256410256411,4569.743589743591,4493.333333333334,4513.333333333334,4416.410256410257,4725.641025641026,4387.6923076923085,4364.102564102564,4207.179487179487,4578.974358974359
961.5998,0.086844616,0.21758421,0.24437207,0.5321636,0,0.0,0.0,0.0,0.0,0.10117836,0,0,0.0,0.0,0,0,24.0,0.0,0.0,4670.256410256411,3980.0000000000005,4542.051282051282,4441.025641025642,4246.153846153847,4543.076923076924,4448.205128205129,4448.205128205129,4396.923076923077,4704.102564102564,4350.769230769231,4312.307692307693,4187.6923076923085,4608.717948717949
961.85004,0.08728486,0.22711933,0.24020858,0.52785546,0,0.0,0.0,0.0,0.0,0.08100267,0,0,0.0,0.0,0,0,51.0,0.0,0.0,4664.615384615386,3964.1025641025644,4545.128205128206,4444.102564102564,4250.256410256411,4549.743589743591,4461.025641025642,4441.538461538462,4393.333333333334,4694.871794871796,4365.128205128206,4309.2307692307695,4185.641025641026,4608.717948717949
962.1002,0.08728486,0.22711933,0.24020858,0.52785546,0,0.0,0.0,0.0,0.0,0.0,0,0,0.0,0.0,0,0,88.0,0.0,545.0,4663.076923076924,3958.9743589743593,4533.846153846154,4444.615384615385,4255.384615384616,4549.2307692307695,4463.076923076924,4431.794871794872,4394.871794871796,4714.358974358975,4362.051282051282,4292.820512820514,4189.2307692307695,4594.871794871796
962.1002,0.08728486,0.22711933,0.24020858,0.52785546,0,0.0,0.0,0.0,0.0,0.0,0,0,0.0,0.0,0,0,88.0,0.0,545.0,4663.076923076924,3958.9743589743593,4533.846153846154,4444.615384615385,4255.384615384616,4549.2307692307695,4463.076923076924,4431.794871794872,4394.871794871796,4714.358974358975,4362.051282051282,4292.820512820514,4189.2307692307695,4594.871794871796
962.35046,0.07089593,0.23814003,0.23733541,0.5153921,0,0.0,0.0,0.0,0.0,0.0,0,0,0.0,0.0,0,0,120.0,0.0,545.0,4663.589743589744,3960.5128205128212,4544.615384615385,4447.179487179487,4254.358974358975,4548.717948717949,4477.435897435898,4430.256410256411,4395.8974358974365,4689.2307692307695,4370.769230769231,4297.435897435898,4194.358974358975,4602.564102564103
962.35046,0.07089593,0.23814003,0.23733541,0.5153921,0,0.0,0.0,0.0,0.0,0.0,0,0,0.0,0.0,0,0,120.0,0.0,545.0,4663.589743589744,3960.5128205128212,4544.615384615385,4447.179487179487,4254.358974358975,4548.717948717949,4477.435897435898,4430.256410256411,4395.8974358974365,4689.2307692307695,4370.769230769231,4297.435897435898,4194.358974358975,4602.564102564103
962.8509,0.10793808,0.25908262,0.24017596,0.4989921,0,0.0,0.0,0.0,0.0,0.0,0,0,0.0,0.0,0,0,55.0,0.0,0.0,4698.461538461539,3986.1538461538466,4563.589743589744,4472.307692307693,4248.717948717949,4538.461538461539,4472.307692307693,4440.512820512821,4407.179487179487,4721.538461538462,4410.256410256411,4325.128205128206,4238.461538461539,4641.538461538462
962.8509,0.10793808,0.25908262,0.24017596,0.4989921,0,0.0,0.0,0.0,0.0,0.0,0,0,0.0,0.0,0,0,55.0,0.0,0.0,4698.461538461539,3986.1538461538466,4563.589743589744,4472.307692307693,4248.717948717949,4538.461538461539,4472.307692307693,4440.512820512821,4407.179487179487,4721.538461538462,4410.256410256411,4325.128205128206,4238.461538461539,4641.538461538462
963.3513,0.10974525,0.2663742,0.24412787,0.4824832,0,0.0,0.0,0.0,0.0,0.0,0,0,0.0,0.0,0,0,119.0,0.0,444.0,4685.641025641026,3985.1282051282055,4565.641025641026,4493.333333333334,4257.435897435898,4548.717948717949,4476.410256410257,4437.435897435898,4409.743589743591,4732.820512820514,4389.2307692307695,4318.461538461539,4218.461538461539,4618.461538461539
963.3513,0.10974525,0.2663742,0.24412787,0.4824832,0,0.0,0.0,0.0,0.0,0.0,0,0,0.0,0.0,0,0,119.0,0.0,444.0,4685.641025641026,3985.1282051282055,4565.641025641026,4493.333333333334,4257.435897435898,4548.717948717949,4476.410256410257,4437.435897435898,4409.743589743591,4732.820512820514,4389.2307692307695,4318.461538461539,4218.461538461539,4618.461538461539
964.102,0.08337399,0.24655482,0.24768719,0.46815816,0,0.0,0.0,0.0,0.0,0.24866706,0,0,0.0,0.0,0,0,86.0,0.0,528.0,4661.025641025642,3959.48717948718,4537.948717948719,4458.974358974359,4254.358974358975,4549.2307692307695,4475.8974358974365,4426.153846153847,4406.666666666667,4718.974358974359,4383.076923076924,4311.794871794872,4216.923076923077,4691.794871794872
964.22705,0.08337399,0.24655482,0.24768719,0.46815816,0,0.0,0.0,0.0,0.0,0.14137067,0,0,0.0,0.0,0,0,102.0,0.0,528.0,4668.205128205129,3967.1794871794878,4545.641025641026,4463.589743589744,4257.435897435898,4551.794871794872,4483.076923076924,4449.2307692307695,4418.461538461539,4738.974358974359,4392.820512820514,4324.102564102564,4218.461538461539,4702.051282051282
964.5789,0.105414584,0.22196689,0.25089312,0.4552732,0,0.0,0.0,0.0,0.0,0.40414533,0,0,0.0,0.0,0,0,21.0,0.0,0.0,4668.717948717949,3974.8717948717954,4539.48717948718,4476.410256410257,4255.8974358974365,4553.846153846154,4472.820512820514,4489.2307692307695,4422.564102564103,4734.358974358975,4397.948717948719,4334.871794871796,4221.025641025642,4802.564102564103
964.82916,0.1565658,0.19676796,0.24778193,0.45600626,0,0.0,0.0,0.0,0.0,0.55387294,0,0,0.0,0.0,0,0,53.0,0.0,0.0,4690.256410256411,3986.1538461538466,4553.846153846154,4480.000000000001,4267.6923076923085,4565.641025641026,4486.153846153847,4507.179487179488,4434.871794871796,4733.333333333334,4398.461538461539,4352.307692307693,4221.025641025642,4886.666666666667
965.07935,0.1565658,0.19676796,0.24778193,0.45600626,0,0.0,0.0,0.0,0.0,0.7974146,0,0,0.0,0.0,0,0,85.0,0.0,674.0,4690.256410256411,3968.717948717949,4541.538461538462,4469.2307692307695,4253.846153846154,4553.846153846154,4486.153846153847,4553.846153846154,4433.846153846154,4734.871794871796,4387.179487179487,4356.923076923077,4216.923076923077,4967.179487179488
965.3296,0.1400813,0.1782465,0.23844786,0.46813282,0,0.0,0.0,0.0,0.0,0.10944435,0,0,0.0,0.0,0,0,117.0,0.0,674.0,4758.974358974359,4019.48717948718,4590.256410256411,4523.589743589744,4302.051282051282,4603.076923076924,4524.102564102564,4618.461538461539,4452.307692307693,4770.769230769231,4429.2307692307695,4413.333333333334,4262.051282051282,5017.435897435898
965.5798,0.1400813,0.1782465,0.23844786,0.46813282,0,0.0,0.0,0.0,0.0,0.21809924,0,0,0.0,0.0,0,0,20.0,0.0,0.0,4727.6923076923085,3970.7692307692314,4542.564102564103,4482.051282051282,4254.871794871796,4554.871794871796,4477.948717948719,4545.128205128206,4430.256410256411,4719.48717948718,4378.461538461539,4348.205128205129,4202.051282051282,5004.102564102564
965.83,0.29880348,0.2052461,0.2300512,0.47904631,0,0.0,0.0,0.0,0.0,0.13695076,0,0,0.0,0.0,0,0,52.0,0.0,0.0,4725.641025641026,3971.2820512820517,4541.538461538462,4472.307692307693,4260.000000000001,4564.615384615385,4476.923076923077,4530.256410256411,4425.641025641026,4709.743589743591,4372.307692307693,4327.179487179487,4198.461538461539,4958.461538461539
966.0802,0.29880348,0.2052461,0.2300512,0.47904631,0,0.0,0.0,0.0,0.0,0.35930744,0,0,0.0,0.0,0,0,84.0,0.0,543.0,4718.974358974359,3979.48717948718,4538.461538461539,4474.358974358975,4270.769230769231,4573.333333333334,4479.48717948718,4522.564102564103,4434.358974358975,4738.974358974359,4381.538461538462,4331.282051282052,4208.717948717949,4965.641025641026
966.33044,0.27047572,0.22347555,0.22249857,0.4888686,0,0.0,0.0,0.0,0.0,0.15948884,0,0,0.0,0.0,0,0,116.0,0.0,543.0,4706.666666666667,3972.820512820513,4536.410256410257,4478.461538461539,4268.205128205129,4569.743589743591,4482.051282051282,4527.179487179488,4440.512820512821,4726.153846153847,4378.974358974359,4329.743589743591,4212.307692307693,4940.000000000001
966.5807,0.27047572,0.22347555,0.22249857,0.4888686,0,0.0,0.0,0.0,0.0,0.21882282,0,0,0.0,0.0,0,0,19.0,0.0,0.0,4696.923076923077,3950.2564102564106,4530.256410256411,4462.564102564103,4260.000000000001,4561.025641025642,4460.512820512821,4495.384615384616,4431.282051282052,4698.974358974359,4374.358974358975,4304.102564102564,4198.461538461539,4965.128205128206
966.8309,0.34215927,0.21852951,0.21685475,0.49294245,0,0.0,0.0,0.0,0.0,0.24786495,0,0,0.0,0.0,0,0,51.0,0.0,0.0,4691.282051282052,3954.358974358975,4516.410256410257,4447.6923076923085,4252.820512820514,4550.769230769231,4472.820512820514,4497.435897435898,4437.435897435898,4721.025641025642,4382.564102564103,4300.512820512821,4205.128205128206,4901.538461538462
967.0811,0.34215927,0.21852951,0.21685475,0.49294245,0,0.0,0.0,0.0,0.0,0.35314322,0,0,0.0,0.0,0,0,83.0,0.0,434.0,4685.641025641026,3946.1538461538466,4517.948717948719,4449.2307692307695,4253.333333333334,4550.256410256411,4475.8974358974365,4494.871794871796,4431.282051282052,4714.358974358975,4373.333333333334,4296.410256410257,4197.948717948719,4886.153846153847
967.3313,0.3244994,0.20903718,0.2135568,0.49422255,0,0.0,0.0,0.0,0.0,0.025841905,0,0,0.0,0.0,0,0,115.0,0.0,434.0,4693.846153846154,3955.8974358974365,4530.769230769231,4450.769230769231,4249.74358974359,4550.769230769231,4483.589743589744,4507.179487179488,4434.871794871796,4708.717948717949,4382.564102564103,4311.282051282052,4196.410256410257,4901.538461538462
967.58154,0.3244994,0.20903718,0.2135568,0.49422255,0,0.0,0.0,0.0,0.0,0.11022275,0,0,0.0,0.0,0,0,18.0,0.0,0.0,4708.717948717949,3988.205128205129,4554.871794871796,4483.589743589744,4281.538461538462,4578.461538461539,4513.333333333334,4530.256410256411,4447.6923076923085,4729.743589743591,4414.358974358975,4335.384615384616,4225.128205128206,4910.256410256411
967.8317,0.3197061,0.19143961,0.21189986,0.49532083,0,0.0,0.0,0.0,0.0,0.27842584,0,0,0.0,0.0,0,0,50.0,0.0,0.0,4722.564102564103,4007.1794871794878,4563.076923076924,4504.102564102564,4291.794871794872,4587.179487179488,4497.948717948719,4522.564102564103,4438.974358974359,4740.000000000001,4408.205128205129,4337.435897435898,4227.179487179487,4896.410256410257
968.082,0.3197061,0.19143961,0.21189986,0.49532083,0,0.0,0.0,0.0,0.0,0.5328026,0,0,0.0,0.0,0,0,82.0,0.0,528.0,4727.179487179488,4009.7435897435903,4568.205128205129,4501.025641025642,4297.435897435898,4596.923076923077,4514.358974358975,4550.769230769231,4453.333333333334,4743.589743589744,4424.102564102564,4348.717948717949,4236.923076923077,4869.2307692307695
968.33215,0.3698145,0.17342113,0.21196072,0.4963108,0,0.0,0.0,0.0,0.0,0.38166466,0,0,0.0,0.0,0,0,114.0,0.0,528.0,4714.358974358975,3991.2820512820517,4565.128205128206,4487.179487179488,4278.461538461539,4580.512820512821,4510.769230769231,4532.307692307693,4448.717948717949,4752.307692307693,4419.48717948718,4336.923076923077,4238.974358974359,4817.435897435898
968.5824,0.3698145,0.17342113,0.21196072,0.4963108,0,0.0,0.0,0.0,0.0,0.29237267,0,0,0.0,0.0,0,0,17.0,0.0,0.0,4671.282051282052,3956.410256410257,4525.641025641026,4446.153846153847,4246.153846153847,4556.923076923077,4504.615384615385,4507.6923076923085,4436.923076923077,4692.307692307693,4368.205128205129,4283.076923076924,4196.410256410257,4742.564102564103
968.8326,0.3794614,0.16135277,0.21146996,0.4986894,0,0.0,0.0,0.0,0.0,0.12155112,0,0,0.0,0.0,0,0,49.0,0.0,0.0,4711.282051282052,3996.410256410257,4569.743589743591,4486.153846153847,4263.076923076924,4571.282051282052,4540.512820512821,4508.717948717949,4449.2307692307695,4750.256410256411,4429.743589743591,4332.307692307693,4238.974358974359,4750.769230769231
969.0828,0.3794614,0.16135277,0.21146996,0.4986894,0,0.0,0.0,0.0,0.0,0.035664838,0,0,0.0,0.0,0,0,81.0,0.0,676.0,4761.025641025642,4045.6410256410263,4590.769230769231,4495.384615384616,4258.974358974359,4565.128205128206,4537.435897435898,4471.282051282052,4435.384615384616,4732.820512820514,4436.410256410257,4342.564102564103,4275.8974358974365,4763.076923076924
969.333,0.36746073,0.1663812,0.20817633,0.5145314,0,0.0,0.0,0.0,0.0,0.178765,0,0,0.0,0.0,0,0,113.0,0.0,676.0,4684.615384615386,3994.358974358975,4552.307692307693,4469.743589743591,4275.384615384616,4585.128205128206,4562.051282051282,4496.410256410257,4451.282051282052,4741.025641025642,4396.923076923077,4320.000000000001,4233.846153846154,4674.358974358975
969.58325,0.36746073,0.1663812,0.20817633,0.5145314,0,0.0,0.0,0.0,0.0,0.3476308,0,0,0.0,0.0,0,0,16.0,0.0,0.0,4680.512820512821,3999.48717948718,4544.102564102564,4462.051282051282,4279.48717948718,4582.051282051282,4544.102564102564,4477.435897435898,4440.512820512821,4758.461538461539,4380.000000000001,4308.205128205129,4230.256410256411,4641.538461538462
969.83344,0.32606214,0.15876845,0.20521688,0.53664404,0,0.0,0.0,0.0,0.0,0.53425616,0,0,0.0,0.0,0,0,48.0,0.0,0.0,4672.820512820514,3994.8717948717954,4539.48717948718,4446.666666666667,4272.307692307693,4572.307692307693,4532.820512820514,4493.846153846154,4437.948717948719,4741.025641025642,4368.717948717949,4310.256410256411,4231.282051282052,4735.8974358974365
970.0837,0.32606214,0.15876845,0.20521688,0.53664404,0,0.0,0.0,0.0,0.0,0.82278407,0,0,0.0,0.0,0,1,80.0,0.0,543.0,4696.410256410257,4020.5128205128212,4543.076923076924,4462.564102564103,4265.641025641026,4567.6923076923085,4512.307692307693,4511.794871794872,4441.025641025642,4712.307692307693,4378.461538461539,4330.256410256411,4248.205128205129,4823.589743589744
970.33386,0.2648244,0.17097798,0.20252885,0.5565457,0,0.0,0.0,0.0,0.0,0.092400946,0,0,0.0,0.0,0,1,112.0,0.0,543.0,4653.333333333334,3983.076923076924,4525.128205128206,4430.769230769231,4252.307692307693,4552.820512820514,4505.128205128206,4523.589743589744,4438.461538461539,4712.820512820514,4347.6923076923085,4304.615384615385,4206.666666666667,4786.153846153847
970.5841,0.2648244,0.17097798,0.20252885,0.5565457,0,0.0,0.0,0.0,0.0,0.10556533,0,0,0.0,0.0,0,0,15.0,0.0,434.0,4632.820512820514,3966.1538461538466,4520.000000000001,4428.205128205129,4242.564102564103,4545.641025641026,4475.384615384616,4494.358974358975,4433.846153846154,4693.333333333334,4314.871794871796,4272.820512820514,4187.6923076923085,4710.769230769231
970.8343,0.38314557,0.1801506,0.19911496,0.574457,0,0.0,0.0,0.0,0.0,0.0,0,0,0.0,0.0,0,0,47.0,0.0,0.0,4662.051282051282,3967.692307692308,4543.076923076924,4454.358974358975,4245.641025641026,4547.6923076923085,4469.743589743591,4489.2307692307695,4425.128205128206,4689.743589743591,4336.410256410257,4287.6923076923085,4202.051282051282,4750.256410256411
970.8343,0.38314557,0.1801506,0.19911496,0.574457,0,0.0,0.0,0.0,0.0,0.0,0,0,0.0,0.0,0,0,47.0,0.0,0.0,4662.051282051282,3967.692307692308,4543.076923076924,4454.358974358975,4245.641025641026,4547.6923076923085,4469.743589743591,4489.2307692307695,4425.128205128206,4689.743589743591,4336.410256410257,4287.6923076923085,4202.051282051282,4750.256410256411
971.3347,0.44784233,0.17517313,0.19604778,0.5841635,0,0.0,0.0,0.0,0.0,0.0,0,0,0.0,0.0,0,0,111.0,0.0,434.0,4663.589743589744,3994.8717948717954,4529.2307692307695,4464.615384615385,4244.615384615385,4546.153846153847,4457.948717948719,4528.717948717949,4442.564102564103,4774.358974358975,4349.2307692307695,4327.6923076923085,4263.076923076924,4802.564102564103
971.3347,0.44784233,0.17517313,0.19604778,0.5841635,0,0.0,0.0,0.0,0.0,0.0,0,0,0.0,0.0,0,0,111.0,0.0,434.0,4663.589743589744,3994.8717948717954,4529.2307692307695,4464.615384615385,4244.615384615385,4546.153846153847,4457.948717948719,4528.717948717949,4442.564102564103,4774.358974358975,4349.2307692307695,4327.6923076923085,4263.076923076924,4802.564102564103
971.8352,0.5380918,0.18641645,0.19501494,0.5917082,0,0.0,0.0,0.0,0.0,0.0,0,0,0.0,0.0,0,0,46.0,0.0,0.0,4715.8974358974365,4051.7948717948725,4592.307692307693,4537.948717948719,4214.871794871796,4516.410256410257,4491.794871794872,4659.48717948718,4460.512820512821,4913.333333333334,4359.48717948718,4428.717948717949,4370.256410256411,4923.076923076924
972.0854,0.5380918,0.18641645,0.19501494,0.5917082,0,0.0,0.0,0.0,0.0,0.3618081,0,0,0.0,0.0,0,0,78.0,0.0,528.0,4725.641025641026,4023.076923076924,4593.333333333334,4530.769230769231,4198.974358974359,4499.48717948718,4485.128205128206,4655.8974358974365,4447.179487179487,4894.358974358975,4324.102564102564,4424.615384615385,4355.384615384616,5009.2307692307695
972.33563,0.60731196,0.18197739,0.19409044,0.5984968,0,0.0,0.0,0.0,0.0,0.66247404,0,0,0.0,0.0,0,0,110.0,0.0,528.0,4737.435897435898,4004.615384615385,4589.2307692307695,4541.025641025642,4201.025641025642,4501.025641025642,4505.128205128206,4664.615384615386,4451.794871794872,4901.538461538462,4331.282051282052,4421.538461538462,4353.333333333334,4975.8974358974365
972.5858,0.60731196,0.18197739,0.19409044,0.5984968,0,0.0,0.0,0.0,0.0,0.10893154,0,0,0.0,0.0,0,0,13.0,0.0,682.0,4742.051282051282,3987.692307692308,4590.256410256411,4537.948717948719,4202.051282051282,4507.179487179488,4492.820512820514,4643.076923076924,4451.282051282052,4875.384615384616,4327.6923076923085,4408.205128205129,4325.641025641026,4990.256410256411
972.83606,0.6169115,0.18498233,0.19154043,0.6046046,0,0.0,0.0,0.0,0.0,0.14924672,0,0,0.0,0.0,0,0,45.0,0.0,0.0,4765.641025641026,3989.7435897435903,4602.051282051282,4541.538461538462,4202.051282051282,4505.641025641026,4497.948717948719,4620.000000000001,4448.717948717949,4872.307692307693,4340.000000000001,4405.128205128206,4320.000000000001,4983.076923076924
973.08624,0.6169115,0.18498233,0.19154043,0.6046046,0,0.0,0.0,0.0,0.0,0.13604139,0,0,0.0,0.0,0,0,77.0,0.0,682.0,4731.282051282052,3951.2820512820517,4567.6923076923085,4506.153846153847,4221.538461538462,4533.333333333334,4512.820512820514,4618.974358974359,4458.974358974359,4894.358974358975,4330.769230769231,4391.282051282052,4284.615384615385,4925.128205128206
973.3365,0.5741163,0.19515644,0.19094771,0.60570216,0,0.0,0.0,0.0,0.0,0.8057202,0,0,0.0,0.0,0,0,109.0,0.0,682.0,4750.256410256411,3958.9743589743593,4571.794871794872,4495.8974358974365,4227.179487179487,4535.384615384616,4513.333333333334,4601.538461538462,4452.820512820514,4917.948717948719,4336.410256410257,4383.589743589744,4293.333333333334,4853.846153846154
973.5867,0.5741163,0.19515644,0.19094771,0.60570216,0,0.0,0.0,0.0,0.0,0.6247901,0,0,0.0,0.0,0,0,12.0,0.0,543.0,4769.743589743591,3977.9487179487182,4588.205128205129,4522.564102564103,4245.641025641026,4555.384615384616,4545.641025641026,4568.717948717949,4462.564102564103,5023.589743589744,4367.6923076923085,4408.717948717949,4311.282051282052,4775.384615384616
973.8369,0.6033177,0.19999684,0.19178392,0.6138802,0,0.0,0.0,0.0,0.0,0.36570632,0,0,0.0,0.0,0,0,44.0,0.0,0.0,4761.025641025642,3983.076923076924,4571.794871794872,4514.358974358975,4267.6923076923085,4576.410256410257,4567.179487179488,4549.2307692307695,4465.128205128206,5045.641025641026,4377.435897435898,4401.025641025642,4308.205128205129,4707.6923076923085
974.0871,0.6033177,0.19999684,0.19178392,0.6138802,0,0.0,0.0,0.0,0.0,0.3450378,0,0,0.0,0.0,0,0,76.0,0.0,543.0,4769.2307692307695,3971.7948717948725,4580.000000000001,4520.000000000001,4279.48717948718,4582.051282051282,4589.743589743591,4551.794871794872,4467.179487179487,4996.923076923077,4380.512820512821,4390.769230769231,4292.820512820514,4664.615384615386
974.33734,0.5885932,0.20875347,0.19093244,0.6276161,0,0.0,0.0,0.0,0.0,0.51699704,0,0,0.0,0.0,0,0,108.0,0.0,543.0,4779.48717948718,3983.076923076924,4564.102564102564,4523.589743589744,4299.48717948718,4600.000000000001,4585.128205128206,4533.333333333334,4470.769230769231,4967.6923076923085,4385.641025641026,4389.743589743591,4291.282051282052,4627.6923076923085
974.5875,0.5885932,0.20875347,0.19093244,0.6276161,0,0.0,0.0,0.0,0.0,0.28447253,0,0,0.0,0.0,0,0,11.0,0.0,434.0,4788.717948717949,3975.3846153846157,4582.051282051282,4521.025641025642,4302.564102564103,4600.512820512821,4572.820512820514,4511.794871794872,4467.179487179487,4904.615384615386,4385.641025641026,4373.333333333334,4289.2307692307695,4618.974358974359
974.83777,0.6281852,0.20881921,0.18964964,0.6399723,0,0.0,0.0,0.0,0.0,0.05566233,0,0,0.0,0.0,0,0,43.0,0.0,0.0,4782.051282051282,3967.1794871794878,4585.641025641026,4513.846153846154,4305.128205128206,4602.564102564103,4577.948717948719,4505.641025641026,4476.923076923077,4866.153846153847,4425.128205128206,4370.256410256411,4274.871794871796,4612.820512820514
974.9629,0.6281852,0.20881921,0.18964964,0.6399723,0,0.0,0.0,0.0,0.0,0.0,0,0,0.0,0.0,0,0,59.0,0.0,0.0,4786.666666666667,3972.820512820513,4594.871794871796,4510.256410256411,4310.769230769231,4609.2307692307695,4568.717948717949,4497.948717948719,4481.025641025642,4848.205128205129,4433.333333333334,4364.615384615385,4264.615384615385,4591.794871794872
975.3382,0.6107979,0.2045395,0.18886825,0.6510857,0,0.0,0.0,0.0,0.0,0.15403265,0,0,0.0,0.0,0,0,73.0,0.0,457.0,4783.076923076924,3979.48717948718,4587.6923076923085,4508.205128205129,4306.666666666667,4604.615384615385,4569.743589743591,4498.974358974359,4484.615384615385,4843.076923076924,4435.8974358974365,4363.589743589744,4265.128205128206,4580.000000000001
975.5884,0.6107979,0.2045395,0.18886825,0.6510857,0,0.0,0.0,0.29457268,0.0,0.0,0,0,0.0,0.0,0,0,10.0,0.0,528.0,4773.846153846154,3977.9487179487182,4580.512820512821,4504.615384615385,4314.871794871796,4622.564102564103,4563.589743589744,4482.051282051282,4474.871794871796,4774.358974358975,4440.512820512821,4338.974358974359,4209.74358974359,4548.717948717949
975.8386,0.70798165,0.20433414,0.18905939,0.66107917,0,0.0,0.0,0.0,0.0,0.0,0,0,0.0,0.0,0,0,35.0,0.0,0.0,4774.871794871796,3990.7692307692314,4580.512820512821,4515.8974358974365,4314.871794871796,4619.48717948718,4566.666666666667,4484.102564102564,4481.025641025642,4780.000000000001,4446.153846153847,4337.948717948719,4201.025641025642,4533.846153846154
975.8386,0.70798165,0.20433414,0.18905939,0.66107917,0,0.0,0.0,0.0,0.0,0.0,0,0,0.0,0.0,0,0,42.0,0.0,0.0,4765.641025641026,3983.076923076924,4571.282051282052,4512.820512820514,4312.307692307693,4620.512820512821,4554.871794871796,4472.820512820514,4471.282051282052,4766.153846153847,4433.846153846154,4336.410256410257,4201.025641025642,4533.333333333334
975.8386,0.70798165,0.20433414,0.18905939,0.66107917,0,0.0,0.0,0.0,0.0,0.0,0,0,0.0,0.0,0,0,42.0,0.0,0.0,4765.641025641026,3983.076923076924,4571.282051282052,4512.820512820514,4312.307692307693,4620.512820512821,4554.871794871796,4472.820512820514,4471.282051282052,4766.153846153847,4433.846153846154,4336.410256410257,4201.025641025642,4533.333333333334
976.33905,0.73464966,0.20255594,0.1892365,0.6700639,0,0.0,0.0,0.0,0.0,0.0,0,0,0.0,0.0,0,0,106.0,0.0,528.0,4762.564102564103,3974.358974358975,4580.512820512821,4490.769230769231,4308.205128205129,4616.923076923077,4537.948717948719,4476.410256410257,4485.128205128206,4756.923076923077,4441.025641025642,4333.846153846154,4180.512820512821,4508.205128205129
976.33905,0.73464966,0.20255594,0.1892365,0.6700639,0,0.0,0.0,0.0,0.0,0.0,0,0,0.0,0.0,0,0,106.0,0.0,528.0,4762.564102564103,3974.358974358975,4580.512820512821,4490.769230769231,4308.205128205129,4616.923076923077,4537.948717948719,4476.410256410257,4485.128205128206,4756.923076923077,4441.025641025642,4333.846153846154,4180.512820512821,4508.205128205129
977.08966,0.70642,0.19143584,0.189401,0.6772206,0,0.0,0.0,0.0,0.0,0.073706225,0,0,0.0,0.0,0,0,73.0,0.0,457.0,4735.384615384616,3965.6410256410263,4565.128205128206,4478.974358974359,4306.666666666667,4603.076923076924,4501.538461538462,4447.179487179487,4463.589743589744,4714.871794871796,4433.846153846154,4304.102564102564,4184.615384615385,4483.589743589744
977.2148,0.70642,0.19143584,0.189401,0.6772206,0,0.0,0.0,0.0,0.0,0.07748986,0,0,0.0,0.0,0,0,89.0,0.0,682.0,4726.666666666667,3971.2820512820517,4570.256410256411,4483.076923076924,4305.128205128206,4604.615384615385,4517.948717948719,4471.282051282052,4472.820512820514,4738.974358974359,4437.948717948719,4311.282051282052,4192.307692307693,4475.8974358974365
977.59015,0.71839523,0.18244562,0.18955411,0.68576896,0,0.0,0.0,0.0,0.0,0.06787804,0,0,0.0,0.0,0,0,8.0,0.0,414.0,4704.102564102564,3974.8717948717954,4552.307692307693,4486.666666666667,4298.461538461539,4599.48717948718,4493.846153846154,4430.769230769231,4453.846153846154,4711.794871794872,4408.717948717949,4293.333333333334,4197.435897435898,4450.769230769231
977.84033,0.6696482,0.18270546,0.18943399,0.69834876,0,0.0,0.0,0.0,0.0,0.0,0,0,0.0,0.0,0,0,32.0,0.0,0.0,4769.743589743591,4023.589743589744,4569.2307692307695,4496.410256410257,4292.307692307693,4590.769230769231,4496.410256410257,4428.205128205129,4453.846153846154,4712.307692307693,4432.820512820514,4311.794871794872,4227.6923076923085,4497.435897435898
977.84033,0.6696482,0.18270546,0.18943399,0.69834876,0,0.0,0.0,0.0,0.0,0.0,0,0,0.0,0.0,0,0,40.0,0.0,0.0,4722.051282051282,3991.2820512820517,4559.48717948718,4487.179487179488,4301.025641025642,4598.974358974359,4504.102564102564,4447.6923076923085,4467.179487179487,4734.871794871796,4430.256410256411,4311.282051282052,4224.102564102564,4475.8974358974365
977.84033,0.6696482,0.18270546,0.18943399,0.69834876,0,0.0,0.0,0.0,0.0,0.0,0,0,0.0,0.0,0,0,40.0,0.0,0.0,4722.051282051282,3991.2820512820517,4559.48717948718,4487.179487179488,4301.025641025642,4598.974358974359,4504.102564102564,4447.6923076923085,4467.179487179487,4734.871794871796,4430.256410256411,4311.282051282052,4224.102564102564,4475.8974358974365
978.34076,0.638518,0.18470223,0.19022018,0.70360583,0,0.0,0.0,0.0,0.0,0.0,0,0,0.0,0.0,0,0,104.0,0.0,541.0,4665.641025641026,3939.48717948718,4546.153846153847,4434.871794871796,4280.000000000001,4581.538461538462,4504.102564102564,4413.333333333334,4437.435897435898,4679.48717948718,4405.128205128206,4266.153846153847,4184.102564102564,4440.000000000001
978.71606,0.638518,0.18470223,0.19022018,0.70360583,0,0.0,0.0,0.0,0.0,0.04984543,0,0,0.0,0.0,0,0,23.0,0.0,0.0,4661.538461538462,3945.6410256410263,4553.846153846154,4438.974358974359,4270.769230769231,4575.384615384616,4494.871794871796,4421.025641025642,4436.410256410257,4690.256410256411,4405.641025641026,4264.615384615385,4195.8974358974365,4438.974358974359
978.8412,0.7062723,0.18913804,0.19256882,0.70206213,0,0.0,0.0,0.0,0.0,0.0,0,0,0.0,0.0,0,0,39.0,0.0,0.0,4680.512820512821,3962.0512820512827,4560.000000000001,4447.179487179487,4280.512820512821,4581.538461538462,4498.974358974359,4424.102564102564,4440.512820512821,4714.871794871796,4428.717948717949,4279.48717948718,4221.538461538462,4452.820512820514
978.8412,0.7062723,0.18913804,0.19256882,0.70206213,0,0.0,0.0,0.0,0.0,0.0,0,0,0.0,0.0,0,0,39.0,0.0,0.0,4680.512820512821,3962.0512820512827,4560.000000000001,4447.179487179487,4280.512820512821,4581.538461538462,4498.974358974359,4424.102564102564,4440.512820512821,4714.871794871796,4428.717948717949,4279.48717948718,4221.538461538462,4452.820512820514
979.3416,0.7161572,0.20080884,0.19468711,0.6966521,0,0.0,0.0,0.0,0.0,0.0,0,0,0.0,0.0,0,0,103.0,0.0,444.0,4672.307692307693,3970.2564102564106,4547.179487179488,4465.128205128206,4287.6923076923085,4587.179487179488,4480.000000000001,4410.769230769231,4423.589743589744,4734.358974358975,4400.512820512821,4267.179487179487,4232.307692307693,4413.846153846154
979.84204,0.6508665,0.19855393,0.19678171,0.68022394,0,0.0,0.0,0.0,0.0,0.0,0,0,0.0,0.0,0,0,31.0,0.0,0.0,4651.282051282052,3969.2307692307695,4549.743589743591,4451.794871794872,4258.974358974359,4554.871794871796,4468.717948717949,4428.205128205129,4423.076923076924,4784.102564102564,4351.282051282052,4282.564102564103,4290.256410256411,4363.076923076924
980.0923,0.6508665,0.19855393,0.19678171,0.68022394,0,0.0,0.0,0.8672056,0.0,0.0,0,0,0.0,0.0,0,0,70.0,0.0,532.0,4682.051282051282,3992.820512820513,4577.948717948719,4512.820512820514,4237.435897435898,4530.769230769231,4466.153846153847,4448.205128205129,4436.410256410257,4857.948717948719,4350.769230769231,4322.051282051282,4357.948717948719,4369.743589743591
980.34247,0.7207475,0.20903955,0.20136325,0.6545429,0,0.0,0.0,0.0,0.0,0.0,0,0,0.0,0.0,0,0,102.0,0.0,528.0,4684.102564102564,3972.820512820513,4585.641025641026,4502.564102564103,4236.923076923077,4526.666666666667,4487.179487179488,4478.974358974359,4437.948717948719,4863.589743589744,4341.538461538462,4327.179487179487,4348.717948717949,4357.435897435898
980.34247,0.7207475,0.20903955,0.20136325,0.6545429,0,0.0,0.0,0.0,0.0,0.0,0,0,0.0,0.0,0,0,102.0,0.0,528.0,4684.102564102564,3972.820512820513,4585.641025641026,4502.564102564103,4236.923076923077,4526.666666666667,4487.179487179488,4478.974358974359,4437.948717948719,4863.589743589744,4341.538461538462,4327.179487179487,4348.717948717949,4357.435897435898
980.8429,0.6705641,0.24273582,0.2059227,0.6279922,0,0.0,0.0,0.0,0.0,0.0,0,0,0.0,0.0,0,0,37.0,0.0,0.0,4656.923076923077,3920.0000000000005,4554.358974358975,4488.717948717949,4227.6923076923085,4517.948717948719,4471.794871794872,4441.538461538462,4429.743589743591,4870.769230769231,4312.307692307693,4297.435897435898,4275.8974358974365,4346.153846153847
981.09314,0.6705641,0.24273582,0.2059227,0.6279922,0,0.0,0.0,0.0,0.0,0.060397822,0,0,0.0,0.0,0,0,69.0,0.0,544.0,4649.2307692307695,3910.7692307692314,4556.923076923077,4485.128205128206,4232.307692307693,4523.076923076924,4488.717948717949,4446.666666666667,4437.435897435898,4870.769230769231,4316.923076923077,4298.974358974359,4267.6923076923085,4349.743589743591
981.3433,0.6201651,0.2509688,0.21002983,0.60202456,0,0.0,0.0,0.0,0.0,0.0,0,0,0.0,0.0,0,0,101.0,0.0,689.0,4643.076923076924,3898.461538461539,4545.128205128206,4463.076923076924,4217.435897435898,4508.717948717949,4457.435897435898,4413.333333333334,4424.102564102564,4825.641025641026,4297.435897435898,4273.846153846154,4253.846153846154,4334.871794871796
981.3433,0.6201651,0.2509688,0.21002983,0.60202456,0,0.0,0.0,0.0,0.0,0.0,0,0,0.0,0.0,0,0,101.0,0.0,689.0,4643.076923076924,3898.461538461539,4545.128205128206,4463.076923076924,4217.435897435898,4508.717948717949,4457.435897435898,4413.333333333334,4424.102564102564,4825.641025641026,4297.435897435898,4273.846153846154,4253.846153846154,4334.871794871796
981.84375,0.62767607,0.2547425,0.21246313,0.57865417,0,0.0,0.0,0.0,0.0,0.0,0,0,0.0,0.0,0,0,36.0,0.0,0.0,4633.846153846154,3890.2564102564106,4514.871794871796,4458.974358974359,4217.948717948719,4518.461538461539,4431.794871794872,4378.461538461539,4405.128205128206,4758.974358974359,4278.974358974359,4235.384615384616,4194.871794871796,4316.923076923077
981.84375,0.62767607,0.2547425,0.21246313,0.57865417,0,0.0,0.0,0.0,0.0,0.0,0,0,0.0,0.0,0,0,36.0,0.0,0.0,4633.846153846154,3890.2564102564106,4514.871794871796,4458.974358974359,4217.948717948719,4518.461538461539,4431.794871794872,4378.461538461539,4405.128205128206,4758.974358974359,4278.974358974359,4235.384615384616,4194.871794871796,4316.923076923077
982.3442,0.62852466,0.24286188,0.21465683,0.56038815,0,0.0,0.0,0.0,0.0,0.0,0,0,0.0,0.0,0,0,100.0,0.0,541.0,4678.461538461539,3945.1282051282055,4522.564102564103,4464.615384615385,4206.153846153847,4509.2307692307695,4412.820512820514,4381.538461538462,4411.794871794872,4799.48717948718,4339.48717948718,4271.282051282052,4262.564102564103,4350.256410256411
982.3442,0.62852466,0.24286188,0.21465683,0.56038815,0,0.0,0.0,0.0,0.0,0.0,0,0,0.0,0.0,0,0,100.0,0.0,541.0,4678.461538461539,3945.1282051282055,4522.564102564103,4464.615384615385,4206.153846153847,4509.2307692307695,4412.820512820514,4381.538461538462,4411.794871794872,4799.48717948718,4339.48717948718,4271.282051282052,4262.564102564103,4350.256410256411
982.84467,0.52759355,0.22327253,0.21663482,0.5439486,0,0.0,0.0,0.0,0.0,0.15411565,0,0,0.0,0.0,0,0,31.0,0.0,0.0,4595.8974358974365,3875.3846153846157,4500.000000000001,4442.564102564103,4229.2307692307695,4524.615384615385,4420.512820512821,4390.256410256411,4407.6923076923085,4784.615384615386,4304.615384615385,4244.102564102564,4208.717948717949,4276.410256410257
983.09485,0.52759355,0.22327253,0.21663482,0.5439486,0,0.0,0.0,0.0,0.0,0.0,0,0,0.0,0.0,0,0,67.0,0.0,530.0,4599.48717948718,3874.358974358975,4501.025641025642,4432.820512820514,4216.410256410257,4511.282051282052,4418.461538461539,4380.512820512821,4402.051282051282,4750.769230769231,4294.871794871796,4230.256410256411,4190.769230769231,4271.794871794872
983.3451,0.4769564,0.20673016,0.21792418,0.5351985,0,0.0,0.0,0.0,0.0,0.0,0,0,0.0,0.0,0,0,99.0,0.0,448.0,4627.6923076923085,3890.2564102564106,4505.128205128206,4438.974358974359,4218.461538461539,4518.974358974359,4407.179487179487,4358.974358974359,4408.205128205129,4738.974358974359,4314.358974358975,4236.923076923077,4201.025641025642,4288.717948717949
983.5953,0.4769564,0.20673016,0.21792418,0.5351985,0,0.0,0.0,0.0,0.0,0.14867921,0,0,0.0,0.0,0,0,2.0,0.0,442.0,4656.410256410257,3878.9743589743593,4514.358974358975,4448.205128205129,4207.6923076923085,4511.794871794872,4433.846153846154,4417.435897435898,4419.48717948718,4733.333333333334,4349.2307692307695,4258.461538461539,4218.461538461539,4316.410256410257
983.8455,0.5067237,0.2146606,0.2188027,0.53440046,0,0.0,0.0,0.0,0.0,0.088975236,0,0,0.0,0.0,0,0,34.0,0.0,0.0,4677.435897435898,3888.205128205129,4511.282051282052,4439.48717948718,4212.820512820514,4520.512820512821,4427.6923076923085,4389.743589743591,4406.153846153847,4743.589743589744,4361.538461538462,4257.948717948719,4231.794871794872,4330.769230769231
984.0957,0.5067237,0.2146606,0.2188027,0.53440046,0,0.0,0.0,0.0,0.0,0.2766042,0,0,0.0,0.0,0,0,66.0,0.0,442.0,4695.8974358974365,3900.5128205128212,4504.102564102564,4441.025641025642,4202.564102564103,4512.307692307693,4406.153846153847,4382.564102564103,4396.923076923077,4734.871794871796,4343.589743589744,4243.076923076924,4201.025641025642,4311.282051282052
984.34595,0.50104105,0.23472603,0.22008355,0.54192156,0,0.0,0.0,0.0,0.0,0.09503474,0,0,0.0,0.0,0,0,98.0,0.0,528.0,4653.333333333334,3863.589743589744,4481.538461538462,4414.358974358975,4204.102564102564,4519.48717948718,4428.717948717949,4414.358974358975,4406.666666666667,4718.461538461539,4311.794871794872,4221.538461538462,4158.461538461539,4301.025641025642
984.5961,0.50104105,0.23472603,0.22008355,0.54192156,0,0.0,0.0,0.0,0.0,0.0,0,0,0.0,0.0,0,0,1.0,0.0,481.0,4678.461538461539,3883.076923076924,4497.948717948719,4433.846153846154,4199.48717948718,4515.384615384616,4413.846153846154,4390.769230769231,4403.076923076924,4696.923076923077,4323.076923076924,4229.2307692307695,4166.153846153847,4316.923076923077
984.8464,0.52075857,0.24315995,0.22125602,0.5553489,0,0.0,0.0,0.0,0.0,0.0,0,0,0.0,0.0,0,0,33.0,0.0,0.0,4690.256410256411,3893.8461538461543,4505.641025641026,4444.615384615385,4197.948717948719,4516.923076923077,4415.8974358974365,4397.948717948719,4396.923076923077,4665.128205128206,4339.48717948718,4235.8974358974365,4168.717948717949,4342.564102564103
984.8464,0.52075857,0.24315995,0.22125602,0.5553489,0,0.0,0.0,0.0,0.0,0.0,0,0,0.0,0.0,0,0,33.0,0.0,0.0,4690.256410256411,3893.8461538461543,4505.641025641026,4444.615384615385,4197.948717948719,4516.923076923077,4415.8974358974365,4397.948717948719,4396.923076923077,4665.128205128206,4339.48717948718,4235.8974358974365,4168.717948717949,4342.564102564103
985.3468,0.5403236,0.24794386,0.2223148,0.56743336,0,0.0,0.0,0.0,0.0,0.0,0,0,0.0,0.0,0,0,82.0,0.0,528.0,4697.948717948719,3910.7692307692314,4507.179487179488,4435.8974358974365,4200.000000000001,4517.435897435898,4444.102564102564,4423.076923076924,4410.256410256411,4654.358974358975,4358.974358974359,4256.923076923077,4167.6923076923085,4372.820512820514
985.3468,0.5403236,0.24794386,0.2223148,0.56743336,0,0.0,0.0,0.0,0.0,0.0,0,0,0.0,0.0,0,0,97.0,0.0,701.0,4727.179487179488,3927.1794871794878,4506.666666666667,4443.589743589744,4203.076923076924,4524.102564102564,4446.666666666667,4420.512820512821,4406.666666666667,4640.000000000001,4378.974358974359,4265.641025641026,4189.74358974359,4402.564102564103
985.8472,0.57352865,0.250367,0.22411565,0.5783088,0,0.0,0.0,0.0,0.0,0.0,0,0,0.0,0.0,0,0,13.0,0.0,702.0,4673.333333333334,3856.9230769230776,4475.384615384616,4404.102564102564,4193.846153846154,4517.435897435898,4464.102564102564,4415.8974358974365,4407.179487179487,4601.025641025642,4372.820512820514,4231.282051282052,4103.076923076924,4396.923076923077
985.8472,0.57352865,0.250367,0.22411565,0.5783088,0,0.0,0.0,0.0,0.0,0.0,0,0,0.0,0.0,0,0,32.0,0.0,0.0,4672.307692307693,3876.9230769230776,4486.153846153847,4407.179487179487,4185.641025641026,4513.846153846154,4463.076923076924,4432.820512820514,4409.2307692307695,4616.923076923077,4384.615384615385,4236.923076923077,4100.000000000001,4417.948717948719
986.34766,0.53266025,0.24649188,0.2257398,0.57491136,0,0.0,0.0,0.0,0.0,0.0,0,0,0.0,0.0,0,0,75.0,0.0,450.0,4664.615384615386,3865.1282051282055,4479.48717948718,4416.923076923077,4179.48717948718,4507.179487179488,4447.6923076923085,4407.6923076923085,4394.871794871796,4583.076923076924,4389.2307692307695,4225.641025641026,4092.307692307693,4446.153846153847
986.34766,0.53266025,0.24649188,0.2257398,0.57491136,0,0.0,0.0,0.0,0.0,0.0,0,0,0.0,0.0,0,0,96.0,0.0,541.0,4668.717948717949,3871.7948717948725,4477.435897435898,4416.410256410257,4173.333333333334,4506.153846153847,4439.48717948718,4402.051282051282,4394.871794871796,4589.2307692307695,4396.923076923077,4229.74358974359,4082.564102564103,4466.153846153847
