timestamp,excitement,frustration,meditation,engagementBoredom,blink,clench,laugh,smile,eyebrow,furrowBrow,lookLeft,lookRight,smirkLeft,smirkRight,winkLeft,winkRight,eeg0,eeg1,eeg2,eeg3,eeg4,eeg5,eeg6,eeg7,eeg8,eeg9,eeg10,eeg11,eeg12,eeg13,eeg14,eeg15,eeg16
448.03348,0.7452518,1.0,0.33426613,0.55239385,0,0.0,0.0,0.04417858,0.0,0.0,0,0,0.0,0.0,0,0,5.0,0.0,549.0,4748.717948717949,3873.8461538461543,4495.384615384616,4376.410256410257,4224.102564102564,4513.333333333334,4303.589743589744,4398.974358974359,4363.076923076924,4672.307692307693,4285.641025641026,4233.846153846154,4218.974358974359,4527.179487179488
448.2837,0.7452518,1.0,0.33426613,0.55239385,0,0.0,0.0,0.12481532,0.0,0.0,0,0,0.0,0.0,0,0,37.0,0.0,0.0,4750.769230769231,3939.48717948718,4505.641025641026,4443.076923076924,4224.102564102564,4512.820512820514,4300.512820512821,4400.000000000001,4349.2307692307695,4689.743589743591,4188.205128205129,4231.282051282052,4180.000000000001,4507.179487179488
448.5339,0.6665744,1.0,0.33417183,0.5523783,0,0.0,0.0,0.18328081,0.0,0.0,0,0,0.0,0.0,0,0,69.0,0.0,549.0,4729.743589743591,3910.7692307692314,4495.384615384616,4418.461538461539,4211.794871794872,4503.589743589744,4303.076923076924,4394.871794871796,4341.538461538462,4662.564102564103,4101.538461538462,4208.717948717949,4174.358974358975,4495.8974358974365
448.78412,0.6665744,1.0,0.33417183,0.5523783,0,0.0,0.0,0.03999342,0.0,0.0,0,0,0.0,0.0,0,0,101.0,0.0,720.0,4732.307692307693,3925.6410256410263,4505.128205128206,4434.358974358975,4230.256410256411,4517.948717948719,4315.384615384616,4414.871794871796,4368.717948717949,4711.282051282052,4436.410256410257,4272.307692307693,4214.358974358975,4519.48717948718
449.03433,0.6064066,1.0,0.33408707,0.553305,0,0.0,0.0,0.0,0.0,0.0,0,0,0.0,0.27784967,0,0,4.0,0.0,551.0,4758.461538461539,3899.48717948718,4525.128205128206,4423.076923076924,4211.794871794872,4508.717948717949,4316.923076923077,4430.256410256411,4385.641025641026,4784.615384615386,4360.000000000001,4303.589743589744,4382.564102564103,4590.256410256411
449.28455,0.6064066,1.0,0.33408707,0.553305,0,0.0,0.0,0.0,0.0,0.0,0,0,0.0,0.35082352,0,0,36.0,0.0,0.0,4720.000000000001,3895.3846153846157,4516.923076923077,4415.384615384616,4241.538461538462,4529.743589743591,4337.948717948719,4434.871794871796,4369.743589743591,4760.512820512821,4224.615384615385,4271.794871794872,4290.769230769231,4537.948717948719
449.53476,0.5598786,1.0,0.3351362,0.55413896,0,0.0,0.0,0.0,0.0,0.0,0,0,0.0,0.13813765,0,0,68.0,0.0,551.0,4705.128205128206,3885.1282051282055,4509.2307692307695,4400.000000000001,4237.948717948719,4524.615384615385,4341.025641025642,4450.256410256411,4365.641025641026,4732.307692307693,4180.512820512821,4256.923076923077,4258.974358974359,4525.641025641026
449.78497,0.5598786,1.0,0.3351362,0.55413896,0,0.0,0.0,0.0,0.0,0.0,0,0,0.0,0.07850967,0,0,100.0,0.0,571.0,4704.102564102564,3887.692307692308,4508.717948717949,4384.102564102564,4222.051282051282,4507.6923076923085,4313.333333333334,4426.153846153847,4362.051282051282,4764.102564102564,4232.820512820514,4263.076923076924,4284.615384615385,4520.000000000001
449.9101,0.5249551,1.0,0.34272572,0.5619544,0,0.0,0.0,0.0,0.0,0.0,0,0,0.0,0.0,0,0,116.0,0.0,571.0,4701.025641025642,3885.1282051282055,4495.8974358974365,4369.743589743591,4215.384615384616,4504.615384615385,4315.384615384616,4387.6923076923085,4334.358974358975,4678.974358974359,4240.000000000001,4236.410256410257,4246.666666666667,4512.820512820514
450.2854,0.5249551,1.0,0.34272572,0.5619544,0,0.0,0.0,0.0,0.0,0.0,0,0,0.0,0.585359,0,0,35.0,0.0,0.0,4698.461538461539,3888.717948717949,4486.153846153847,4354.871794871796,4211.282051282052,4498.461538461539,4307.179487179487,4357.435897435898,4333.333333333334,4641.538461538462,4562.564102564103,4239.48717948718,4176.923076923077,4472.307692307693
450.5356,0.47691852,1.0,0.35537675,0.5691524,0,0.0,0.0,0.0,0.0,0.0,0,0,0.0,0.16502726,0,0,67.0,0.0,533.0,4702.051282051282,3902.0512820512827,4493.333333333334,4373.333333333334,4213.846153846154,4502.051282051282,4310.256410256411,4369.743589743591,4336.410256410257,4641.025641025642,4398.461538461539,4241.025641025642,4194.871794871796,4484.615384615385
450.78583,0.47691852,1.0,0.35537675,0.5691524,0,0.0,0.0,0.0,0.0,0.0,0,0,0.0,1.0,0,0,99.0,0.0,441.0,4688.717948717949,3904.1025641025644,4480.000000000001,4372.820512820514,4225.128205128206,4515.384615384616,4317.948717948719,4391.282051282052,4350.769230769231,4775.384615384616,4388.205128205129,4261.025641025642,4214.871794871796,4466.666666666667
451.03604,0.46954125,1.0,0.36676115,0.569501,0,0.0,0.0,0.0,0.0,0.0,0,0,0.0,0.32483423,0,0,2.0,0.0,448.0,4705.641025641026,3894.358974358975,4495.384615384616,4386.666666666667,4241.538461538462,4535.384615384616,4340.512820512821,4436.410256410257,4380.512820512821,4762.564102564103,4478.461538461539,4305.128205128206,4255.384615384616,4493.846153846154
451.28625,0.46954125,1.0,0.36676115,0.569501,0,0.0,0.0,0.055322293,0.0,0.0,0,0,0.0,0.0,0,0,34.0,0.0,0.0,4710.256410256411,3902.564102564103,4486.666666666667,4393.333333333334,4232.820512820514,4531.282051282052,4328.717948717949,4438.974358974359,4382.564102564103,4728.717948717949,4310.256410256411,4282.564102564103,4226.153846153847,4490.256410256411
451.53647,0.39109027,1.0,0.3770047,0.5698139,0,0.0,0.0,0.08572736,0.0,0.0,0,0,0.0,0.0,0,0,66.0,0.0,448.0,4717.435897435898,3906.1538461538466,4492.820512820514,4412.307692307693,4242.051282051282,4540.512820512821,4336.410256410257,4434.871794871796,4401.025641025642,4741.538461538462,4526.666666666667,4313.846153846154,4231.282051282052,4507.179487179488
451.78668,0.39109027,1.0,0.3770047,0.5698139,0,0.0,0.0,0.0,0.0,0.0,0,0,0.0,0.121512756,0,0,98.0,0.0,532.0,4719.48717948718,3925.1282051282055,4501.025641025642,4436.923076923077,4247.179487179487,4548.205128205129,4339.48717948718,4469.743589743591,4405.128205128206,4775.384615384616,4451.282051282052,4325.128205128206,4248.717948717949,4504.615384615385
452.0369,0.3888339,1.0,0.38572592,0.5771752,1,0.0,0.0,0.0,0.0,0.0,0,0,0.0,0.16936512,0,0,1.0,0.0,472.0,4715.384615384616,3918.9743589743593,4491.282051282052,4411.282051282052,4238.974358974359,4541.538461538462,4383.076923076924,4534.871794871796,4413.333333333334,4788.205128205129,4267.6923076923085,4315.8974358974365,4254.871794871796,4508.205128205129
452.2871,0.3888339,1.0,0.38572592,0.5771752,0,0.0,0.0,0.022586014,0.0,0.0,0,0,0.0,0.0,0,0,33.0,0.0,0.0,4746.666666666667,3939.48717948718,4529.2307692307695,4441.538461538462,4256.410256410257,4570.256410256411,4447.6923076923085,4588.717948717949,4420.512820512821,4827.6923076923085,4343.589743589744,4434.871794871796,4271.282051282052,4547.6923076923085
452.53735,0.40937844,1.0,0.3907188,0.5945416,0,0.0,0.0,0.06921284,0.0,0.0,0,0,0.0,0.0,0,0,65.0,0.0,472.0,4765.128205128206,3986.1538461538466,4541.538461538462,4434.871794871796,4266.666666666667,4590.256410256411,4484.102564102564,4620.512820512821,4429.2307692307695,4887.179487179488,4529.2307692307695,4462.051282051282,4334.871794871796,4582.564102564103
452.78757,0.40937844,1.0,0.3907188,0.5945416,0,0.0,0.0,0.19567539,0.0,0.0,0,0,0.0,0.0,0,0,97.0,0.0,734.0,4740.512820512821,3974.358974358975,4501.025641025642,4249.2307692307695,4289.2307692307695,4603.589743589744,4470.256410256411,4581.025641025642,4373.333333333334,4883.076923076924,4469.2307692307695,4420.512820512821,4321.025641025642,4577.435897435898
453.03778,0.48913127,1.0,0.38981915,0.60324585,0,0.0,0.0,0.0,0.0,0.0,0,0,0.0,0.0,0,0,0.0,0.0,491.0,4762.051282051282,3977.9487179487182,4468.717948717949,4252.820512820514,4291.794871794872,4597.948717948719,4442.051282051282,4503.589743589744,4341.538461538462,4867.6923076923085,4384.102564102564,4375.384615384616,4293.333333333334,4598.974358974359
453.288,0.48913127,1.0,0.38981915,0.60324585,0,0.0,0.0,0.011912608,0.0,0.0,0,0,0.0,0.0,0,0,32.0,0.0,0.0,4743.076923076924,3967.1794871794878,4460.000000000001,4318.461538461539,4294.358974358975,4597.948717948719,4446.153846153847,4471.794871794872,4379.48717948718,4875.384615384616,4575.8974358974365,4376.410256410257,4234.871794871796,4577.435897435898
453.5382,0.5927088,0.9794696,0.389006,0.6090345,0,0.0,0.0,0.07785655,0.0,0.0,0,0,0.0,0.0,0,0,64.0,0.0,491.0,4766.153846153847,3944.615384615385,4459.48717948718,4375.8974358974365,4299.48717948718,4606.666666666667,4448.205128205129,4514.358974358975,4381.025641025642,4896.410256410257,4489.2307692307695,4399.48717948718,4271.282051282052,4591.794871794872
453.78842,0.5927088,0.9794696,0.389006,0.6090345,0,0.0,0.0,0.35362414,0.0,0.0,0,0,0.0,0.0,0,0,96.0,0.0,570.0,4811.794871794872,3984.615384615385,4451.282051282052,4404.615384615385,4308.205128205129,4607.179487179488,4439.48717948718,4514.358974358975,4376.923076923077,4834.871794871796,4392.307692307693,4397.435897435898,4285.128205128206,4608.205128205129
454.03864,0.5490787,0.94157094,0.38827068,0.6105469,0,0.0,0.0,0.0,0.0,0.0,0,0,0.0,0.30349165,0,0,128.0,0.0,570.0,4801.538461538462,3981.538461538462,4425.641025641026,4321.025641025642,4289.2307692307695,4588.717948717949,4423.076923076924,4461.538461538462,4365.641025641026,4902.564102564103,4359.48717948718,4358.461538461539,4324.615384615385,4598.974358974359
454.16373,0.5490787,0.94157094,0.38827068,0.6105469,0,0.0,0.0,0.0,0.0,0.0,0,0,0.0,1.0,0,0,15.0,0.0,441.0,4796.923076923077,3984.1025641025644,4426.153846153847,4484.615384615385,4272.820512820514,4568.205128205129,4410.256410256411,4442.564102564103,4353.333333333334,4975.384615384616,4424.615384615385,4386.666666666667,4303.076923076924,4614.358974358975
454.41394,0.57693344,0.9074622,0.38794264,0.5941005,0,0.0,0.0,0.0,0.0,0.0,0,0,0.0,1.0,0,0,47.0,0.0,0.0,4810.256410256411,4014.8717948717954,4276.923076923077,4508.717948717949,4320.512820512821,4614.871794871796,4443.076923076924,4489.2307692307695,4396.923076923077,5108.717948717949,4497.948717948719,4421.538461538462,4396.923076923077,4565.641025641026
454.41394,0.57693344,0.9074622,0.38794264,0.5941005,0,0.0,0.0,0.0,0.0,0.0,0,0,0.0,1.0,0,0,47.0,0.0,0.0,4810.256410256411,4014.8717948717954,4276.923076923077,4508.717948717949,4320.512820512821,4614.871794871796,4443.076923076924,4489.2307692307695,4396.923076923077,5108.717948717949,4497.948717948719,4421.538461538462,4396.923076923077,4565.641025641026
454.91437,0.579414,0.89939326,0.38817248,0.5792983,0,0.0,0.0,0.0,0.0,0.0,0,0,0.0,1.0,0,0,111.0,0.0,441.0,4810.256410256411,3956.410256410257,4361.538461538462,4511.282051282052,4296.410256410257,4602.051282051282,4456.923076923077,4464.615384615385,4411.794871794872,4733.333333333334,4157.948717948719,4329.743589743591,4306.153846153847,4598.461538461539
455.2897,0.579414,0.89939326,0.38817248,0.5792983,0,0.0,0.0,0.0,0.0,0.0,0,0,0.0,0.97176856,0,0,30.0,0.0,0.0,4736.923076923077,3952.307692307693,4329.2307692307695,4483.076923076924,4272.307692307693,4574.871794871796,4405.641025641026,4420.512820512821,4390.769230769231,4865.128205128206,4239.48717948718,4306.666666666667,4226.153846153847,4581.538461538462
455.41483,0.5807719,0.8944692,0.39190468,0.5659756,0,0.0,0.0,0.0,0.0,0.0,0,0,0.0,1.0,0,0,46.0,0.0,0.0,4756.923076923077,3978.461538461539,4330.769230769231,4478.974358974359,4270.256410256411,4577.435897435898,4402.051282051282,4417.435897435898,4381.025641025642,4964.615384615386,4207.179487179487,4325.128205128206,4275.8974358974365,4588.205128205129
455.79013,0.5807719,0.8944692,0.39190468,0.5659756,0,0.0,0.0,0.0,0.0,0.0,0,0,0.0,0.17402083,0,0,94.0,0.0,531.0,4710.769230769231,3945.6410256410263,4376.410256410257,4423.076923076924,4282.051282051282,4585.641025641026,4411.794871794872,4510.769230769231,4391.794871794872,4810.256410256411,3999.48717948718,4280.512820512821,4205.128205128206,4552.820512820514
456.04034,0.5114843,0.90625155,0.3970693,0.55542237,1,0.0,0.0,0.0,0.0,0.0,0,0,0.0,0.6049001,0,0,126.0,0.0,531.0,4693.846153846154,3937.9487179487182,4432.820512820514,4394.358974358975,4267.179487179487,4572.820512820514,4409.2307692307695,4515.384615384616,4386.153846153847,4756.923076923077,4338.461538461539,4306.666666666667,4192.820512820514,4543.076923076924
456.29056,0.5114843,0.90625155,0.3970693,0.55542237,0,0.0,0.0,0.0,0.0,0.0,0,0,0.0,0.5486857,0,0,29.0,0.0,0.0,4689.2307692307695,3913.333333333334,4460.512820512821,4368.717948717949,4260.000000000001,4569.743589743591,4407.179487179487,4509.2307692307695,4391.794871794872,4647.179487179488,4111.794871794872,4261.538461538462,4148.205128205129,4535.384615384616
456.54077,0.5926434,0.89813006,0.40200967,0.55097586,0,0.0,0.0,0.0,0.0,0.0,0,0,0.0,1.0,0,0,61.0,0.0,0.0,4684.615384615386,3902.0512820512827,4480.000000000001,4341.025641025642,4261.538461538462,4573.333333333334,4403.589743589744,4506.666666666667,4396.923076923077,4604.102564102564,4222.051282051282,4266.153846153847,4134.358974358975,4525.128205128206
456.791,0.5926434,0.89813006,0.40200967,0.55097586,0,0.0,0.0,0.0,0.0,0.0,0,0,0.0,0.46064904,0,0,93.0,0.0,739.0,4671.794871794872,3946.1538461538466,4484.615384615385,4365.128205128206,4266.666666666667,4561.538461538462,4371.794871794872,4448.717948717949,4390.769230769231,4584.102564102564,4042.0512820512827,4217.435897435898,4053.333333333334,4457.435897435898
457.0412,0.63309515,0.8908733,0.40463948,0.5492212,0,0.0,0.0,0.07472813,0.0,0.0,0,0,0.0,0.0,0,0,125.0,0.0,739.0,4678.974358974359,3938.461538461539,4507.6923076923085,4424.615384615385,4252.820512820514,4543.589743589744,4374.358974358975,4427.179487179487,4391.794871794872,4589.743589743591,4175.8974358974365,4239.48717948718,4076.9230769230776,4466.666666666667
457.2914,0.63309515,0.8908733,0.40463948,0.5492212,0,0.0,0.0,0.0,0.0,0.0,0,0,0.0,0.63121086,0,0,28.0,0.0,0.0,4682.051282051282,3873.8461538461543,4510.769230769231,4395.384615384616,4240.000000000001,4535.384615384616,4395.8974358974365,4477.435897435898,4412.307692307693,4687.6923076923085,4311.794871794872,4284.615384615385,4221.538461538462,4521.538461538462
457.41653,0.66029763,0.8809612,0.404447,0.558628,0,0.0,0.0,0.0,0.0,0.0,0,1,0.0,1.0,0,0,44.0,0.0,0.0,4657.948717948719,3861.538461538462,4506.153846153847,4390.256410256411,4241.025641025642,4540.000000000001,4398.974358974359,4460.000000000001,4398.974358974359,4665.641025641026,4167.179487179487,4251.282051282052,4180.512820512821,4491.794871794872
457.79184,0.66029763,0.8809612,0.404447,0.558628,0,0.0,0.0,0.0,0.0,0.0,0,1,0.0,0.05323881,0,0,92.0,0.0,574.0,4670.256410256411,3882.564102564103,4528.205128205129,4385.641025641026,4224.615384615385,4523.589743589744,4389.2307692307695,4428.717948717949,4401.538461538462,4681.538461538462,4295.8974358974365,4277.948717948719,4189.2307692307695,4510.256410256411
458.04208,0.5874279,0.8419426,0.4117226,0.58201146,0,0.0,0.0,0.0,0.0,0.0,0,1,0.0,0.39663747,0,0,124.0,0.0,574.0,4686.153846153847,3938.461538461539,4533.846153846154,4400.512820512821,4212.307692307693,4501.538461538462,4348.717948717949,4350.769230769231,4353.846153846154,4806.666666666667,4205.128205128206,4272.307692307693,4233.846153846154,4523.589743589744
458.16718,0.5874279,0.8419426,0.4117226,0.58201146,0,0.0,0.0,0.0,0.0,0.0,0,0,0.0,1.0,0,0,11.0,0.0,441.0,4604.615384615385,3915.3846153846157,4496.923076923077,4356.410256410257,4224.102564102564,4515.384615384616,4351.794871794872,4355.8974358974365,4334.871794871796,4809.743589743591,4140.000000000001,4232.820512820514,4195.8974358974365,4444.615384615385
458.5425,0.502984,0.83571404,0.4182647,0.6100951,0,0.0,0.0,0.0,0.0,0.0,0,0,0.0,0.4508647,0,0,59.0,0.0,0.0,4558.974358974359,3931.2820512820517,4467.6923076923085,4361.025641025642,4226.666666666667,4516.923076923077,4349.743589743591,4361.538461538462,4288.205128205129,4689.743589743591,4184.102564102564,4191.794871794872,4076.410256410257,4375.8974358974365
458.79272,0.502984,0.83571404,0.4182647,0.6100951,0,0.0,0.0,0.0,0.0,0.0,0,0,0.0,0.78868604,0,0,91.0,0.0,442.0,4604.102564102564,4000.0000000000005,4504.615384615385,4395.8974358974365,4224.615384615385,4523.589743589744,4366.153846153847,4411.282051282052,4295.384615384616,4658.461538461539,4197.435897435898,4221.025641025642,4102.564102564103,4409.743589743591
459.04294,0.5581792,0.8342788,0.41570038,0.62835747,0,0.0,0.0,0.0,0.0,0.0,0,0,0.0,0.49690336,0,0,123.0,0.0,442.0,4678.461538461539,4076.410256410257,4568.717948717949,4448.717948717949,4205.641025641026,4502.564102564103,4467.6923076923085,4520.000000000001,4360.512820512821,4676.923076923077,4294.871794871796,4301.025641025642,4170.256410256411,4487.6923076923085
459.29315,0.5581792,0.8342788,0.41570038,0.62835747,0,0.0,0.0,0.0,0.0,0.0,0,0,0.0,0.7383722,0,0,26.0,0.0,0.0,4623.076923076924,4163.589743589744,4618.461538461539,4521.538461538462,4176.410256410257,4491.794871794872,4536.410256410257,4566.153846153847,4402.051282051282,4663.076923076924,4213.846153846154,4324.102564102564,4162.051282051282,4522.564102564103
459.54337,0.59348226,0.8668564,0.4081816,0.62941724,0,0.0,0.0,0.3426151,0.0,0.0,0,0,0.0,0.0,0,0,58.0,0.0,0.0,4420.512820512821,4207.179487179487,4652.307692307693,4575.8974358974365,4163.076923076924,4489.2307692307695,4545.128205128206,4563.589743589744,4428.205128205129,4752.820512820514,4345.128205128206,4374.358974358975,4193.333333333334,4635.384615384616
459.82486,0.59348226,0.8668564,0.4081816,0.62941724,0,0.0,0.0,0.0,0.0,0.70618796,0,0,0.0,0.0,0,0,94.0,0.0,532.0,4413.846153846154,4129.74358974359,4610.769230769231,4567.6923076923085,4172.307692307693,4487.179487179488,4539.48717948718,4558.974358974359,4467.6923076923085,4782.051282051282,4292.307692307693,4325.128205128206,3986.1538461538466,4553.846153846154
460.0438,0.6037867,0.8968653,0.40121594,0.6304143,0,0.0,0.0,0.0,0.0,0.49179465,0,0,0.0,0.0,0,0,122.0,0.0,532.0,4481.025641025642,4069.23076923077,4586.153846153847,4531.282051282052,4183.076923076924,4498.974358974359,4513.846153846154,4544.615384615385,4479.48717948718,4779.48717948718,4230.256410256411,4299.48717948718,4022.0512820512827,4522.564102564103
460.294,0.6037867,0.8968653,0.40121594,0.6304143,0,0.0,0.0,0.0,0.0,0.3673803,0,0,0.0,0.0,0,0,25.0,0.0,0.0,4535.8974358974365,3996.410256410257,4560.000000000001,4484.615384615385,4187.179487179487,4509.2307692307695,4493.333333333334,4511.794871794872,4474.358974358975,4815.8974358974365,4354.871794871796,4320.000000000001,4076.9230769230776,4544.102564102564
460.54422,0.5042545,0.9238733,0.3944277,0.6225968,0,0.0,0.0,0.015491099,0.0,0.0,0,0,0.0,0.0,0,0,57.0,0.0,0.0,4582.051282051282,3970.2564102564106,4554.358974358975,4498.974358974359,4198.461538461539,4519.48717948718,4470.769230769231,4484.102564102564,4481.025641025642,4813.846153846154,4325.128205128206,4327.6923076923085,4100.000000000001,4551.282051282052
460.79443,0.5042545,0.9238733,0.3944277,0.6225968,0,0.0,0.0,0.26918238,0.0,0.0,0,0,0.0,0.0,0,0,89.0,0.0,739.0,4609.743589743591,3927.692307692308,4533.846153846154,4484.102564102564,4206.153846153847,4527.179487179488,4482.564102564103,4478.461538461539,4471.794871794872,4757.435897435898,4241.025641025642,4309.743589743591,4063.076923076924,4540.000000000001
461.04465,0.49716407,0.94818056,0.38831827,0.61556095,0,0.0,0.0,0.17579652,0.0,0.0,0,0,0.0,0.0,0,0,121.0,0.0,739.0,4641.025641025642,3944.615384615385,4534.358974358975,4512.820512820514,4235.8974358974365,4551.794871794872,4476.923076923077,4465.128205128206,4484.615384615385,4769.743589743591,4438.461538461539,4341.538461538462,4086.666666666667,4546.153846153847
461.29486,0.49716407,0.94818056,0.38831827,0.61556095,0,0.0,0.0,0.08170265,0.0,0.0,0,0,0.0,0.0,0,0,24.0,0.0,0.0,4664.615384615386,3921.0256410256416,4537.948717948719,4536.923076923077,4235.384615384616,4549.743589743591,4472.307692307693,4458.461538461539,4491.282051282052,4775.384615384616,4488.717948717949,4350.256410256411,4097.948717948719,4561.538461538462
461.54507,0.4312205,0.970057,0.38281977,0.60922873,0,0.0,0.0,0.04221722,0.0,0.0,0,0,0.0,0.0,0,0,56.0,0.0,0.0,4685.128205128206,3914.358974358975,4531.794871794872,4519.48717948718,4243.076923076924,4560.512820512821,4462.564102564103,4448.717948717949,4492.307692307693,4775.8974358974365,4261.538461538462,4330.769230769231,4108.717948717949,4555.384615384616
461.7953,0.4312205,0.970057,0.38281977,0.60922873,0,0.0,0.0,0.30757758,0.0,0.0,0,0,0.0,0.0,0,0,88.0,0.0,574.0,4695.8974358974365,3917.435897435898,4523.589743589744,4506.666666666667,4253.846153846154,4563.076923076924,4448.205128205129,4446.153846153847,4494.871794871796,4788.717948717949,4398.974358974359,4348.205128205129,4118.461538461539,4573.846153846154
462.0455,0.37902433,0.90315056,0.37787113,0.60352975,0,0.0,0.0,0.0,0.0,0.0,0,0,0.0,0.10285758,0,0,120.0,0.0,574.0,4686.666666666667,3887.1794871794878,4504.615384615385,4486.666666666667,4251.794871794872,4562.051282051282,4445.128205128206,4476.410256410257,4489.743589743591,4759.48717948718,4212.820512820514,4319.48717948718,4102.051282051282,4550.256410256411
462.29572,0.37902433,0.90315056,0.37787113,0.60352975,0,0.0,0.0,0.0,0.0,0.0,0,0,0.0,0.17472304,0,0,23.0,0.0,0.0,4695.8974358974365,3873.8461538461543,4507.6923076923085,4449.743589743591,4249.2307692307695,4556.923076923077,4433.333333333334,4488.717948717949,4492.307692307693,4764.615384615386,4437.435897435898,4346.666666666667,4132.820512820514,4556.410256410257
462.54593,0.40974474,0.8333042,0.37341735,0.59840065,0,0.0,0.0,0.0,0.0,0.0,0,0,0.0,0.7626879,0,0,55.0,0.0,0.0,4686.666666666667,3873.333333333334,4480.000000000001,4432.820512820514,4232.307692307693,4534.871794871796,4406.153846153847,4450.769230769231,4467.179487179487,4845.641025641026,4375.384615384616,4331.282051282052,4146.666666666667,4534.358974358975
462.67105,0.40974474,0.8333042,0.37341735,0.59840065,0,0.0,0.0,0.0,0.0,0.0,0,0,0.0,1.0,0,0,71.0,0.0,473.0,4673.846153846154,3856.9230769230776,4483.589743589744,4420.000000000001,4220.000000000001,4521.538461538462,4397.948717948719,4413.333333333334,4442.564102564103,4967.6923076923085,4367.6923076923085,4334.871794871796,4165.128205128206,4525.641025641026
463.04636,0.4355193,0.7717297,0.36940894,0.59378445,0,0.0,0.0,0.0,0.0,0.0,0,0,0.0,0.8815049,0,0,119.0,0.0,443.0,4630.256410256411,3809.2307692307695,4461.025641025642,4412.307692307693,4210.769230769231,4509.743589743591,4394.871794871796,4467.179487179487,4444.615384615385,4722.051282051282,4336.410256410257,4270.256410256411,4115.8974358974365,4490.256410256411
463.17148,0.4355193,0.7717297,0.36940894,0.59378445,0,0.0,0.0,0.0,0.0,0.0,0,0,0.0,1.0,0,0,6.0,0.0,540.0,4656.410256410257,3824.1025641025644,4475.384615384616,4427.179487179487,4211.794871794872,4513.333333333334,4380.512820512821,4435.384615384616,4437.435897435898,4634.358974358975,4365.128205128206,4262.564102564103,4131.282051282052,4508.205128205129
463.5468,0.46575996,0.72548485,0.3658014,0.5896299,0,0.0,0.0,0.0,0.0,0.0,0,0,0.0,0.45767325,0,0,54.0,0.0,0.0,4655.8974358974365,3837.9487179487182,4489.743589743591,4400.000000000001,4238.461538461539,4536.410256410257,4402.564102564103,4418.461538461539,4454.358974358975,4658.974358974359,4391.794871794872,4280.512820512821,4148.717948717949,4525.641025641026
463.79703,0.46575996,0.72548485,0.3658014,0.5896299,0,0.0,0.0,0.0,0.0,0.0,0,0,0.0,0.13120499,0,0,86.0,0.0,532.0,4650.769230769231,3864.615384615385,4484.102564102564,4394.358974358975,4238.461538461539,4547.6923076923085,4399.48717948718,4416.410256410257,4450.769230769231,4656.923076923077,4296.923076923077,4285.641025641026,4158.974358974359,4523.076923076924
464.04724,0.48492914,0.70430845,0.36255458,0.5858908,0,0.0,0.0,0.0,0.0,0.0,0,0,0.0,0.28863394,0,0,118.0,0.0,532.0,4664.615384615386,3877.435897435898,4481.538461538462,4385.128205128206,4242.564102564103,4545.641025641026,4379.48717948718,4393.846153846154,4436.923076923077,4649.2307692307695,4368.717948717949,4282.051282051282,4129.2307692307695,4519.48717948718
464.29745,0.48492914,0.70430845,0.36255458,0.5858908,0,0.0,0.0,0.0,0.0,0.0,0,0,0.0,1.0,0,0,21.0,0.0,0.0,4633.333333333334,3867.1794871794878,4469.2307692307695,4284.615384615385,4225.641025641026,4527.6923076923085,4378.461538461539,4387.179487179487,4433.333333333334,4892.820512820514,4390.769230769231,4296.410256410257,4189.74358974359,4518.461538461539
464.45383,0.43845606,0.7239921,0.35963246,0.5825256,0,0.0,0.0,0.0,0.0,0.0,0,0,0.0,1.0,0,0,41.0,0.0,0.0,4643.589743589744,3869.2307692307695,4486.153846153847,4349.743589743591,4225.128205128206,4527.179487179488,4389.743589743591,4397.948717948719,4432.820512820514,4851.282051282052,4453.333333333334,4313.333333333334,4201.538461538462,4537.435897435898
464.79788,0.43845606,0.7239921,0.35963246,0.5825256,0,0.0,0.0,0.18220079,0.0,0.0,0,0,0.0,0.0,0,0,85.0,0.0,736.0,4622.564102564103,3861.0256410256416,4464.615384615385,4380.000000000001,4223.589743589744,4528.717948717949,4370.769230769231,4420.512820512821,4431.282051282052,4768.205128205129,4462.051282051282,4288.205128205129,4168.205128205129,4515.384615384616
465.0481,0.41937855,0.70529586,0.35700253,0.5794969,0,0.0,0.0,0.458627,0.0,0.0,0,0,0.0,0.0,0,0,117.0,0.0,736.0,4603.076923076924,3842.564102564103,4456.410256410257,4381.538461538462,4237.948717948719,4533.846153846154,4393.846153846154,4417.948717948719,4426.666666666667,4731.282051282052,4273.333333333334,4255.384615384616,4146.666666666667,4494.871794871796
465.2983,0.41937855,0.70529586,0.35700253,0.5794969,0,0.0,0.0,0.119070396,0.0,0.0,0,0,0.0,0.0,0,0,20.0,0.0,0.0,4620.512820512821,3851.7948717948725,4467.179487179487,4403.589743589744,4227.179487179487,4526.666666666667,4377.435897435898,4397.948717948719,4427.179487179487,4713.333333333334,4217.435897435898,4246.153846153847,4143.076923076924,4510.256410256411
465.54852,0.33696184,0.6744644,0.35463563,0.57677114,0,0.0,0.0,0.0,0.0,0.0,0,0,0.0,0.5678099,0,0,52.0,0.0,0.0,4641.538461538462,3876.9230769230776,4467.179487179487,4431.282051282052,4227.179487179487,4530.769230769231,4386.666666666667,4372.820512820514,4416.923076923077,4660.512820512821,4220.000000000001,4240.000000000001,4097.948717948719,4487.6923076923085
465.79874,0.33696184,0.6744644,0.35463563,0.57677114,0,0.0,0.0,0.0,0.0,0.0,0,0,0.0,0.16761199,0,0,84.0,0.0,574.0,4663.076923076924,3899.48717948718,4484.102564102564,4445.128205128206,4252.307692307693,4558.461538461539,4409.743589743591,4395.8974358974365,4429.743589743591,4688.717948717949,4216.410256410257,4276.923076923077,4122.564102564103,4495.384615384616
466.04895,0.38543937,0.6369414,0.3525054,0.5743179,0,0.0,0.0,0.0,0.0,0.0,0,0,0.0,0.24177094,0,0,116.0,0.0,574.0,4687.6923076923085,3891.2820512820517,4503.589743589744,4447.6923076923085,4240.512820512821,4548.717948717949,4419.48717948718,4401.538461538462,4428.205128205129,4717.948717948719,4172.820512820514,4291.282051282052,4192.820512820514,4525.128205128206
466.29916,0.38543937,0.6369414,0.3525054,0.5743179,0,0.0,0.0,0.0,0.0,0.0,0,0,0.0,0.5896944,0,0,19.0,0.0,0.0,4692.307692307693,3901.0256410256416,4506.666666666667,4460.000000000001,4245.128205128206,4549.743589743591,4412.820512820514,4396.923076923077,4426.666666666667,4721.025641025642,4155.8974358974365,4295.8974358974365,4190.769230769231,4523.589743589744
466.54938,0.39576352,0.5924731,0.35058817,0.57211,0,0.0,0.0,0.0,0.0,0.0,0,0,0.0,0.14263012,0,0,51.0,0.0,0.0,4701.538461538462,3907.692307692308,4512.307692307693,4455.384615384616,4248.205128205129,4561.025641025642,4425.641025641026,4422.051282051282,4429.743589743591,4741.538461538462,4354.358974358975,4324.102564102564,4192.307692307693,4532.307692307693
466.7996,0.39576352,0.5924731,0.35058817,0.57211,0,0.0,0.0,0.0,0.0,0.0,0,0,0.0,0.13085264,0,0,83.0,0.0,443.0,4687.6923076923085,3904.615384615385,4499.48717948718,4436.923076923077,4240.512820512821,4555.384615384616,4410.769230769231,4421.025641025642,4420.512820512821,4717.948717948719,4247.6923076923085,4299.48717948718,4179.48717948718,4522.564102564103
467.0498,0.3997841,0.54173183,0.3488627,0.57012284,0,0.0,0.0,0.0,0.0,0.0,0,0,0.0,0.20357381,0,0,115.0,0.0,443.0,4669.743589743591,3883.076923076924,4486.666666666667,4408.717948717949,4214.871794871796,4530.769230769231,4393.333333333334,4405.128205128206,4407.6923076923085,4710.769230769231,4220.512820512821,4273.333333333334,4167.179487179487,4517.948717948719
467.30002,0.3997841,0.54173183,0.3488627,0.57012284,0,0.0,0.0,0.0,0.0,0.0,0,0,0.0,0.33838424,0,0,18.0,0.0,0.0,4657.435897435898,3868.717948717949,4461.025641025642,4385.641025641026,4212.820512820514,4522.564102564103,4382.051282051282,4394.871794871796,4398.974358974359,4701.538461538462,4235.8974358974365,4257.948717948719,4143.589743589744,4494.871794871796
467.55023,0.38617617,0.49652115,0.34730977,0.56833446,0,0.0,0.0,0.0,0.0,0.0,0,0,0.0,0.21024066,0,0,50.0,0.0,0.0,4656.410256410257,3874.8717948717954,4467.6923076923085,4392.307692307693,4220.000000000001,4524.102564102564,4403.589743589744,4415.8974358974365,4402.564102564103,4690.769230769231,4419.48717948718,4282.051282051282,4121.538461538462,4494.358974358975
467.80045,0.38617617,0.49652115,0.34730977,0.56833446,0,0.0,0.0,0.0,0.0,0.0,0,0,0.0,0.33107138,0,0,82.0,0.0,532.0,4643.076923076924,3866.666666666667,4451.794871794872,4377.435897435898,4221.025641025642,4521.025641025642,4395.384615384616,4410.769230769231,4392.307692307693,4689.2307692307695,4361.538461538462,4263.589743589744,4112.820512820514,4489.2307692307695
468.05066,0.29437235,0.45860425,0.34591213,0.5667249,0,0.0,0.0,0.0,0.0,0.0,0,0,0.0,0.29648975,0,0,114.0,0.0,532.0,4651.794871794872,3894.8717948717954,4470.256410256411,4406.153846153847,4227.179487179487,4531.282051282052,4395.384615384616,4404.102564102564,4381.538461538462,4662.564102564103,4140.512820512821,4249.2307692307695,4109.2307692307695,4491.794871794872
468.30087,0.29437235,0.45860425,0.34591213,0.5667249,0,0.0,0.0,0.0,0.0,0.0,0,0,0.0,0.3598217,0,0,17.0,0.0,0.0,4650.769230769231,3900.5128205128212,4469.2307692307695,4413.333333333334,4237.435897435898,4533.333333333334,4389.2307692307695,4423.076923076924,4386.153846153847,4707.179487179488,4322.051282051282,4276.410256410257,4143.076923076924,4506.666666666667
468.5511,0.29678202,0.40805504,0.34465423,0.56527627,0,0.0,0.0,0.0,0.0,0.0,0,0,0.0,0.43123654,0,0,49.0,0.0,0.0,4652.307692307693,3919.48717948718,4459.48717948718,4423.589743589744,4239.48717948718,4533.846153846154,4386.666666666667,4427.6923076923085,4391.282051282052,4701.025641025642,4284.615384615385,4268.717948717949,4121.025641025642,4493.846153846154
468.80133,0.29678202,0.40805504,0.34465423,0.56527627,0,0.0,0.0,0.0,0.0,0.0,0,0,0.0,0.5120562,0,0,81.0,0.0,733.0,4648.205128205129,3915.8974358974365,4461.025641025642,4416.923076923077,4239.48717948718,4533.333333333334,4377.948717948719,4404.102564102564,4381.538461538462,4688.717948717949,3985.6410256410263,4234.871794871796,4110.256410256411,4478.461538461539
469.05154,0.2718734,0.36582458,0.34352216,0.56397253,0,0.0,0.0,0.0,0.0,0.0,0,0,0.0,0.3125248,0,0,113.0,0.0,733.0,4647.6923076923085,3880.512820512821,4453.846153846154,4404.102564102564,4227.179487179487,4525.128205128206,4373.333333333334,4382.564102564103,4371.794871794872,4675.8974358974365,4447.179487179487,4269.74358974359,4131.282051282052,4502.051282051282
469.30176,0.2718734,0.36582458,0.34352216,0.56397253,0,0.0,0.0,0.0,0.0,0.0,0,0,0.0,0.1779497,0,0,16.0,0.0,0.0,4664.102564102564,3892.820512820513,4464.615384615385,4415.384615384616,4226.153846153847,4531.794871794872,4385.641025641026,4419.48717948718,4400.512820512821,4720.512820512821,4348.205128205129,4288.717948717949,4166.666666666667,4507.6923076923085
469.55197,0.20156674,0.33213702,0.34250328,0.56279916,1,0.0,0.0,0.0,0.0,0.0,0,0,0.0,0.17904814,0,0,48.0,0.0,0.0,4650.769230769231,3878.461538461539,4450.769230769231,4390.256410256411,4228.205128205129,4531.282051282052,4391.794871794872,4392.307692307693,4391.794871794872,4710.256410256411,4273.846153846154,4262.564102564103,4142.051282051282,4489.743589743591
469.8022,0.20156674,0.33213702,0.34250328,0.56279916,0,0.0,0.0,0.18971635,0.0,0.0,0,0,0.0,0.0,0,0,80.0,0.0,574.0,4667.179487179488,3858.461538461539,4462.564102564103,4390.769230769231,4237.435897435898,4536.410256410257,4392.820512820514,4412.820512820514,4411.794871794872,4744.615384615386,4297.948717948719,4288.205128205129,4190.769230769231,4525.128205128206
470.0524,0.1593738,0.30499053,0.34158626,0.56174314,0,0.0,0.0,0.1806017,0.0,0.0,0,0,0.0,0.0,0,0,112.0,0.0,574.0,4656.410256410257,3871.2820512820517,4456.410256410257,4397.435897435898,4228.205128205129,4531.282051282052,4393.333333333334,4407.179487179487,4406.153846153847,4727.179487179488,4638.974358974359,4311.282051282052,4160.000000000001,4509.743589743591
470.3026,0.1593738,0.30499053,0.34158626,0.56174314,0,0.0,0.0,0.2549369,0.0,0.0,0,0,0.0,0.0,0,0,15.0,0.0,443.0,4669.743589743591,3889.7435897435903,4461.538461538462,4416.923076923077,4238.974358974359,4543.076923076924,4401.025641025642,4397.948717948719,4397.948717948719,4732.307692307693,4508.717948717949,4299.48717948718,4158.461538461539,4511.794871794872
470.55283,0.103728995,0.2863104,0.34076098,0.5607927,0,0.0,0.0,0.1712721,0.0,0.0,0,0,0.0,0.0,0,0,47.0,0.0,0.0,4680.512820512821,3904.1025641025644,4475.384615384616,4422.564102564103,4236.410256410257,4533.846153846154,4389.2307692307695,4399.48717948718,4393.846153846154,4719.48717948718,4642.051282051282,4313.333333333334,4162.564102564103,4508.205128205129
470.80304,0.103728995,0.2863104,0.34076098,0.5607927,0,0.0,0.0,0.1476294,0.0,0.0,0,0,0.0,0.0,0,0,79.0,0.0,443.0,4768.205128205129,3971.7948717948725,4512.307692307693,4466.153846153847,4235.8974358974365,4541.025641025642,4395.8974358974365,4394.871794871796,4396.410256410257,4712.307692307693,4627.179487179488,4346.153846153847,4211.794871794872,4578.974358974359
471.05325,0.10869338,0.2830685,0.34001413,0.55993384,0,0.0,0.0,0.07055047,0.0,0.0,0,0,0.0,0.0,0,0,111.0,0.0,443.0,4661.025641025642,3896.9230769230776,4464.102564102564,4421.538461538462,4238.461538461539,4545.641025641026,4415.8974358974365,4408.205128205129,4393.333333333334,4711.282051282052,4368.717948717949,4275.8974358974365,4118.461538461539,4488.717948717949
471.30347,0.10869338,0.2830685,0.34001413,0.55993384,0,0.0,0.0,0.0,0.0,0.0,0,0,0.0,0.14898647,0,0,14.0,0.0,532.0,4662.051282051282,3894.358974358975,4462.564102564103,4426.153846153847,4238.461538461539,4545.641025641026,4414.871794871796,4399.48717948718,4393.333333333334,4722.051282051282,4396.410256410257,4282.564102564103,4128.717948717949,4491.282051282052
471.55368,0.11641964,0.27088675,0.33934155,0.55916053,0,0.0,0.0,0.0,0.0,0.0,0,0,0.0,0.20459491,0,0,46.0,0.0,0.0,4670.769230769231,3905.1282051282055,4468.205128205129,4425.128205128206,4238.974358974359,4542.564102564103,4410.256410256411,4383.076923076924,4391.282051282052,4705.641025641026,4670.769230769231,4306.153846153847,4137.948717948719,4492.820512820514
471.8039,0.11641964,0.27088675,0.33934155,0.55916053,0,0.0,0.0,0.0,0.0,0.0,0,0,0.0,0.14695282,0,0,78.0,0.0,532.0,4671.282051282052,3892.307692307693,4465.641025641026,4420.000000000001,4232.307692307693,4533.846153846154,4407.179487179487,4404.615384615385,4392.820512820514,4706.153846153847,4465.128205128206,4286.153846153847,4131.794871794872,4492.307692307693
472.0541,0.047686215,0.2703078,0.33873916,0.5584671,0,0.0,0.0,0.0,0.0,0.0,0,0,0.0,0.1339202,0,0,110.0,0.0,532.0,4678.461538461539,3918.9743589743593,4457.948717948719,4422.564102564103,4231.282051282052,4534.358974358975,4399.48717948718,4402.564102564103,4390.256410256411,4688.717948717949,4321.538461538462,4270.256410256411,4109.2307692307695,4484.102564102564
472.30432,0.047686215,0.2703078,0.33873916,0.5584671,0,0.0,0.0,0.0,0.0,0.0,0,0,0.0,0.13920198,0,0,13.0,0.0,731.0,4672.307692307693,3911.7948717948725,4452.307692307693,4423.589743589744,4234.871794871796,4533.846153846154,4405.641025641026,4404.615384615385,4390.256410256411,4684.102564102564,4438.461538461539,4280.000000000001,4099.48717948718,4470.769230769231
472.55453,0.0,0.27381027,0.33819446,0.55784076,0,0.0,0.0,0.0,0.0,0.0,0,0,0.0,0.15680881,0,0,45.0,0.0,0.0,4690.769230769231,3933.8461538461543,4474.871794871796,4445.128205128206,4253.846153846154,4548.205128205129,4426.153846153847,4428.717948717949,4404.615384615385,4725.641025641026,4362.564102564103,4307.179487179487,4151.282051282052,4504.102564102564
472.80475,0.0,0.27381027,0.33819446,0.55784076,0,0.0,0.0,0.0,0.0,0.0,0,0,0.0,0.6417649,0,0,77.0,0.0,731.0,4692.307692307693,3933.8461538461543,4474.871794871796,4452.307692307693,4257.435897435898,4553.333333333334,4424.615384615385,4426.666666666667,4404.102564102564,4730.256410256411,4481.025641025642,4312.820512820514,4146.666666666667,4494.871794871796
473.05496,0.0611045,0.25779969,0.33770472,0.5572775,0,0.0,0.0,0.19736518,0.0,0.0,0,0,0.0,0.0,0,0,109.0,0.0,731.0,4688.205128205129,3928.205128205129,4472.820512820514,4466.666666666667,4257.435897435898,4552.820512820514,4420.000000000001,4435.384615384616,4401.538461538462,4728.205128205129,4472.307692307693,4309.743589743591,4145.641025641026,4492.307692307693
473.30518,0.0611045,0.25779969,0.33770472,0.5572775,0,0.0,0.0,0.16324656,0.0,0.0,0,0,0.0,0.0,0,0,12.0,0.0,566.0,4680.000000000001,3918.9743589743593,4468.717948717949,4453.333333333334,4254.871794871796,4545.128205128206,4423.589743589744,4425.641025641026,4396.410256410257,4740.512820512821,4401.538461538462,4301.025641025642,4146.153846153847,4492.820512820514
473.5554,0.093643144,0.2472016,0.33726645,0.5567727,0,0.0,0.0,0.20921405,0.0,0.0,0,0,0.0,0.0,0,0,44.0,0.0,0.0,4689.743589743591,3897.435897435898,4475.384615384616,4444.615384615385,4254.871794871796,4553.333333333334,4449.743589743591,4475.384615384616,4419.48717948718,4784.102564102564,4426.666666666667,4330.769230769231,4201.538461538462,4523.589743589744
473.8056,0.093643144,0.2472016,0.33726645,0.5567727,0,0.0,0.0,0.0,0.0,0.04182044,0,0,0.0,0.0,0,0,76.0,0.0,566.0,4690.256410256411,3870.2564102564106,4472.307692307693,4419.48717948718,4248.717948717949,4548.205128205129,4444.615384615385,4465.128205128206,4411.794871794872,4784.102564102564,4469.2307692307695,4329.743589743591,4208.205128205129,4534.871794871796
474.05582,0.09556058,0.23158595,0.33687016,0.5563168,0,0.0,0.0,0.0,0.0,0.057288673,0,0,0.0,0.0,0,0,108.0,0.0,566.0,4705.128205128206,3905.6410256410263,4487.6923076923085,4442.564102564103,4257.948717948719,4560.000000000001,4454.871794871796,4450.256410256411,4406.666666666667,4782.051282051282,4408.717948717949,4331.282051282052,4180.000000000001,4523.589743589744
474.30606,0.09556058,0.23158595,0.33687016,0.5563168,0,0.0,0.0,0.0,0.0,0.040380444,0,0,0.0,0.0,0,0,11.0,0.0,443.0,4694.871794871796,3903.589743589744,4480.000000000001,4434.871794871796,4248.205128205129,4551.282051282052,4410.256410256411,4427.179487179487,4401.538461538462,4767.179487179488,4382.564102564103,4312.307692307693,4163.589743589744,4526.666666666667
474.55627,0.14020503,0.21721324,0.33651385,0.5559068,0,0.0,0.0,0.0,0.0,0.0,0,0,0.0,0.26803958,0,0,43.0,0.0,0.0,4672.307692307693,3897.9487179487182,4472.307692307693,4428.205128205129,4253.333333333334,4559.48717948718,4408.717948717949,4395.8974358974365,4385.128205128206,4725.128205128206,4409.743589743591,4285.128205128206,4106.153846153847,4502.564102564103
474.8065,0.14020503,0.21721324,0.33651385,0.5559068,0,0.0,0.0,0.39503586,0.0,0.0,0,0,0.0,0.0,0,0,75.0,0.0,443.0,4681.538461538462,3913.8461538461543,4473.846153846154,4441.538461538462,4262.564102564103,4573.846153846154,4417.948717948719,4409.743589743591,4383.589743589744,4800.512820512821,4156.410256410257,4281.025641025642,4150.769230769231,4505.128205128206
475.0567,0.14732045,0.2176309,0.33619323,0.5555378,0,0.0,0.0,0.27957523,0.0,0.0,0,0,0.0,0.0,0,0,107.0,0.0,443.0,4665.641025641026,3896.410256410257,4462.051282051282,4421.538461538462,4251.282051282052,4555.384615384616,4406.666666666667,4391.794871794872,4373.846153846154,4763.076923076924,4367.6923076923085,4281.538461538462,4115.8974358974365,4486.153846153847
475.30692,0.14732045,0.2176309,0.33619323,0.5555378,0,0.0,0.0,0.0,0.0,0.0,0,0,0.0,0.38549313,0,0,10.0,0.0,532.0,4662.051282051282,3906.666666666667,4473.333333333334,4435.8974358974365,4255.384615384616,4560.000000000001,4403.589743589744,4389.743589743591,4388.205128205129,4745.641025641026,4378.974358974359,4283.076923076924,4126.153846153847,4487.179487179488
475.55713,0.17514086,0.21801144,0.3359045,0.55520576,0,0.0,0.0,0.0,0.0,0.0,0,0,0.0,0.3907708,0,0,42.0,0.0,0.0,4659.48717948718,3897.9487179487182,4457.435897435898,4427.179487179487,4241.538461538462,4549.743589743591,4403.076923076924,4374.358974358975,4387.6923076923085,4719.48717948718,4273.333333333334,4263.589743589744,4122.564102564103,4477.948717948719
475.80734,0.17514086,0.21801144,0.3359045,0.55520576,0,0.0,0.0,0.0,0.0,0.0,0,0,0.0,0.24232282,0,0,74.0,0.0,532.0,4635.8974358974365,3866.666666666667,4452.820512820514,4410.769230769231,4246.153846153847,4549.743589743591,4430.256410256411,4411.282051282052,4402.564102564103,4756.923076923077,4286.666666666667,4280.000000000001,4178.974358974359,4486.153846153847
476.05756,0.13722605,0.21423917,0.33564472,0.55490714,0,0.0,0.0,0.09495229,0.0,0.0,0,0,0.0,0.0,0,0,106.0,0.0,532.0,4625.641025641026,3870.2564102564106,4449.2307692307695,4417.435897435898,4245.128205128206,4547.179487179488,4410.769230769231,4400.000000000001,4394.358974358975,4743.589743589744,4258.461538461539,4267.6923076923085,4163.076923076924,4474.871794871796
476.30777,0.13722605,0.21423917,0.33564472,0.55490714,0,0.0,0.0,0.0,0.0,0.0,0,0,0.0,0.0,0,0,9.0,0.0,474.0,4622.564102564103,3886.1538461538466,4460.000000000001,4427.6923076923085,4238.461538461539,4543.589743589744,4407.6923076923085,4398.461538461539,4387.6923076923085,4745.128205128206,4220.000000000001,4265.641025641026,4164.615384615385,4489.743589743591
476.55798,0.10262459,0.2012226,0.3354112,0.57044435,0,0.0,0.0,0.0,0.0,0.0,0,0,0.0,0.15198228,0,0,41.0,0.0,0.0,4632.307692307693,3905.1282051282055,4475.384615384616,4442.564102564103,4248.717948717949,4552.307692307693,4409.2307692307695,4438.461538461539,4404.615384615385,4736.923076923077,4188.205128205129,4278.974358974359,4167.6923076923085,4484.615384615385
476.8082,0.10262459,0.2012226,0.3354112,0.57044435,0,0.0,0.0,0.0,0.0,0.0,0,0,0.0,0.09896999,0,0,73.0,0.0,474.0,4624.102564102564,3890.7692307692314,4457.435897435898,4420.512820512821,4237.948717948719,4535.8974358974365,4404.615384615385,4414.871794871796,4384.615384615385,4700.512820512821,4277.435897435898,4263.589743589744,4155.384615384616,4477.948717948719
477.0584,0.08653863,0.18379156,0.33545274,0.6025288,0,0.0,0.0,0.04944216,0.0,0.0,0,0,0.0,0.0,0,0,105.0,0.0,743.0,4613.333333333334,3890.2564102564106,4441.025641025642,4428.717948717949,4234.871794871796,4533.333333333334,4377.435897435898,4367.6923076923085,4382.051282051282,4674.358974358975,4442.051282051282,4262.051282051282,4126.153846153847,4457.948717948719
477.30862,0.08653863,0.18379156,0.33545274,0.6025288,0,0.0,0.0,0.031638853,0.0,0.0,0,0,0.0,0.0,0,0,8.0,0.0,443.0,4630.256410256411,3899.48717948718,4460.512820512821,4460.512820512821,4256.923076923077,4553.333333333334,4404.615384615385,4402.051282051282,4396.410256410257,4685.641025641026,4350.769230769231,4275.8974358974365,4122.051282051282,4473.333333333334
477.55884,0.111439005,0.17441545,0.33549002,0.6313936,0,0.0,0.0,0.06471821,0.0,0.0,0,0,0.0,0.0,0,0,40.0,0.0,0.0,4629.743589743591,3906.1538461538466,4462.051282051282,4446.666666666667,4253.333333333334,4560.512820512821,4402.051282051282,4391.282051282052,4386.666666666667,4685.128205128206,4215.384615384616,4265.128205128206,4144.615384615385,4479.48717948718
477.80905,0.111439005,0.17441545,0.33549002,0.6313936,0,0.0,0.0,0.094705604,0.0,0.0,0,0,0.0,0.0,0,0,72.0,0.0,443.0,4615.384615384616,3892.820512820513,4453.333333333334,4440.000000000001,4255.384615384616,4559.48717948718,4405.641025641026,4397.948717948719,4390.256410256411,4691.794871794872,4130.769230769231,4259.48717948718,4181.538461538462,4478.461538461539
478.05927,0.10988719,0.17178726,0.33545765,0.65735096,0,0.0,0.0,0.0,0.0,0.0,0,0,0.0,0.15110876,0,0,104.0,0.0,573.0,4632.307692307693,3905.1282051282055,4465.128205128206,4455.8974358974365,4238.974358974359,4541.025641025642,4398.974358974359,4401.538461538462,4380.000000000001,4710.256410256411,4106.153846153847,4263.076923076924,4192.820512820514,4485.128205128206
478.30948,0.10988719,0.17178726,0.33545765,0.65735096,0,0.0,0.0,0.0,0.0,0.0,0,0,0.0,0.12602052,0,0,7.0,0.0,474.0,4645.641025641026,3904.615384615385,4480.000000000001,4453.333333333334,4233.333333333334,4542.564102564103,4403.589743589744,4401.025641025642,4376.923076923077,4713.333333333334,4142.051282051282,4264.615384615385,4176.923076923077,4492.307692307693
478.5597,0.08888409,0.17247477,0.33780807,0.6731533,0,0.0,0.0,0.06313633,0.0,0.0,0,0,0.0,0.0,0,0,39.0,0.0,0.0,4641.025641025642,3898.461538461539,4475.384615384616,4442.051282051282,4227.179487179487,4538.974358974359,4395.8974358974365,4399.48717948718,4377.948717948719,4698.974358974359,4310.769230769231,4271.794871794872,4151.794871794872,4490.256410256411
478.8099,0.08888409,0.17247477,0.33780807,0.6731533,0,0.0,0.0,0.15513457,0.0,0.0,0,0,0.0,0.0,0,0,71.0,0.0,474.0,4645.641025641026,3901.538461538462,4470.769230769231,4448.717948717949,4247.179487179487,4554.871794871796,4430.256410256411,4430.769230769231,4401.538461538462,4729.743589743591,4375.8974358974365,4299.48717948718,4157.948717948719,4505.128205128206
479.06012,0.06371197,0.17079566,0.3376118,0.67502373,0,0.0,0.0,0.0,0.0,0.0,0,0,0.0,0.109443896,0,0,103.0,0.0,443.0,4673.333333333334,3920.5128205128212,4483.589743589744,4438.461538461539,4247.179487179487,4561.025641025642,4426.153846153847,4421.025641025642,4401.025641025642,4712.820512820514,4194.358974358975,4287.6923076923085,4156.410256410257,4521.025641025642
479.31033,0.06371197,0.17079566,0.3376118,0.67502373,0,0.0,0.0,0.064237654,0.0,0.0,0,0,0.0,0.0,0,0,6.0,0.0,540.0,4675.8974358974365,3934.358974358975,4486.153846153847,4442.564102564103,4259.48717948718,4566.666666666667,4440.512820512821,4445.641025641026,4409.743589743591,4727.179487179488,4385.641025641026,4316.923076923077,4145.128205128206,4518.461538461539
479.56058,0.09898634,0.16719413,0.33718395,0.66613173,0,0.0,0.0,0.1298385,0.0,0.0,0,0,0.0,0.0,0,0,38.0,0.0,0.0,4667.179487179488,3930.7692307692314,4482.564102564103,4441.538461538462,4254.871794871796,4563.589743589744,4423.589743589744,4411.282051282052,4398.974358974359,4716.923076923077,4283.076923076924,4292.307692307693,4117.435897435898,4516.410256410257
479.8108,0.09898634,0.16719413,0.33718395,0.66613173,0,0.0,0.0,0.14172053,0.0,0.0,0,0,0.0,0.0,0,0,70.0,0.0,540.0,4698.461538461539,3941.538461538462,4501.538461538462,4460.000000000001,4253.846153846154,4562.051282051282,4436.410256410257,4439.48717948718,4413.333333333334,4740.000000000001,4392.307692307693,4325.128205128206,4149.74358974359,4548.717948717949
480.061,0.15903236,0.16523442,0.3367968,0.6546757,0,0.0,0.0,0.108820796,0.0,0.0,0,0,0.0,0.0,0,0,102.0,0.0,532.0,4685.641025641026,3926.666666666667,4495.8974358974365,4443.076923076924,4251.794871794872,4561.538461538462,4437.948717948719,4439.48717948718,4408.717948717949,4751.794871794872,4185.641025641026,4298.461538461539,4157.435897435898,4545.641025641026
480.31122,0.15903236,0.16523442,0.3367968,0.6546757,0,0.0,0.0,0.05681338,0.0,0.0,0,0,0.0,0.0,0,0,5.0,0.0,549.0,4661.025641025642,3921.538461538462,4481.538461538462,4434.871794871796,4256.410256410257,4568.205128205129,4427.6923076923085,4393.846153846154,4406.153846153847,4746.153846153847,4357.948717948719,4297.948717948719,4140.000000000001,4534.871794871796
480.56143,0.14273807,0.15967685,0.33644816,0.6443667,0,0.0,0.0,0.0,0.0,0.013335178,0,0,0.0,0.0,0,0,37.0,0.0,0.0,4658.974358974359,3920.0000000000005,4485.641025641026,4430.769230769231,4250.769230769231,4563.589743589744,4428.205128205129,4390.769230769231,4411.282051282052,4733.846153846154,4296.923076923077,4289.74358974359,4150.256410256411,4546.666666666667
480.81165,0.14273807,0.15967685,0.33644816,0.6443667,0,0.0,0.0,0.10032505,0.0,0.0,0,0,0.0,0.0,0,0,69.0,0.0,549.0,4669.2307692307695,3934.358974358975,4478.974358974359,4436.923076923077,4240.000000000001,4551.282051282052,4405.641025641026,4365.128205128206,4396.410256410257,4719.48717948718,4089.23076923077,4264.102564102564,4168.717948717949,4567.179487179488
481.06186,0.09315923,0.16425738,0.3361344,0.63508874,0,0.0,0.0,0.11099047,0.0,0.0,0,0,0.0,0.0,0,0,101.0,0.0,728.0,4611.794871794872,3911.2820512820517,4474.358974358975,4427.6923076923085,4254.358974358975,4568.717948717949,4423.076923076924,4400.000000000001,4410.256410256411,4745.641025641026,4021.538461538462,4250.769230769231,4130.769230769231,4545.641025641026
481.31207,0.09315923,0.16425738,0.3361344,0.63508874,0,0.0,0.0,0.048400495,0.0,0.0,0,0,0.0,0.0,0,0,4.0,0.0,551.0,4615.384615384616,3914.8717948717954,4468.717948717949,4418.461538461539,4241.538461538462,4552.820512820514,4407.6923076923085,4376.410256410257,4393.846153846154,4718.974358974359,3950.7692307692314,4228.717948717949,4110.769230769231,4536.410256410257
481.5623,0.07212937,0.17187259,0.33585167,0.62674266,0,0.0,0.0,0.0,0.0,0.0,0,0,0.0,0.15002017,0,0,36.0,0.0,0.0,4647.179487179488,3915.3846153846157,4471.282051282052,4410.769230769231,4227.179487179487,4542.051282051282,4398.974358974359,4372.307692307693,4398.461538461539,4729.2307692307695,4350.769230769231,4265.128205128206,4126.666666666667,4541.538461538462
481.79684,0.07212937,0.17187259,0.33585167,0.62674266,0,0.0,0.0,0.03983918,0.0,0.0,0,0,0.0,0.0,0,0,68.0,0.0,551.0,4661.025641025642,3921.538461538462,4474.358974358975,4415.8974358974365,4243.076923076924,4555.384615384616,4415.8974358974365,4385.128205128206,4404.102564102564,4738.974358974359,4226.666666666667,4262.564102564103,4145.128205128206,4554.871794871796
482.0471,0.07898869,0.18014401,0.3355986,0.61927426,0,0.0,0.0,0.057651773,0.0,0.0,0,0,0.0,0.0,0,0,100.0,0.0,573.0,4674.871794871796,3922.564102564103,4480.512820512821,4425.128205128206,4253.333333333334,4561.025641025642,4418.461538461539,4407.179487179487,4415.8974358974365,4751.794871794872,4180.000000000001,4269.74358974359,4156.410256410257,4568.717948717949
482.17218,0.07898869,0.18014401,0.3355986,0.61927426,0,0.0,0.0,0.0,0.0,0.0,0,0,0.0,0.0,0,0,116.0,0.0,573.0,4670.769230769231,3914.358974358975,4477.435897435898,4431.794871794872,4244.615384615385,4555.8974358974365,4429.2307692307695,4420.000000000001,4415.384615384616,4739.48717948718,4315.8974358974365,4282.564102564103,4154.871794871796,4566.153846153847
482.54752,0.06672957,0.19115895,0.33537003,0.61253285,0,0.0,0.16475374,0.0,0.0,0.0,0,0,0.0,0.0,0,0,35.0,0.0,0.0,4681.538461538462,3933.333333333334,4487.6923076923085,4545.128205128206,4264.615384615385,4565.128205128206,4430.256410256411,4409.2307692307695,4417.435897435898,4746.666666666667,4229.74358974359,4298.461538461539,4166.153846153847,4574.358974358975
482.79773,0.06672957,0.19115895,0.33537003,0.61253285,0,0.0,0.29488674,0.0,0.0,0.0,0,0,0.0,0.0,0,0,67.0,0.0,537.0,4669.743589743591,3916.9230769230776,4476.923076923077,4515.384615384616,4256.923076923077,4561.025641025642,4424.615384615385,4390.256410256411,4408.205128205129,4736.923076923077,4176.410256410257,4279.48717948718,4166.153846153847,4566.153846153847
483.04794,0.06291627,0.18728043,0.3351647,0.60647106,0,0.0,0.0,0.16400878,0.0,0.0,0,0,0.0,0.0,0,0,99.0,0.0,443.0,4664.102564102564,3919.48717948718,4486.153846153847,4508.717948717949,4264.615384615385,4564.102564102564,4428.205128205129,4395.384615384616,4416.923076923077,4725.128205128206,4348.205128205129,4296.923076923077,4160.512820512821,4568.205128205129
483.29816,0.06291627,0.18728043,0.3351647,0.60647106,0,0.0,0.0,0.0,0.0,0.23047659,0,0,0.0,0.0,0,0,2.0,0.0,446.0,4645.641025641026,3944.615384615385,4503.076923076924,4520.000000000001,4271.794871794872,4575.8974358974365,4438.974358974359,4420.000000000001,4437.435897435898,4762.051282051282,4443.589743589744,4326.153846153847,4184.102564102564,4586.153846153847
483.54837,0.07524584,0.17421748,0.3349801,0.60101664,0,0.0,0.0,0.094828345,0.0,0.0,0,0,0.0,0.0,0,0,34.0,0.0,0.0,4627.179487179488,3911.2820512820517,4484.615384615385,4483.076923076924,4247.179487179487,4558.974358974359,4428.717948717949,4417.948717948719,4433.846153846154,4757.948717948719,4218.461538461539,4280.000000000001,4164.102564102564,4560.000000000001
483.79858,0.07524584,0.17421748,0.3349801,0.60101664,0,0.0,0.0,0.2260335,0.0,0.0,0,0,0.0,0.0,0,0,66.0,0.0,446.0,4630.256410256411,3891.2820512820517,4496.923076923077,4479.48717948718,4243.589743589744,4553.846153846154,4422.564102564103,4419.48717948718,4437.948717948719,4753.846153846154,4426.153846153847,4300.000000000001,4195.8974358974365,4586.153846153847
484.0488,0.063852675,0.16163634,0.3348139,0.59611124,0,0.0,0.0,0.12749627,0.0,0.0,0,0,0.0,0.0,0,0,98.0,0.0,532.0,4620.512820512821,3903.589743589744,4475.8974358974365,4466.153846153847,4244.615384615385,4554.358974358975,4421.538461538462,4430.769230769231,4432.307692307693,4739.48717948718,4324.615384615385,4277.948717948719,4168.717948717949,4557.435897435898
484.299,0.063852675,0.16163634,0.3348139,0.59611124,0,0.0,0.0,0.09268145,0.0,0.0,0,0,0.0,0.0,0,0,1.0,0.0,475.0,4633.333333333334,3909.2307692307695,4486.666666666667,4466.153846153847,4244.102564102564,4554.871794871796,4412.820512820514,4414.871794871796,4426.666666666667,4754.358974358975,4130.769230769231,4266.666666666667,4162.564102564103,4565.128205128206
484.54922,0.038509924,0.14569752,0.3346642,0.5916949,0,0.0,0.0,0.0,0.0,0.0,0,0,0.0,0.3089985,0,0,33.0,0.0,0.0,4634.871794871796,3916.410256410257,4492.820512820514,4463.076923076924,4243.076923076924,4556.410256410257,4421.538461538462,4436.410256410257,4435.384615384616,4754.358974358975,4298.461538461539,4287.179487179487,4164.615384615385,4556.923076923077
484.79944,0.038509924,0.14569752,0.3346642,0.5916949,0,0.0,0.0,0.0,0.0,0.0,0,0,0.0,0.27979666,0,0,65.0,0.0,475.0,4673.333333333334,3971.2820512820517,4501.538461538462,4479.48717948718,4240.000000000001,4550.256410256411,4412.307692307693,4412.820512820514,4428.205128205129,4742.564102564103,4388.205128205129,4309.743589743591,4195.384615384616,4595.8974358974365
485.08093,0.0,0.14522299,0.33200577,0.6033098,0,0.0,0.0,0.0,0.0,0.20634183,0,0,0.0,0.0,0,0,101.0,0.0,713.0,4587.6923076923085,3890.2564102564106,4472.307692307693,4425.641025641026,4242.051282051282,4551.794871794872,4421.538461538462,4417.948717948719,4425.128205128206,4730.256410256411,4377.948717948719,4268.205128205129,4118.974358974359,4525.641025641026
485.29987,0.0,0.14522299,0.33200577,0.6033098,1,0.0,0.0,0.0,0.0,0.15775721,0,0,0.0,0.0,0,0,0.0,0.0,490.0,4624.615384615385,3922.0512820512827,4482.564102564103,4437.948717948719,4252.307692307693,4561.538461538462,4430.769230769231,4446.666666666667,4438.461538461539,4725.641025641026,4275.384615384616,4282.564102564103,4176.923076923077,4566.666666666667
485.55008,0.0,0.19159041,0.32546508,0.63246894,0,0.0,0.0,0.0,0.0,0.047840163,0,0,0.0,0.0,0,0,32.0,0.0,0.0,4594.871794871796,3888.717948717949,4476.923076923077,4420.000000000001,4244.102564102564,4554.358974358975,4430.769230769231,4449.2307692307695,4431.282051282052,4723.589743589744,4202.564102564103,4258.974358974359,4145.641025641026,4539.48717948718
485.8003,0.0,0.19159041,0.32546508,0.63246894,1,0.0,0.0,0.0,0.0,0.0,0,0,0.0,0.21334517,0,0,64.0,0.0,490.0,4583.589743589744,3896.9230769230776,4474.358974358975,4418.461538461539,4237.948717948719,4544.615384615385,4409.2307692307695,4439.48717948718,4424.615384615385,4720.512820512821,4321.025641025642,4255.384615384616,4111.794871794872,4524.102564102564
486.0505,0.0,0.30897826,0.3195789,0.6586907,0,0.0,0.0,0.0,0.0,0.0,0,0,0.0,0.25637147,0,0,96.0,0.0,573.0,4572.307692307693,3916.9230769230776,4450.256410256411,4423.076923076924,4242.051282051282,4549.2307692307695,4409.2307692307695,4414.871794871796,4420.000000000001,4689.2307692307695,4166.153846153847,4232.820512820514,4087.1794871794878,4511.282051282052
486.30072,0.0,0.30897826,0.3195789,0.6586907,0,0.0,0.0,0.0,0.0,0.0,0,0,0.0,0.36478242,0,0,128.0,0.0,573.0,4550.769230769231,3888.717948717949,4437.948717948719,4396.923076923077,4240.512820512821,4549.743589743591,4416.410256410257,4392.820512820514,4416.410256410257,4687.179487179488,4049.7435897435903,4211.282051282052,4074.358974358975,4503.589743589744
486.55093,0.08450768,0.43274727,0.31428215,0.68225855,0,0.0,0.0,0.059899,0.0,0.0,0,0,0.0,0.0,0,0,31.0,0.0,0.0,4576.410256410257,3900.5128205128212,4440.512820512821,4408.717948717949,4235.384615384616,4545.641025641026,4410.769230769231,4398.461538461539,4433.846153846154,4714.358974358975,4136.923076923077,4236.410256410257,4115.8974358974365,4511.794871794872
486.80115,0.08450768,0.43274727,0.31428215,0.68225855,0,0.0,0.0,0.0,0.0,0.0,0,0,0.0,0.21778738,0,0,63.0,0.0,0.0,4587.179487179488,3874.8717948717954,4455.8974358974365,4400.512820512821,4244.615384615385,4550.769230769231,4425.128205128206,4425.641025641026,4444.615384615385,4751.282051282052,4023.076923076924,4250.769230769231,4149.74358974359,4538.974358974359
487.05136,0.10392277,0.48390362,0.31235263,0.69363505,1,0.0,0.0,0.0,0.0,0.0,0,0,0.0,0.16142254,0,0,95.0,0.0,443.0,4618.974358974359,3901.538461538462,4476.410256410257,4420.512820512821,4244.615384615385,4558.974358974359,4422.564102564103,4418.461538461539,4451.282051282052,4772.820512820514,4293.846153846154,4293.333333333334,4197.435897435898,4571.794871794872
487.30157,0.10392277,0.48390362,0.31235263,0.69363505,0,0.0,0.0,0.0,0.0,0.0,0,0,0.0,0.112520404,0,0,127.0,0.0,443.0,4622.051282051282,3901.538461538462,4476.923076923077,4421.025641025642,4253.333333333334,4562.564102564103,4437.948717948719,4415.8974358974365,4450.256410256411,4753.846153846154,4527.6923076923085,4314.358974358975,4222.051282051282,4570.769230769231
487.55182,0.08438361,0.59807897,0.31220472,0.6906383,0,0.0,0.0,0.0,0.0,0.0,0,0,0.0,0.15705667,0,0,30.0,0.0,0.0,4613.846153846154,3893.333333333334,4477.948717948719,4420.000000000001,4258.461538461539,4560.512820512821,4411.282051282052,4380.000000000001,4436.410256410257,4747.179487179488,4485.641025641026,4290.769230769231,4159.48717948718,4528.717948717949
487.80203,0.08438361,0.59807897,0.31220472,0.6906383,0,0.0,0.0,0.1535978,0.0,0.0,0,0,0.0,0.0,0,0,62.0,0.0,0.0,4616.923076923077,3936.410256410257,4469.743589743591,4438.461538461539,4252.820512820514,4548.205128205129,4399.48717948718,4345.128205128206,4418.974358974359,4686.666666666667,4247.6923076923085,4236.923076923077,4071.2820512820517,4497.948717948719
488.05225,0.08393661,0.68606335,0.31342167,0.68793404,0,0.0,0.0,0.14895202,0.0,0.0,0,0,0.0,0.0,0,0,94.0,0.0,532.0,4605.641025641026,3913.8461538461543,4454.871794871796,4413.846153846154,4251.794871794872,4547.179487179488,4405.641025641026,4358.461538461539,4414.871794871796,4678.461538461539,4130.769230769231,4215.8974358974365,4067.1794871794878,4479.48717948718
488.30246,0.08393661,0.68606335,0.31342167,0.68793404,0,0.0,0.0,0.10042902,0.0,0.0,0,0,0.0,0.0,0,0,126.0,0.0,532.0,4635.384615384616,3915.3846153846157,4473.846153846154,4419.48717948718,4253.333333333334,4549.743589743591,4412.820512820514,4381.025641025642,4425.641025641026,4673.333333333334,4299.48717948718,4247.179487179487,4098.974358974359,4493.846153846154
488.55267,0.1809109,0.7021114,0.31686726,0.685493,0,0.0,0.0,0.0,0.0,0.0,0,0,0.0,0.41514635,0,0,29.0,0.0,0.0,4638.461538461539,3910.7692307692314,4476.923076923077,4414.358974358975,4249.2307692307695,4545.641025641026,4405.128205128206,4387.6923076923085,4433.333333333334,4711.282051282052,4319.48717948718,4261.538461538462,4125.128205128206,4502.564102564103
488.8029,0.1809109,0.7021114,0.31686726,0.685493,0,0.0,0.0,0.0,0.0,0.0,0,0,0.0,0.3687229,0,0,61.0,0.0,0.0,4652.820512820514,3909.7435897435903,4472.820512820514,4392.307692307693,4253.846153846154,4548.717948717949,4408.205128205129,4405.128205128206,4440.000000000001,4728.717948717949,4319.48717948718,4269.74358974359,4148.205128205129,4520.512820512821
489.0531,0.14951114,0.7081467,0.31996134,0.6779997,0,0.0,0.0,0.0,0.0,0.0,0,0,0.0,0.42516097,0,0,93.0,0.0,706.0,4654.871794871796,3923.589743589744,4484.102564102564,4409.2307692307695,4261.538461538462,4559.48717948718,4426.153846153847,4432.307692307693,4446.153846153847,4732.820512820514,4507.179487179488,4295.8974358974365,4162.051282051282,4522.051282051282
489.3033,0.14951114,0.7081467,0.31996134,0.6779997,0,0.0,0.0,0.0,0.0,0.0,0,0,0.0,0.10924062,0,0,125.0,0.0,706.0,4637.435897435898,3906.666666666667,4472.820512820514,4410.769230769231,4244.615384615385,4544.102564102564,4404.615384615385,4418.461538461539,4430.256410256411,4712.307692307693,4308.205128205129,4262.051282051282,4139.48717948718,4505.128205128206
489.55353,0.13760525,0.6615225,0.32275224,0.67117083,0,0.0,0.0,0.0,0.0,0.0,0,0,0.0,0.23674814,0,0,28.0,0.0,0.0,4642.564102564103,3897.9487179487182,4468.717948717949,4404.615384615385,4238.974358974359,4540.000000000001,4395.384615384616,4406.666666666667,4434.871794871796,4703.076923076924,4304.102564102564,4263.076923076924,4144.102564102564,4506.153846153847
489.80374,0.13760525,0.6615225,0.32275224,0.67117083,0,0.0,0.0,0.0,0.0,0.0,0,0,0.0,0.3970638,0,0,60.0,0.0,0.0,4634.871794871796,3897.9487179487182,4473.333333333334,4407.179487179487,4226.153846153847,4529.743589743591,4398.461538461539,4383.076923076924,4420.512820512821,4689.743589743591,4235.8974358974365,4244.615384615385,4136.923076923077,4502.564102564103
490.05396,0.1430845,0.6085618,0.3252299,0.6646597,0,0.0,0.0,0.0,0.0,0.0,0,0,0.0,0.31356862,0,0,92.0,0.0,570.0,4630.769230769231,3886.666666666667,4457.948717948719,4397.435897435898,4227.179487179487,4531.282051282052,4394.358974358975,4382.051282051282,4412.820512820514,4675.384615384616,4058.461538461539,4215.384615384616,4105.641025641026,4487.6923076923085
490.30417,0.1430845,0.6085618,0.3252299,0.6646597,0,0.0,0.0,0.0,0.0,0.14336741,0,0,0.0,0.0,0,0,124.0,0.0,570.0,4645.641025641026,3895.3846153846157,4464.102564102564,4408.717948717949,4226.666666666667,4531.282051282052,4394.358974358975,4387.6923076923085,4422.051282051282,4694.358974358975,4277.948717948719,4258.974358974359,4142.051282051282,4502.051282051282
490.55438,0.13215773,0.55874306,0.32604676,0.65334845,0,0.0,0.0,0.09916735,0.0,0.0,0,0,0.0,0.0,0,0,27.0,0.0,0.0,4647.179487179488,3895.8974358974365,4465.641025641026,4412.307692307693,4236.923076923077,4535.384615384616,4408.205128205129,4412.820512820514,4435.384615384616,4722.051282051282,4229.74358974359,4264.615384615385,4149.74358974359,4474.871794871796
490.8046,0.13215773,0.55874306,0.32604676,0.65334845,0,0.0,0.0,0.0,0.0,0.0,0,0,0.0,0.1922136,0,0,59.0,0.0,0.0,4657.435897435898,3901.538461538462,4486.666666666667,4425.641025641026,4253.333333333334,4557.948717948719,4429.2307692307695,4434.871794871796,4442.051282051282,4741.025641025642,4032.307692307693,4264.102564102564,4187.6923076923085,4496.923076923077
491.0548,0.18667679,0.52878314,0.32678172,0.6431695,0,0.0,0.0,0.0,0.0,0.0,0,0,0.0,0.24475881,0,0,91.0,0.0,443.0,4718.974358974359,3957.435897435898,4509.743589743591,4458.461538461539,4253.846153846154,4554.358974358975,4416.410256410257,4423.589743589744,4445.641025641026,4725.641025641026,4327.179487179487,4320.512820512821,4234.358974358975,4569.743589743591
491.30502,0.18667679,0.52878314,0.32678172,0.6431695,0,0.0,0.0,0.0,0.0,0.0,0,0,0.0,0.24122153,0,0,123.0,0.0,443.0,4638.461538461539,3896.9230769230776,4479.48717948718,4426.153846153847,4257.435897435898,4558.974358974359,4422.564102564103,4437.435897435898,4443.589743589744,4727.179487179488,4297.435897435898,4289.2307692307695,4156.923076923077,4503.076923076924
491.55524,0.108187936,0.51699156,0.32743898,0.63405484,0,0.0,0.0,0.0,0.0,0.0,0,0,0.0,0.19160987,0,0,26.0,0.0,0.0,4623.589743589744,3932.307692307693,4490.769230769231,4441.025641025642,4270.256410256411,4567.179487179488,4431.794871794872,4418.974358974359,4429.2307692307695,4706.153846153847,4187.6923076923085,4272.307692307693,4113.846153846154,4489.743589743591
491.80545,0.108187936,0.51699156,0.32743898,0.63405484,0,0.0,0.0,0.0,0.0,0.0,0,0,0.0,0.43750894,0,0,58.0,0.0,0.0,4615.8974358974365,3921.538461538462,4482.564102564103,4434.871794871796,4257.435897435898,4557.948717948719,4423.589743589744,4425.641025641026,4443.076923076924,4730.256410256411,4074.8717948717954,4262.564102564103,4134.358974358975,4488.717948717949
492.05566,0.05395583,0.5078922,0.32802925,0.62586486,0,0.0,0.0,0.0,0.0,0.0,0,0,0.0,0.4379214,0,0,90.0,0.0,532.0,4632.820512820514,3917.435897435898,4509.2307692307695,4442.051282051282,4269.74358974359,4573.333333333334,4454.358974358975,4438.974358974359,4450.769230769231,4770.256410256411,4225.641025641026,4298.974358974359,4203.076923076924,4525.641025641026
492.30588,0.05395583,0.5078922,0.32802925,0.62586486,0,0.0,0.0,0.0,0.0,0.0,0,0,0.0,0.37406895,0,0,122.0,0.0,532.0,4625.641025641026,3917.435897435898,4487.6923076923085,4431.794871794872,4264.102564102564,4563.076923076924,4445.128205128206,4441.025641025642,4441.025641025642,4725.641025641026,4389.2307692307695,4291.794871794872,4153.846153846154,4504.102564102564
492.5561,0.06690838,0.49261668,0.32855964,0.61850226,0,0.0,0.0,0.0,0.0,0.0,0,0,0.0,0.175376,0,0,25.0,0.0,0.0,4653.333333333334,3936.9230769230776,4505.128205128206,4438.461538461539,4270.769230769231,4570.769230769231,4454.871794871796,4414.871794871796,4440.512820512821,4737.435897435898,4293.333333333334,4290.256410256411,4168.717948717949,4520.512820512821
492.80634,0.06690838,0.49261668,0.32855964,0.61850226,0,0.0,0.0,0.0,0.0,0.0,0,0,0.0,0.25636226,0,0,57.0,0.0,0.0,4636.410256410257,3933.8461538461543,4496.923076923077,4424.615384615385,4270.769230769231,4577.948717948719,4460.000000000001,4408.205128205129,4443.076923076924,4737.435897435898,4075.8974358974365,4267.179487179487,4157.435897435898,4509.2307692307695
493.05655,0.03216401,0.45480132,0.32903954,0.6118459,0,0.0,0.0,0.1413297,0.0,0.0,0,0,0.0,0.0,0,0,89.0,0.0,709.0,4644.615384615385,3948.717948717949,4493.333333333334,4441.538461538462,4260.000000000001,4563.076923076924,4438.974358974359,4384.615384615385,4434.358974358975,4724.102564102564,4213.846153846154,4273.333333333334,4161.538461538462,4516.923076923077
493.30676,0.03216401,0.45480132,0.32903954,0.6118459,0,0.0,0.0,0.0,0.0,0.0,0,0,0.0,0.28130805,0,0,121.0,0.0,709.0,4630.769230769231,3927.692307692308,4490.256410256411,4418.461538461539,4252.307692307693,4559.48717948718,4447.6923076923085,4406.153846153847,4430.256410256411,4715.8974358974365,4095.8974358974365,4260.000000000001,4158.974358974359,4522.051282051282
493.55698,0.0,0.42378154,0.32947168,0.60585374,0,0.0,0.0,0.0,0.0,0.11488944,0,0,0.0,0.0,0,0,24.0,0.0,0.0,4637.948717948719,3904.1025641025644,4502.051282051282,4411.794871794872,4251.794871794872,4562.564102564103,4465.128205128206,4423.076923076924,4448.717948717949,4752.820512820514,4369.2307692307695,4306.666666666667,4207.179487179487,4551.794871794872
493.8072,0.0,0.42378154,0.32947168,0.60585374,0,0.0,0.0,0.0,0.0,0.042776305,0,0,0.0,0.0,0,0,56.0,0.0,0.0,4650.769230769231,3911.2820512820517,4506.666666666667,4427.179487179487,4257.435897435898,4565.128205128206,4476.410256410257,4415.384615384616,4453.333333333334,4771.282051282052,4450.256410256411,4317.948717948719,4213.333333333334,4560.512820512821
494.0574,0.0029314756,0.3971122,0.3298588,0.6004824,0,0.0,0.0,0.0,0.0,0.0,0,0,0.0,0.2360267,0,0,88.0,0.0,570.0,4667.6923076923085,3974.8717948717954,4516.923076923077,4461.025641025642,4254.871794871796,4563.076923076924,4460.512820512821,4387.179487179487,4427.179487179487,4683.589743589744,4222.051282051282,4266.666666666667,4102.051282051282,4528.717948717949
494.30762,0.0029314756,0.3971122,0.3298588,0.6004824,0,0.0,0.0,0.09346952,0.0,0.0,0,0,0.0,0.0,0,0,120.0,0.0,570.0,4649.2307692307695,3944.1025641025644,4501.538461538462,4442.051282051282,4249.2307692307695,4557.948717948719,4499.48717948718,4380.512820512821,4430.256410256411,4694.358974358975,4084.1025641025644,4239.48717948718,4094.8717948717954,4518.974358974359
494.55783,0.0,0.38192022,0.3302088,0.59563035,0,0.0,0.0,0.028606584,0.0,0.0,0,0,0.0,0.0,0,0,23.0,0.0,0.0,4640.512820512821,3932.307692307693,4495.8974358974365,4431.282051282052,4235.8974358974365,4548.717948717949,4473.333333333334,4374.358974358975,4422.564102564103,4689.2307692307695,4181.025641025642,4246.153846153847,4106.666666666667,4530.256410256411
494.80804,0.0,0.38192022,0.3302088,0.59563035,0,0.0,0.0,0.11733297,0.0,0.0,0,0,0.0,0.0,0,0,55.0,0.0,0.0,4636.923076923077,3918.461538461539,4490.769230769231,4427.179487179487,4233.333333333334,4545.128205128206,4474.358974358975,4398.461538461539,4428.205128205129,4686.153846153847,4366.666666666667,4264.615384615385,4117.948717948719,4536.410256410257
495.05826,0.0,0.3627464,0.3305235,0.59126705,0,0.0,0.0,0.09225157,0.0,0.0,0,0,0.0,0.0,0,0,87.0,0.0,443.0,4638.461538461539,3905.6410256410263,4482.051282051282,4417.948717948719,4236.410256410257,4543.589743589744,4464.102564102564,4424.615384615385,4434.358974358975,4709.743589743591,4263.589743589744,4267.179487179487,4166.666666666667,4535.384615384616
495.30847,0.0,0.3627464,0.3305235,0.59126705,0,0.0,0.0,0.0,0.0,0.0,0,0,0.0,0.19078927,0,0,119.0,0.0,443.0,4633.333333333334,3888.205128205129,4481.538461538462,4405.641025641026,4238.974358974359,4545.641025641026,4476.410256410257,4460.000000000001,4442.051282051282,4735.384615384616,4255.8974358974365,4268.205128205129,4172.820512820514,4546.153846153847
495.5587,0.0041979416,0.3356948,0.33080664,0.58734107,0,0.0,0.0,0.0,0.0,0.0,0,0,0.0,0.18272573,0,0,22.0,0.0,0.0,4646.153846153847,3931.2820512820517,4476.410256410257,4429.2307692307695,4234.871794871796,4544.615384615385,4448.717948717949,4409.2307692307695,4422.051282051282,4683.076923076924,4353.846153846154,4251.794871794872,4109.74358974359,4534.871794871796
495.8089,0.0041979416,0.3356948,0.33080664,0.58734107,0,0.0,0.0,0.14290145,0.0,0.0,0,0,0.0,0.0,0,0,54.0,0.0,0.0,4630.769230769231,3920.0000000000005,4461.025641025642,4428.717948717949,4238.974358974359,4545.128205128206,4444.102564102564,4393.846153846154,4421.025641025642,4683.589743589744,4207.6923076923085,4231.282051282052,4103.076923076924,4521.538461538462
496.0513,0.034833506,0.33188993,0.3310601,0.5838225,0,0.0,0.0,0.0,0.0,0.0,0,0,0.0,0.22780855,0,0,86.0,0.0,532.0,4638.461538461539,3931.7948717948725,4480.000000000001,4432.307692307693,4236.410256410257,4545.641025641026,4437.948717948719,4414.358974358975,4427.6923076923085,4692.820512820514,4386.666666666667,4263.076923076924,4122.564102564103,4548.205128205129
496.3015,0.034833506,0.33188993,0.3310601,0.5838225,0,0.0,0.0,0.0,0.0,0.0,0,0,0.0,0.1444463,0,0,118.0,0.0,532.0,4648.717948717949,3921.538461538462,4473.846153846154,4420.000000000001,4223.589743589744,4532.820512820514,4418.461538461539,4402.051282051282,4423.589743589744,4691.794871794872,4443.076923076924,4260.000000000001,4125.641025641026,4547.179487179488
496.55173,0.029594012,0.32027113,0.3312891,0.5806467,0,0.0,0.0,0.0,0.0,0.0,0,0,0.0,0.16924235,0,0,21.0,0.0,0.0,4661.538461538462,3925.6410256410263,4504.615384615385,4426.153846153847,4236.410256410257,4543.589743589744,4425.641025641026,4427.179487179487,4430.769230769231,4724.615384615386,4428.717948717949,4282.564102564103,4176.410256410257,4571.794871794872
496.80194,0.029594012,0.32027113,0.3312891,0.5806467,0,0.0,0.0,0.0,0.0,0.0,0,0,0.0,0.20160218,0,0,53.0,0.0,0.0,4660.512820512821,3933.333333333334,4497.948717948719,4426.666666666667,4235.384615384616,4544.102564102564,4422.051282051282,4434.358974358975,4432.820512820514,4731.794871794872,4253.333333333334,4267.6923076923085,4175.384615384616,4572.820512820514
497.05215,0.073412776,0.31940714,0.331495,0.57779056,0,0.0,0.0,0.0,0.0,0.0,0,0,0.0,0.08322534,0,0,85.0,0.0,696.0,4654.358974358975,3927.1794871794878,4496.923076923077,4433.333333333334,4243.076923076924,4548.717948717949,4426.153846153847,4445.641025641026,4428.205128205129,4730.769230769231,4347.179487179487,4277.435897435898,4175.384615384616,4582.051282051282
497.30237,0.073412776,0.31940714,0.331495,0.57779056,0,0.0,0.0,0.0,0.0,0.0,0,0,0.0,0.20273517,0,0,117.0,0.0,696.0,4662.564102564103,3938.9743589743593,4509.743589743591,4440.000000000001,4257.435897435898,4565.641025641026,4448.717948717949,4466.666666666667,4446.666666666667,4754.871794871796,4382.564102564103,4302.564102564103,4194.358974358975,4593.846153846154
497.55258,0.113319136,0.33868927,0.33168024,0.5752205,0,0.0,0.0,0.0,0.0,0.0,0,0,0.0,0.27791253,0,0,20.0,0.0,0.0,4621.025641025642,3916.9230769230776,4478.974358974359,4418.974358974359,4258.461538461539,4561.538461538462,4440.000000000001,4447.179487179487,4434.358974358975,4734.358974358975,4390.256410256411,4281.025641025642,4152.820512820514,4561.538461538462
497.8028,0.113319136,0.33868927,0.33168024,0.5752205,0,0.0,0.0,0.11322071,0.0,0.0,0,0,0.0,0.0,0,0,52.0,0.0,0.0,4614.358974358975,3886.1538461538466,4468.717948717949,4396.923076923077,4235.384615384616,4543.076923076924,4415.384615384616,4426.153846153847,4418.974358974359,4729.2307692307695,4433.846153846154,4265.641025641026,4178.461538461539,4564.615384615385
498.053,0.09124688,0.33609298,0.33184695,0.57290787,0,0.0,0.0,0.0,0.0,0.07727644,0,0,0.0,0.0,0,0,84.0,0.0,570.0,4616.410256410257,3948.205128205129,4476.923076923077,4422.564102564103,4235.384615384616,4540.512820512821,4426.666666666667,4450.256410256411,4423.076923076924,4678.974358974359,4342.051282051282,4253.846153846154,4099.48717948718,4538.461538461539
498.30322,0.09124688,0.33609298,0.33184695,0.57290787,0,0.0,0.0,0.0,0.0,0.053957384,0,0,0.0,0.0,0,0,116.0,0.0,570.0,4620.512820512821,3930.2564102564106,4492.307692307693,4422.051282051282,4236.923076923077,4541.538461538462,4428.205128205129,4443.076923076924,4415.384615384616,4683.589743589744,4264.102564102564,4249.74358974359,4120.512820512821,4553.846153846154
498.55344,0.04714682,0.3475303,0.33199707,0.5708256,0,0.0,0.0,0.0,0.0,0.017199604,0,0,0.0,0.0,0,0,19.0,0.0,0.0,4612.820512820514,3914.8717948717954,4481.025641025642,4417.948717948719,4234.871794871796,4543.076923076924,4417.948717948719,4450.769230769231,4410.769230769231,4687.6923076923085,4216.410256410257,4244.102564102564,4130.256410256411,4551.794871794872
498.80365,0.04714682,0.3475303,0.33199707,0.5708256,0,0.0,0.0,0.0,0.0,0.0,0,0,0.0,0.0,0,0,51.0,0.0,0.0,4590.256410256411,3923.589743589744,4486.666666666667,4427.179487179487,4227.6923076923085,4530.769230769231,4421.538461538462,4434.871794871796,4412.307692307693,4699.48717948718,4387.179487179487,4257.948717948719,4140.000000000001,4557.435897435898
499.05386,0.0,0.3543788,0.33213225,0.56895083,0,0.0,0.0,0.0,0.0,0.0,0,0,0.0,0.07574047,0,0,83.0,0.0,443.0,4610.256410256411,3934.358974358975,4498.461538461539,4434.358974358975,4238.461538461539,4545.641025641026,4443.076923076924,4429.743589743591,4420.512820512821,4696.923076923077,4489.2307692307695,4279.48717948718,4151.282051282052,4572.307692307693
499.30408,0.0,0.3543788,0.33213225,0.56895083,0,0.0,0.0,0.0,0.0,0.0,0,0,0.0,0.061113384,0,0,115.0,0.0,443.0,4616.410256410257,3931.2820512820517,4497.948717948719,4436.410256410257,4247.6923076923085,4552.307692307693,4463.589743589744,4426.666666666667,4428.205128205129,4715.8974358974365,4393.333333333334,4283.589743589744,4159.48717948718,4582.564102564103
499.55432,0.0,0.3341233,0.33225313,0.5672717,0,0.0,0.0,0.0,0.0,0.04412719,0,0,0.0,0.0,0,0,18.0,0.0,0.0,4621.538461538462,3927.1794871794878,4495.384615384616,4430.256410256411,4248.717948717949,4549.743589743591,4456.410256410257,4438.461538461539,4423.076923076924,4710.769230769231,4456.923076923077,4284.102564102564,4137.948717948719,4567.179487179488
499.80453,0.0,0.3341233,0.33225313,0.5672717,0,0.0,0.0,0.13685815,0.0,0.0,0,0,0.0,0.0,0,0,50.0,0.0,0.0,4628.717948717949,3935.3846153846157,4493.846153846154,4433.333333333334,4256.923076923077,4557.948717948719,4470.256410256411,4455.8974358974365,4437.435897435898,4723.076923076924,4487.6923076923085,4303.076923076924,4165.641025641026,4574.871794871796
500.05475,0.0,0.32015938,0.33236203,0.5657591,0,0.0,0.0,0.16857822,0.0,0.0,0,0,0.0,0.0,0,0,82.0,0.0,532.0,4634.871794871796,3939.48717948718,4498.461538461539,4434.871794871796,4265.128205128206,4565.128205128206,4466.666666666667,4436.923076923077,4436.410256410257,4745.128205128206,4410.256410256411,4302.564102564103,4173.333333333334,4585.128205128206
500.30496,0.0,0.32015938,0.33236203,0.5657591,0,0.0,0.0,0.0,0.0,0.16363561,0,0,0.0,0.0,0,0,114.0,0.0,532.0,4649.743589743591,3947.1794871794878,4518.461538461539,4443.589743589744,4266.666666666667,4563.076923076924,4481.538461538462,4440.512820512821,4430.256410256411,4713.333333333334,4411.794871794872,4309.743589743591,4181.538461538462,4603.076923076924
500.55518,0.021340426,0.3007632,0.33245978,0.5644007,0,0.0,0.0,0.0,0.0,0.0,0,0,0.0,0.2913345,0,0,17.0,0.0,0.0,4684.102564102564,3927.692307692308,4528.717948717949,4441.025641025642,4260.512820512821,4564.102564102564,4494.871794871796,4473.846153846154,4450.769230769231,4797.435897435898,4534.358974358975,4349.2307692307695,4287.179487179487,4658.461538461539
500.8054,0.021340426,0.3007632,0.33245978,0.5644007,0,0.0,0.0,0.0,0.0,0.0,0,0,0.0,0.34810334,0,0,49.0,0.0,0.0,4649.743589743591,3923.589743589744,4518.461538461539,4432.307692307693,4262.564102564103,4567.6923076923085,4482.564102564103,4455.8974358974365,4449.743589743591,4774.871794871796,4426.666666666667,4316.923076923077,4211.282051282052,4620.000000000001
501.0556,0.073116556,0.29064018,0.3325478,0.5631775,0,0.0,0.0,0.0,0.0,0.1587087,0,0,0.0,0.0,0,0,81.0,0.0,696.0,4637.435897435898,3926.1538461538466,4498.461538461539,4425.641025641026,4256.410256410257,4562.051282051282,4469.2307692307695,4445.128205128206,4435.384615384616,4744.102564102564,4373.333333333334,4284.615384615385,4163.076923076924,4557.435897435898
501.30582,0.073116556,0.29064018,0.3325478,0.5631775,0,0.0,0.0,0.0,0.0,0.11671344,0,0,0.0,0.0,0,0,113.0,0.0,696.0,4634.358974358975,3921.0256410256416,4492.820512820514,4418.974358974359,4246.153846153847,4560.512820512821,4450.769230769231,4453.333333333334,4441.025641025642,4744.615384615386,4306.153846153847,4275.8974358974365,4172.307692307693,4572.820512820514
501.55603,0.08059622,0.27493954,0.33262706,0.56207687,0,0.0,0.0,0.0,0.0,0.028316727,0,0,0.0,0.0,0,0,16.0,0.0,0.0,4625.128205128206,3921.0256410256416,4486.666666666667,4396.410256410257,4244.102564102564,4560.000000000001,4454.871794871796,4470.256410256411,4442.051282051282,4738.974358974359,4346.153846153847,4277.435897435898,4176.410256410257,4570.256410256411
501.80624,0.08059622,0.27493954,0.33262706,0.56207687,0,0.0,0.0,0.0,0.0,0.0,0,0,0.0,0.25127277,0,0,48.0,0.0,0.0,4627.6923076923085,3917.435897435898,4492.820512820514,4396.410256410257,4236.923076923077,4549.743589743591,4437.435897435898,4469.743589743591,4445.128205128206,4735.384615384616,4356.923076923077,4269.74358974359,4174.358974358975,4579.48717948718
502.05646,0.06552872,0.26031494,0.33269846,0.56108695,1,0.0,0.0,0.0,0.0,0.0,0,0,0.0,0.28994155,0,0,80.0,0.0,567.0,4650.769230769231,3944.615384615385,4503.589743589744,4407.6923076923085,4240.000000000001,4546.666666666667,4448.205128205129,4472.820512820514,4438.974358974359,4729.2307692307695,4310.256410256411,4274.871794871796,4167.179487179487,4598.461538461539
502.30667,0.06552872,0.26031494,0.33269846,0.56108695,0,0.0,0.0,0.0,0.0,0.12641577,0,0,0.0,0.0,0,0,112.0,0.0,567.0,4673.333333333334,3963.076923076924,4508.205128205129,4433.333333333334,4241.538461538462,4550.256410256411,4452.307692307693,4461.538461538462,4438.461538461539,4727.179487179488,4417.435897435898,4286.666666666667,4160.000000000001,4605.128205128206
502.5569,0.05379259,0.3113736,0.33276266,0.5667339,0,0.0,0.0,0.08832691,0.0,0.0,0,0,0.0,0.0,0,0,15.0,0.0,443.0,4643.589743589744,3952.820512820513,4489.743589743591,4418.461538461539,4246.153846153847,4552.307692307693,4449.743589743591,4448.205128205129,4427.6923076923085,4716.410256410257,4421.538461538462,4267.179487179487,4124.615384615385,4581.025641025642
502.8071,0.05379259,0.3113736,0.33276266,0.5667339,0,0.0,0.0,0.0,0.0,0.0,0,0,0.0,0.19480783,0,0,47.0,0.0,0.0,4638.461538461539,3953.333333333334,4498.974358974359,4416.410256410257,4252.820512820514,4553.333333333334,4434.358974358975,4423.589743589744,4425.128205128206,4720.512820512821,4364.102564102564,4252.820512820514,4130.256410256411,4586.153846153847
503.0573,0.07674772,0.3052704,0.3328204,0.5786371,0,0.0,0.0,0.0,0.0,0.25362936,0,0,0.0,0.0,0,0,79.0,0.0,443.0,4660.000000000001,3969.7435897435903,4514.871794871796,4433.846153846154,4258.461538461539,4561.025641025642,4442.564102564103,4410.256410256411,4426.153846153847,4718.974358974359,4198.461538461539,4246.153846153847,4142.051282051282,4598.461538461539
503.30753,0.07674772,0.3052704,0.3328204,0.5786371,0,0.0,0.0,0.13180415,0.0,0.0,0,0,0.0,0.0,0,0,111.0,0.0,443.0,4702.051282051282,3960.5128205128212,4531.794871794872,4432.307692307693,4248.717948717949,4560.512820512821,4464.615384615385,4444.615384615385,4447.6923076923085,4769.2307692307695,4406.666666666667,4297.948717948719,4285.641025641026,4662.564102564103
503.55774,0.087327294,0.3329818,0.33199972,0.58934814,0,0.0,0.0,0.15516137,0.0,0.0,0,0,0.0,0.0,0,0,14.0,0.0,532.0,4632.820512820514,3907.1794871794878,4507.6923076923085,4415.8974358974365,4253.846153846154,4562.051282051282,4471.282051282052,4453.846153846154,4443.589743589744,4758.974358974359,4327.179487179487,4252.820512820514,4184.615384615385,4598.974358974359
503.80795,0.087327294,0.3329818,0.33199972,0.58934814,0,0.0,0.0,0.0,0.0,0.04646042,0,0,0.0,0.0,0,0,46.0,0.0,0.0,4634.871794871796,3920.5128205128212,4510.769230769231,4422.051282051282,4257.435897435898,4562.051282051282,4456.923076923077,4451.794871794872,4440.512820512821,4745.128205128206,4214.358974358975,4242.051282051282,4192.307692307693,4605.128205128206
504.05817,0.10297424,0.36595696,0.3288487,0.6027388,0,0.0,0.0,0.0,0.0,0.044715475,0,0,0.0,0.0,0,0,78.0,0.0,532.0,4650.256410256411,3944.1025641025644,4521.538461538462,4434.871794871796,4252.820512820514,4559.48717948718,4456.410256410257,4472.307692307693,4457.435897435898,4776.410256410257,4398.461538461539,4280.512820512821,4210.256410256411,4630.256410256411
504.30838,0.10297424,0.36595696,0.3288487,0.6027388,0,0.0,0.0,0.0,0.0,0.16402164,0,0,0.0,0.0,0,0,110.0,0.0,532.0,4642.051282051282,3967.692307692308,4523.589743589744,4441.025641025642,4255.384615384616,4561.025641025642,4456.410256410257,4454.358974358975,4432.307692307693,4727.6923076923085,4235.384615384616,4244.615384615385,4177.948717948719,4604.102564102564
504.5586,0.08111375,0.3731147,0.32601306,0.6147852,0,0.0,0.0,0.0,0.0,0.08306364,0,0,0.0,0.0,0,0,13.0,0.0,684.0,4611.794871794872,3943.589743589744,4505.641025641026,4423.589743589744,4256.410256410257,4562.051282051282,4454.358974358975,4446.666666666667,4430.769230769231,4712.820512820514,4281.025641025642,4228.205128205129,4128.717948717949,4581.025641025642
504.8088,0.08111375,0.3731147,0.32601306,0.6147852,0,0.0,0.0,0.0,0.0,0.07618502,0,0,0.0,0.0,0,0,45.0,0.0,0.0,4644.615384615385,3971.7948717948725,4527.6923076923085,4456.923076923077,4261.538461538462,4565.128205128206,4458.974358974359,4455.8974358974365,4440.512820512821,4731.794871794872,4298.461538461539,4257.948717948719,4156.410256410257,4607.179487179488
505.05905,0.10752064,0.3861977,0.32346135,0.62186444,1,0.0,0.0,0.0,0.0,0.080062896,0,0,0.0,0.0,0,0,77.0,0.0,683.0,4615.8974358974365,3938.461538461539,4525.641025641026,4449.2307692307695,4267.179487179487,4574.871794871796,4481.025641025642,4485.641025641026,4445.128205128206,4741.025641025642,4185.128205128206,4247.179487179487,4151.794871794872,4593.333333333334
505.30927,0.10752064,0.3861977,0.32346135,0.62186444,0,0.0,0.0,0.0,0.0,0.03769993,0,0,0.0,0.0,0,0,109.0,0.0,683.0,4561.538461538462,3932.820512820513,4474.871794871796,4422.564102564103,4240.000000000001,4549.2307692307695,4447.179487179487,4436.410256410257,4426.666666666667,4672.820512820514,4049.7435897435903,4181.538461538462,4068.205128205129,4527.179487179488
505.55948,0.17793813,0.40122727,0.3265971,0.62502915,0,0.0,0.0,0.0,0.0,0.040987622,0,0,0.0,0.0,0,0,12.0,0.0,567.0,4594.358974358975,3957.435897435898,4492.307692307693,4442.051282051282,4244.615384615385,4558.461538461539,4434.871794871796,4421.538461538462,4424.615384615385,4681.538461538462,4328.717948717949,4222.564102564103,4089.7435897435903,4554.871794871796
505.8097,0.17793813,0.40122727,0.3265971,0.62502915,0,0.0,0.0,0.07989657,0.0,0.0,0,0,0.0,0.0,0,0,44.0,0.0,0.0,4598.974358974359,3950.2564102564106,4491.282051282052,4448.205128205129,4244.615384615385,4556.923076923077,4437.948717948719,4430.256410256411,4425.641025641026,4697.948717948719,4399.48717948718,4235.384615384616,4116.923076923077,4569.743589743591
506.0599,0.19322024,0.4117985,0.33266535,0.6242238,0,0.0,0.0,0.3476102,0.0,0.0,0,0,0.0,0.0,0,0,76.0,0.0,567.0,4625.641025641026,3889.7435897435903,4505.641025641026,4406.666666666667,4233.846153846154,4546.153846153847,4472.820512820514,4481.538461538462,4443.589743589744,4769.2307692307695,4262.051282051282,4261.538461538462,4257.435897435898,4631.794871794872
506.31012,0.19322024,0.4117985,0.33266535,0.6242238,0,0.0,0.0,0.14386705,0.0,0.0,0,0,0.0,0.0,0,0,108.0,0.0,567.0,4590.256410256411,3874.8717948717954,4484.615384615385,4392.307692307693,4238.461538461539,4549.2307692307695,4469.2307692307695,4489.2307692307695,4448.205128205129,4749.743589743591,4374.871794871796,4250.256410256411,4201.538461538462,4601.538461538462
506.56033,0.20253204,0.45610538,0.3381268,0.62349564,0,0.0,0.0,0.25687435,0.0,0.0,0,0,0.0,0.0,0,0,11.0,0.0,442.0,4583.589743589744,3892.307692307693,4474.871794871796,4402.564102564103,4227.179487179487,4544.615384615385,4456.410256410257,4452.307692307693,4427.179487179487,4684.615384615386,4423.589743589744,4225.641025641026,4107.179487179487,4551.794871794872
506.81055,0.20253204,0.45610538,0.3381268,0.62349564,0,0.0,0.0,0.23185879,0.0,0.0,0,0,0.0,0.0,0,0,43.0,0.0,0.0,4612.307692307693,3893.333333333334,4475.384615384616,4395.384615384616,4221.025641025642,4540.000000000001,4436.923076923077,4436.410256410257,4434.358974358975,4709.743589743591,4223.589743589744,4218.974358974359,4134.871794871796,4571.794871794872
507.06076,0.19050223,0.46486047,0.34454492,0.6228368,0,0.0,0.0,0.0,0.0,0.193147,0,0,0.0,0.0,0,0,75.0,0.0,442.0,4645.641025641026,3907.692307692308,4500.000000000001,4400.512820512821,4227.6923076923085,4548.717948717949,4449.743589743591,4450.769230769231,4441.538461538462,4719.48717948718,4186.153846153847,4245.128205128206,4197.435897435898,4615.8974358974365
507.31097,0.19050223,0.46486047,0.34454492,0.6228368,1,0.0,0.0,0.0,0.0,0.0,0,0,0.0,0.120668136,0,0,107.0,0.0,442.0,4628.205128205129,3897.435897435898,4492.820512820514,4389.743589743591,4243.589743589744,4558.461538461539,4468.717948717949,4483.076923076924,4447.179487179487,4726.153846153847,4223.076923076924,4254.358974358975,4191.794871794872,4604.102564102564
507.5612,0.1758177,0.5208306,0.35032058,0.6222405,0,0.0,0.0,0.0,0.0,0.0,0,0,0.0,0.22675249,0,0,10.0,0.0,532.0,4567.6923076923085,3875.3846153846157,4454.358974358975,4381.538461538462,4259.48717948718,4573.333333333334,4453.846153846154,4460.512820512821,4448.717948717949,4723.589743589744,4087.692307692308,4221.538461538462,4160.000000000001,4537.435897435898
507.8114,0.1758177,0.5208306,0.35032058,0.6222405,0,0.0,0.0,0.16479152,0.0,0.0,0,0,0.0,0.0,0,0,42.0,0.0,0.0,4584.615384615385,3874.8717948717954,4457.948717948719,4397.948717948719,4243.589743589744,4558.974358974359,4450.769230769231,4440.512820512821,4433.333333333334,4677.435897435898,4136.923076923077,4217.435897435898,4172.307692307693,4530.769230769231
508.0616,0.19917826,0.5604968,0.3550404,0.6239718,0,0.0,0.0,0.0,0.0,0.0,0,0,0.0,0.34405655,0,0,74.0,0.0,532.0,4608.205128205129,3905.6410256410263,4468.205128205129,4411.794871794872,4238.461538461539,4550.769230769231,4455.8974358974365,4439.48717948718,4427.6923076923085,4677.948717948719,4041.538461538462,4218.461538461539,4192.820512820514,4534.871794871796
508.31183,0.19917826,0.5604968,0.3550404,0.6239718,0,0.0,0.0,0.0,0.0,0.0,0,0,0.0,0.09556397,0,0,106.0,0.0,532.0,4726.153846153847,3994.8717948717954,4513.846153846154,4465.641025641026,4223.076923076924,4540.000000000001,4436.410256410257,4418.461538461539,4429.743589743591,4705.128205128206,4355.384615384616,4288.205128205129,4215.8974358974365,4615.384615384616
508.56204,0.14346032,0.6056645,0.36149722,0.63759285,0,0.0,0.0,0.0,0.0,0.0,0,0,0.0,0.19670565,0,0,9.0,0.0,474.0,4672.307692307693,3932.820512820513,4496.923076923077,4427.179487179487,4208.717948717949,4531.282051282052,4432.307692307693,4395.384615384616,4413.846153846154,4646.666666666667,4145.128205128206,4218.974358974359,4103.589743589744,4554.871794871796
508.81226,0.14346032,0.6056645,0.36149722,0.63759285,0,0.0,0.0,0.0,0.0,0.0,0,0,0.0,0.09928918,0,0,41.0,0.0,0.0,4650.769230769231,3917.9487179487182,4477.948717948719,4405.641025641026,4206.666666666667,4528.205128205129,4433.846153846154,4415.384615384616,4418.974358974359,4637.435897435898,4287.179487179487,4219.48717948718,4076.410256410257,4525.641025641026
509.06247,0.2142547,0.66395617,0.37276223,0.66186714,0,0.0,0.0,0.1286272,0.0,0.0,0,0,0.0,0.0,0,0,73.0,0.0,474.0,4663.589743589744,3888.205128205129,4472.307692307693,4388.205128205129,4201.025641025642,4517.948717948719,4420.512820512821,4414.358974358975,4424.102564102564,4667.6923076923085,4218.974358974359,4221.538461538462,4128.717948717949,4539.48717948718
509.31268,0.2142547,0.66395617,0.37276223,0.66186714,0,0.0,0.0,0.11314409,0.0,0.0,0,0,0.0,0.0,0,0,105.0,0.0,682.0,4690.769230769231,3906.666666666667,4491.282051282052,4391.794871794872,4206.666666666667,4530.769230769231,4431.794871794872,4436.410256410257,4431.794871794872,4695.8974358974365,4366.666666666667,4259.48717948718,4156.410256410257,4569.2307692307695
509.5629,0.2724467,0.6503898,0.38289812,0.6848602,0,0.0,0.0,0.0,0.0,0.0,0,0,0.0,0.28112257,0,0,8.0,0.0,441.0,4678.461538461539,3904.1025641025644,4484.102564102564,4370.256410256411,4202.051282051282,4526.153846153847,4424.615384615385,4443.076923076924,4433.333333333334,4691.282051282052,4196.410256410257,4241.025641025642,4156.923076923077,4570.256410256411
509.8131,0.2724467,0.6503898,0.38289812,0.6848602,0,0.0,0.0,0.0,0.0,0.0,0,0,0.0,0.48451325,0,0,40.0,0.0,0.0,4660.512820512821,3924.1025641025644,4480.000000000001,4386.666666666667,4214.358974358975,4532.307692307693,4422.564102564103,4386.666666666667,4406.666666666667,4644.102564102564,4167.6923076923085,4216.923076923077,4080.5128205128212,4536.923076923077
510.06332,0.2491125,0.62347037,0.38711354,0.70564634,0,0.0,0.0,0.1407476,0.0,0.0,0,0,0.0,0.0,0,0,72.0,0.0,441.0,4683.589743589744,3950.2564102564106,4513.333333333334,4408.717948717949,4220.000000000001,4540.512820512821,4435.8974358974365,4438.974358974359,4420.512820512821,4663.076923076924,3987.692307692308,4235.384615384616,4115.384615384616,4563.589743589744
510.31357,0.2491125,0.62347037,0.38711354,0.70564634,0,0.0,0.0,0.08754555,0.0,0.0,0,0,0.0,0.0,0,0,104.0,0.0,567.0,4666.666666666667,3931.7948717948725,4490.256410256411,4405.128205128206,4224.615384615385,4541.538461538462,4425.128205128206,4434.358974358975,4416.923076923077,4670.769230769231,4058.461538461539,4234.358974358975,4124.102564102564,4555.384615384616
510.56378,0.27159497,0.57583815,0.38907304,0.72435385,0,0.0,0.0,0.0,0.0,0.0,0,0,0.0,0.23535278,0,0,7.0,0.0,474.0,4651.794871794872,3919.48717948718,4468.717948717949,4393.846153846154,4222.564102564103,4535.8974358974365,4415.8974358974365,4434.871794871796,4421.538461538462,4682.564102564103,4236.923076923077,4247.179487179487,4131.282051282052,4537.435897435898
510.814,0.27159497,0.57583815,0.38907304,0.72435385,0,0.0,0.0,0.0,0.0,0.0,0,0,0.0,0.18569006,0,0,39.0,0.0,0.0,4717.948717948719,3970.2564102564106,4501.538461538462,4430.256410256411,4222.564102564103,4530.769230769231,4414.358974358975,4435.384615384616,4416.410256410257,4679.48717948718,4239.48717948718,4274.358974358975,4183.589743589744,4590.256410256411
511.0642,0.17471543,0.5441458,0.38743132,0.72372067,0,0.0,0.0,0.0,0.0,0.0,0,0,0.0,0.12863004,0,0,71.0,0.0,474.0,4573.846153846154,3895.3846153846157,4458.461538461539,4387.6923076923085,4212.307692307693,4523.589743589744,4410.256410256411,4422.564102564103,4407.6923076923085,4634.871794871796,3955.3846153846157,4197.435897435898,4087.1794871794878,4523.589743589744
511.31442,0.17471543,0.5441458,0.38743132,0.72372067,0,0.0,0.0,0.0,0.0,0.0,0,0,0.0,0.1774158,0,0,103.0,0.0,442.0,4600.512820512821,3903.589743589744,4475.8974358974365,4395.384615384616,4222.564102564103,4530.256410256411,4422.564102564103,4450.256410256411,4417.948717948719,4690.256410256411,3778.9743589743593,4200.000000000001,4117.948717948719,4522.051282051282
511.56464,0.13452996,0.57492566,0.38202152,0.7065725,0,0.0,0.0,0.0,0.0,0.0,0,0,0.0,0.2961458,0,0,6.0,0.0,540.0,4602.051282051282,3898.9743589743593,4463.076923076924,4392.307692307693,4219.48717948718,4529.743589743591,4404.615384615385,4428.205128205129,4413.333333333334,4667.179487179488,3944.1025641025644,4209.74358974359,4117.948717948719,4505.128205128206
511.81485,0.13452996,0.57492566,0.38202152,0.7065725,0,0.0,0.0,0.0,0.0,0.0,0,0,0.0,0.20773296,0,0,38.0,0.0,0.0,4635.8974358974365,3918.461538461539,4496.923076923077,4414.871794871796,4239.48717948718,4544.615384615385,4429.2307692307695,4448.717948717949,4426.666666666667,4704.615384615386,4164.102564102564,4260.000000000001,4148.205128205129,4524.615384615385
512.06506,0.18950711,0.603973,0.3771527,0.6911391,0,0.0,0.0,0.0,0.0,0.0,0,0,0.0,0.14299859,0,0,70.0,0.0,540.0,4620.000000000001,3895.3846153846157,4488.205128205129,4402.564102564103,4225.128205128206,4526.153846153847,4408.205128205129,4433.846153846154,4426.153846153847,4686.153846153847,4269.2307692307695,4254.358974358975,4130.256410256411,4490.769230769231
512.31525,0.18950711,0.603973,0.3771527,0.6911391,0,0.0,0.0,0.0,0.0,0.0,0,0,0.0,0.09941202,0,0,102.0,0.0,532.0,4621.025641025642,3901.0256410256416,4470.769230769231,4404.615384615385,4221.025641025642,4521.538461538462,4405.641025641026,4393.846153846154,4413.846153846154,4690.256410256411,4124.615384615385,4237.948717948719,4128.717948717949,4488.205128205129
512.5655,0.22916645,0.61661893,0.3727481,0.67715913,0,0.0,0.0,0.0,0.0,0.0,0,0,0.0,0.12981988,0,0,5.0,0.0,549.0,4632.307692307693,3906.1538461538466,4473.846153846154,4406.666666666667,4223.589743589744,4520.000000000001,4411.794871794872,4413.333333333334,4419.48717948718,4684.615384615386,4158.461538461539,4241.025641025642,4128.205128205129,4474.358974358975
512.8157,0.22916645,0.61661893,0.3727481,0.67715913,0,0.0,0.0,0.11334072,0.0,0.0,0,0,0.0,0.0,0,0,37.0,0.0,0.0,4638.974358974359,3922.564102564103,4481.025641025642,4404.615384615385,4234.871794871796,4527.179487179488,4395.8974358974365,4422.051282051282,4423.076923076924,4690.256410256411,4029.7435897435903,4240.000000000001,4149.74358974359,4475.8974358974365
513.0659,0.22597545,0.59803164,0.36878186,0.6645821,0,0.0,0.0,0.0,0.0,0.0,0,0,0.0,0.28002524,0,0,69.0,0.0,549.0,4631.794871794872,3909.7435897435903,4476.410256410257,4383.589743589744,4237.948717948719,4534.358974358975,4397.435897435898,4425.641025641026,4411.794871794872,4681.025641025642,4001.0256410256416,4232.820512820514,4126.666666666667,4457.435897435898
513.31616,0.22597545,0.59803164,0.36878186,0.6645821,0,0.0,0.0,0.0,0.0,0.0,0,0,0.0,0.0996348,0,0,101.0,0.0,695.0,4632.820512820514,3930.7692307692314,4482.051282051282,4389.2307692307695,4250.256410256411,4542.051282051282,4412.820512820514,4446.666666666667,4421.538461538462,4712.820512820514,4314.871794871796,4282.051282051282,4160.512820512821,4472.820512820514
513.56635,0.27139,0.55348516,0.36521032,0.6532654,0,0.0,0.0,0.0,0.0,0.0,0,0,0.0,0.320794,0,0,4.0,0.0,551.0,4656.923076923077,3963.076923076924,4508.717948717949,4412.820512820514,4231.794871794872,4534.358974358975,4426.666666666667,4450.769230769231,4418.461538461539,4742.564102564103,4152.820512820514,4278.974358974359,4173.846153846154,4477.948717948719
513.8166,0.27139,0.55348516,0.36521032,0.6532654,0,0.0,0.0,0.10266048,0.0,0.0,0,0,0.0,0.0,0,0,36.0,0.0,0.0,4653.846153846154,3957.9487179487182,4511.794871794872,4410.769230769231,4221.025641025642,4529.2307692307695,4444.102564102564,4452.820512820514,4416.923076923077,4741.538461538462,4255.8974358974365,4281.025641025642,4174.358974358975,4471.794871794872
514.0668,0.30744594,0.5146419,0.3619942,0.64308685,0,0.0,0.0,0.0,0.0,0.0,0,0,0.0,0.6144088,0,0,68.0,0.0,551.0,4668.717948717949,3982.0512820512827,4528.717948717949,4422.051282051282,4223.076923076924,4539.48717948718,4463.076923076924,4472.307692307693,4428.205128205129,4764.615384615386,4382.564102564103,4314.871794871796,4194.358974358975,4489.2307692307695
514.317,0.30744594,0.5146419,0.3619942,0.64308685,0,0.0,0.0,0.0,0.0,0.0,0,0,0.0,0.3947227,0,0,100.0,0.0,563.0,4679.48717948718,3984.1025641025644,4546.666666666667,4437.948717948719,4222.564102564103,4534.871794871796,4469.2307692307695,4484.102564102564,4446.153846153847,4755.384615384616,4486.666666666667,4340.000000000001,4205.641025641026,4507.6923076923085
514.5672,0.36158767,0.48146015,0.35909814,0.6339263,0,0.0,0.0,0.07270457,0.0,0.0,0,0,0.0,0.0,0,0,3.0,0.0,536.0,4660.000000000001,3958.9743589743593,4527.179487179488,4409.743589743591,4208.205128205129,4542.051282051282,4469.2307692307695,4468.205128205129,4436.410256410257,4741.538461538462,4349.2307692307695,4310.769230769231,4194.358974358975,4520.512820512821
514.81744,0.36158767,0.48146015,0.35909814,0.6339263,0,0.0,0.0,0.07106803,0.0,0.0,0,0,0.0,0.0,0,0,35.0,0.0,0.0,4661.538461538462,3945.6410256410263,4526.153846153847,4432.307692307693,4201.025641025642,4543.589743589744,4464.102564102564,4448.717948717949,4432.820512820514,4709.2307692307695,4265.641025641026,4301.025641025642,4202.051282051282,4540.512820512821
515.0676,0.40660667,0.44570252,0.35620254,0.62568116,0,0.0,0.0,0.0,0.0,0.0,0,0,0.0,0.27304503,0,0,67.0,0.0,536.0,4654.358974358975,3923.076923076924,4512.820512820514,4398.974358974359,4191.794871794872,4526.666666666667,4447.6923076923085,4441.538461538462,4437.948717948719,4721.025641025642,4449.2307692307695,4304.102564102564,4180.000000000001,4545.641025641026
515.3179,0.40660667,0.44570252,0.35620254,0.62568116,0,0.0,0.0,0.0,0.0,0.0,0,0,0.0,0.1923498,0,0,99.0,0.0,442.0,4662.051282051282,3921.538461538462,4513.846153846154,4397.948717948719,4209.74358974359,4534.358974358975,4463.589743589744,4468.717948717949,4446.153846153847,4706.666666666667,4306.666666666667,4302.564102564103,4192.820512820514,4564.615384615385
515.56805,0.35615355,0.40349954,0.35280597,0.6182696,0,0.0,0.0,0.0,0.0,0.0,0,0,0.0,0.22226733,0,0,2.0,0.0,446.0,4644.615384615385,3912.820512820513,4500.512820512821,4392.307692307693,4209.74358974359,4529.2307692307695,4445.641025641026,4433.846153846154,4423.589743589744,4670.769230769231,4259.48717948718,4262.564102564103,4160.000000000001,4547.6923076923085
515.8183,0.35615355,0.40349954,0.35280597,0.6182696,0,0.0,0.0,0.0,0.0,0.0,0,0,0.0,0.47957838,0,0,34.0,0.0,0.0,4637.435897435898,3911.2820512820517,4497.948717948719,4414.358974358975,4211.282051282052,4529.743589743591,4445.641025641026,4427.179487179487,4426.666666666667,4655.384615384616,4392.820512820514,4267.6923076923085,4155.8974358974365,4554.871794871796
516.0685,0.36183298,0.35794774,0.34975725,0.6116491,0,0.0,0.0,0.1275847,0.0,0.0,0,0,0.0,0.0,0,0,66.0,0.0,446.0,4662.564102564103,3929.7435897435903,4518.461538461539,4442.564102564103,4212.820512820514,4531.282051282052,4457.435897435898,4423.076923076924,4425.128205128206,4667.179487179488,4109.74358974359,4251.794871794872,4173.333333333334,4576.410256410257
516.3187,0.36183298,0.35794774,0.34975725,0.6116491,0,0.0,0.0,0.09468304,0.0,0.0,0,0,0.0,0.0,0,0,98.0,0.0,532.0,4664.102564102564,3947.1794871794878,4530.256410256411,4448.205128205129,4213.846153846154,4532.820512820514,4463.076923076924,4424.102564102564,4434.871794871796,4682.051282051282,4480.512820512821,4301.025641025642,4188.205128205129,4589.743589743591
516.5689,0.3912304,0.3197217,0.34701338,0.60570806,0,0.0,0.0,0.0,0.0,0.0,0,0,0.0,0.170302,0,0,1.0,0.0,477.0,4645.128205128206,3933.8461538461543,4522.564102564103,4424.102564102564,4218.461538461539,4543.076923076924,4484.102564102564,4452.307692307693,4446.666666666667,4678.461538461539,4480.000000000001,4303.076923076924,4171.794871794872,4577.435897435898
516.81915,0.3912304,0.3197217,0.34701338,0.60570806,0,0.0,0.0,0.0,0.0,0.0,0,0,0.0,0.16351071,0,0,33.0,0.0,0.0,4646.666666666667,3916.410256410257,4506.666666666667,4417.435897435898,4215.384615384616,4533.333333333334,4470.769230769231,4428.205128205129,4429.743589743591,4675.8974358974365,4135.384615384616,4261.538461538462,4194.358974358975,4584.615384615385
517.06934,0.39623356,0.29276285,0.34533885,0.6003388,0,0.0,0.0,0.0,0.0,0.0,0,0,0.0,0.19772017,0,0,65.0,0.0,477.0,4646.666666666667,3927.692307692308,4512.820512820514,4435.8974358974365,4238.974358974359,4546.153846153847,4473.846153846154,4444.615384615385,4448.717948717949,4716.410256410257,4306.666666666667,4295.384615384616,4207.179487179487,4574.871794871796
517.3196,0.39623356,0.29276285,0.34533885,0.6003388,0,0.0,0.0,0.0,0.0,0.0,0,0,0.0,0.063040465,0,0,97.0,0.0,705.0,4640.000000000001,3908.717948717949,4509.2307692307695,4431.794871794872,4243.589743589744,4548.717948717949,4529.2307692307695,4429.743589743591,4433.846153846154,4667.179487179488,4372.307692307693,4294.358974358975,4167.6923076923085,4567.6923076923085
517.56976,0.38905805,0.27234215,0.34413695,0.5955248,0,0.0,0.0,0.0,0.0,0.0,0,0,0.0,0.11269772,0,0,0.0,0.0,490.0,4663.589743589744,3926.1538461538466,4523.589743589744,4396.923076923077,4239.48717948718,4544.615384615385,4506.153846153847,4438.461538461539,4435.384615384616,4684.615384615386,4330.256410256411,4300.000000000001,4206.666666666667,4583.076923076924
517.82,0.38905805,0.27234215,0.34413695,0.5955248,0,0.0,0.0,0.0,0.0,0.0,0,0,0.0,0.14249729,0,0,32.0,0.0,0.0,4666.666666666667,3931.2820512820517,4523.589743589744,4430.769230769231,4236.410256410257,4545.641025641026,4495.384615384616,4446.666666666667,4442.051282051282,4703.589743589744,4427.6923076923085,4312.307692307693,4189.74358974359,4581.025641025642
518.0702,0.3973419,0.26356694,0.34305525,0.59119415,0,0.0,0.0,0.0,0.0,0.0,0,0,0.0,0.11943743,0,0,64.0,0.0,490.0,4664.102564102564,3915.8974358974365,4529.743589743591,4415.8974358974365,4228.205128205129,4541.025641025642,4498.461538461539,4460.000000000001,4438.461538461539,4695.384615384616,4340.512820512821,4303.076923076924,4184.615384615385,4587.6923076923085
518.32043,0.3973419,0.26356694,0.34305525,0.59119415,0,0.0,0.0,0.0,0.0,0.0,0,0,0.0,0.09893025,0,0,96.0,0.0,564.0,4674.358974358975,3941.538461538462,4533.333333333334,4425.128205128206,4237.435897435898,4546.153846153847,4494.871794871796,4463.076923076924,4443.589743589744,4687.6923076923085,4283.589743589744,4310.769230769231,4198.974358974359,4604.615384615385
518.5707,0.36155346,0.2673563,0.34207746,0.58728105,0,0.0,0.0,0.08454502,0.0,0.0,0,0,0.0,0.0,0,0,128.0,0.0,564.0,4738.461538461539,3990.7692307692314,4558.461538461539,4448.205128205129,4221.025641025642,4527.179487179488,4462.051282051282,4433.846153846154,4434.871794871796,4682.051282051282,4453.333333333334,4347.6923076923085,4260.512820512821,4668.717948717949
518.82086,0.36155346,0.2673563,0.34207746,0.58728105,0,0.0,0.0,0.0814905,0.0,0.0,0,0,0.0,0.0,0,0,31.0,0.0,0.0,4653.333333333334,3917.435897435898,4502.564102564103,4293.333333333334,4217.948717948719,4515.8974358974365,4470.256410256411,4452.307692307693,4431.282051282052,4662.051282051282,4462.051282051282,4290.256410256411,4185.641025641026,4586.666666666667
519.0711,0.33164155,0.2856395,0.34119764,0.5837601,0,0.0,0.18596762,0.0,0.0,0.0,0,0,0.0,0.0,0,0,63.0,0.0,0.0,4658.974358974359,3901.538461538462,4507.6923076923085,4312.820512820514,4212.307692307693,4515.8974358974365,4463.589743589744,4449.2307692307695,4425.641025641026,4673.846153846154,4315.8974358974365,4277.435897435898,4179.48717948718,4588.717948717949
519.3213,0.33164155,0.2856395,0.34119764,0.5837601,0,0.0,0.0,0.11335896,0.0,0.0,0,0,0.0,0.0,0,0,95.0,0.0,442.0,4645.641025641026,3920.0000000000005,4495.8974358974365,4340.000000000001,4210.256410256411,4511.794871794872,4440.000000000001,4385.641025641026,4390.769230769231,4636.410256410257,4010.2564102564106,4224.615384615385,4149.2307692307695,4574.358974358975
519.57153,0.33075854,0.31142673,0.34040537,0.58059,0,0.0,0.0,0.10462493,0.0,0.0,0,0,0.0,0.0,0,0,127.0,0.0,442.0,4654.871794871796,3924.615384615385,4498.974358974359,4347.6923076923085,4209.74358974359,4513.846153846154,4444.102564102564,4401.025641025642,4408.205128205129,4661.538461538462,4225.641025641026,4260.000000000001,4161.025641025642,4580.512820512821
519.8217,0.33075854,0.31142673,0.34040537,0.58059,0,0.0,0.0,0.0,0.0,0.0,0,0,0.0,0.1051875,0,0,30.0,0.0,0.0,4715.384615384616,3955.3846153846157,4516.410256410257,4377.435897435898,4193.333333333334,4495.384615384616,4431.794871794872,4374.358974358975,4396.410256410257,4616.410256410257,4178.974358974359,4266.666666666667,4202.564102564103,4628.717948717949
520.07196,0.28117096,0.36839455,0.33969602,0.5777484,0,0.0,0.0,0.12130826,0.0,0.0,0,0,0.0,0.0,0,0,62.0,0.0,0.0,4660.000000000001,3905.6410256410263,4494.871794871796,4360.000000000001,4208.205128205129,4514.871794871796,4449.2307692307695,4405.128205128206,4401.538461538462,4642.564102564103,4451.282051282052,4277.435897435898,4147.6923076923085,4580.512820512821
520.32214,0.28117096,0.36839455,0.33969602,0.5777484,0,0.0,0.0,0.11056111,0.0,0.0,0,0,0.0,0.0,0,0,94.0,0.0,532.0,4656.410256410257,3908.205128205129,4502.564102564103,4373.846153846154,4211.282051282052,4515.8974358974365,4457.435897435898,4427.6923076923085,4412.307692307693,4642.051282051282,4521.025641025642,4294.358974358975,4164.102564102564,4585.128205128206
520.5724,0.2248022,0.41922653,0.3390553,0.57518387,0,0.0,0.0,0.15775415,0.0,0.0,0,0,0.0,0.0,0,0,126.0,0.0,532.0,4644.615384615385,3911.7948717948725,4492.820512820514,4364.615384615385,4218.461538461539,4525.641025641026,4446.153846153847,4407.179487179487,4406.153846153847,4635.384615384616,4500.000000000001,4281.538461538462,4142.564102564103,4568.205128205129
520.8226,0.2248022,0.41922653,0.3390553,0.57518387,0,0.0,0.0,0.0,0.0,0.0,0,0,0.0,0.36954078,0,0,29.0,0.0,0.0,4659.48717948718,3934.358974358975,4518.461538461539,4375.384615384616,4235.8974358974365,4541.538461538462,4441.538461538462,4414.358974358975,4414.871794871796,4673.333333333334,4208.205128205129,4271.282051282052,4165.641025641026,4582.564102564103
521.0728,0.22905123,0.417641,0.3384792,0.57287747,0,0.0,0.0,0.0,0.0,0.0,0,0,0.0,0.626288,0,0,61.0,0.0,0.0,4660.000000000001,3943.589743589744,4522.564102564103,4385.128205128206,4228.205128205129,4535.8974358974365,4437.948717948719,4413.333333333334,4417.948717948719,4690.256410256411,4432.820512820514,4297.435897435898,4165.641025641026,4572.307692307693
521.323,0.22905123,0.417641,0.3384792,0.57287747,0,0.0,0.0,0.11197129,0.0,0.0,0,0,0.0,0.0,0,0,93.0,0.0,707.0,4659.48717948718,3932.820512820513,4520.000000000001,4375.384615384616,4225.641025641026,4529.743589743591,4441.025641025642,4442.564102564103,4412.307692307693,4674.358974358975,4256.923076923077,4277.435897435898,4170.256410256411,4577.948717948719
521.57324,0.16855727,0.40406147,0.3379608,0.57080203,0,0.0,0.0,0.046585213,0.0,0.0,0,0,0.0,0.0,0,0,125.0,0.0,707.0,4676.410256410257,3942.564102564103,4527.6923076923085,4376.410256410257,4228.717948717949,4532.820512820514,4448.205128205129,4447.6923076923085,4416.923076923077,4661.538461538462,4466.153846153847,4301.538461538462,4167.6923076923085,4575.384615384616
521.8234,0.16855727,0.40406147,0.3379608,0.57080203,1,0.0,0.0,0.0,0.0,0.0,0,0,0.0,0.2016449,0,0,28.0,0.0,0.0,4688.717948717949,3944.615384615385,4528.205128205129,4380.000000000001,4228.717948717949,4533.333333333334,4449.743589743591,4438.974358974359,4422.564102564103,4664.102564102564,4339.48717948718,4296.410256410257,4183.076923076924,4579.48717948718
522.07367,0.16604789,0.39263457,0.33749664,0.5689415,0,0.0,0.0,0.0,0.0,0.0,0,0,0.0,0.1662328,0,0,60.0,0.0,0.0,4678.461538461539,3935.3846153846157,4514.871794871796,4376.923076923077,4233.333333333334,4533.846153846154,4448.205128205129,4452.820512820514,4425.641025641026,4689.743589743591,4302.564102564103,4286.666666666667,4169.74358974359,4565.641025641026
522.32385,0.16604789,0.39263457,0.33749664,0.5689415,0,0.0,0.0,0.0,0.0,0.0,0,0,0.0,0.19924651,0,0,92.0,0.0,564.0,4667.6923076923085,3927.1794871794878,4504.615384615385,4376.923076923077,4226.153846153847,4529.743589743591,4449.2307692307695,4438.461538461539,4418.461538461539,4659.48717948718,4170.769230769231,4264.102564102564,4157.948717948719,4548.205128205129
522.5741,0.11654966,0.38297516,0.3370795,0.5672688,0,0.0,0.0,0.0,0.0,0.0,0,0,0.0,0.27235895,0,0,124.0,0.0,564.0,4751.794871794872,3994.8717948717954,4532.307692307693,4417.948717948719,4218.974358974359,4518.974358974359,4438.974358974359,4437.948717948719,4419.48717948718,4666.666666666667,4447.179487179487,4322.051282051282,4231.282051282052,4603.076923076924
522.8243,0.11654966,0.38297516,0.3370795,0.5672688,0,0.0,0.0,0.09158021,0.0,0.0,0,0,0.0,0.0,0,0,27.0,0.0,0.0,4663.589743589744,3925.6410256410263,4500.512820512821,4386.153846153847,4236.923076923077,4543.076923076924,4458.974358974359,4485.641025641026,4436.923076923077,4668.205128205129,4372.307692307693,4288.717948717949,4158.974358974359,4534.871794871796
523.0745,0.047545664,0.39234516,0.33670464,0.565765,0,0.0,0.0,0.08755281,0.0,0.0,0,0,0.0,0.0,0,0,59.0,0.0,0.0,4680.000000000001,3918.9743589743593,4508.717948717949,4376.923076923077,4248.717948717949,4550.769230769231,4464.615384615385,4480.512820512821,4442.564102564103,4697.948717948719,4265.641025641026,4293.333333333334,4206.666666666667,4567.179487179488
523.3247,0.047545664,0.39234516,0.33670464,0.565765,0,0.0,0.0,0.09193973,0.0,0.0,0,0,0.0,0.0,0,0,91.0,0.0,442.0,4687.6923076923085,3932.820512820513,4522.051282051282,4395.8974358974365,4240.512820512821,4547.179487179488,4454.358974358975,4466.153846153847,4436.410256410257,4670.256410256411,4301.025641025642,4298.974358974359,4204.615384615385,4569.743589743591
523.57495,0.0,0.47668925,0.33636582,0.5644073,0,0.0,0.0,0.069755025,0.0,0.0,0,0,0.0,0.0,0,0,123.0,0.0,442.0,4695.384615384616,3935.8974358974365,4530.769230769231,4401.025641025642,4240.512820512821,4548.205128205129,4464.615384615385,4475.8974358974365,4440.512820512821,4688.205128205129,4351.282051282052,4311.794871794872,4212.307692307693,4585.641025641026
523.82513,0.0,0.47668925,0.33636582,0.5644073,0,0.0,0.0,0.0,0.0,0.0,0,0,0.0,0.21741828,0,0,26.0,0.0,0.0,4682.051282051282,3924.615384615385,4531.282051282052,4406.153846153847,4232.307692307693,4541.538461538462,4449.2307692307695,4476.410256410257,4436.410256410257,4676.410256410257,4534.358974358975,4316.923076923077,4195.384615384616,4567.6923076923085
524.0754,0.042664185,0.45853403,0.3360607,0.5631848,0,0.0,0.0,0.12597468,0.0,0.0,0,0,0.0,0.0,0,0,58.0,0.0,0.0,4696.410256410257,3935.3846153846157,4539.48717948718,4410.769230769231,4243.589743589744,4551.794871794872,4469.2307692307695,4496.923076923077,4439.48717948718,4696.410256410257,4300.512820512821,4311.282051282052,4216.923076923077,4585.641025641026
524.3256,0.042664185,0.45853403,0.3360607,0.5631848,0,0.0,0.0,0.07707855,0.0,0.0,0,0,0.0,0.0,0,0,90.0,0.0,532.0,4686.153846153847,3934.358974358975,4532.307692307693,4403.076923076924,4231.794871794872,4544.615384615385,4457.435897435898,4485.128205128206,4424.615384615385,4655.8974358974365,4078.461538461539,4271.794871794872,4187.179487179487,4574.358974358975
524.5758,0.050078556,0.43851396,0.33578596,0.56208414,0,0.0,0.0,0.13619329,0.0,0.0,0,0,0.0,0.0,0,0,122.0,0.0,532.0,4670.769230769231,3922.564102564103,4522.051282051282,4389.2307692307695,4241.538461538462,4551.794871794872,4461.538461538462,4468.717948717949,4424.615384615385,4656.923076923077,4387.6923076923085,4289.74358974359,4182.564102564103,4566.666666666667
524.82605,0.050078556,0.43851396,0.33578596,0.56208414,0,0.0,0.0,0.0,0.0,0.0,0,0,0.0,0.14819899,0,0,25.0,0.0,0.0,4677.948717948719,3932.307692307693,4528.717948717949,4393.846153846154,4227.6923076923085,4534.358974358975,4460.000000000001,4458.974358974359,4423.076923076924,4660.512820512821,4499.48717948718,4301.025641025642,4177.948717948719,4565.128205128206
525.07623,0.03831338,0.39421776,0.33553994,0.5610974,0,0.0,0.0,0.0,0.0,0.0,0,0,0.0,0.28198344,0,0,57.0,0.0,0.0,4666.153846153847,3927.1794871794878,4509.743589743591,4393.333333333334,4225.128205128206,4532.307692307693,4447.179487179487,4448.717948717949,4413.846153846154,4640.000000000001,4272.307692307693,4271.794871794872,4172.820512820514,4552.820512820514
525.3265,0.03831338,0.39421776,0.33553994,0.5610974,0,0.0,0.0,0.0,0.0,0.0,0,0,0.0,0.23272559,0,0,89.0,0.0,704.0,4676.410256410257,3948.205128205129,4516.923076923077,4410.769230769231,4225.128205128206,4533.333333333334,4438.461538461539,4454.358974358975,4425.641025641026,4619.48717948718,4349.2307692307695,4276.410256410257,4147.6923076923085,4551.282051282052
525.57666,9.02451E-4,0.3525921,0.33531886,0.5602102,0,0.0,0.0,0.0,0.0,0.0,0,0,0.0,0.34762475,0,0,121.0,0.0,704.0,4669.2307692307695,3942.564102564103,4510.769230769231,4409.743589743591,4223.589743589744,4537.435897435898,4451.282051282052,4499.48717948718,4431.282051282052,4642.564102564103,4410.769230769231,4288.717948717949,4148.205128205129,4553.846153846154
525.8269,9.02451E-4,0.3525921,0.33531886,0.5602102,0,0.0,0.0,0.0,0.0,0.0,0,0,0.0,0.21152964,0,0,24.0,0.0,0.0,4660.512820512821,3932.820512820513,4488.205128205129,4396.923076923077,4215.384615384616,4525.641025641026,4432.820512820514,4460.512820512821,4409.2307692307695,4616.923076923077,4211.794871794872,4249.2307692307695,4140.512820512821,4535.384615384616
526.0771,0.0,0.328159,0.33512017,0.55941266,0,0.0,0.0,0.0,0.0,0.0,0,0,0.0,0.31438756,0,0,56.0,0.0,0.0,4646.153846153847,3922.0512820512827,4491.282051282052,4387.6923076923085,4220.512820512821,4528.717948717949,4429.2307692307695,4453.333333333334,4410.256410256411,4619.48717948718,4217.948717948719,4241.025641025642,4127.6923076923085,4525.128205128206
526.32733,0.0,0.328159,0.33512017,0.55941266,0,0.0,0.0,0.0,0.0,0.0,0,0,0.0,0.08884089,0,0,88.0,0.0,563.0,4667.179487179488,3944.1025641025644,4509.2307692307695,4404.615384615385,4232.307692307693,4537.948717948719,4427.179487179487,4450.256410256411,4415.384615384616,4661.025641025642,4424.102564102564,4279.48717948718,4146.666666666667,4545.128205128206
526.5775,0.027339408,0.31772858,0.33494148,0.5586953,0,0.0,0.0,0.0,0.0,0.0,0,0,0.0,0.10724588,0,0,120.0,0.0,563.0,4691.794871794872,3939.48717948718,4523.589743589744,4420.000000000001,4236.410256410257,4542.051282051282,4432.820512820514,4459.48717948718,4412.820512820514,4656.923076923077,4212.307692307693,4268.717948717949,4164.102564102564,4560.512820512821
526.82776,0.027339408,0.31772858,0.33494148,0.5586953,0,0.0,0.0,0.0,0.0,0.0,0,0,0.0,0.10830165,0,0,23.0,0.0,0.0,4701.538461538462,3924.615384615385,4511.282051282052,4405.641025641026,4230.769230769231,4534.358974358975,4430.256410256411,4463.589743589744,4410.769230769231,4658.974358974359,4273.846153846154,4266.153846153847,4156.923076923077,4563.076923076924
527.07794,0.020956324,0.31692016,0.33477986,0.55804724,0,0.0,0.0,0.0,0.0,0.0,0,0,0.0,0.1535537,0,0,55.0,0.0,0.0,4776.923076923077,4005.1282051282055,4549.743589743591,4451.282051282052,4238.974358974359,4530.769230769231,4423.076923076924,4452.820512820514,4423.076923076924,4796.923076923077,4518.461538461539,4343.076923076924,4239.48717948718,4626.666666666667
527.3282,0.020956324,0.31692016,0.33477986,0.55804724,0,0.0,0.0,0.87077415,0.0,0.0,0,0,0.0,0.0,0,0,87.0,0.0,442.0,4740.000000000001,3970.7692307692314,4540.512820512821,4418.974358974359,4232.820512820514,4533.333333333334,4440.000000000001,4478.461538461539,4423.076923076924,4757.948717948719,4312.820512820514,4307.179487179487,4202.564102564103,4590.256410256411
527.57837,0.069657534,0.3705612,0.33463433,0.5574637,0,0.0,0.0,0.37000468,0.0,0.0,0,0,0.0,0.0,0,0,119.0,0.0,442.0,4710.256410256411,3952.820512820513,4531.282051282052,4425.128205128206,4247.179487179487,4549.743589743591,4440.512820512821,4474.871794871796,4421.025641025642,4701.538461538462,4397.948717948719,4293.333333333334,4154.358974358975,4554.871794871796
527.8286,0.069657534,0.3705612,0.33463433,0.5574637,0,0.0,0.0,0.0,0.0,0.0,0,0,0.0,0.74348044,0,0,22.0,0.0,0.0,4692.820512820514,3935.3846153846157,4524.102564102564,4437.435897435898,4243.076923076924,4545.641025641026,4456.923076923077,4485.641025641026,4416.923076923077,4681.538461538462,4116.923076923077,4251.282051282052,4096.410256410257,4522.564102564103
528.0788,0.05726942,0.4324684,0.33450326,0.55693835,0,0.0,0.0,0.0,0.0,0.0,0,0,0.0,0.18887107,0,0,54.0,0.0,0.0,4686.666666666667,3935.3846153846157,4524.102564102564,4430.769230769231,4240.512820512821,4545.641025641026,4453.333333333334,4496.410256410257,4429.2307692307695,4687.179487179488,4374.358974358975,4286.153846153847,4141.538461538462,4538.461538461539
528.32904,0.05726942,0.4324684,0.33450326,0.55693835,0,0.0,0.0,0.0,0.0,0.0,0,0,0.0,0.23644358,0,0,86.0,0.0,532.0,4680.000000000001,3924.1025641025644,4516.410256410257,4416.923076923077,4235.8974358974365,4541.025641025642,4457.948717948719,4488.717948717949,4424.102564102564,4686.666666666667,4243.076923076924,4274.871794871796,4150.769230769231,4539.48717948718
528.5792,0.025363762,0.49044022,0.33438534,0.55646557,0,0.0,0.0,0.0,0.0,0.0,0,0,0.0,0.16221723,0,0,118.0,0.0,532.0,4682.051282051282,3932.307692307693,4517.948717948719,4411.282051282052,4229.74358974359,4538.974358974359,4445.128205128206,4473.846153846154,4423.076923076924,4668.717948717949,4231.794871794872,4266.666666666667,4158.974358974359,4552.307692307693
528.82947,0.025363762,0.49044022,0.33438534,0.55646557,0,0.0,0.0,0.0,0.0,0.0,0,0,0.0,0.116564564,0,0,21.0,0.0,0.0,4703.589743589744,3947.692307692308,4520.000000000001,4426.666666666667,4221.025641025642,4529.743589743591,4429.743589743591,4454.871794871796,4413.333333333334,4660.512820512821,4263.076923076924,4268.717948717949,4156.410256410257,4563.076923076924
529.07965,0.0,0.5339123,0.3342793,0.55604035,0,0.0,0.0,0.0,0.0,0.0,0,0,0.0,0.15303251,0,0,53.0,0.0,0.0,4691.794871794872,3933.333333333334,4515.384615384616,4428.205128205129,4206.153846153847,4513.846153846154,4423.076923076924,4434.358974358975,4396.410256410257,4627.6923076923085,4256.923076923077,4248.205128205129,4133.846153846154,4541.025641025642
529.3299,0.0,0.5339123,0.3342793,0.55604035,0,0.0,0.0,0.0,0.0,0.0,0,0,0.0,0.23881477,0,0,85.0,0.0,712.0,4664.102564102564,3918.9743589743593,4491.282051282052,4414.871794871796,4209.74358974359,4526.153846153847,4431.794871794872,4449.2307692307695,4409.743589743591,4649.2307692307695,4195.8974358974365,4244.102564102564,4160.512820512821,4537.435897435898
529.58014,0.027673615,0.49898434,0.3344551,0.5647659,0,0.0,0.0,0.0,0.0,0.0,0,0,0.0,0.25823233,0,0,117.0,0.0,712.0,4663.589743589744,3915.3846153846157,4503.589743589744,4412.820512820514,4204.615384615385,4517.435897435898,4430.256410256411,4426.666666666667,4404.615384615385,4623.076923076924,4474.358974358975,4262.564102564103,4148.205128205129,4528.205128205129
529.8303,0.027673615,0.49898434,0.3344551,0.5647659,0,0.0,0.0,0.0,0.0,0.0,0,0,0.0,0.30008087,0,0,20.0,0.0,0.0,4667.179487179488,3901.538461538462,4499.48717948718,4417.435897435898,4191.282051282052,4504.615384615385,4422.564102564103,4441.025641025642,4405.641025641026,4621.538461538462,4375.8974358974365,4253.333333333334,4172.820512820514,4546.666666666667
530.08057,0.010169985,0.46039242,0.33461326,0.57696265,0,0.0,0.0,0.0,0.0,0.0,0,0,0.0,0.06318939,0,0,52.0,0.0,0.0,4677.948717948719,3921.538461538462,4516.410256410257,4432.307692307693,4208.205128205129,4517.948717948719,4418.974358974359,4447.179487179487,4404.102564102564,4601.538461538462,4186.153846153847,4242.051282051282,4157.948717948719,4551.794871794872
