timestamp,excitement,frustration,meditation,engagementBoredom,blink,clench,laugh,smile,eyebrow,furrowBrow,lookLeft,lookRight,smirkLeft,smirkRight,winkLeft,winkRight,eeg0,eeg1,eeg2,eeg3,eeg4,eeg5,eeg6,eeg7,eeg8,eeg9,eeg10,eeg11,eeg12,eeg13,eeg14,eeg15,eeg16
1716.9052,0.84044945,1.0,0.35399082,0.55087453,1,0.0,0.0,0.0,0.0,0.0,0,0,0.0,0.0,0,0,115.0,0.0,521.0,4514.358974358975,3793.333333333334,4344.102564102564,4232.820512820514,4077.435897435898,4347.179487179487,4292.307692307693,4270.256410256411,4401.538461538462,4497.948717948719,4116.923076923077,3965.6410256410263,3990.7692307692314,4458.974358974359
1717.0615,0.9495955,1.0,0.35192508,0.55101097,0,0.0,0.0,0.0,0.0,0.0,0,0,0.0,0.0,0,0,19.0,0.0,0.0,4348.205128205129,3662.0512820512827,4208.205128205129,4120.000000000001,3981.0256410256416,4253.333333333334,4191.282051282052,4178.974358974359,4339.48717948718,4395.8974358974365,3964.1025641025644,3754.358974358975,3825.1282051282055,4295.384615384616
1717.3743,0.9495955,1.0,0.35192508,0.55101097,0,0.0,0.0,0.0,0.0,0.0,0,0,0.0,0.0,0,0,59.0,0.0,0.0,4632.307692307693,3938.9743589743593,4491.282051282052,4391.794871794872,4243.076923076924,4509.743589743591,4430.256410256411,4417.948717948719,4447.179487179487,4678.461538461539,4320.000000000001,4227.179487179487,4182.051282051282,4557.948717948719
1717.5933,1.0,1.0,0.35006592,0.55113375,0,0.0,0.0,0.0,0.0,0.0,0,0,0.0,0.0,0,0,87.0,0.0,441.0,4507.179487179488,3818.461538461539,4377.435897435898,4320.000000000001,4156.923076923077,4414.358974358975,4321.025641025642,4306.153846153847,4383.589743589744,4568.717948717949,4194.871794871796,4025.6410256410263,4052.307692307693,4442.564102564103
1717.8748,1.0,1.0,0.35006592,0.55113375,1,0.0,0.0,0.0,0.0,0.0,0,0,0.0,0.0,0,0,123.0,0.0,441.0,4531.282051282052,3847.692307692308,4401.025641025642,4431.282051282052,4213.846153846154,4441.025641025642,4337.948717948719,4328.205128205129,4397.435897435898,4575.8974358974365,4211.794871794872,4098.461538461539,4071.7948717948725,4463.076923076924
1718.0311,1.0,1.0,0.34839267,0.55124426,0,0.0,0.0,0.0,0.0,0.0,0,0,0.0,0.0,0,0,14.0,0.0,521.0,4500.512820512821,3823.076923076924,4391.794871794872,4421.538461538462,4211.794871794872,4441.025641025642,4318.461538461539,4298.461538461539,4374.358974358975,4567.6923076923085,4183.076923076924,4076.9230769230776,4045.6410256410263,4447.179487179487
1718.3751,1.0,1.0,0.34839267,0.55124426,1,0.0,0.0,0.0,0.0,0.0,0,0,0.0,0.0,0,0,58.0,0.0,0.0,4582.564102564103,3892.820512820513,4468.205128205129,4394.358974358975,4200.000000000001,4453.846153846154,4352.307692307693,4341.025641025642,4390.256410256411,4613.846153846154,4266.153846153847,4141.538461538462,4135.8974358974365,4525.641025641026
1718.5316,1.0,1.0,0.34688672,0.5513437,0,0.0,0.0,0.0,0.0,0.0,0,0,0.0,0.0,0,0,78.0,0.0,521.0,4514.871794871796,3826.666666666667,4424.615384615385,4322.564102564103,4173.846153846154,4436.410256410257,4353.333333333334,4326.666666666667,4364.615384615385,4597.948717948719,4220.000000000001,4087.1794871794878,4064.615384615385,4470.256410256411
1718.5316,1.0,1.0,0.34688672,0.5513437,0,0.0,0.0,0.0,0.0,0.0,0,0,0.0,0.0,0,0,78.0,0.0,521.0,4514.871794871796,3826.666666666667,4424.615384615385,4322.564102564103,4173.846153846154,4436.410256410257,4353.333333333334,4326.666666666667,4364.615384615385,4597.948717948719,4220.000000000001,4087.1794871794878,4064.615384615385,4470.256410256411
1719.032,1.0,1.0,0.34553137,0.5514332,0,0.0,0.0,0.0,0.0,0.0,0,0,0.0,0.0,0,0,13.0,0.0,834.0,4534.871794871796,3874.358974358975,4440.512820512821,4310.256410256411,4187.179487179487,4461.538461538462,4391.282051282052,4362.051282051282,4388.717948717949,4627.179487179488,4274.871794871796,4122.564102564103,4109.74358974359,4487.179487179488
1719.032,1.0,1.0,0.34553137,0.5514332,0,0.0,0.0,0.0,0.0,0.0,0,0,0.0,0.0,0,0,13.0,0.0,834.0,4534.871794871796,3874.358974358975,4440.512820512821,4310.256410256411,4187.179487179487,4461.538461538462,4391.282051282052,4362.051282051282,4388.717948717949,4627.179487179488,4274.871794871796,4122.564102564103,4109.74358974359,4487.179487179488
1719.5325,1.0,1.0,0.34431157,0.5515138,0,0.0,0.0,0.0,0.0,0.0,0,0,0.0,0.0,0,0,77.0,0.0,835.0,4582.564102564103,3934.8717948717954,4509.743589743591,4383.589743589744,4240.000000000001,4523.076923076924,4433.846153846154,4414.358974358975,4406.153846153847,4702.051282051282,4332.307692307693,4206.666666666667,4170.769230769231,4529.2307692307695
1719.5325,1.0,1.0,0.34431157,0.5515138,0,0.0,0.0,0.0,0.0,0.0,0,0,0.0,0.0,0,0,77.0,0.0,835.0,4582.564102564103,3934.8717948717954,4509.743589743591,4383.589743589744,4240.000000000001,4523.076923076924,4433.846153846154,4414.358974358975,4406.153846153847,4702.051282051282,4332.307692307693,4206.666666666667,4170.769230769231,4529.2307692307695
1720.0328,1.0,1.0,0.34321374,0.5515863,0,0.0,0.0,0.0,0.0,0.0,0,0,0.0,0.0,0,0,12.0,0.0,529.0,4615.8974358974365,3971.2820512820517,4549.2307692307695,4425.641025641026,4267.6923076923085,4552.307692307693,4465.641025641026,4446.153846153847,4416.923076923077,4733.333333333334,4381.538461538462,4295.384615384616,4224.102564102564,4561.025641025642
1720.3143,1.0,1.0,0.34321374,0.5515863,0,0.0,0.0,0.0,0.0,0.0,0,0,0.0,0.0,0,0,48.0,0.0,0.0,4579.48717948718,3927.692307692308,4506.666666666667,4388.717948717949,4235.384615384616,4528.205128205129,4452.820512820514,4436.410256410257,4399.48717948718,4702.564102564103,4329.743589743591,4245.641025641026,4180.512820512821,4537.435897435898
1720.5333,1.0,1.0,0.3422257,0.55165154,0,0.0,0.0,0.0,0.0,0.0,0,0,0.0,0.0,0,0,76.0,0.0,529.0,4626.153846153847,3984.1025641025644,4564.615384615385,4445.641025641026,4288.717948717949,4582.564102564103,4498.974358974359,4474.358974358975,4425.641025641026,4740.512820512821,4382.564102564103,4341.025641025642,4229.2307692307695,4587.6923076923085
1720.5333,1.0,1.0,0.3422257,0.55165154,0,0.0,0.0,0.0,0.0,0.0,0,0,0.0,0.0,0,0,76.0,0.0,529.0,4626.153846153847,3984.1025641025644,4564.615384615385,4445.641025641026,4288.717948717949,4582.564102564103,4498.974358974359,4474.358974358975,4425.641025641026,4740.512820512821,4382.564102564103,4341.025641025642,4229.2307692307695,4587.6923076923085
1721.0337,1.0,1.0,0.34133646,0.55171025,0,0.0,0.0,0.0,0.0,0.0,0,0,0.0,0.0,0,0,11.0,0.0,440.0,4577.948717948719,3905.6410256410263,4479.48717948718,4376.410256410257,4200.512820512821,4487.179487179488,4409.743589743591,4367.179487179487,4368.205128205129,4598.974358974359,4273.846153846154,4169.2307692307695,4102.564102564103,4531.282051282052
1721.3778,1.0,1.0,0.34133646,0.55171025,1,0.0,0.0,0.0,0.0,0.0,0,0,0.0,0.0,0,0,55.0,0.0,0.0,5078.461538461539,4496.923076923077,5053.846153846154,4929.2307692307695,4795.384615384616,5085.641025641026,4969.2307692307695,4969.743589743591,4612.820512820514,5248.205128205129,4889.743589743591,5059.487179487181,4704.615384615386,4994.358974358975
1721.6279,1.0,1.0,0.34053615,0.5517631,0,0.0,0.0,0.0,0.0,0.17887177,0,0,0.0,0.0,0,0,87.0,0.0,427.0,5006.153846153847,4366.666666666667,4945.128205128206,4827.6923076923085,4650.769230769231,4967.179487179488,4866.153846153847,4882.564102564103,4575.384615384616,5158.461538461539,4778.461538461539,4927.179487179488,4599.48717948718,4928.205128205129
1721.8782,1.0,1.0,0.34053615,0.5517631,0,0.0,0.0,0.0,0.0,0.07608205,0,0,0.0,0.0,0,0,119.0,0.0,427.0,5001.538461538462,4368.205128205129,4941.025641025642,4825.641025641026,4644.102564102564,4965.641025641026,4876.410256410257,4880.000000000001,4589.2307692307695,5169.2307692307695,4770.256410256411,4923.076923076924,4617.948717948719,4934.871794871796
1722.0345,1.0,1.0,0.33981588,0.5518107,0,0.0,0.0,0.0,0.0,0.0,0,0,0.0,0.0,0,0,10.0,0.0,509.0,4992.820512820514,4342.051282051282,4913.333333333334,4806.153846153847,4631.282051282052,4952.820512820514,4860.000000000001,4885.128205128206,4603.076923076924,5180.000000000001,4757.948717948719,4896.923076923077,4606.666666666667,4925.641025641026
1722.0345,1.0,1.0,0.33981588,0.5518107,0,0.0,0.0,0.0,0.0,0.0,0,0,0.0,0.0,0,0,10.0,0.0,509.0,4992.820512820514,4342.051282051282,4913.333333333334,4806.153846153847,4631.282051282052,4952.820512820514,4860.000000000001,4885.128205128206,4603.076923076924,5180.000000000001,4757.948717948719,4896.923076923077,4606.666666666667,4925.641025641026
1722.535,1.0,1.0,0.33916762,0.5518535,0,0.0,0.0,0.0,0.0,0.0,0,0,0.0,0.0,0,0,74.0,0.0,509.0,4933.333333333334,4273.846153846154,4822.564102564103,4748.717948717949,4540.000000000001,4853.333333333334,4771.282051282052,4771.282051282052,4565.128205128206,5064.615384615386,4640.000000000001,4715.8974358974365,4493.846153846154,4862.564102564103
1722.7852,1.0,1.0,0.33916762,0.5518535,1,0.0,0.0,0.0,0.0,0.0,0,0,0.0,0.0,0,0,106.0,0.0,509.0,4815.384615384616,4127.6923076923085,4678.461538461539,4606.666666666667,4408.717948717949,4714.871794871796,4630.769230769231,4617.948717948719,4494.871794871796,4918.974358974359,4485.641025641026,4488.205128205129,4353.846153846154,4756.923076923077
1723.0354,1.0,1.0,0.33858418,0.55189204,0,0.0,0.0,0.0,0.0,0.0,0,0,0.0,0.0,0,0,9.0,0.0,440.0,4905.128205128206,4228.717948717949,4772.820512820514,4696.923076923077,4493.333333333334,4795.8974358974365,4722.564102564103,4705.641025641026,4578.974358974359,4978.974358974359,4586.666666666667,4637.435897435898,4430.256410256411,4844.615384615386
1723.3795,1.0,1.0,0.33858418,0.55189204,0,0.0,0.0,0.0,0.0,0.0,0,0,0.0,0.0,0,0,53.0,0.0,0.0,4873.846153846154,4178.974358974359,4721.538461538462,4650.256410256411,4430.256410256411,4726.153846153847,4645.128205128206,4617.435897435898,4544.102564102564,4935.384615384616,4556.410256410257,4575.8974358974365,4413.333333333334,4804.615384615386
1723.5671,1.0,1.0,0.3380591,0.5519267,0,0.0,0.0,0.0,0.0,0.0,0,0,0.0,0.0,0,0,77.0,0.0,827.0,4786.666666666667,4133.846153846154,4668.205128205129,4599.48717948718,4418.461538461539,4718.974358974359,4649.743589743591,4624.615384615385,4516.410256410257,4904.615384615386,4496.410256410257,4509.2307692307695,4346.666666666667,4729.743589743591
1723.7861,1.0,1.0,0.3380591,0.5519267,1,0.0,0.0,0.0,0.0,0.0,0,0,0.0,0.0,0,0,105.0,0.0,827.0,4681.025641025642,4016.410256410257,4544.615384615385,4494.358974358975,4289.2307692307695,4583.589743589744,4523.076923076924,4499.48717948718,4467.179487179487,4786.666666666667,4361.025641025642,4304.615384615385,4217.948717948719,4613.333333333334
1724.1301,1.0,1.0,0.33758652,0.5519579,0,0.0,0.0,0.0,0.0,0.0,0,0,0.0,0.0,0,0,20.0,0.0,0.0,4714.871794871796,4056.9230769230776,4597.948717948719,4526.666666666667,4346.666666666667,4633.333333333334,4557.435897435898,4528.205128205129,4494.358974358975,4824.102564102564,4415.384615384616,4388.205128205129,4271.794871794872,4655.8974358974365
1724.1301,1.0,1.0,0.33758652,0.5519579,0,0.0,0.0,0.0,0.0,0.0,0,0,0.0,0.0,0,0,20.0,0.0,0.0,4714.871794871796,4056.9230769230776,4597.948717948719,4526.666666666667,4346.666666666667,4633.333333333334,4557.435897435898,4528.205128205129,4494.358974358975,4824.102564102564,4415.384615384616,4388.205128205129,4271.794871794872,4655.8974358974365
1724.5992,1.0,1.0,0.3371612,0.551986,0,0.0,0.0,0.0,0.0,0.0,0,0,0.0,0.0,0,0,80.0,0.0,515.0,5438.974358974359,4908.205128205129,5414.871794871796,5335.8974358974365,5151.282051282052,5446.666666666667,5333.333333333334,5348.205128205129,4883.589743589744,5612.820512820514,5331.282051282052,5671.794871794873,5136.923076923077,5329.2307692307695
1724.8807,1.0,1.0,0.3371612,0.551986,1,0.0,0.0,0.0,0.5169227,0.0,0,0,0.0,0.0,0,0,116.0,0.0,515.0,5550.256410256411,5042.564102564103,5561.025641025642,5485.128205128206,5336.410256410257,5633.333333333334,5509.2307692307695,5530.769230769231,4940.000000000001,5812.820512820514,5475.8974358974365,5900.000000000001,5271.282051282052,5428.717948717949
1725.131,1.0,1.0,0.33677843,0.5520113,1,0.0,0.0,0.0,0.40103188,0.0,0,0,0.0,0.0,0,0,19.0,0.0,0.0,5493.846153846154,4938.974358974359,5442.564102564103,5398.461538461539,5211.794871794872,5512.307692307693,5397.948717948719,5402.564102564103,4851.282051282052,5687.179487179488,5326.666666666667,5710.769230769231,5144.102564102564,5352.307692307693
1725.2874,1.0,1.0,0.33677843,0.5520113,0,0.0,0.0,0.0,0.0,0.0,0,0,0.0,0.0,0,0,39.0,0.0,0.0,5119.487179487181,4463.589743589744,4986.666666666667,4951.282051282052,4712.307692307693,5005.128205128206,4945.128205128206,4926.153846153847,4680.512820512821,5237.948717948719,4810.769230769231,4975.8974358974365,4663.589743589744,5003.589743589744
1725.5376,1.0,1.0,0.33643392,0.552034,0,0.0,0.0,0.0,0.0,0.0,0,0,0.0,0.0,0,0,71.0,0.0,444.0,4736.923076923077,4001.0256410256416,4529.743589743591,4502.051282051282,4257.435897435898,4552.307692307693,4501.025641025642,4444.102564102564,4509.2307692307695,4761.538461538462,4286.666666666667,4237.948717948719,4182.564102564103,4641.025641025642
1725.8816,1.0,1.0,0.33643392,0.552034,1,0.0,0.0,0.0,0.0,0.72054136,0,0,0.0,0.0,0,0,115.0,0.0,424.0,4795.8974358974365,4083.589743589744,4623.076923076924,4576.410256410257,4342.051282051282,4649.743589743591,4576.410256410257,4537.435897435898,4570.256410256411,4845.641025641026,4416.923076923077,4367.6923076923085,4293.333333333334,4691.282051282052
1726.1006,0.93693477,1.0,0.33612385,0.5520545,1,0.0,0.0,0.0,0.0,0.0,0,0,0.0,0.0,0,0,14.0,0.0,513.0,4786.666666666667,4084.615384615385,4624.102564102564,4574.358974358975,4349.743589743591,4653.846153846154,4575.8974358974365,4546.153846153847,4560.000000000001,4866.153846153847,4420.512820512821,4426.666666666667,4296.410256410257,4677.435897435898
1726.2882,0.93693477,1.0,0.33612385,0.5520545,1,0.0,0.0,0.0,0.0,0.0,0,0,0.0,0.0,0,0,38.0,0.0,0.0,4829.2307692307695,4138.974358974359,4625.641025641026,4610.256410256411,4376.923076923077,4680.000000000001,4618.974358974359,4592.820512820514,4580.512820512821,4882.051282051283,4476.923076923077,4476.923076923077,4336.410256410257,4710.256410256411
1726.5385,0.8683589,1.0,0.3358448,0.55207294,0,0.0,0.0,0.0,0.0,0.0,0,0,0.0,0.0,0,0,70.0,0.0,520.0,4470.256410256411,3733.8461538461543,4229.2307692307695,4208.717948717949,3953.333333333334,4256.923076923077,4200.000000000001,4153.846153846154,4335.384615384616,4458.461538461539,4008.205128205129,3810.7692307692314,3917.9487179487182,4367.179487179487
1726.8824,0.8683589,1.0,0.3358448,0.55207294,0,0.0,0.0,0.0,1.0,0.0,0,0,0.0,0.0,0,0,114.0,0.0,525.0,5273.846153846154,4695.8974358974365,5196.410256410257,5137.435897435898,4971.794871794872,5271.282051282052,5174.358974358975,5182.564102564103,4810.256410256411,5456.410256410257,5107.6923076923085,5369.2307692307695,4957.435897435898,5124.102564102564
1727.1327,0.8683589,1.0,0.33559367,0.5520895,1,0.0,0.0,0.0,0.93250203,0.0,0,0,0.0,0.0,0,0,17.0,0.0,0.0,5070.256410256411,4465.128205128206,4970.769230769231,4921.538461538462,4734.871794871796,5035.8974358974365,4959.48717948718,4952.307692307693,4683.589743589744,5200.512820512821,4834.871794871796,4974.358974358975,4687.6923076923085,4950.256410256411
1727.3829,0.8683589,1.0,0.33559367,0.5520895,0,0.0,0.0,0.0,0.98713756,0.0,0,0,0.0,0.0,0,0,49.0,0.0,0.0,6065.128205128206,5630.769230769231,6105.641025641026,6016.410256410257,5903.589743589744,6206.153846153847,6055.384615384616,6056.410256410257,5360.000000000001,6297.948717948719,6109.743589743591,6806.666666666668,5853.846153846154,5933.333333333334
1727.5393,0.8683589,1.0,0.33536762,0.5521045,0,0.0,0.0,0.0,1.0,0.0,0,0,0.0,0.0,0,0,69.0,0.0,507.0,5837.435897435898,5319.487179487181,5813.333333333334,5747.179487179488,5590.256410256411,5895.8974358974365,5755.384615384616,5763.589743589744,5076.410256410257,6015.384615384616,5732.820512820514,6289.743589743591,5551.794871794872,5652.820512820514
1727.7582,0.8683589,1.0,0.33536762,0.5521045,0,0.0,0.0,0.0,1.0,0.0,0,0,0.0,0.0,0,0,97.0,0.0,768.0,5279.487179487181,4630.769230769231,5140.000000000001,5106.153846153847,4910.256410256411,5214.358974358975,5114.358974358975,5106.153846153847,4697.435897435898,5395.8974358974365,4974.871794871796,5261.025641025642,4859.48717948718,5089.743589743591
1728.0397,0.8683589,1.0,0.3351642,0.5521179,1,0.0,0.0,0.0,1.0,0.0,0,0,0.0,0.0,0,0,4.0,0.0,515.0,5698.461538461539,5100.000000000001,5601.538461538462,5561.025641025642,5375.8974358974365,5681.025641025642,5577.948717948719,5576.410256410257,5034.871794871796,5839.487179487181,5488.717948717949,5929.743589743591,5333.333333333334,5508.205128205129
1728.3838,0.8683589,1.0,0.3351642,0.5521179,1,0.0,0.0,0.0,0.57194805,0.0,0,0,0.0,0.0,0,0,48.0,0.0,0.0,5953.846153846154,5370.769230769231,5874.871794871796,5825.128205128206,5640.000000000001,5949.743589743591,5845.641025641026,5852.307692307693,5181.538461538462,6122.564102564103,5802.051282051283,6380.000000000001,5613.333333333334,5750.256410256411
1728.634,0.8683589,1.0,0.3349811,0.55213,0,0.0,0.0,0.0,0.84884053,0.0,0,0,0.0,0.0,0,0,80.0,0.0,494.0,6184.102564102565,5621.025641025642,6116.923076923078,6066.666666666668,5897.948717948719,6211.282051282052,6098.974358974359,6081.025641025642,5325.128205128206,6355.384615384616,6056.923076923078,6733.333333333334,5863.589743589744,5974.3589743589755
1728.7592,0.8683589,1.0,0.3349811,0.55213,0,0.0,0.0,0.0,1.0,0.0,0,0,0.0,0.0,0,0,96.0,0.0,494.0,5876.410256410257,5233.846153846154,5735.384615384616,5703.589743589744,5498.974358974359,5808.717948717949,5699.487179487181,5686.666666666667,5126.666666666667,5997.948717948719,5612.307692307693,6085.128205128206,5461.025641025642,5674.3589743589755
1729.1344,0.8683589,1.0,0.33481634,0.5521409,1,0.0,0.0,0.0,1.0,0.0,0,0,0.0,0.0,0,0,15.0,0.0,412.0,5285.641025641026,4493.846153846154,5024.102564102564,5010.256410256411,4747.6923076923085,5052.820512820514,4979.48717948718,4956.923076923077,4819.48717948718,5263.076923076924,4795.384615384616,4929.743589743591,4685.641025641026,5112.307692307693
1729.3846,0.8683589,1.0,0.33481634,0.5521409,0,0.0,0.0,0.0,0.77423847,0.0,0,0,0.0,0.0,0,0,47.0,0.0,0.0,4938.974358974359,4096.923076923077,4651.282051282052,4631.794871794872,4367.179487179487,4665.128205128206,4615.8974358974365,4566.666666666667,4669.2307692307695,4843.589743589744,4371.794871794872,4311.282051282052,4278.974358974359,4803.589743589744
1729.6349,0.8683589,1.0,0.33466804,0.55215067,0,0.0,0.0,0.0,1.0,0.0,0,0,0.0,0.0,0,0,79.0,0.0,425.0,4862.051282051283,4042.0512820512827,4603.076923076924,4567.179487179488,4302.564102564103,4602.564102564103,4543.589743589744,4516.410256410257,4680.512820512821,4802.564102564103,4331.794871794872,4225.128205128206,4209.2307692307695,4741.538461538462
1729.885,0.8683589,1.0,0.33466804,0.55215067,0,0.0,0.0,0.0,1.0,0.0,0,0,0.0,0.0,0,0,111.0,0.0,425.0,5304.102564102564,4577.948717948719,5130.769230769231,5077.435897435898,4852.307692307693,5146.666666666667,5061.538461538462,5069.2307692307695,4872.820512820514,5322.051282051283,4938.461538461539,5068.717948717949,4783.076923076924,5143.589743589744
1730.1353,0.8683589,1.0,0.33453456,0.5521595,1,0.0,0.0,0.0,0.7856546,0.0,0,0,0.0,0.0,0,0,14.0,0.0,513.0,4844.615384615386,4048.717948717949,4615.8974358974365,4553.846153846154,4333.333333333334,4626.666666666667,4562.051282051282,4529.743589743591,4705.641025641026,4761.025641025642,4351.282051282052,4227.6923076923085,4225.128205128206,4708.717948717949
1730.3855,0.8683589,1.0,0.33453456,0.5521595,0,0.0,0.0,0.0,0.7818793,0.0,0,0,0.0,0.0,0,0,46.0,0.0,0.0,4723.589743589744,3941.538461538462,4503.589743589744,4432.820512820514,4211.794871794872,4499.48717948718,4438.461538461539,4422.051282051282,4601.538461538462,4649.2307692307695,4232.307692307693,4048.717948717949,4115.384615384616,4585.128205128206
1730.6357,0.8683589,1.0,0.33441445,0.5521674,0,0.0,0.0,0.0,0.16357596,0.0,0,0,0.0,0.0,0,0,78.0,0.0,518.0,4949.743589743591,4212.820512820514,4742.564102564103,4666.153846153847,4422.051282051282,4711.794871794872,4651.282051282052,4652.307692307693,4709.743589743591,4911.794871794872,4525.641025641026,4436.410256410257,4417.435897435898,4799.48717948718
1730.886,0.8683589,1.0,0.33441445,0.5521674,0,0.0,0.0,0.0,0.22124662,0.0,0,0,0.0,0.0,0,0,110.0,0.0,518.0,4866.666666666667,4126.153846153847,4726.666666666667,4634.358974358975,4446.153846153847,4741.538461538462,4666.666666666667,4668.717948717949,4712.820512820514,4912.307692307693,4504.615384615385,4391.282051282052,4353.333333333334,4762.564102564103
1731.1361,0.8683589,1.0,0.33430633,0.55217457,1,0.0,0.0,0.0,0.12617436,0.0,0,0,0.0,0.0,0,0,13.0,0.0,838.0,5008.717948717949,4319.48717948718,4861.538461538462,4770.769230769231,4551.794871794872,4858.461538461539,4776.410256410257,4794.358974358975,4745.128205128206,4991.794871794872,4637.948717948719,4614.358974358975,4525.641025641026,4896.923076923077
1731.3864,0.8683589,1.0,0.33430633,0.55217457,0,0.0,0.0,0.0,0.22576249,0.0,0,0,0.0,0.0,0,0,45.0,0.0,0.0,5256.410256410257,4623.589743589744,5209.743589743591,5099.487179487181,4934.358974358975,5244.102564102564,5143.076923076924,5194.871794871796,4915.8974358974365,5432.307692307693,5025.641025641026,5183.076923076924,4891.282051282052,5149.743589743591
1731.6366,0.8683589,1.0,0.33420902,0.55218095,0,0.0,0.0,0.0,0.2398296,0.0,0,0,0.0,0.0,0,0,77.0,0.0,837.0,4856.410256410257,4136.923076923077,4731.282051282052,4627.6923076923085,4436.923076923077,4746.153846153847,4672.820512820514,4672.307692307693,4688.717948717949,4934.358974358975,4480.000000000001,4421.025641025642,4391.794871794872,4779.48717948718
1731.8868,0.8683589,1.0,0.33420902,0.55218095,0,0.0,0.0,0.0,0.16416673,0.0,0,0,0.0,0.0,0,0,109.0,0.0,837.0,4750.769230769231,4021.538461538462,4601.538461538462,4505.128205128206,4293.846153846154,4600.512820512821,4521.538461538462,4509.2307692307695,4642.564102564103,4798.461538461539,4319.48717948718,4181.538461538462,4249.2307692307695,4661.025641025642
1732.0432,0.75404644,1.0,0.33412147,0.5521867,0,0.0,0.0,0.0,0.0,0.0,0,0,0.0,0.0,0,0,0.0,0.0,473.0,4830.256410256411,4100.512820512821,4681.025641025642,4584.615384615385,4382.051282051282,4687.6923076923085,4616.410256410257,4589.743589743591,4681.025641025642,4869.743589743591,4414.358974358975,4307.179487179487,4344.102564102564,4716.923076923077
1732.0432,0.75404644,1.0,0.33412147,0.5521867,0,0.0,0.0,0.0,0.0,0.0,0,0,0.0,0.0,0,0,0.0,0.0,473.0,4830.256410256411,4100.512820512821,4681.025641025642,4584.615384615385,4382.051282051282,4687.6923076923085,4616.410256410257,4589.743589743591,4681.025641025642,4869.743589743591,4414.358974358975,4307.179487179487,4344.102564102564,4716.923076923077
1732.5436,0.6615096,1.0,0.33404264,0.552192,1,0.0,0.0,0.0,0.0,0.0,0,0,0.0,0.0,0,0,64.0,0.0,474.0,4837.435897435898,4104.615384615385,4679.48717948718,4560.512820512821,4381.538461538462,4686.153846153847,4618.974358974359,4591.282051282052,4655.8974358974365,4864.102564102564,4430.769230769231,4345.641025641026,4349.2307692307695,4693.333333333334
1732.8877,0.6615096,1.0,0.33404264,0.552192,1,0.0,0.0,0.0,0.0,0.0,0,0,0.0,0.0,0,0,108.0,0.0,526.0,4852.307692307693,4120.000000000001,4685.641025641026,4581.538461538462,4391.282051282052,4693.333333333334,4633.333333333334,4605.128205128206,4646.153846153847,4880.000000000001,4451.794871794872,4337.948717948719,4366.666666666667,4688.717948717949
1733.0441,0.6118561,1.0,0.3339717,0.5521966,0,0.0,0.0,0.0,0.0,0.0,0,0,0.0,0.0,0,0,128.0,0.0,526.0,4904.615384615386,4192.307692307693,4749.743589743591,4646.153846153847,4442.051282051282,4741.025641025642,4669.2307692307695,4633.846153846154,4666.666666666667,4927.179487179488,4505.128205128206,4444.102564102564,4398.461538461539,4732.307692307693
1733.263,0.6118561,1.0,0.3339717,0.5521966,1,0.0,0.0,0.0,0.0,0.0,0,0,0.0,0.0,0,0,27.0,0.0,0.0,4882.564102564103,4165.128205128206,4737.948717948719,4627.179487179488,4423.076923076924,4725.128205128206,4660.000000000001,4629.743589743591,4667.179487179488,4919.48717948718,4502.564102564103,4397.948717948719,4387.6923076923085,4726.666666666667
1733.6383,0.6118561,1.0,0.33390787,0.55220085,1,0.0,0.0,0.0,0.0,0.0,0,0,0.0,0.0,0,0,75.0,0.0,433.0,4772.307692307693,4050.7692307692314,4611.794871794872,4502.051282051282,4311.794871794872,4620.000000000001,4555.8974358974365,4486.153846153847,4700.000000000001,4806.666666666667,4381.538461538462,4268.717948717949,4280.000000000001,4661.025641025642
1733.7947,0.6118561,1.0,0.33390787,0.55220085,0,0.0,0.0,0.0,0.0,0.0,0,0,0.0,0.0,0,0,95.0,0.0,433.0,4452.820512820514,3693.333333333334,4252.307692307693,4165.641025641026,3933.333333333334,4236.410256410257,4190.769230769231,4132.820512820514,4321.538461538462,4439.48717948718,3986.666666666667,3643.0769230769233,3900.0000000000005,4308.717948717949
1734.0449,0.6118561,1.0,0.3338504,0.55220467,0,0.0,0.0,0.0,1.0,0.0,0,0,0.0,0.0,0,0,127.0,0.0,433.0,4069.23076923077,3288.2051282051284,3817.435897435898,3753.8461538461543,3501.538461538462,3805.1282051282055,3755.3846153846157,3703.076923076924,4257.948717948719,3978.461538461539,3508.205128205129,3004.1025641025644,3458.461538461539,3975.8974358974365
1734.3889,0.6118561,1.0,0.3338504,0.55220467,0,0.0,0.0,0.0,0.65858305,0.0,0,0,0.0,0.0,0,0,42.0,0.0,0.0,4205.641025641026,3489.7435897435903,4025.1282051282055,3943.589743589744,3734.8717948717954,4032.820512820513,3963.076923076924,3915.3846153846157,4387.179487179487,4218.974358974359,3776.410256410257,3410.2564102564106,3679.48717948718,4142.051282051282
1734.6392,0.6118561,1.0,0.3337987,0.55220807,0,0.0,0.0,0.0,0.0,0.0,0,0,0.3510524,0.0,0,0,74.0,0.0,521.0,4453.333333333334,3800.512820512821,4356.923076923077,4252.820512820514,4077.435897435898,4378.461538461539,4295.384615384616,4269.2307692307695,4474.358974358975,4552.307692307693,4151.282051282052,3913.333333333334,4016.9230769230776,4382.564102564103
1734.8894,0.6118561,1.0,0.3337987,0.55220807,0,0.0,0.0,0.0,0.5541598,0.0,0,0,0.0,0.0,0,0,106.0,0.0,521.0,4299.48717948718,3644.615384615385,4190.256410256411,4093.8461538461543,3912.820512820513,4209.74358974359,4126.666666666667,4090.7692307692314,4367.179487179487,4378.461538461539,3957.435897435898,3625.6410256410263,3840.512820512821,4240.512820512821
1735.1395,0.6118561,1.0,0.3337522,0.55221117,0,0.0,0.0,0.0,0.24807024,0.0,0,0,0.0,0.0,0,0,9.0,0.0,456.0,4357.948717948719,3727.1794871794878,4277.948717948719,4176.410256410257,4015.3846153846157,4313.846153846154,4229.74358974359,4211.794871794872,4388.205128205129,4491.282051282052,4088.717948717949,3765.6410256410263,3941.0256410256416,4309.743589743591
1735.3898,0.6118561,1.0,0.3337522,0.55221117,0,0.0,0.0,0.0,0.19787702,0.0,0,0,0.0,0.0,0,0,41.0,0.0,0.0,4365.128205128206,3751.2820512820517,4288.205128205129,4188.717948717949,4026.1538461538466,4322.564102564103,4236.410256410257,4222.051282051282,4399.48717948718,4509.2307692307695,4117.948717948719,3829.7435897435903,3960.0000000000005,4310.769230769231
1735.64,0.524914,1.0,0.33371028,0.5522139,1,0.0,0.0,0.0,0.0,0.0,0,0,0.0,0.0,0,0,73.0,0.0,456.0,4477.948717948719,3857.9487179487182,4411.282051282052,4292.820512820514,4143.589743589744,4442.051282051282,4358.461538461539,4343.076923076924,4442.051282051282,4635.384615384616,4258.461538461539,4003.589743589744,4100.512820512821,4407.6923076923085
1735.859,0.524914,1.0,0.33371028,0.5522139,1,0.0,0.0,0.0,0.0,0.0,0,0,0.0,0.0,0,0,101.0,0.0,832.0,4329.743589743591,3685.6410256410263,4227.179487179487,4126.666666666667,3967.1794871794878,4262.564102564103,4185.128205128206,4160.512820512821,4340.000000000001,4433.333333333334,4052.820512820513,3717.9487179487182,3914.358974358975,4258.974358974359
1736.0466,0.524914,1.0,0.33367258,0.5522164,0,0.0,0.0,0.0,0.0,0.0,0,0,0.0,0.0,0,0,125.0,0.0,832.0,4195.8974358974365,3515.8974358974365,4059.48717948718,3973.333333333334,3782.564102564103,4077.435897435898,4011.2820512820517,3974.8717948717954,4258.461538461539,4289.2307692307695,3854.8717948717954,3508.205128205129,3738.461538461539,4128.717948717949
1736.3906,0.524914,1.0,0.33367258,0.5522164,0,0.0,0.0,0.0,0.0,0.0,0,0,0.351696,0.0,0,1,40.0,0.0,0.0,4291.794871794872,3633.8461538461543,4180.512820512821,4083.076923076924,3901.0256410256416,4198.974358974359,4138.461538461539,4119.48717948718,4313.333333333334,4414.358974358975,3983.076923076924,3655.8974358974365,3862.564102564103,4213.333333333334
1736.6409,0.524914,1.0,0.33363867,0.5522186,0,0.0,0.0,0.0,0.0,0.0,0,0,0.0,0.0,0,0,72.0,0.0,386.0,4602.564102564103,3989.23076923077,4544.615384615385,4440.512820512821,4251.282051282052,4548.717948717949,4455.8974358974365,4421.025641025642,4437.948717948719,4743.076923076924,4378.461538461539,4236.410256410257,4252.820512820514,4498.461538461539
1736.8599,0.524914,1.0,0.33363867,0.5522186,0,0.0,0.0,0.0,0.0,0.0,0,0,0.0,0.0,0,0,100.0,0.0,528.0,4586.153846153847,3972.820512820513,4541.025641025642,4438.461538461539,4285.128205128206,4586.666666666667,4509.743589743591,4501.025641025642,4451.794871794872,4812.307692307693,4395.384615384616,4280.512820512821,4245.128205128206,4499.48717948718
1737.0475,0.42065865,1.0,0.33360815,0.55222064,0,0.0,0.0,0.0,0.0,0.0,0,0,0.0,0.0,0,0,124.0,0.0,528.0,4508.717948717949,3863.076923076924,4429.2307692307695,4331.794871794872,4163.076923076924,4461.538461538462,4390.256410256411,4373.846153846154,4377.435897435898,4669.743589743591,4261.025641025642,4060.5128205128212,4112.307692307693,4416.923076923077
1737.2664,0.42065865,1.0,0.33360815,0.55222064,1,0.0,0.0,0.0,0.0,0.0,0,0,0.0,0.0,0,0,23.0,0.0,0.0,4547.179487179488,3915.8974358974365,4461.025641025642,4368.717948717949,4181.025641025642,4482.564102564103,4404.615384615385,4392.307692307693,4389.743589743591,4690.769230769231,4278.974358974359,4141.025641025642,4131.794871794872,4444.102564102564
1737.5479,0.32449946,1.0,0.33358064,0.5522225,0,0.0,0.0,0.0,0.0,0.0,0,0,0.0,0.0,0,0,59.0,0.0,0.0,4636.410256410257,4004.1025641025644,4560.512820512821,4465.128205128206,4274.358974358975,4577.435897435898,4503.076923076924,4485.641025641026,4440.000000000001,4785.128205128206,4384.102564102564,4296.923076923077,4224.102564102564,4532.820512820514
1737.5479,0.32449946,1.0,0.33358064,0.5522225,0,0.0,0.0,0.0,0.0,0.0,0,0,0.0,0.0,0,0,59.0,0.0,0.0,4636.410256410257,4004.1025641025644,4560.512820512821,4465.128205128206,4274.358974358975,4577.435897435898,4503.076923076924,4485.641025641026,4440.000000000001,4785.128205128206,4384.102564102564,4296.923076923077,4224.102564102564,4532.820512820514
1738.1422,0.2683797,1.0,0.33355594,0.5522241,1,0.0,0.0,0.0,0.0,0.0,0,0,0.0,0.0,0,0,6.0,0.0,524.0,4663.589743589744,4020.0000000000005,4585.128205128206,4485.641025641026,4315.8974358974365,4618.461538461539,4543.589743589744,4525.641025641026,4453.333333333334,4832.820512820514,4418.974358974359,4384.102564102564,4271.282051282052,4562.564102564103
1738.2986,0.2683797,1.0,0.33355594,0.5522241,0,0.0,0.0,0.0,0.0,0.0,0,0,0.0,0.0,0,0,26.0,0.0,0.0,4807.179487179488,4200.512820512821,4764.615384615386,4663.076923076924,4521.025641025642,4823.076923076924,4750.256410256411,4721.025641025642,4571.282051282052,5000.512820512821,4620.000000000001,4663.076923076924,4455.384615384616,4697.948717948719
1738.5801,0.2683797,1.0,0.33353367,0.5522256,0,0.0,0.0,0.0,0.0,0.0,0,0,0.0,0.0,0,0,62.0,0.0,0.0,4812.820512820514,4186.153846153847,4760.512820512821,4649.2307692307695,4477.948717948719,4778.974358974359,4709.2307692307695,4707.179487179488,4541.025641025642,5003.076923076924,4594.358974358975,4630.769230769231,4443.589743589744,4698.461538461539
1738.8616,0.2683797,1.0,0.33353367,0.5522256,0,0.0,0.0,0.0,0.0,0.0,0,0,0.0,0.0,0,0,98.0,0.0,518.0,4664.102564102564,3991.7948717948725,4560.512820512821,4465.641025641026,4267.179487179487,4571.282051282052,4523.076923076924,4475.384615384616,4456.410256410257,4770.256410256411,4371.794871794872,4278.974358974359,4228.717948717949,4557.948717948719
1739.0804,0.2683797,1.0,0.33351362,0.5522269,1,0.0,0.0,0.0,0.0,0.0,0,0,0.0,0.0,0,0,126.0,0.0,518.0,4721.538461538462,4078.461538461539,4630.256410256411,4534.871794871796,4341.538461538462,4644.102564102564,4569.743589743591,4538.461538461539,4489.743589743591,4850.256410256411,4457.948717948719,4394.358974358975,4317.948717948719,4611.282051282052
1739.3932,0.2683797,1.0,0.33351362,0.5522269,1,0.0,0.0,0.0,0.0,0.5077542,0,0,0.0,0.0,0,0,37.0,0.0,0.0,4752.820512820514,4103.589743589744,4664.102564102564,4574.358974358975,4400.000000000001,4699.48717948718,4617.948717948719,4590.256410256411,4500.512820512821,4893.846153846154,4487.179487179488,4483.589743589744,4346.153846153847,4628.205128205129
1739.5496,0.2683797,1.0,0.3334956,0.5522281,0,0.0,0.0,0.0,0.0,0.0,0,0,0.0,0.0,0,0,57.0,0.0,0.0,4847.179487179488,4209.74358974359,4776.923076923077,4683.076923076924,4504.615384615385,4806.666666666667,4732.820512820514,4708.205128205129,4549.743589743591,4987.179487179488,4606.153846153847,4632.307692307693,4458.461538461539,4721.538461538462
1739.831,0.2683797,1.0,0.3334956,0.5522281,0,0.0,0.0,0.0,0.0,0.0,0,0,0.0,0.0,0,0,93.0,0.0,840.0,4821.025641025642,4170.256410256411,4742.051282051282,4649.743589743591,4480.000000000001,4780.000000000001,4704.615384615386,4684.102564102564,4533.333333333334,4973.333333333334,4575.384615384616,4586.666666666667,4428.717948717949,4701.025641025642
1740.1125,0.21840161,1.0,0.33347937,0.55222917,1,0.0,0.0,0.0,0.0,0.0,0,0,0.0,0.0,0,0,0.0,0.0,472.0,4831.794871794872,4181.538461538462,4745.128205128206,4655.384615384616,4466.666666666667,4764.615384615386,4684.102564102564,4662.051282051282,4541.025641025642,4967.6923076923085,4568.205128205129,4581.538461538462,4430.769230769231,4725.641025641026
1740.269,0.21840161,1.0,0.33347937,0.55222917,0,0.0,0.0,0.0,0.0,0.0,0,0,0.0,0.0,0,0,20.0,0.0,0.0,4784.615384615386,4127.179487179487,4691.794871794872,4603.076923076924,4420.512820512821,4721.538461538462,4646.666666666667,4611.282051282052,4529.743589743591,4897.948717948719,4504.615384615385,4492.820512820514,4372.307692307693,4693.846153846154
1740.6443,0.1932712,1.0,0.33346477,0.5522301,0,0.0,0.0,0.0,0.0,0.0,0,0,0.0,0.0,0,0,68.0,0.0,533.0,4888.717948717949,4262.564102564103,4788.205128205129,4710.769230769231,4493.846153846154,4784.615384615386,4702.564102564103,4684.615384615386,4529.2307692307695,4972.820512820514,4601.025641025642,4642.564102564103,4461.538461538462,4793.333333333334
1740.7694,0.1932712,1.0,0.33346477,0.5522301,1,0.0,0.0,0.0,0.0,0.0,0,0,0.0,0.0,0,0,84.0,0.0,524.0,5117.948717948719,4506.666666666667,5071.282051282052,4972.820512820514,4797.435897435898,5093.846153846154,4997.435897435898,4983.589743589744,4723.589743589744,5278.974358974359,4931.794871794872,5106.153846153847,4783.076923076924,5042.051282051283
1741.1448,0.1932712,1.0,0.33345163,0.552231,0,0.0,0.0,0.0,1.0,0.0,0,0,0.0,0.0,0,0,3.0,0.0,499.0,5487.6923076923085,4950.769230769231,5487.6923076923085,5407.179487179488,5238.974358974359,5535.384615384616,5427.179487179488,5423.076923076924,4868.717948717949,5747.179487179488,5414.3589743589755,5781.025641025642,5220.512820512821,5381.025641025642
1741.3949,0.1932712,1.0,0.33345163,0.552231,0,0.0,0.0,0.0,0.64146715,0.0,0,0,0.0,0.0,0,0,35.0,0.0,0.0,5420.512820512821,4810.769230769231,5355.384615384616,5288.205128205129,5068.205128205129,5371.794871794872,5278.974358974359,5271.282051282052,4811.282051282052,5582.564102564103,5236.923076923078,5527.179487179488,5075.384615384616,5306.666666666667
1741.6451,0.1932712,1.0,0.3334398,0.5522318,0,0.0,0.0,0.0,0.9146872,0.0,0,0,0.0,0.0,0,0,67.0,0.0,518.0,5016.410256410257,4307.6923076923085,4849.743589743591,4804.102564102564,4551.794871794872,4853.846153846154,4806.666666666667,4757.948717948719,4577.948717948719,5066.153846153847,4649.2307692307695,4698.461538461539,4509.2307692307695,4912.307692307693
1741.8954,0.1932712,1.0,0.3334398,0.5522318,0,0.0,0.0,0.0,0.8612051,0.0,0,0,0.0,0.0,0,0,99.0,0.0,428.0,5368.205128205129,4759.48717948718,5296.410256410257,5246.666666666667,5044.615384615386,5347.6923076923085,5266.666666666667,5255.384615384616,4825.128205128206,5539.487179487181,5157.435897435898,5436.410256410257,4977.435897435898,5248.717948717949
1742.0518,0.1932712,1.0,0.33342916,0.5522325,0,0.0,0.0,0.0,1.0,0.0,0,0,0.0,0.0,0,0,119.0,0.0,428.0,5065.128205128206,4368.717948717949,4920.512820512821,4884.102564102564,4644.615384615385,4949.2307692307695,4881.538461538462,4852.307692307693,4641.025641025642,5146.666666666667,4716.923076923077,4799.48717948718,4576.410256410257,4948.205128205129
1742.3959,0.1932712,1.0,0.33342916,0.5522325,0,0.0,0.0,0.0,1.0,0.0,0,0,0.0,0.0,0,0,34.0,0.0,0.0,4975.8974358974365,4209.74358974359,4773.846153846154,4736.923076923077,4480.000000000001,4777.435897435898,4709.2307692307695,4688.205128205129,4596.923076923077,4968.205128205129,4542.564102564103,4591.794871794872,4371.282051282052,4801.538461538462
1742.646,0.1932712,1.0,0.33341956,0.5522331,0,0.0,0.0,0.0,0.6174142,0.0,0,0,0.0,0.0,0,0,66.0,0.0,413.0,5152.307692307693,4875.384615384616,5068.205128205129,5190.256410256411,5143.589743589744,5358.461538461539,5283.589743589744,4996.923076923077,4737.948717948719,5367.6923076923085,4942.564102564103,5315.8974358974365,5476.410256410257,4952.820512820514
1742.8962,0.1932712,1.0,0.33341956,0.5522331,0,0.0,0.0,0.0,0.32588017,0.0,0,0,0.0,0.0,0,0,98.0,0.0,497.0,6279.487179487181,7098.461538461539,6491.282051282052,6647.179487179488,6559.487179487181,6836.923076923078,6679.487179487181,6482.564102564103,5539.487179487181,6945.128205128206,6713.846153846154,7753.333333333334,7467.6923076923085,6148.717948717949
1743.1465,0.1932712,1.0,0.33341095,0.5522337,0,0.0,0.0,0.0,0.07220056,0.0,0,0,0.0,0.0,0,0,1.0,0.0,365.0,5138.974358974359,5215.8974358974365,5021.025641025642,5143.589743589744,5011.794871794872,5338.974358974359,5178.974358974359,4972.820512820514,4735.8974358974365,5401.025641025642,4948.205128205129,5915.8974358974365,5401.538461538462,5010.769230769231
1743.3967,0.1932712,1.0,0.33341095,0.5522337,0,0.0,0.0,0.0,0.09892648,0.0,0,0,0.0,0.0,0,0,33.0,0.0,0.0,4932.820512820514,4481.025641025642,4692.307692307693,4762.051282051282,4621.025641025642,4950.256410256411,4754.871794871796,4601.538461538462,4640.512820512821,4992.307692307693,4511.794871794872,5187.179487179488,4578.974358974359,4624.615384615385
1743.6469,0.1932712,1.0,0.33340317,0.5522342,1,0.0,0.0,0.0,0.77846396,0.0,0,0,0.0,0.0,0,0,65.0,0.0,454.0,4454.871794871796,3717.9487179487182,4140.000000000001,4171.794871794872,3986.1538461538466,4325.128205128206,4185.641025641026,4017.9487179487182,4487.6923076923085,4350.256410256411,3855.3846153846157,4204.102564102564,3713.333333333334,4178.461538461539
1743.8971,0.1932712,1.0,0.33340317,0.5522342,0,0.0,0.0,0.0,0.40962481,0.0,0,0,0.0,0.0,0,0,97.0,0.0,772.0,5141.025641025642,4409.2307692307695,4974.358974358975,4906.666666666667,4828.205128205129,5152.307692307693,4966.153846153847,4909.743589743591,4780.000000000001,5185.641025641026,4801.025641025642,5531.282051282052,4456.923076923077,4794.871794871796
1744.1473,0.1932712,1.0,0.3333962,0.55223465,0,0.0,0.0,0.0,0.659211,0.0,0,0,0.0,0.0,0,0,0.0,0.0,450.0,5792.307692307693,5082.051282051283,5705.128205128206,5626.153846153847,5555.8974358974365,5877.948717948719,5659.487179487181,5648.205128205129,5075.384615384616,5902.051282051283,5634.3589743589755,6629.23076923077,5182.564102564103,5417.948717948719
1744.3976,0.1932712,1.0,0.3333962,0.55223465,0,0.0,0.0,0.0,0.35234097,0.0,0,0,0.0,0.0,0,0,32.0,0.0,0.0,5594.871794871796,4759.48717948718,5449.743589743591,5390.769230769231,5259.487179487181,5574.3589743589755,5383.589743589744,5392.820512820514,4971.794871794872,5635.8974358974365,5306.153846153847,6136.923076923078,4882.564102564103,5222.051282051283
1744.6477,0.1932712,1.0,0.3333899,0.55223507,0,0.0,0.0,0.0,0.0,1.0,0,0,0.0,0.0,0,0,64.0,0.0,455.0,5350.769230769231,4388.717948717949,5114.871794871796,5063.076923076924,4895.8974358974365,5196.923076923077,5037.435897435898,5022.051282051283,4839.48717948718,5264.102564102564,4905.128205128206,5532.307692307693,4527.179487179488,4976.923076923077
1744.6477,0.1932712,1.0,0.3333899,0.55223507,0,0.0,0.0,0.0,0.0,1.0,0,0,0.0,0.0,0,0,64.0,0.0,455.0,5350.769230769231,4388.717948717949,5114.871794871796,5063.076923076924,4895.8974358974365,5196.923076923077,5037.435897435898,5022.051282051283,4839.48717948718,5264.102564102564,4905.128205128206,5532.307692307693,4527.179487179488,4976.923076923077
1745.1482,0.1932712,1.0,0.33338425,0.5522354,0,0.0,0.0,0.0,0.0,0.0,0,0,0.0,0.0,0,0,128.0,0.0,502.0,4758.974358974359,3688.717948717949,4430.256410256411,4403.589743589744,4170.256410256411,4466.666666666667,4335.8974358974365,4329.2307692307695,4508.205128205129,4570.256410256411,4164.615384615385,4378.461538461539,3869.7435897435903,4426.153846153847
1745.3984,0.1932712,1.0,0.33338425,0.5522354,0,0.0,0.0,0.0,0.87104857,0.0,0,0,0.0,0.0,0,0,31.0,0.0,0.0,4970.256410256411,3978.461538461539,4696.923076923077,4657.435897435898,4462.051282051282,4766.153846153847,4613.846153846154,4584.102564102564,4715.384615384616,4813.846153846154,4451.794871794872,4766.153846153847,4175.384615384616,4664.102564102564
1745.6486,0.1932712,1.0,0.33337915,0.5522358,0,0.0,0.0,0.0,1.0,0.0,0,0,0.0,0.0,0,0,63.0,0.0,0.0,4775.384615384616,3805.6410256410263,4508.717948717949,4465.128205128206,4258.974358974359,4566.666666666667,4437.435897435898,4402.051282051282,4545.641025641026,4623.589743589744,4254.358974358975,4450.769230769231,4011.7948717948725,4483.076923076924
1745.6486,0.1932712,1.0,0.33337915,0.5522358,0,0.0,0.0,0.0,1.0,0.0,0,0,0.0,0.0,0,0,63.0,0.0,0.0,4775.384615384616,3805.6410256410263,4508.717948717949,4465.128205128206,4258.974358974359,4566.666666666667,4437.435897435898,4402.051282051282,4545.641025641026,4623.589743589744,4254.358974358975,4450.769230769231,4011.7948717948725,4483.076923076924
1746.0552,0.1932712,1.0,0.3333746,0.5522361,0,0.0,0.0,0.0,1.0,0.0,0,0,0.0,0.0,0,1,115.0,0.0,472.0,3465.641025641026,2447.692307692308,3127.692307692308,3093.333333333334,2825.641025641026,3112.307692307693,3028.2051282051284,2983.0769230769233,4012.820512820513,3242.564102564103,2727.1794871794878,2260.0000000000005,2633.3333333333335,3304.1025641025644
1746.3993,0.1932712,1.0,0.3333746,0.5522361,0,0.0,0.0,0.0,0.0,1.0,0,0,0.0,0.0,0,0,30.0,0.0,0.0,3854.358974358975,2980.0000000000005,3642.564102564103,3555.3846153846157,3378.9743589743593,3662.0512820512827,3566.1538461538466,3539.48717948718,4208.717948717949,3753.8461538461543,3361.538461538462,3110.769230769231,3239.4871794871797,3702.564102564103
1746.6494,0.1932712,1.0,0.33337045,0.5522364,1,0.0,0.0,0.0,0.8440683,0.0,0,0,0.0,0.0,0,0,62.0,0.0,0.0,4274.871794871796,3512.820512820513,4171.282051282052,4049.7435897435903,3919.48717948718,4214.358974358975,4086.666666666667,4095.8974358974365,4425.128205128206,4304.102564102564,3960.5128205128212,3973.333333333334,3798.9743589743593,4112.307692307693
1746.8997,0.1932712,1.0,0.33337045,0.5522364,1,0.0,0.0,0.0,1.0,0.0,0,0,0.0,0.0,0,0,94.0,0.0,519.0,4352.820512820514,3624.1025641025644,4264.102564102564,4145.128205128206,4010.7692307692314,4307.6923076923085,4176.410256410257,4184.615384615385,4382.051282051282,4412.307692307693,4063.076923076924,4117.948717948719,3921.0256410256416,4186.153846153847
1747.1499,0.1932712,1.0,0.33336675,0.5522366,1,0.0,0.0,0.0,0.40294945,0.0,0,0,0.0,0.0,0,0,126.0,0.0,519.0,4428.717948717949,3716.9230769230776,4351.282051282052,4217.435897435898,4078.461538461539,4374.871794871796,4234.871794871796,4245.641025641026,4413.846153846154,4481.538461538462,4149.2307692307695,4231.282051282052,4012.307692307693,4274.358974358975
1747.275,0.1932712,1.0,0.33336675,0.5522366,0,0.0,0.0,0.0,1.0,0.0,0,0,0.0,0.0,0,0,13.0,0.0,786.0,5692.820512820514,5234.358974358975,5848.717948717949,5675.384615384616,5615.8974358974365,5910.769230769231,5710.769230769231,5789.743589743591,5091.282051282052,6023.589743589744,5855.384615384616,6648.717948717949,5613.333333333334,5494.3589743589755
1747.5565,0.1932712,1.0,0.3333634,0.5522368,1,0.0,0.0,0.0,1.0,0.0,0,0,0.0,0.0,0,0,49.0,0.0,0.0,5204.102564102564,4591.794871794872,5183.076923076924,5048.205128205129,4877.948717948719,5174.871794871796,5029.2307692307695,5068.717948717949,4729.743589743591,5313.333333333334,5052.307692307693,5516.923076923078,4889.743589743591,5006.153846153847
1747.9005,0.1932712,1.0,0.3333634,0.5522368,1,0.0,0.0,0.0,0.32599995,0.0,0,0,0.0,0.0,0,0,93.0,0.0,801.0,4915.384615384616,4236.923076923077,4855.8974358974365,4736.410256410257,4582.051282051282,4885.641025641026,4772.307692307693,4803.589743589744,4625.641025641026,5038.974358974359,4671.282051282052,4989.2307692307695,4520.512820512821,4753.846153846154
1748.1508,0.1932712,1.0,0.3333604,0.55223703,0,0.0,0.0,0.0,0.8058919,0.0,0,0,0.0,0.0,0,0,125.0,0.0,801.0,4747.6923076923085,4062.0512820512827,4658.461538461539,4552.307692307693,4372.820512820514,4679.48717948718,4568.717948717949,4561.538461538462,4539.48717948718,4815.384615384616,4417.948717948719,4640.512820512821,4285.128205128206,4600.512820512821
1748.401,0.1932712,1.0,0.3333604,0.55223703,1,0.0,0.0,0.0,0.60202265,0.0,0,0,0.0,0.0,0,0,28.0,0.0,0.0,4430.769230769231,3701.0256410256416,4274.358974358975,4188.205128205129,3981.0256410256416,4284.102564102564,4191.794871794872,4176.923076923077,4327.179487179487,4427.6923076923085,3992.307692307693,4014.8717948717954,3891.7948717948725,4292.307692307693
1748.6512,0.1932712,1.0,0.3333577,0.5522372,0,0.0,0.0,0.0,0.0,1.0,0,0,0.0,0.0,0,0,60.0,0.0,0.0,4397.435897435898,3676.9230769230776,4255.384615384616,4152.820512820514,3962.0512820512827,4261.538461538462,4170.256410256411,4156.923076923077,4365.128205128206,4420.512820512821,3985.6410256410263,3983.076923076924,3889.2307692307695,4281.538461538462
1748.9014,0.1932712,1.0,0.3333577,0.5522372,1,0.0,0.0,0.0,0.0,0.32471,0,0,0.0,0.0,0,0,92.0,0.0,528.0,4513.846153846154,3795.3846153846157,4395.8974358974365,4271.794871794872,4089.7435897435903,4387.6923076923085,4301.538461538462,4328.205128205129,4430.769230769231,4577.435897435898,4181.025641025642,4209.2307692307695,4071.2820512820517,4408.205128205129
1749.0577,0.12708676,1.0,0.33335525,0.55223733,0,0.0,0.0,0.0,0.0,0.0,0,0,0.0,0.0,0,0,112.0,0.0,528.0,4647.6923076923085,3962.0512820512827,4558.974358974359,4434.871794871796,4283.076923076924,4578.974358974359,4476.410256410257,4493.333333333334,4492.820512820514,4750.256410256411,4361.538461538462,4468.717948717949,4231.794871794872,4534.871794871796
1749.3392,0.12708676,1.0,0.33335525,0.55223733,0,0.0,0.0,0.0,0.0,0.0,0,0,0.0,0.0,0,0,19.0,0.0,0.0,5878.461538461539,5435.8974358974365,5980.000000000001,5840.512820512821,5749.743589743591,6046.666666666668,5891.282051282052,5956.410256410257,5113.333333333334,6213.846153846154,6025.128205128206,6763.589743589744,5777.948717948719,5720.512820512821
1749.6521,0.12708676,1.0,0.33335307,0.5522375,1,0.0,0.0,0.0,1.0,0.0,0,0,0.0,0.0,0,0,59.0,0.0,0.0,5695.8974358974365,5148.717948717949,5672.307692307693,5576.410256410257,5408.205128205129,5707.6923076923085,5576.923076923078,5611.794871794873,4950.769230769231,5894.3589743589755,5589.743589743591,6206.153846153847,5413.333333333334,5518.974358974359
1749.8085,0.12708676,1.0,0.33335307,0.5522375,0,0.0,0.0,0.0,1.0,0.0,0,0,0.0,0.0,0,0,79.0,0.0,426.0,5468.717948717949,4852.820512820514,5405.128205128206,5318.461538461539,5135.8974358974365,5435.8974358974365,5326.666666666667,5353.846153846154,4859.48717948718,5654.3589743589755,5288.205128205129,5754.871794871796,5130.769230769231,5315.384615384616
1750.1525,0.12708676,1.0,0.33335108,0.55223763,0,0.0,0.0,0.0,0.783675,0.0,0,0,0.0,0.0,0,0,123.0,0.0,426.0,5039.487179487181,4316.923076923077,4897.948717948719,4828.717948717949,4611.794871794872,4905.641025641026,4826.666666666667,4833.333333333334,4652.820512820514,5131.282051282052,4716.410256410257,4877.435897435898,4556.923076923077,4933.333333333334
1750.4027,0.12708676,1.0,0.33335108,0.55223763,0,0.0,0.0,0.0,1.0,0.0,0,0,0.0,0.0,0,0,26.0,0.0,0.0,4942.051282051283,4192.307692307693,4770.256410256411,4715.384615384616,4480.000000000001,4776.410256410257,4701.025641025642,4668.205128205129,4642.051282051282,4941.538461538462,4541.538461538462,4638.461538461539,4396.923076923077,4830.256410256411
1750.5591,0.12708676,1.0,0.33334932,0.55223775,0,0.0,0.0,0.0,1.0,0.0,0,0,0.0,0.0,0,0,46.0,0.0,0.0,5000.000000000001,4266.666666666667,4838.461538461539,4784.102564102564,4551.282051282052,4846.153846153847,4755.8974358974365,4748.717948717949,4613.846153846154,5012.820512820514,4636.410256410257,4743.589743589744,4485.128205128206,4867.179487179488
1750.9031,0.12708676,1.0,0.33334932,0.55223775,0,0.0,0.0,0.0,1.0,0.0,0,0,0.0,0.0,0,0,72.0,0.0,371.0,4441.538461538462,3618.9743589743593,4173.333333333334,4145.128205128206,3881.0256410256416,4175.384615384616,4125.641025641026,4073.333333333334,4344.615384615385,4345.641025641026,3866.1538461538466,3668.205128205129,3766.666666666667,4340.512820512821
1751.0596,0.12708676,1.0,0.3333477,0.55223787,0,0.0,0.0,0.0,1.0,0.0,0,0,0.0,0.0,0,0,110.0,0.0,512.0,5194.871794871796,4517.435897435898,5067.179487179488,5006.666666666667,4814.358974358975,5100.512820512821,5000.512820512821,5011.794871794872,4791.794871794872,5291.794871794872,4921.025641025642,5132.307692307693,4740.000000000001,5077.948717948719
1751.4036,0.12708676,1.0,0.3333477,0.55223787,1,0.0,0.0,0.0,1.0,0.0,0,0,0.0,0.0,0,0,25.0,0.0,0.0,3601.0256410256416,2660.0000000000005,3167.692307692308,3178.9743589743593,2812.307692307693,3097.435897435898,3087.1794871794878,2985.641025641026,3958.461538461539,3309.7435897435903,2728.2051282051284,2042.0512820512822,2726.1538461538466,3550.2564102564106
1751.6538,0.12708676,1.0,0.33334628,0.5522379,0,0.0,0.0,0.0,1.0,0.0,0,0,0.0,0.0,0,0,57.0,0.0,0.0,3269.2307692307695,2362.564102564103,2917.9487179487182,2898.9743589743593,2585.641025641026,2871.2820512820517,2852.820512820513,2773.8461538461543,3804.615384615385,3071.2820512820517,2471.794871794872,1649.2307692307695,2454.8717948717954,3248.717948717949
1751.6538,0.12708676,1.0,0.33334628,0.5522379,0,0.0,0.0,0.0,1.0,0.0,0,0,0.0,0.0,0,0,57.0,0.0,0.0,3269.2307692307695,2362.564102564103,2917.9487179487182,2898.9743589743593,2585.641025641026,2871.2820512820517,2852.820512820513,2773.8461538461543,3804.615384615385,3071.2820512820517,2471.794871794872,1649.2307692307695,2454.8717948717954,3248.717948717949
1752.0917,0.12708676,1.0,0.333345,0.55223805,0,0.0,0.0,0.0,1.0,0.0,0,0,0.0,0.0,0,0,113.0,0.0,831.0,3574.8717948717954,2753.3333333333335,3306.1538461538466,3266.1538461538466,3003.589743589744,3288.2051282051284,3255.3846153846157,3193.8461538461543,3892.820512820513,3493.8461538461543,2975.3846153846157,2306.666666666667,2909.7435897435903,3552.307692307693
1752.4044,0.12708676,1.0,0.333345,0.55223805,0,0.0,0.0,0.0,1.0,0.0,0,0,0.0,0.0,0,1,2.0,0.0,435.0,3332.307692307693,2499.4871794871797,3048.717948717949,3010.769230769231,2734.3589743589746,3021.0256410256416,3000.512820512821,2932.820512820513,3857.9487179487182,3233.333333333334,2682.051282051282,1911.2820512820515,2655.3846153846157,3338.9743589743593
1752.592,0.12708676,1.0,0.3333438,0.5522381,0,0.0,0.0,0.0,1.0,0.0,0,0,0.0,0.0,0,0,48.0,0.0,0.0,3941.0256410256416,3238.461538461539,3804.1025641025644,3708.205128205129,3540.512820512821,3827.1794871794878,3764.1025641025644,3722.564102564103,4161.025641025642,4040.5128205128212,3610.2564102564106,3166.1538461538466,3532.307692307693,3949.7435897435903
1752.592,0.12708676,1.0,0.3333438,0.5522381,0,0.0,0.0,0.0,1.0,0.0,0,0,0.0,0.0,0,0,48.0,0.0,0.0,3941.0256410256416,3238.461538461539,3804.1025641025644,3708.205128205129,3540.512820512821,3827.1794871794878,3764.1025641025644,3722.564102564103,4161.025641025642,4040.5128205128212,3610.2564102564106,3166.1538461538466,3532.307692307693,3949.7435897435903
1753.0613,0.12708676,1.0,0.33334276,0.55223817,0,0.0,0.0,0.0,1.0,0.0,0,0,0.0,0.0,0,0,108.0,0.0,519.0,4229.74358974359,3564.615384615385,4126.153846153847,4013.333333333334,3844.615384615385,4133.333333333334,4051.2820512820517,4040.5128205128212,4240.000000000001,4367.6923076923085,3928.717948717949,3646.666666666667,3818.461538461539,4215.8974358974365
1753.3428,0.12708676,1.0,0.33334276,0.55223817,1,0.0,0.0,0.0,1.0,0.0,0,0,0.0,0.0,0,0,15.0,0.0,444.0,4207.179487179487,3542.564102564103,4106.153846153847,3996.410256410257,3825.6410256410263,4114.871794871796,4019.48717948718,4027.1794871794878,4224.102564102564,4360.512820512821,3915.3846153846157,3630.7692307692314,3801.0256410256416,4200.000000000001
1753.5616,0.12708676,1.0,0.33334184,0.5522382,0,0.0,0.0,0.0,0.76825535,0.0,0,0,0.0,0.0,0,0,43.0,0.0,0.0,4247.179487179487,3595.8974358974365,4150.256410256411,4049.23076923077,3878.9743589743593,4173.333333333334,4075.3846153846157,4054.358974358975,4284.102564102564,4381.025641025642,3954.358974358975,3692.820512820513,3829.7435897435903,4235.384615384616
1753.9058,0.12708676,1.0,0.33334184,0.5522382,1,0.0,0.0,0.0,0.6409744,0.0,0,0,0.0,0.0,0,0,85.0,0.0,819.0,4324.102564102564,3689.2307692307695,4231.794871794872,4137.948717948719,3977.9487179487182,4268.205128205129,4166.666666666667,4158.461538461539,4286.666666666667,4478.974358974359,4061.538461538462,3841.0256410256416,3931.7948717948725,4288.717948717949
1754.0621,0.12708676,1.0,0.33334097,0.5522383,0,0.0,0.0,0.0,0.6050224,0.0,0,0,0.0,0.0,0,0,107.0,0.0,440.0,4312.820512820514,3674.358974358975,4220.512820512821,4124.615384615385,3968.205128205129,4257.948717948719,4156.923076923077,4152.307692307693,4283.076923076924,4465.641025641026,4045.1282051282055,3831.7948717948725,3910.7692307692314,4277.948717948719
1754.281,0.12708676,1.0,0.33334097,0.5522383,1,0.0,0.0,0.0,0.0,0.0,0,0,0.0,0.0,0,0,6.0,0.0,520.0,4487.179487179488,3876.9230769230776,4425.641025641026,4322.051282051282,4182.051282051282,4473.333333333334,4363.589743589744,4352.307692307693,4372.307692307693,4679.48717948718,4273.846153846154,4155.8974358974365,4130.769230769231,4440.512820512821
1754.5625,0.12708676,1.0,0.3333402,0.55223835,1,0.0,0.0,0.0,0.0,0.0,0,0,0.0,0.0,0,0,42.0,0.0,0.0,4620.512820512821,4011.2820512820517,4571.282051282052,4458.461538461539,4318.974358974359,4609.743589743591,4498.974358974359,4496.410256410257,4426.666666666667,4813.846153846154,4438.974358974359,4375.8974358974365,4278.974358974359,4548.717948717949
1754.6876,0.12708676,1.0,0.3333402,0.55223835,0,0.0,0.0,0.0,0.0,0.0,0,0,0.0,0.0,0,0,58.0,0.0,0.0,4532.820512820514,3910.7692307692314,4468.717948717949,4363.589743589744,4215.384615384616,4507.179487179488,4403.076923076924,4392.307692307693,4363.076923076924,4693.333333333334,4303.589743589744,4188.205128205129,4148.205128205129,4445.641025641026
1755.063,0.12708676,1.0,0.3333395,0.5522384,0,0.0,0.0,0.0,0.0,0.0,0,0,0.0,0.0,0,0,106.0,0.0,518.0,4551.794871794872,3905.1282051282055,4464.615384615385,4355.8974358974365,4193.846153846154,4487.6923076923085,4377.948717948719,4387.179487179487,4352.820512820514,4702.051282051282,4306.666666666667,4190.769230769231,4151.282051282052,4476.410256410257
1755.3757,0.12708676,1.0,0.3333395,0.5522384,0,0.0,0.0,0.0,0.0,0.0,0,0,0.0,0.0,0,1,17.0,0.0,0.0,4672.307692307693,4041.0256410256416,4598.461538461539,4494.358974358975,4336.923076923077,4633.333333333334,4532.307692307693,4518.974358974359,4415.384615384616,4821.538461538462,4444.102564102564,4414.358974358975,4300.000000000001,4590.769230769231
1755.5634,0.12708676,1.0,0.33333892,0.55223846,0,0.0,0.0,0.0,0.0,0.0,0,0,0.0,0.0,0,1,41.0,0.0,0.0,4594.871794871796,3951.2820512820517,4458.974358974359,4386.666666666667,4176.410256410257,4468.717948717949,4373.846153846154,4374.358974358975,4349.743589743591,4645.641025641026,4255.384615384616,4176.410256410257,4097.435897435898,4479.48717948718
1755.7197,0.12708676,1.0,0.33333892,0.55223846,0,0.0,0.0,0.0,0.0,0.0,0,0,0.0,0.0,0,0,61.0,0.0,0.0,4463.076923076924,3795.8974358974365,4321.538461538462,4246.153846153847,4066.666666666667,4355.384615384616,4255.384615384616,4238.461538461539,4306.153846153847,4522.564102564103,4102.564102564103,3966.1538461538466,3960.5128205128212,4361.538461538462
1756.0638,0.12708676,1.0,0.33333835,0.55223846,0,0.0,0.0,0.0,0.0,0.0,0,0,0.0,0.0,0,0,105.0,0.0,839.0,4565.128205128206,3925.1282051282055,4455.384615384616,4384.615384615385,4246.666666666667,4503.589743589744,4409.743589743591,4392.307692307693,4362.051282051282,4688.717948717949,4267.179487179487,4211.794871794872,4124.615384615385,4464.615384615385
1756.2827,0.12708676,1.0,0.33333835,0.55223846,0,0.0,0.0,0.0,0.0,0.0,0,0,0.0,0.0,0,0,4.0,0.0,533.0,4322.051282051282,3644.1025641025644,4171.794871794872,4114.871794871796,3996.9230769230776,4203.076923076924,4121.538461538462,4106.666666666667,4203.076923076924,4396.923076923077,3965.6410256410263,3754.8717948717954,3829.2307692307695,4224.102564102564
1756.5642,0.12708676,1.0,0.33333784,0.5522385,0,0.0,0.0,0.0,0.0,0.0,0,0,0.0,0.0,0,0,40.0,0.0,0.0,4496.410256410257,3843.589743589744,4381.025641025642,4310.769230769231,4157.435897435898,4427.6923076923085,4328.205128205129,4312.307692307693,4333.846153846154,4592.820512820514,4195.384615384616,4085.6410256410263,4043.076923076924,4392.307692307693
1756.8457,0.12708676,1.0,0.33333784,0.5522385,0,0.0,0.0,0.0,0.0,0.0,0,0,0.0,0.0,0,0,76.0,0.0,523.0,4811.794871794872,4197.948717948719,4737.435897435898,4658.461538461539,4510.256410256411,4796.410256410257,4681.025641025642,4690.769230769231,4521.538461538462,4986.666666666667,4612.307692307693,4675.384615384616,4441.538461538462,4696.410256410257
1757.0647,0.12708676,1.0,0.3333374,0.5522385,0,0.0,0.0,0.0,0.0,0.0,0,0,0.0,0.0,0,0,104.0,0.0,523.0,4666.666666666667,4032.307692307693,4574.358974358975,4501.025641025642,4349.743589743591,4639.48717948718,4546.153846153847,4545.128205128206,4409.2307692307695,4826.153846153847,4427.179487179487,4425.641025641026,4274.358974358975,4557.435897435898
1757.0647,0.12708676,1.0,0.3333374,0.5522385,0,0.0,0.0,0.0,0.0,0.0,0,0,0.0,0.0,0,0,104.0,0.0,523.0,4666.666666666667,4032.307692307693,4574.358974358975,4501.025641025642,4349.743589743591,4639.48717948718,4546.153846153847,4545.128205128206,4409.2307692307695,4826.153846153847,4427.179487179487,4425.641025641026,4274.358974358975,4557.435897435898
1757.5651,0.12708676,1.0,0.33333698,0.5522386,0,0.0,0.0,0.0,0.1079068,0.0,0,0,0.0,0.0,0,0,39.0,0.0,0.0,4689.2307692307695,4048.717948717949,4595.8974358974365,4523.589743589744,4368.205128205129,4688.717948717949,4564.615384615385,4567.179487179488,4442.564102564103,4851.282051282052,4461.025641025642,4463.076923076924,4307.6923076923085,4578.974358974359
1757.8153,0.12708676,1.0,0.33333698,0.5522386,0,0.0,0.0,0.0,0.0,0.23385358,0,0,0.0,0.0,0,0,71.0,0.0,465.0,4655.384615384616,4010.7692307692314,4570.769230769231,4491.282051282052,4336.410256410257,4646.153846153847,4517.948717948719,4520.512820512821,4392.307692307693,4815.384615384616,4407.6923076923085,4409.743589743591,4266.153846153847,4552.820512820514
1758.0656,0.12708676,1.0,0.33333662,0.5522386,0,0.0,0.0,0.0,0.0,0.0,0,0,0.0,0.0,0,0,103.0,0.0,443.0,4604.102564102564,3944.615384615385,4507.179487179488,4423.589743589744,4269.2307692307695,4569.2307692307695,4444.102564102564,4455.8974358974365,4376.410256410257,4753.333333333334,4317.435897435898,4306.153846153847,4205.128205128206,4516.410256410257
1758.0656,0.12708676,1.0,0.33333662,0.5522386,0,0.0,0.0,0.0,0.0,0.0,0,0,0.0,0.0,0,0,103.0,0.0,443.0,4604.102564102564,3944.615384615385,4507.179487179488,4423.589743589744,4269.2307692307695,4569.2307692307695,4444.102564102564,4455.8974358974365,4376.410256410257,4753.333333333334,4317.435897435898,4306.153846153847,4205.128205128206,4516.410256410257
1758.5659,0.12708676,1.0,0.3333363,0.5522386,1,0.0,0.0,0.0,0.7783947,0.0,0,0,0.0,0.0,0,0,38.0,0.0,0.0,4818.974358974359,4167.179487179487,4720.512820512821,4649.743589743591,4514.871794871796,4773.333333333334,4645.128205128206,4668.717948717949,4447.179487179487,4958.974358974359,4554.358974358975,4637.435897435898,4429.2307692307695,4726.666666666667
1758.8474,0.12708676,1.0,0.3333363,0.5522386,0,0.0,0.0,0.0,0.4005669,0.0,0,0,0.0,0.0,0,0,74.0,0.0,509.0,4695.8974358974365,4017.435897435898,4564.102564102564,4501.538461538462,4366.666666666667,4621.538461538462,4518.974358974359,4500.000000000001,4400.512820512821,4766.153846153847,4355.384615384616,4369.2307692307695,4254.358974358975,4613.333333333334
1759.0664,0.12708676,1.0,0.333336,0.55223864,0,0.0,0.0,0.0,1.0,0.0,0,0,0.0,0.0,0,0,102.0,0.0,509.0,4699.48717948718,4008.205128205129,4567.6923076923085,4501.538461538462,4349.2307692307695,4598.974358974359,4506.153846153847,4511.282051282052,4396.410256410257,4789.2307692307695,4359.48717948718,4366.666666666667,4242.564102564103,4611.282051282052
1759.3167,0.12708676,1.0,0.333336,0.55223864,0,0.0,0.0,0.0,1.0,0.0,0,0,0.0,0.0,0,0,5.0,0.0,527.0,4755.384615384616,4081.0256410256416,4643.589743589744,4564.102564102564,4457.435897435898,4659.48717948718,4583.076923076924,4584.615384615385,4459.48717948718,4885.641025641026,4450.769230769231,4502.051282051282,4331.794871794872,4671.794871794872
1759.5668,0.12708676,1.0,0.33333573,0.55223864,0,0.0,0.0,0.0,0.54942805,0.0,0,0,0.0,0.0,0,0,37.0,0.0,0.0,4948.717948717949,4322.051282051282,4846.153846153847,4766.666666666667,4647.6923076923085,4908.717948717949,4798.461538461539,4748.717948717949,4586.666666666667,5037.948717948719,4668.717948717949,4797.948717948719,4539.48717948718,4844.615384615386
1759.6606,0.12708676,1.0,0.33333573,0.55223864,0,0.0,0.0,0.0,1.0,0.0,0,0,0.0,0.0,0,0,49.0,0.0,0.0,4800.000000000001,4125.128205128206,4690.769230769231,4601.538461538462,4450.256410256411,4723.589743589744,4626.666666666667,4627.179487179488,4338.974358974359,4931.282051282052,4501.538461538462,4526.666666666667,4375.8974358974365,4666.153846153847
1760.1298,0.12708676,1.0,0.3333355,0.55223864,0,0.0,0.0,0.0,1.0,0.0,0,0,0.0,0.0,0,1,109.0,0.0,824.0,5094.871794871796,4406.666666666667,4958.461538461539,4897.435897435898,4691.794871794872,4982.051282051283,4870.256410256411,4900.512820512821,4444.102564102564,5189.2307692307695,4820.512820512821,4963.076923076924,4642.564102564103,4897.435897435898
1760.2861,0.12708676,1.0,0.3333355,0.55223864,0,0.0,0.0,0.0,1.0,0.0,0,0,0.0,0.0,0,0,0.0,0.0,461.0,5252.307692307693,4585.641025641026,5126.666666666667,5060.000000000001,4893.333333333334,5173.333333333334,5064.102564102564,5082.051282051283,4706.153846153847,5375.8974358974365,4978.974358974359,5230.256410256411,4818.974358974359,5110.256410256411
1760.5676,0.12708676,1.0,0.33333528,0.5522387,0,0.0,0.0,0.0,1.0,0.0,0,0,0.0,0.0,0,0,36.0,0.0,0.0,5330.769230769231,4685.641025641026,5220.512820512821,5138.974358974359,4965.128205128206,5259.487179487181,5151.794871794872,5136.410256410257,4775.8974358974365,5431.794871794872,5079.487179487181,5356.923076923078,4902.051282051283,5204.615384615386
1760.8805,0.12708676,1.0,0.33333528,0.5522387,0,0.0,0.0,0.0,1.0,0.0,0,0,0.0,0.0,0,0,76.0,0.0,499.0,5295.8974358974365,4643.589743589744,5190.256410256411,5120.000000000001,4912.820512820514,5235.8974358974365,5131.794871794872,5130.256410256411,4710.769230769231,5430.256410256411,5028.717948717949,5292.820512820514,4858.974358974359,5168.205128205129
1761.0681,0.12708676,1.0,0.33333507,0.5522387,0,0.0,0.0,0.0,0.72851276,0.0,0,0,0.0,0.0,0,0,100.0,0.0,499.0,5219.487179487181,4541.025641025642,5095.384615384616,5027.6923076923085,4797.435897435898,5132.307692307693,5012.307692307693,5046.153846153847,4655.384615384616,5347.179487179488,4930.769230769231,5135.384615384616,4768.717948717949,5092.820512820514
1761.2871,0.12708676,1.0,0.33333507,0.5522387,1,0.0,0.0,0.0,0.4301893,0.0,0,0,0.0,0.0,0,0,128.0,0.0,499.0,5382.051282051283,4746.666666666667,5275.384615384616,5222.564102564103,4993.333333333334,5325.128205128206,5203.076923076924,5197.948717948719,4803.589743589744,5509.743589743591,5123.076923076924,5413.333333333334,4963.076923076924,5258.461538461539
1761.5686,0.12708676,1.0,0.3333349,0.5522387,1,0.0,0.0,0.0,0.572242,0.0,0,0,0.0,0.0,0,0,35.0,0.0,0.0,5082.051282051283,4366.153846153847,4930.256410256411,4881.538461538462,4630.769230769231,4963.076923076924,4849.2307692307695,4848.205128205129,4625.641025641026,5150.256410256411,4753.333333333334,4840.000000000001,4590.769230769231,4965.128205128206
1761.8813,0.12708676,1.0,0.3333349,0.5522387,1,0.0,0.0,0.0,1.0,0.0,0,0,0.0,0.0,0,0,75.0,0.0,446.0,4351.282051282052,3556.9230769230776,4075.8974358974365,4060.0000000000005,3802.0512820512827,4120.512820512821,4044.615384615385,3998.9743589743593,4333.846153846154,4307.179487179487,3811.7948717948725,3531.2820512820517,3728.717948717949,4279.48717948718
1762.069,0.12708676,1.0,0.33333474,0.5522387,0,0.0,0.0,0.0,1.0,0.0,0,0,0.0,0.0,0,0,99.0,0.0,446.0,4096.923076923077,3298.461538461539,3817.9487179487182,3786.1538461538466,3534.3589743589746,3843.076923076924,3778.9743589743593,3701.0256410256416,4305.641025641026,3993.333333333334,3513.333333333334,3105.1282051282055,3444.1025641025644,4066.666666666667
1762.288,0.12708676,1.0,0.33333474,0.5522387,0,0.0,0.3916269,0.0,0.0,0.0,0,0,0.0,0.0,0,0,127.0,0.0,446.0,4623.589743589744,3920.5128205128212,4481.025641025642,4398.974358974359,4203.076923076924,4512.307692307693,4403.076923076924,4380.000000000001,4478.974358974359,4658.974358974359,4288.717948717949,4145.128205128206,4151.794871794872,4559.48717948718
1762.5695,0.12708676,1.0,0.3333346,0.5522387,0,0.0,0.33096743,0.0,0.0,0.0,0,0,0.0,0.0,0,0,34.0,0.0,0.0,4527.6923076923085,3854.358974358975,4392.307692307693,4323.589743589744,4131.282051282052,4431.794871794872,4322.051282051282,4308.205128205129,4414.871794871796,4597.435897435898,4190.256410256411,4037.9487179487182,4066.666666666667,4470.769230769231
1762.851,0.12708676,1.0,0.3333346,0.5522387,1,0.0,0.0,0.0,0.0,0.0,0,0,0.0,0.0,0,0,70.0,0.0,529.0,4625.128205128206,3958.461538461539,4504.102564102564,4424.615384615385,4251.794871794872,4542.564102564103,4450.256410256411,4412.307692307693,4455.384615384616,4702.051282051282,4308.717948717949,4202.051282051282,4176.410256410257,4555.384615384616
1763.1324,0.12708676,1.0,0.33333448,0.5522387,1,0.0,0.0,0.0,0.0,0.0,0,0,0.0,0.0,0,0,106.0,0.0,519.0,4687.179487179488,4020.0000000000005,4555.384615384616,4489.2307692307695,4298.461538461539,4602.051282051282,4502.564102564103,4484.102564102564,4451.282051282052,4763.589743589744,4369.2307692307695,4297.435897435898,4251.794871794872,4600.512820512821
1763.2888,0.12708676,1.0,0.33333448,0.5522387,0,0.0,0.0,0.0,0.2095516,0.0,0,0,0.0,0.0,0,0,126.0,0.0,519.0,4643.589743589744,3969.2307692307695,4513.333333333334,4452.307692307693,4250.769230769231,4555.8974358974365,4455.8974358974365,4442.051282051282,4429.743589743591,4746.666666666667,4306.153846153847,4225.128205128206,4209.74358974359,4556.410256410257
1763.5703,0.12708676,1.0,0.33333436,0.55223876,1,0.0,0.0,0.0,0.0,0.0,0,0,0.0,0.0,0,0,33.0,0.0,0.0,4815.8974358974365,4158.461538461539,4690.769230769231,4640.000000000001,4454.871794871796,4759.48717948718,4637.435897435898,4638.461538461539,4515.384615384616,4937.948717948719,4507.6923076923085,4528.205128205129,4434.358974358975,4684.102564102564
1763.8518,0.12708676,1.0,0.33333436,0.55223876,1,0.0,0.0,0.0,0.0,0.0,0,0,0.0,0.0,0,0,69.0,0.0,534.0,4570.256410256411,3882.0512820512827,4419.48717948718,4372.820512820514,4175.8974358974365,4463.589743589744,4369.743589743591,4344.615384615385,4378.974358974359,4640.000000000001,4184.615384615385,4082.0512820512827,4141.538461538462,4449.743589743591
1764.0707,0.12708676,1.0,0.33333427,0.55223876,0,0.0,0.0,0.0,0.0,0.0,0,0,0.0,0.0,0,0,97.0,0.0,834.0,4635.384615384616,3975.3846153846157,4519.48717948718,4458.461538461539,4314.871794871796,4561.025641025642,4477.435897435898,4465.641025641026,4417.435897435898,4776.923076923077,4287.6923076923085,4248.205128205129,4256.923076923077,4507.6923076923085
1764.3834,0.12708676,1.0,0.33333427,0.55223876,0,0.0,0.0,0.0,0.0,0.0,0,0,0.0,0.0,0,0,8.0,0.0,381.0,4668.717948717949,3998.461538461539,4556.923076923077,4486.153846153847,4330.769230769231,4558.461538461539,4490.769230769231,4468.205128205129,4433.846153846154,4776.410256410257,4321.538461538462,4282.051282051282,4270.256410256411,4540.512820512821
1764.5712,0.12708676,1.0,0.33333418,0.55223876,1,0.0,0.0,0.0,0.0,0.0,0,0,0.0,0.0,0,0,32.0,0.0,0.0,4688.717948717949,4016.9230769230776,4581.538461538462,4501.538461538462,4341.025641025642,4585.128205128206,4518.461538461539,4505.641025641026,4434.871794871796,4772.820512820514,4351.794871794872,4313.333333333334,4285.128205128206,4558.974358974359
1764.79,0.12708676,1.0,0.33333418,0.55223876,0,0.0,0.0,0.0,0.2974338,0.0,0,0,0.0,0.0,0,0,60.0,0.0,0.0,4769.743589743591,4118.974358974359,4684.102564102564,4594.871794871796,4464.615384615385,4690.769230769231,4610.769230769231,4600.000000000001,4496.410256410257,4875.384615384616,4468.205128205129,4478.461538461539,4385.128205128206,4648.717948717949
1765.0715,0.12708676,1.0,0.3333341,0.55223876,0,0.0,0.0,0.0,0.0,0.0,0,0,0.0,0.0,0,0,96.0,0.0,516.0,4806.666666666667,4176.410256410257,4735.384615384616,4648.205128205129,4478.461538461539,4755.384615384616,4667.6923076923085,4649.743589743591,4533.333333333334,4947.179487179488,4530.769230769231,4561.538461538462,4445.641025641026,4707.179487179488
1765.0715,0.12708676,1.0,0.3333341,0.55223876,0,0.0,0.0,0.0,0.0,0.0,0,0,0.0,0.0,0,0,96.0,0.0,516.0,4806.666666666667,4176.410256410257,4735.384615384616,4648.205128205129,4478.461538461539,4755.384615384616,4667.6923076923085,4649.743589743591,4533.333333333334,4947.179487179488,4530.769230769231,4561.538461538462,4445.641025641026,4707.179487179488
1765.6033,0.12708676,1.0,0.333334,0.55223876,1,0.0,0.0,0.0,0.0,0.0,0,0,0.0,0.0,0,0,35.0,0.0,0.0,4795.384615384616,4116.923076923077,4695.384615384616,4613.846153846154,4409.2307692307695,4728.717948717949,4641.025641025642,4622.564102564103,4469.743589743591,4917.948717948719,4506.666666666667,4482.051282051282,4404.102564102564,4677.435897435898
1765.7909,0.12708676,1.0,0.333334,0.55223876,1,0.0,0.0,0.0,0.18512404,0.0,0,0,0.0,0.0,0,0,59.0,0.0,0.0,4809.2307692307695,4134.871794871796,4707.179487179488,4610.769230769231,4431.794871794872,4730.769230769231,4655.384615384616,4609.743589743591,4503.589743589744,4942.564102564103,4511.794871794872,4486.153846153847,4406.153846153847,4696.923076923077
1766.135,0.12708676,1.0,0.33333394,0.55223876,1,0.0,0.0,0.0,0.8219114,0.0,0,0,0.0,0.0,0,0,103.0,0.0,437.0,4300.000000000001,3549.7435897435903,4055.8974358974365,4006.1538461538466,3748.717948717949,4055.3846153846157,3983.589743589744,3893.8461538461543,4223.076923076924,4188.717948717949,3748.717948717949,3414.8717948717954,3618.461538461539,4197.948717948719
1766.2914,0.12708676,1.0,0.33333394,0.55223876,0,0.0,0.0,0.0,0.6249953,0.0,0,0,0.0,0.0,1,0,123.0,0.0,437.0,4425.128205128206,3749.2307692307695,4271.282051282052,4187.179487179487,4060.0000000000005,4329.2307692307695,4255.8974358974365,4173.333333333334,4345.641025641026,4441.025641025642,3984.615384615385,3778.461538461539,3792.307692307693,4313.333333333334
1766.5729,0.12708676,1.0,0.33333388,0.55223876,1,0.0,0.0,0.0,0.49308693,0.0,0,0,0.0,0.0,0,0,30.0,0.0,0.0,4559.48717948718,3906.1538461538466,4435.384615384616,4335.8974358974365,4130.256410256411,4453.846153846154,4392.307692307693,4351.794871794872,4379.48717948718,4628.717948717949,4198.974358974359,4033.333333333334,4059.48717948718,4322.051282051282
1766.7605,0.12708676,1.0,0.33333388,0.55223876,1,0.0,0.0,0.0,0.0,1.0,0,0,0.0,0.0,0,0,54.0,0.0,0.0,4356.410256410257,3632.820512820513,4215.384615384616,4088.717948717949,3876.410256410257,4201.025641025642,4165.641025641026,4114.358974358975,4281.025641025642,4424.102564102564,3990.7692307692314,3686.666666666667,3894.8717948717954,4214.871794871796
1767.0732,0.12708676,1.0,0.33333382,0.55223876,0,0.0,0.0,0.0,0.0,1.0,0,0,0.0,0.0,0,0,94.0,0.0,517.0,6689.23076923077,6409.743589743591,6956.923076923078,6744.102564102565,6730.769230769231,7043.589743589744,6877.435897435898,6909.743589743591,5612.820512820514,7173.333333333334,7133.846153846155,7622.564102564103,6824.615384615386,6422.051282051283
1767.2922,0.12708676,1.0,0.33333382,0.55223876,0,0.0,0.0,0.0,1.0,0.0,0,0,0.0,0.0,0,0,122.0,0.0,517.0,6145.128205128206,5717.948717948719,6229.23076923077,6118.974358974359,5966.153846153847,6287.179487179488,6149.23076923077,6155.384615384616,5143.589743589744,6414.3589743589755,6222.564102564103,6903.076923076924,5950.256410256411,5925.641025641026
1767.5737,0.12708676,1.0,0.3333338,0.55223876,0,0.0,0.0,0.0,0.8830882,0.0,0,0,0.0,0.0,1,0,29.0,0.0,0.0,5698.974358974359,5148.205128205129,5650.256410256411,5607.6923076923085,5381.025641025642,5689.2307692307695,5590.256410256411,5562.564102564103,4884.102564102564,5852.820512820514,5498.461538461539,5943.076923076924,5274.358974358975,5571.794871794873
1767.8552,0.12708676,1.0,0.3333338,0.55223876,0,0.0,0.0,0.0,1.0,0.0,0,0,0.0,0.0,0,0,65.0,0.0,437.0,5291.794871794872,4561.538461538462,5100.512820512821,5059.487179487181,4770.256410256411,5070.256410256411,5009.743589743591,4986.666666666667,4679.48717948718,5344.102564102564,4898.974358974359,5035.8974358974365,4784.615384615386,5236.410256410257
1768.0741,0.12708676,1.0,0.33333373,0.55223876,0,0.0,0.0,0.0,1.0,0.0,0,0,0.0,0.0,0,0,93.0,0.0,762.0,6125.641025641026,5580.000000000001,6124.615384615386,6048.717948717949,5862.051282051283,6155.8974358974365,6046.153846153847,6048.205128205129,5224.615384615386,6371.282051282052,6057.435897435898,6692.307692307693,5846.153846153847,6000.000000000001
1768.3243,0.12708676,1.0,0.33333373,0.55223876,1,0.0,0.0,0.0,1.0,0.0,0,0,0.0,0.0,0,0,125.0,0.0,762.0,6002.564102564103,5423.589743589744,5972.307692307693,5908.205128205129,5695.8974358974365,5993.333333333334,5897.948717948719,5894.3589743589755,5138.461538461539,6216.410256410257,5880.000000000001,6422.564102564103,5685.641025641026,5914.871794871796
1768.5746,0.12708676,1.0,0.3333337,0.55223876,0,0.0,0.0,0.0,1.0,0.0,0,0,0.0,0.0,0,0,28.0,0.0,0.0,5185.128205128206,4432.307692307693,4994.358974358975,4991.794871794872,4695.8974358974365,4994.871794871796,4937.435897435898,4908.717948717949,4703.076923076924,5247.6923076923085,4756.410256410257,4823.589743589744,4616.410256410257,5136.410256410257
1768.7935,0.12708676,1.0,0.3333337,0.55223876,0,0.0,0.0,0.0,1.0,0.0,0,0,0.0,0.0,0,1,56.0,0.0,0.0,5105.641025641026,4309.743589743591,4862.051282051283,4847.6923076923085,4530.256410256411,4811.794871794872,4758.974358974359,4742.564102564103,4705.128205128206,5087.179487179488,4616.410256410257,4601.025641025642,4510.769230769231,5077.948717948719
1769.1063,0.12708676,1.0,0.33333367,0.55223876,1,0.0,0.0,0.0,0.45814875,0.0,0,0,0.0,0.0,0,0,96.0,0.0,511.0,4947.6923076923085,4192.307692307693,4755.384615384616,4729.743589743591,4477.948717948719,4768.717948717949,4710.769230769231,4661.025641025642,4720.512820512821,4983.076923076924,4518.974358974359,4444.615384615385,4387.179487179487,4946.666666666667
1769.294,0.12708676,1.0,0.33333367,0.55223876,0,0.0,0.0,0.0,0.66666466,0.0,0,0,0.0,0.0,0,0,120.0,0.0,511.0,4878.461538461539,4127.6923076923085,4672.820512820514,4652.820512820514,4400.000000000001,4686.153846153847,4627.6923076923085,4591.282051282052,4684.615384615386,4891.282051282052,4443.076923076924,4320.512820512821,4311.282051282052,4864.102564102564
1769.5754,0.12708676,1.0,0.3333336,0.55223876,0,0.0,0.0,0.0,0.13067634,0.0,0,0,0.0,0.0,0,0,27.0,0.0,0.0,4891.282051282052,4168.205128205129,4727.6923076923085,4685.641025641026,4475.384615384616,4763.076923076924,4699.48717948718,4682.564102564103,4746.666666666667,4976.923076923077,4522.564102564103,4422.051282051282,4366.153846153847,4874.871794871796
1769.8257,0.12708676,1.0,0.3333336,0.55223876,1,0.0,0.0,0.0,0.3103436,0.0,0,0,0.0,0.0,0,0,59.0,0.0,0.0,4766.153846153847,4080.0000000000005,4585.641025641026,4573.333333333334,4356.923076923077,4632.307692307693,4561.025641025642,4522.564102564103,4597.948717948719,4803.076923076924,4342.564102564103,4174.358974358975,4183.589743589744,4684.102564102564
1770.0758,0.12708676,1.0,0.33333358,0.55223876,0,0.0,0.0,0.0,0.6294075,0.0,0,0,0.0,0.0,0,1,91.0,0.0,428.0,4844.615384615386,4115.8974358974365,4671.282051282052,4604.102564102564,4385.641025641026,4665.128205128206,4605.128205128206,4582.051282051282,4632.307692307693,4896.923076923077,4483.076923076924,4317.948717948719,4366.666666666667,4743.076923076924
1770.3887,0.12708676,1.0,0.33333358,0.55223876,0,0.0,0.0,0.0,0.3970749,0.0,0,0,0.0,0.0,0,0,2.0,0.0,408.0,4322.564102564103,3565.6410256410263,4109.2307692307695,4080.5128205128212,3827.1794871794878,4123.076923076924,4064.1025641025644,4025.6410256410263,4291.282051282052,4329.2307692307695,3840.512820512821,3424.615384615385,3723.589743589744,4265.128205128206
1770.5763,0.12708676,1.0,0.33333358,0.55223876,0,0.0,0.0,0.0,0.48727202,0.0,0,0,0.0,0.0,0,0,26.0,0.0,0.0,4850.256410256411,4182.051282051282,4736.410256410257,4674.358974358975,4471.794871794872,4759.48717948718,4681.538461538462,4651.794871794872,4672.820512820514,4970.256410256411,4561.538461538462,4431.282051282052,4398.461538461539,4808.717948717949
1770.889,0.12708676,1.0,0.33333358,0.55223876,1,0.0,0.0,0.0,0.42053315,0.0,0,0,0.0,0.0,0,0,66.0,0.0,418.0,4515.384615384616,3784.1025641025644,4318.974358974359,4286.153846153847,4053.8461538461543,4345.641025641026,4286.153846153847,4254.358974358975,4457.435897435898,4589.2307692307695,4111.794871794872,3796.9230769230776,4009.7435897435903,4476.923076923077
1771.0767,0.12708676,1.0,0.33333355,0.55223876,1,0.0,0.0,0.0,0.4854453,0.0,0,0,0.0,0.0,0,0,90.0,0.0,518.0,4711.282051282052,4020.0000000000005,4532.820512820514,4507.179487179488,4271.794871794872,4532.307692307693,4454.358974358975,4453.333333333334,4634.871794871796,4827.6923076923085,4340.000000000001,4164.615384615385,4306.153846153847,4667.6923076923085
1771.3582,0.12708676,1.0,0.33333355,0.55223876,0,0.0,0.0,0.0,0.30639347,0.0,0,0,0.0,0.0,0,0,126.0,0.0,518.0,4753.846153846154,4116.923076923077,4648.717948717949,4631.794871794872,4380.512820512821,4690.769230769231,4600.512820512821,4609.743589743591,4656.410256410257,4997.435897435898,4438.974358974359,4366.153846153847,4471.794871794872,4688.205128205129
1771.6084,0.12708676,1.0,0.33333352,0.5522388,0,0.0,0.0,0.0,0.35959408,0.0,0,0,0.0,0.0,0,0,29.0,0.0,0.0,4536.410256410257,3873.333333333334,4411.794871794872,4408.717948717949,4115.8974358974365,4437.948717948719,4359.48717948718,4351.282051282052,4496.410256410257,4723.589743589744,4130.256410256411,3976.9230769230776,4249.2307692307695,4460.000000000001
1771.7961,0.12708676,1.0,0.33333352,0.5522388,0,0.0,0.0,0.0,0.380016,0.0,0,0,0.0,0.0,0,0,53.0,0.0,0.0,4454.871794871796,3772.307692307693,4340.512820512821,4318.461538461539,4017.435897435898,4337.948717948719,4280.000000000001,4262.051282051282,4444.615384615385,4614.358974358975,4032.820512820513,3843.589743589744,4185.128205128206,4381.025641025642
1772.1401,0.12708676,1.0,0.3333335,0.5522388,0,0.0,0.0,0.0,0.0,0.0,0,0,0.0,0.0,0,0,97.0,0.0,844.0,4477.435897435898,3809.7435897435903,4382.564102564103,4361.025641025642,4061.538461538462,4371.794871794872,4303.076923076924,4297.435897435898,4432.820512820514,4666.153846153847,4042.0512820512827,3900.0000000000005,4235.384615384616,4388.717948717949
1772.359,0.12708676,1.0,0.3333335,0.5522388,0,0.0,0.0,0.0,0.41980535,0.0,0,0,0.0,0.0,0,1,125.0,0.0,844.0,4691.794871794872,4061.538461538462,4646.666666666667,4604.102564102564,4345.641025641026,4655.384615384616,4586.666666666667,4574.871794871796,4570.256410256411,4900.512820512821,4357.948717948719,4332.307692307693,4492.307692307693,4603.589743589744
1772.578,0.12708676,1.0,0.3333335,0.5522388,0,0.0,0.0,0.0,0.0,0.0,0,0,0.0,0.0,0,0,24.0,0.0,0.0,4536.923076923077,3886.666666666667,4470.769230769231,4415.384615384616,4155.8974358974365,4457.435897435898,4403.076923076924,4392.307692307693,4466.666666666667,4715.8974358974365,4183.589743589744,4042.564102564103,4267.6923076923085,4454.871794871796
1772.8907,0.12708676,1.0,0.3333335,0.5522388,0,0.0,0.0,0.0,0.16607137,0.0,0,0,0.0,0.0,0,0,64.0,0.0,479.0,4669.743589743591,4022.564102564103,4616.410256410257,4543.589743589744,4306.666666666667,4607.6923076923085,4554.871794871796,4534.358974358975,4553.846153846154,4822.051282051282,4369.743589743591,4276.410256410257,4374.358974358975,4571.794871794872
1773.0785,0.12708676,1.0,0.33333346,0.5522388,0,0.0,0.0,0.0,0.06408921,0.0,0,0,0.0,0.0,0,0,88.0,0.0,531.0,4629.2307692307695,3983.589743589744,4570.769230769231,4502.051282051282,4286.153846153847,4582.051282051282,4526.153846153847,4496.923076923077,4532.307692307693,4788.205128205129,4328.205128205129,4212.307692307693,4284.102564102564,4533.846153846154
1773.2974,0.12708676,1.0,0.33333346,0.5522388,0,0.0,0.0,0.0,0.0,0.07658235,0,0,0.0,0.0,0,0,116.0,0.0,531.0,4443.589743589744,3757.435897435898,4317.435897435898,4265.641025641026,4047.692307692308,4340.000000000001,4289.2307692307695,4234.358974358975,4426.153846153847,4553.846153846154,4087.692307692308,3834.358974358975,4011.7948717948725,4338.461538461539
1773.6415,0.12708676,1.0,0.33333346,0.5522388,0,0.0,0.0,0.0,0.0,0.12621316,0,0,0.0,0.0,0,0,31.0,0.0,0.0,4818.974358974359,4160.512820512821,4707.6923076923085,4637.948717948719,4421.025641025642,4713.846153846154,4640.000000000001,4599.48717948718,4603.076923076924,4915.384615384616,4550.256410256411,4470.769230769231,4411.794871794872,4720.512820512821
1773.7979,0.12708676,1.0,0.33333346,0.5522388,0,0.0,0.0,0.0,0.0,0.0,0,0,0.0,0.0,0,0,51.0,0.0,0.0,4739.48717948718,4093.333333333334,4665.641025641026,4605.641025641026,4421.025641025642,4709.2307692307695,4630.769230769231,4591.282051282052,4576.410256410257,4893.333333333334,4495.384615384616,4397.948717948719,4306.153846153847,4651.794871794872
1774.1418,0.12708676,1.0,0.33333343,0.5522388,1,0.0,0.0,0.0,0.0,0.0,0,0,0.0,0.0,0,0,95.0,0.0,432.0,4726.666666666667,4071.7948717948725,4634.871794871796,4566.666666666667,4391.282051282052,4678.461538461539,4582.051282051282,4567.179487179488,4526.153846153847,4857.435897435898,4455.8974358974365,4341.538461538462,4232.820512820514,4625.641025641026
1774.2982,0.12708676,1.0,0.33333343,0.5522388,0,0.0,0.11596268,0.0,0.0,0.0,0,0,0.0,0.0,0,0,115.0,0.0,432.0,4995.8974358974365,4356.923076923077,4899.48717948718,4813.846153846154,4645.641025641026,4931.794871794872,4834.358974358975,4821.538461538462,4672.307692307693,5093.846153846154,4755.8974358974365,4778.974358974359,4546.666666666667,4868.205128205129
1774.5797,0.12708676,1.0,0.33333343,0.5522388,0,0.0,0.23430933,0.0,0.0,0.0,0,0,0.0,0.0,0,0,22.0,0.0,0.0,5055.8974358974365,4432.307692307693,5022.564102564103,4932.820512820514,4848.205128205129,5120.000000000001,5001.025641025642,4970.256410256411,4708.205128205129,5237.948717948719,4850.256410256411,4971.282051282052,4630.769230769231,4928.205128205129
1774.7987,0.12708676,1.0,0.33333343,0.5522388,0,0.0,0.0,0.0,0.0,0.0,0,0,0.0,0.0,0,0,50.0,0.0,0.0,5302.564102564103,4687.179487179488,5252.307692307693,5150.256410256411,5011.282051282052,5297.435897435898,5176.410256410257,5186.153846153847,4836.923076923077,5435.8974358974365,5125.641025641026,5338.974358974359,4930.256410256411,5169.743589743591
1775.0802,0.12708676,1.0,0.33333343,0.5522388,0,0.0,0.0,0.0,0.0,0.0,0,0,0.0,0.0,0,0,86.0,0.0,506.0,5249.743589743591,4654.358974358975,5221.538461538462,5122.051282051283,5014.871794871796,5296.410256410257,5170.769230769231,5173.333333333334,4855.8974358974365,5437.435897435898,5079.487179487181,5296.923076923078,4878.461538461539,5124.615384615386
1775.3303,0.12708676,1.0,0.33333343,0.5522388,1,0.0,0.0,0.0,1.0,0.0,0,0,0.0,0.0,0,0,118.0,0.0,506.0,4967.179487179488,4300.000000000001,4862.564102564103,4784.615384615386,4687.6923076923085,4943.076923076924,4805.641025641026,4793.333333333334,4625.641025641026,5070.769230769231,4667.179487179488,4694.871794871796,4508.205128205129,4851.794871794872
1775.5806,0.12708676,1.0,0.3333334,0.5522388,0,0.0,0.0,0.0,1.0,0.0,0,0,0.0,0.0,0,0,21.0,0.0,0.0,4807.179487179488,4089.23076923077,4674.871794871796,4582.051282051282,4470.256410256411,4730.256410256411,4614.358974358975,4583.076923076924,4643.589743589744,4842.564102564103,4464.102564102564,4377.435897435898,4289.74358974359,4723.076923076924
1775.7996,0.12708676,1.0,0.3333334,0.5522388,0,0.0,0.0,0.0,0.7016402,0.0,0,0,0.0,0.0,0,0,49.0,0.0,0.0,4496.923076923077,3761.0256410256416,4331.794871794872,4251.794871794872,4121.538461538462,4362.051282051282,4269.2307692307695,4232.820512820514,4350.769230769231,4503.076923076924,4084.615384615385,3821.538461538462,3937.9487179487182,4399.48717948718
1776.081,0.12708676,1.0,0.3333334,0.5522388,1,0.0,0.0,0.0,0.5447875,0.0,0,0,0.0,0.0,0,0,85.0,0.0,849.0,4368.717948717949,3635.8974358974365,4183.589743589744,4111.794871794872,3965.1282051282055,4214.358974358975,4127.6923076923085,4071.2820512820517,4382.051282051282,4333.333333333334,3915.3846153846157,3600.512820512821,3813.8461538461543,4295.384615384616
1776.2999,0.12708676,1.0,0.3333334,0.5522388,1,0.0,0.0,0.0,0.07788349,0.0,0,0,0.0,0.0,0,0,113.0,0.0,849.0,4323.589743589744,3587.692307692308,4122.564102564103,4044.615384615385,3875.3846153846157,4128.717948717949,4047.692307692308,3992.307692307693,4337.948717948719,4261.025641025642,3858.9743589743593,3512.307692307693,3789.2307692307695,4268.717948717949
1776.644,0.12708676,1.0,0.3333334,0.5522388,0,0.0,0.0,0.0,0.0,0.0,0,0,0.0,0.0,0,0,28.0,0.0,0.0,4546.153846153847,3847.692307692308,4390.256410256411,4302.564102564103,4113.846153846154,4388.205128205129,4293.846153846154,4261.025641025642,4460.512820512821,4558.974358974359,4172.820512820514,3943.589743589744,4077.9487179487187,4487.6923076923085
1776.7692,0.12708676,1.0,0.3333334,0.5522388,1,0.0,0.0,0.0,0.0,0.0,0,0,0.0,0.0,0,0,44.0,0.0,0.0,4463.589743589744,3769.2307692307695,4325.128205128206,4234.871794871796,4050.2564102564106,4326.153846153847,4235.8974358974365,4207.179487179487,4409.743589743591,4496.923076923077,4093.8461538461543,3839.48717948718,3988.717948717949,4405.641025641026
1777.1444,0.12708676,1.0,0.3333334,0.5522388,0,0.0,0.0,0.0,0.0,0.0,0,0,0.0,0.0,0,1,92.0,0.0,525.0,4564.102564102564,3907.692307692308,4461.538461538462,4375.8974358974365,4209.74358974359,4498.974358974359,4394.358974358975,4360.000000000001,4461.538461538462,4656.923076923077,4244.102564102564,4079.48717948718,4128.717948717949,4505.641025641026
1777.3634,0.12708676,1.0,0.3333334,0.5522388,0,0.0,0.0,0.0,0.0,0.0,0,0,0.0,0.0,0,0,120.0,0.0,525.0,4569.743589743591,3916.9230769230776,4473.846153846154,4377.948717948719,4196.410256410257,4479.48717948718,4386.666666666667,4344.615384615385,4463.589743589744,4653.846153846154,4253.846153846154,4084.615384615385,4133.846153846154,4518.974358974359
1777.5823,0.12708676,1.0,0.33333337,0.5522388,0,0.0,0.0,0.0,0.0,0.0,0,0,0.0,0.0,0,0,19.0,0.0,0.0,4466.666666666667,3790.7692307692314,4347.179487179487,4258.461538461539,4093.333333333334,4372.307692307693,4292.307692307693,4236.923076923077,4422.564102564103,4540.000000000001,4128.205128205129,3902.564102564103,4010.2564102564106,4425.641025641026
1777.8325,0.12708676,1.0,0.33333337,0.5522388,1,0.0,0.0,0.0,0.0,0.0,0,0,0.0,0.0,0,0,51.0,0.0,0.0,4629.743589743591,3962.564102564103,4527.6923076923085,4422.564102564103,4210.256410256411,4538.974358974359,4437.948717948719,4411.794871794872,4473.846153846154,4713.333333333334,4340.512820512821,4184.615384615385,4207.6923076923085,4561.025641025642
1778.0828,0.12708676,1.0,0.33333337,0.5522388,0,0.0,0.0,0.0,0.0,0.0,0,0,0.0,0.0,0,0,83.0,0.0,438.0,4601.538461538462,3936.410256410257,4487.179487179488,4397.948717948719,4191.282051282052,4523.076923076924,4432.820512820514,4382.564102564103,4449.2307692307695,4665.641025641026,4288.717948717949,4130.256410256411,4164.102564102564,4522.564102564103
1778.0828,0.12708676,1.0,0.33333337,0.5522388,0,0.0,0.0,0.0,0.0,0.0,0,0,0.0,0.0,0,0,83.0,0.0,438.0,4601.538461538462,3936.410256410257,4487.179487179488,4397.948717948719,4191.282051282052,4523.076923076924,4432.820512820514,4382.564102564103,4449.2307692307695,4665.641025641026,4288.717948717949,4130.256410256411,4164.102564102564,4522.564102564103
1778.5831,0.12708676,1.0,0.33333337,0.5522388,0,0.0,0.0,0.0,0.0,0.0,0,0,0.0,0.0,0,1,18.0,0.0,0.0,4551.282051282052,3872.307692307693,4426.153846153847,4329.2307692307695,4109.2307692307695,4417.948717948719,4334.871794871796,4288.717948717949,4431.282051282052,4586.666666666667,4221.538461538462,4035.8974358974365,4093.8461538461543,4484.102564102564
1778.7709,0.12708676,1.0,0.33333337,0.5522388,0,0.0,0.0,0.0,0.0,0.0,0,0,0.0,0.0,0,0,42.0,0.0,0.0,4657.948717948719,4012.820512820513,4565.128205128206,4472.820512820514,4288.205128205129,4595.384615384616,4517.435897435898,4424.102564102564,4484.615384615385,4741.538461538462,4375.8974358974365,4274.358974358975,4233.846153846154,4560.000000000001
1779.0836,0.12708676,1.0,0.33333337,0.5522388,0,0.0,0.0,0.0,0.0,0.0,0,0,0.0,0.0,0,0,82.0,0.0,521.0,4768.205128205129,4134.871794871796,4690.769230769231,4596.410256410257,4411.282051282052,4718.461538461539,4638.461538461539,4573.333333333334,4561.538461538462,4889.2307692307695,4523.076923076924,4491.282051282052,4370.769230769231,4675.8974358974365
1779.3964,0.12708676,1.0,0.33333337,0.5522388,1,0.0,0.0,0.0,0.0,0.0,0,0,0.0,0.0,0,0,122.0,0.0,521.0,4843.076923076924,4205.641025641026,4770.769230769231,4676.923076923077,4493.333333333334,4800.000000000001,4710.769230769231,4654.871794871796,4567.6923076923085,4965.128205128206,4602.564102564103,4612.307692307693,4442.564102564103,4735.8974358974365
1779.584,0.12708676,1.0,0.33333337,0.5522388,0,0.0,0.0,0.0,0.4172555,0.0,0,0,0.0,0.0,0,0,17.0,0.0,0.0,4684.615384615386,4020.0000000000005,4571.282051282052,4499.48717948718,4294.358974358975,4603.076923076924,4511.282051282052,4455.384615384616,4462.051282051282,4767.6923076923085,4370.256410256411,4291.282051282052,4236.410256410257,4582.051282051282
1779.8969,0.12708676,1.0,0.33333337,0.5522388,0,0.0,0.0,0.0,0.66722256,0.0,0,0,0.0,0.0,0,1,57.0,0.0,0.0,4896.410256410257,4253.846153846154,4805.641025641026,4726.153846153847,4528.205128205129,4830.256410256411,4722.564102564103,4697.435897435898,4589.743589743591,5011.282051282052,4638.461538461539,4675.384615384616,4487.179487179488,4770.769230769231
1780.0845,0.12708676,1.0,0.33333337,0.5522388,0,0.0,0.0,0.0,0.0,0.0,0,0,0.0,0.0,0,0,81.0,0.0,839.0,4765.128205128206,4100.512820512821,4654.358974358975,4585.641025641026,4372.820512820514,4675.8974358974365,4579.48717948718,4556.923076923077,4494.358974358975,4869.743589743591,4457.435897435898,4427.179487179487,4325.128205128206,4646.153846153847
1780.3972,0.12708676,1.0,0.33333337,0.5522388,0,0.0,0.0,0.0,0.7728424,0.0,0,0,0.0,0.0,0,0,121.0,0.0,839.0,4909.743589743591,4255.8974358974365,4807.179487179488,4733.333333333334,4523.589743589744,4825.641025641026,4726.153846153847,4715.8974358974365,4605.128205128206,5018.461538461539,4623.076923076924,4675.384615384616,4480.512820512821,4785.128205128206
1780.5848,0.12708676,1.0,0.33333337,0.5522388,1,0.0,0.0,0.0,0.3491212,0.0,0,0,0.0,0.0,0,0,16.0,0.0,0.0,4842.051282051283,4173.846153846154,4740.000000000001,4668.205128205129,4452.820512820514,4754.871794871796,4643.076923076924,4633.846153846154,4541.538461538462,4938.461538461539,4528.205128205129,4550.769230769231,4401.538461538462,4718.974358974359
1780.6787,0.12708676,1.0,0.33333337,0.5522388,0,0.0,0.0,0.0,0.0,0.0,0,0,0.0,0.0,0,0,28.0,0.0,0.0,4864.102564102564,4193.846153846154,4762.564102564103,4683.589743589744,4472.307692307693,4774.358974358975,4664.615384615386,4652.307692307693,4561.538461538462,4968.205128205129,4543.589743589744,4586.666666666667,4420.000000000001,4747.6923076923085
1781.0853,0.12708676,1.0,0.33333337,0.5522388,0,0.0,0.0,0.0,0.0,0.0,0,0,0.0,0.0,0,0,80.0,0.0,522.0,4982.564102564103,4353.846153846154,4903.076923076924,4831.282051282052,4642.051282051282,4944.615384615386,4820.000000000001,4811.282051282052,4666.153846153847,5126.666666666667,4722.564102564103,4836.410256410257,4583.589743589744,4871.794871794872
1781.3668,0.12708676,1.0,0.33333337,0.5522388,0,0.0,0.0,0.0,0.0,0.0,0,0,0.0,0.0,0,0,116.0,0.0,522.0,4873.846153846154,4194.358974358975,4752.307692307693,4691.282051282052,4487.179487179488,4789.743589743591,4685.641025641026,4664.615384615386,4557.435897435898,4943.589743589744,4572.307692307693,4576.410256410257,4421.538461538462,4744.615384615386
1781.5857,0.12708676,1.0,0.33333334,0.5522388,0,0.0,0.0,0.0,0.0,0.0,0,0,0.0,0.0,0,0,15.0,0.0,432.0,4767.6923076923085,4060.0000000000005,4621.025641025642,4563.076923076924,4356.923076923077,4652.307692307693,4559.48717948718,4528.717948717949,4510.769230769231,4823.589743589744,4427.6923076923085,4360.512820512821,4275.8974358974365,4652.307692307693
1781.8672,0.12708676,1.0,0.33333334,0.5522388,1,0.0,0.0,0.0,0.0,0.0,0,0,0.0,0.0,0,0,51.0,0.0,0.0,4848.205128205129,4147.179487179487,4708.205128205129,4652.820512820514,4463.589743589744,4756.923076923077,4667.6923076923085,4647.179487179488,4539.48717948718,4937.948717948719,4539.48717948718,4520.512820512821,4367.6923076923085,4721.538461538462
1782.0862,0.12708676,1.0,0.33333334,0.5522388,1,0.0,0.0,0.0,0.0,0.0,0,0,0.0,0.0,0,0,79.0,0.0,432.0,5022.051282051283,4361.025641025642,4911.282051282052,4852.307692307693,4678.974358974359,4972.307692307693,4855.384615384616,4849.2307692307695,4627.6923076923085,5150.769230769231,4760.000000000001,4849.743589743591,4589.743589743591,4878.974358974359
1782.2113,0.12708676,1.0,0.33333334,0.5522388,0,0.0,0.0,0.0,0.0,0.0,0,0,0.0,0.0,0,0,95.0,0.0,432.0,4923.076923076924,4252.307692307693,4802.051282051282,4748.717948717949,4556.410256410257,4853.846153846154,4733.846153846154,4730.769230769231,4578.974358974359,5045.641025641026,4635.8974358974365,4674.358974358975,4495.384615384616,4786.666666666667
1782.6179,0.12708676,1.0,0.33333334,0.5522388,1,0.0,0.0,0.0,0.0,0.0,0,0,0.0,0.0,0,0,18.0,0.0,0.0,4148.717948717949,3346.1538461538466,3866.666666666667,3846.1538461538466,3596.410256410257,3890.2564102564106,3821.0256410256416,3748.205128205129,4228.717948717949,4097.948717948719,3562.564102564103,3163.589743589744,3491.2820512820517,4028.717948717949
1782.8055,0.12708676,1.0,0.33333334,0.5522388,0,0.0,0.0,0.0,0.0,0.0,0,0,0.35884503,0.0,0,0,42.0,0.0,0.0,3849.2307692307695,3024.1025641025644,3537.435897435898,3543.589743589744,3258.461538461539,3545.1282051282055,3492.307692307693,3402.564102564103,4046.1538461538466,3746.1538461538466,3182.0512820512827,2633.8461538461543,3150.7692307692314,3721.538461538462
1783.087,0.12708676,1.0,0.33333334,0.5522388,0,0.0,0.0,0.0,0.78348696,0.0,0,0,0.0,0.0,0,1,78.0,0.0,520.0,4150.769230769231,3414.8717948717954,3950.7692307692314,3924.615384615385,3712.307692307693,3999.48717948718,3926.1538461538466,3871.2820512820517,4245.128205128206,4183.076923076924,3692.820512820513,3327.692307692308,3605.6410256410263,4020.0000000000005
1783.306,0.12708676,1.0,0.33333334,0.5522388,0,0.0,0.0,0.0,0.0,0.0,0,0,0.40317595,0.0,0,0,106.0,0.0,520.0,4253.846153846154,3551.2820512820517,4082.0512820512827,4040.5128205128212,3831.2820512820517,4122.051282051282,4029.23076923077,3993.333333333334,4277.948717948719,4314.871794871796,3858.461538461539,3553.333333333334,3800.0000000000005,4139.48717948718
1783.5875,0.12708676,1.0,0.33333334,0.5522388,0,0.0,0.23402067,0.0,0.0,0.0,0,0,0.0,0.0,0,0,13.0,0.0,847.0,4380.512820512821,3708.205128205129,4254.871794871796,4191.794871794872,3991.7948717948725,4287.179487179487,4194.358974358975,4173.333333333334,4314.358974358975,4478.974358974359,4065.6410256410263,3818.9743589743593,3986.1538461538466,4253.846153846154
1783.8064,0.12708676,1.0,0.33333334,0.5522388,0,0.0,0.3102077,0.0,0.0,0.0,0,0,0.0,0.0,0,0,41.0,0.0,0.0,4324.102564102564,3635.3846153846157,4184.102564102564,4134.358974358975,3931.2820512820517,4231.794871794872,4143.589743589744,4108.205128205129,4311.282051282052,4399.48717948718,3978.461538461539,3726.666666666667,3921.0256410256416,4209.74358974359
1784.0879,0.086381346,1.0,0.33333334,0.5522388,0,0.0,0.0,0.0,0.0,0.0,0,0,0.0,0.0,0,0,77.0,0.0,848.0,4466.666666666667,3808.717948717949,4362.564102564103,4307.6923076923085,4103.589743589744,4407.6923076923085,4313.333333333334,4287.6923076923085,4355.8974358974365,4573.846153846154,4171.794871794872,4047.1794871794878,4106.153846153847,4348.205128205129
1784.3694,0.086381346,1.0,0.33333334,0.5522388,0,0.0,0.0,0.0,0.0,0.0,0,0,0.0,0.0,0,0,113.0,0.0,848.0,4544.102564102564,3889.7435897435903,4444.102564102564,4372.820512820514,4178.461538461539,4481.538461538462,4390.256410256411,4372.307692307693,4373.846153846154,4648.205128205129,4252.307692307693,4170.256410256411,4172.307692307693,4413.846153846154
1784.6196,0.06982838,1.0,0.33333334,0.5522388,1,0.0,0.0,0.0,0.0,0.0,0,0,0.0,0.0,0,0,16.0,0.0,0.0,4590.769230769231,3938.461538461539,4505.641025641026,4436.923076923077,4225.128205128206,4530.769230769231,4434.871794871796,4427.179487179487,4325.128205128206,4676.923076923077,4316.410256410257,4243.589743589744,4217.948717948719,4439.48717948718
1784.776,0.06982838,1.0,0.33333334,0.5522388,0,0.0,0.0,0.0,0.0,0.0,0,0,0.0,0.0,0,0,36.0,0.0,0.0,4723.589743589744,4093.8461538461543,4649.2307692307695,4580.000000000001,4373.846153846154,4678.974358974359,4590.256410256411,4575.384615384616,4433.846153846154,4840.000000000001,4480.512820512821,4483.589743589744,4361.538461538462,4578.974358974359
1785.12,0.06982838,1.0,0.33333334,0.5522388,0,0.0,0.0,0.0,0.27832937,0.0,0,0,0.0,0.0,0,0,80.0,0.0,510.0,4868.717948717949,4263.076923076924,4814.358974358975,4744.102564102564,4560.512820512821,4860.512820512821,4761.025641025642,4756.923076923077,4501.538461538462,5006.153846153847,4671.794871794872,4754.358974358975,4527.179487179488,4706.666666666667
1785.4015,0.06982838,1.0,0.33333334,0.5522388,1,0.0,0.0,0.0,0.27898636,0.0,0,0,0.0,0.0,0,0,116.0,0.0,510.0,4566.153846153847,3891.2820512820517,4445.641025641026,4393.846153846154,4165.128205128206,4473.846153846154,4389.2307692307695,4353.846153846154,4369.2307692307695,4601.025641025642,4230.769230769231,4137.948717948719,4116.923076923077,4441.025641025642
1785.5892,0.06982838,1.0,0.33333334,0.5522388,0,0.0,0.0,0.0,0.0,0.0,0,0,0.0,0.0,0,0,11.0,0.0,431.0,4629.2307692307695,3973.8461538461543,4526.666666666667,4466.153846153847,4242.051282051282,4548.717948717949,4455.8974358974365,4428.717948717949,4374.871794871796,4690.769230769231,4346.153846153847,4272.820512820514,4204.615384615385,4503.076923076924
1785.8081,0.06982838,1.0,0.33333334,0.5522388,0,0.0,0.0,0.0,0.7145518,0.0,0,0,0.0,0.0,0,0,39.0,0.0,0.0,4749.743589743591,4119.48717948718,4661.025641025642,4600.000000000001,4399.48717948718,4708.205128205129,4602.564102564103,4582.564102564103,4464.102564102564,4835.8974358974365,4492.820512820514,4503.076923076924,4343.076923076924,4627.179487179488
1786.0896,0.06982838,1.0,0.33333334,0.5522388,0,0.0,0.0,0.0,0.6539274,0.0,0,0,0.0,0.0,0,0,75.0,0.0,431.0,4874.871794871796,4258.974358974359,4798.461538461539,4737.948717948719,4522.051282051282,4827.179487179488,4727.6923076923085,4722.051282051282,4500.000000000001,4979.48717948718,4633.333333333334,4718.974358974359,4474.871794871796,4732.307692307693
1786.1835,0.06982838,1.0,0.33333334,0.5522388,0,0.0,0.0,0.0,1.0,0.0,0,0,0.0,0.0,0,0,87.0,0.0,431.0,4231.282051282052,3513.333333333334,4033.8461538461543,4009.7435897435903,3737.435897435898,4045.1282051282055,3981.0256410256416,3916.410256410257,4158.974358974359,4183.076923076924,3760.0000000000005,3458.461538461539,3654.8717948717954,4137.435897435898
1786.6526,0.0449718,1.0,0.33333334,0.5522388,0,0.0,0.0,0.0,1.0,0.0,0,0,0.0,0.0,0,0,18.0,0.0,0.0,4392.307692307693,3724.1025641025644,4243.076923076924,4205.641025641026,3934.358974358975,4236.410256410257,4147.179487179487,4120.000000000001,4273.333333333334,4395.8974358974365,4011.2820512820517,3798.461538461539,3864.1025641025644,4300.512820512821
1786.809,0.0449718,1.0,0.33333334,0.5522388,1,0.0,0.0,0.0,0.0,0.0,0,0,0.0,0.0,0,0,38.0,0.0,0.0,4475.8974358974365,3820.0000000000005,4347.6923076923085,4302.051282051282,4040.0000000000005,4347.179487179487,4253.333333333334,4226.666666666667,4330.769230769231,4494.358974358975,4130.769230769231,3970.2564102564106,3968.717948717949,4390.769230769231
1787.0905,0.061900422,1.0,0.33333334,0.5522388,0,0.0,0.0,0.0,0.0,0.0,0,0,0.0,0.0,0,0,74.0,0.0,517.0,4516.410256410257,3876.410256410257,4413.846153846154,4363.589743589744,4118.461538461539,4424.102564102564,4343.589743589744,4325.641025641026,4348.717948717949,4578.974358974359,4209.74358974359,4105.128205128206,4050.2564102564106,4433.846153846154
1787.372,0.061900422,1.0,0.33333334,0.5522388,0,0.0,0.0,0.0,0.0,0.0,0,0,0.0,0.0,0,1,110.0,0.0,517.0,4543.589743589744,3895.3846153846157,4460.000000000001,4392.820512820514,4175.8974358974365,4476.923076923077,4380.000000000001,4370.769230769231,4345.641025641026,4624.102564102564,4278.461538461539,4175.384615384616,4126.153846153847,4481.025641025642
1787.591,0.061900422,1.0,0.33333334,0.5522388,0,0.0,0.0,0.0,0.0,0.0,0,0,0.0,0.0,0,1,9.0,0.0,450.0,4562.051282051282,3907.1794871794878,4430.769230769231,4394.871794871796,4129.2307692307695,4430.769230769231,4348.205128205129,4325.128205128206,4332.820512820514,4613.846153846154,4250.769230769231,4153.333333333334,4128.205128205129,4493.333333333334
1787.8724,0.061900422,1.0,0.33333334,0.5522388,0,0.0,0.0,0.0,0.0,0.0,0,0,0.0,0.0,0,1,45.0,0.0,0.0,4581.538461538462,3946.666666666667,4504.615384615385,4467.179487179487,4238.974358974359,4540.512820512821,4456.410256410257,4440.000000000001,4356.923076923077,4696.410256410257,4314.871794871796,4264.102564102564,4176.923076923077,4504.615384615385
1788.1226,0.061900422,1.0,0.33333334,0.5522388,0,0.0,0.0,0.0,0.0,0.0,0,0,0.0,0.0,0,0,77.0,0.0,855.0,4669.2307692307695,4041.0256410256416,4585.128205128206,4550.256410256411,4313.333333333334,4613.846153846154,4512.307692307693,4503.589743589744,4391.282051282052,4771.282051282052,4392.307692307693,4378.461538461539,4236.923076923077,4580.000000000001
1788.3103,0.061900422,1.0,0.33333334,0.5522388,0,0.0,0.0,0.0,0.0,0.0,0,0,0.0,0.0,0,0,101.0,0.0,855.0,4728.717948717949,4092.820512820513,4647.179487179488,4603.076923076924,4372.307692307693,4676.410256410257,4581.025641025642,4576.923076923077,4421.025641025642,4843.076923076924,4460.000000000001,4484.615384615385,4304.102564102564,4623.589743589744
1788.623,0.035736788,1.0,0.33333334,0.5522388,1,0.0,0.0,0.0,0.0,0.0,0,0,0.0,0.0,0,0,12.0,0.0,523.0,4886.153846153847,4254.871794871796,4784.102564102564,4737.435897435898,4488.717948717949,4789.743589743591,4705.128205128206,4685.128205128206,4463.589743589744,4957.435897435898,4604.102564102564,4705.128205128206,4470.256410256411,4766.666666666667
1788.7482,0.035736788,1.0,0.33333334,0.5522388,0,0.0,0.0,0.0,0.0,0.0,0,0,0.0,0.0,0,0,28.0,0.0,0.0,4903.589743589744,4256.410256410257,4786.153846153847,4735.8974358974365,4471.282051282052,4774.871794871796,4690.769230769231,4678.461538461539,4469.2307692307695,4944.102564102564,4602.051282051282,4702.564102564103,4472.307692307693,4786.666666666667
1789.0922,0.027284874,1.0,0.33333334,0.5522388,0,0.0,0.0,0.0,0.0,0.0,0,0,0.0,0.0,0,0,72.0,0.0,381.0,4887.179487179488,4232.820512820514,4790.769230769231,4744.102564102564,4526.153846153847,4822.051282051282,4756.923076923077,4745.128205128206,4486.666666666667,5012.820512820514,4609.743589743591,4731.794871794872,4461.538461538462,4772.820512820514
1789.0922,0.027284874,1.0,0.33333334,0.5522388,0,0.0,0.0,0.0,0.0,0.0,0,0,0.0,0.0,0,0,72.0,0.0,381.0,4887.179487179488,4232.820512820514,4790.769230769231,4744.102564102564,4526.153846153847,4822.051282051282,4756.923076923077,4745.128205128206,4486.666666666667,5012.820512820514,4609.743589743591,4731.794871794872,4461.538461538462,4772.820512820514
1789.5927,0.074543156,1.0,0.33333334,0.5522388,0,0.0,0.0,0.0,0.0,0.0,0,0,0.0,0.0,0,0,7.0,0.0,454.0,4796.923076923077,4107.6923076923085,4691.282051282052,4636.923076923077,4433.846153846154,4728.205128205129,4643.589743589744,4634.358974358975,4461.538461538462,4912.820512820514,4494.871794871796,4569.743589743591,4360.512820512821,4684.102564102564
1789.5927,0.074543156,1.0,0.33333334,0.5522388,0,0.0,0.0,0.0,0.0,0.0,0,0,0.0,0.0,0,0,7.0,0.0,454.0,4796.923076923077,4107.6923076923085,4691.282051282052,4636.923076923077,4433.846153846154,4728.205128205129,4643.589743589744,4634.358974358975,4461.538461538462,4912.820512820514,4494.871794871796,4569.743589743591,4360.512820512821,4684.102564102564
1790.093,0.12479133,1.0,0.33333334,0.5522388,0,0.0,0.0,0.0,0.0,0.0,0,0,0.0,0.0,0,0,71.0,0.0,454.0,4822.564102564103,4140.512820512821,4716.923076923077,4657.948717948719,4461.538461538462,4757.435897435898,4672.307692307693,4666.666666666667,4502.051282051282,4937.948717948719,4541.025641025642,4594.358974358975,4401.025641025642,4724.102564102564
1790.3276,0.12479133,1.0,0.33333334,0.5522388,1,0.0,0.0,0.0,0.0,0.0,0,0,0.0,0.0,0,0,103.0,0.0,434.0,4736.923076923077,4040.0000000000005,4622.564102564103,4561.025641025642,4341.538461538462,4640.000000000001,4562.051282051282,4548.717948717949,4437.435897435898,4830.256410256411,4423.589743589744,4418.974358974359,4302.051282051282,4649.2307692307695
1790.5779,0.18555982,1.0,0.33333334,0.5522388,1,0.0,0.0,0.0,0.0,0.0,0,0,0.0,0.0,0,0,6.0,0.0,517.0,4829.743589743591,4156.923076923077,4725.128205128206,4659.48717948718,4448.717948717949,4744.615384615386,4657.435897435898,4654.358974358975,4492.307692307693,4953.846153846154,4544.615384615385,4597.948717948719,4409.2307692307695,4738.461538461539
1790.703,0.18555982,1.0,0.33333334,0.5522388,0,0.0,0.0,0.0,0.0,0.0,0,0,0.0,0.0,0,0,22.0,0.0,0.0,4809.2307692307695,4125.128205128206,4706.666666666667,4640.512820512821,4425.641025641026,4722.564102564103,4644.615384615385,4635.8974358974365,4476.410256410257,4924.102564102564,4507.6923076923085,4553.846153846154,4382.051282051282,4716.410256410257
1791.0782,0.30181196,1.0,0.33333334,0.5522388,0,0.0,0.0,0.0,0.0,0.0,0,0,0.0,0.0,0,0,70.0,0.0,517.0,4767.6923076923085,4087.1794871794878,4628.205128205129,4577.435897435898,4341.025641025642,4637.435897435898,4569.2307692307695,4556.923076923077,4444.615384615385,4819.48717948718,4408.205128205129,4429.2307692307695,4279.48717948718,4653.846153846154
1791.2972,0.30181196,1.0,0.33333334,0.5522388,0,0.0,0.0,0.0,0.0,0.0,0,0,0.0,0.0,0,0,98.0,0.0,517.0,4720.512820512821,4030.2564102564106,4565.641025641026,4520.512820512821,4289.2307692307695,4586.153846153847,4514.871794871796,4480.512820512821,4410.769230769231,4751.282051282052,4329.2307692307695,4336.923076923077,4226.153846153847,4612.307692307693
1791.5787,0.30181196,1.0,0.33333334,0.5522388,0,0.0,0.0,0.0,0.0,0.0,0,0,0.0,0.0,0,0,5.0,0.0,527.0,4635.8974358974365,3919.48717948718,4464.615384615385,4416.923076923077,4177.948717948719,4478.461538461539,4414.871794871796,4388.205128205129,4360.512820512821,4682.051282051282,4229.2307692307695,4178.974358974359,4110.256410256411,4526.153846153847
1791.5787,0.30181196,1.0,0.33333334,0.5522388,0,0.0,0.0,0.0,0.0,0.0,0,0,0.0,0.0,0,0,5.0,0.0,527.0,4635.8974358974365,3919.48717948718,4464.615384615385,4416.923076923077,4177.948717948719,4478.461538461539,4414.871794871796,4388.205128205129,4360.512820512821,4682.051282051282,4229.2307692307695,4178.974358974359,4110.256410256411,4526.153846153847
1792.0791,0.30181196,1.0,0.33333334,0.5522388,1,0.0,0.0,0.0,0.0,0.0,0,0,0.0,0.0,0,0,69.0,0.0,523.0,5126.666666666667,4486.153846153847,5027.6923076923085,4969.743589743591,4758.461538461539,5058.461538461539,4967.6923076923085,4960.000000000001,4628.717948717949,5237.948717948719,4869.743589743591,5100.512820512821,4717.948717948719,4983.589743589744
1792.2355,0.30181196,1.0,0.33333334,0.5522388,0,0.0,0.0,0.0,0.0,0.0,0,0,0.0,0.0,0,0,89.0,0.0,833.0,5135.384615384616,4500.512820512821,5034.358974358975,4982.564102564103,4755.384615384616,5053.846153846154,4973.846153846154,4973.846153846154,4628.717948717949,5241.025641025642,4862.051282051283,5095.384615384616,4711.282051282052,4985.128205128206
1792.6108,0.30181196,1.0,0.33333334,0.5522388,0,0.0,0.0,0.0,0.0,0.0,0,0,0.0,0.0,0,0,8.0,0.0,376.0,4925.128205128206,4251.282051282052,4780.512820512821,4732.307692307693,4511.282051282052,4806.666666666667,4733.846153846154,4701.025641025642,4525.641025641026,4961.025641025642,4560.000000000001,4674.871794871796,4443.076923076924,4797.948717948719
1792.8923,0.30181196,1.0,0.33333334,0.5522388,1,0.0,0.0,0.0,0.0,0.0,0,0,0.0,0.0,0,0,44.0,0.0,0.0,4943.076923076924,4258.974358974359,4806.153846153847,4756.410256410257,4540.000000000001,4838.461538461539,4756.410256410257,4732.307692307693,4577.435897435898,5008.717948717949,4596.410256410257,4708.717948717949,4473.333333333334,4811.282051282052
1793.08,0.2676269,1.0,0.33333334,0.5522388,0,0.0,0.0,0.0,0.0,0.0,0,0,0.0,0.0,0,0,68.0,0.0,521.0,4904.615384615386,4211.282051282052,4770.769230769231,4717.948717948719,4487.179487179488,4788.205128205129,4713.846153846154,4693.846153846154,4542.051282051282,4956.923076923077,4563.589743589744,4634.871794871796,4441.025641025642,4773.846153846154
1793.299,0.2676269,1.0,0.33333334,0.5522388,1,0.0,0.0,0.0,0.0,0.0,0,0,0.0,0.0,0,0,96.0,0.0,514.0,4813.846153846154,4110.256410256411,4677.435897435898,4613.846153846154,4403.589743589744,4707.179487179488,4632.307692307693,4608.205128205129,4517.435897435898,4902.564102564103,4478.461538461539,4498.974358974359,4367.6923076923085,4701.538461538462
1793.5804,0.2676269,1.0,0.33333334,0.5522388,0,0.0,0.0,0.0,0.0,0.0,0,0,0.0,0.0,0,0,3.0,0.0,517.0,4752.307692307693,4050.2564102564106,4606.153846153847,4557.435897435898,4333.333333333334,4637.948717948719,4575.384615384616,4554.358974358975,4497.435897435898,4836.923076923077,4411.794871794872,4393.333333333334,4307.179487179487,4642.051282051282
1793.8307,0.2676269,1.0,0.33333334,0.5522388,0,0.0,0.0,0.0,0.0,0.0,0,0,0.0,0.0,0,0,35.0,0.0,0.0,4907.179487179488,4236.923076923077,4795.8974358974365,4735.384615384616,4510.256410256411,4817.435897435898,4742.564102564103,4734.871794871796,4582.564102564103,5018.461538461539,4620.512820512821,4695.384615384616,4493.846153846154,4778.974358974359
1794.1122,0.2676269,1.0,0.33333334,0.5522388,1,0.0,0.0,0.0,0.0,0.0,0,0,0.0,0.0,0,0,71.0,0.0,453.0,4830.256410256411,4147.179487179487,4699.48717948718,4639.48717948718,4409.743589743591,4718.974358974359,4647.179487179488,4617.435897435898,4516.410256410257,4900.512820512821,4499.48717948718,4520.512820512821,4397.948717948719,4703.076923076924
1794.2686,0.2676269,1.0,0.33333334,0.5522388,0,0.0,0.0,0.0,0.0,0.0,0,0,0.0,0.0,0,0,91.0,0.0,427.0,4800.000000000001,4070.7692307692314,4627.179487179488,4566.666666666667,4339.48717948718,4645.128205128206,4576.410256410257,4550.256410256411,4479.48717948718,4821.025641025642,4421.538461538462,4403.589743589744,4314.358974358975,4645.128205128206
1794.6438,0.2676269,1.0,0.33333334,0.5522388,0,0.0,0.0,0.0,0.0,0.0,0,0,0.0,0.0,0,0,10.0,0.0,525.0,4394.871794871796,3636.410256410257,4164.102564102564,4117.948717948719,3867.1794871794878,4167.179487179487,4105.128205128206,4062.564102564103,4296.923076923077,4351.794871794872,3907.1794871794878,3660.0000000000005,3832.307692307693,4271.794871794872
1794.894,0.2676269,1.0,0.33333334,0.5522388,1,0.0,0.0,0.0,0.70958585,0.0,0,0,0.0,0.0,0,0,42.0,0.0,0.0,4362.051282051282,3630.7692307692314,4149.74358974359,4105.641025641026,3873.333333333334,4167.6923076923085,4112.820512820514,4061.0256410256416,4303.076923076924,4346.153846153847,3924.615384615385,3689.2307692307695,3848.717948717949,4264.102564102564
1795.0817,0.20783995,1.0,0.33333334,0.5522388,0,0.0,0.0,0.0,0.0,0.0,0,0,0.0,0.0,0,0,66.0,0.0,421.0,4461.025641025642,3770.7692307692314,4275.8974358974365,4235.8974358974365,4023.589743589744,4324.102564102564,4255.8974358974365,4220.512820512821,4357.948717948719,4502.051282051282,4096.923076923077,3904.1025641025644,4000.0000000000005,4366.666666666667
1795.0817,0.20783995,1.0,0.33333334,0.5522388,0,0.0,0.0,0.0,0.0,0.0,0,0,0.0,0.0,0,0,66.0,0.0,421.0,4461.025641025642,3770.7692307692314,4275.8974358974365,4235.8974358974365,4023.589743589744,4324.102564102564,4255.8974358974365,4220.512820512821,4357.948717948719,4502.051282051282,4096.923076923077,3904.1025641025644,4000.0000000000005,4366.666666666667
1795.5822,0.20783995,1.0,0.33333334,0.5522388,0,0.0,0.0,0.0,0.0,0.0,0,0,0.0,0.0,0,0,1.0,0.0,477.0,4378.974358974359,3710.2564102564106,4237.435897435898,4174.871794871796,3977.435897435898,4277.948717948719,4202.564102564103,4174.358974358975,4316.410256410257,4466.153846153847,4027.1794871794878,3838.461538461539,3938.9743589743593,4296.410256410257
1795.7698,0.20783995,1.0,0.33333334,0.5522388,1,0.0,0.0,0.0,0.0,0.0,0,0,0.0,0.0,0,0,25.0,0.0,0.0,4593.846153846154,3989.7435897435903,4521.538461538462,4450.769230769231,4271.794871794872,4575.8974358974365,4491.282051282052,4462.051282051282,4408.205128205129,4733.333333333334,4336.923076923077,4288.205128205129,4232.820512820514,4503.589743589744
1796.0825,0.20783995,1.0,0.33333334,0.5522388,1,0.0,0.0,0.0,0.0,0.0,0,0,0.0,0.0,0,0,65.0,0.0,476.0,4721.025641025642,4139.48717948718,4673.333333333334,4602.051282051282,4418.461538461539,4722.564102564103,4631.794871794872,4618.461538461539,4472.820512820514,4884.615384615386,4497.435897435898,4528.205128205129,4394.871794871796,4631.794871794872
1796.2076,0.20783995,1.0,0.33333334,0.5522388,0,0.0,0.0,0.0,0.0,0.0,0,0,0.0,0.0,0,0,81.0,0.0,850.0,4470.256410256411,3833.333333333334,4378.461538461539,4311.282051282052,4094.358974358975,4400.512820512821,4305.128205128206,4270.256410256411,4298.461538461539,4548.717948717949,4155.384615384616,4028.205128205129,4076.9230769230776,4405.641025641026
1796.583,0.20783995,1.0,0.33333334,0.5522388,1,0.0,0.0,0.0,0.45604345,0.0,0,0,0.0,0.0,0,0,0.0,0.0,482.0,4492.820512820514,3874.358974358975,4423.589743589744,4345.641025641026,4143.589743589744,4447.6923076923085,4354.358974358975,4316.410256410257,4336.410256410257,4627.179487179488,4177.435897435898,4109.74358974359,4114.871794871796,4435.384615384616
1796.6769,0.20783995,1.0,0.33333334,0.5522388,0,0.0,0.0,0.0,0.0,0.0,0,0,0.0,0.0,0,0,12.0,0.0,529.0,4618.974358974359,4021.538461538462,4573.333333333334,4484.615384615385,4302.564102564103,4605.128205128206,4507.6923076923085,4483.076923076924,4454.358974358975,4777.948717948719,4353.846153846154,4356.410256410257,4280.512820512821,4564.615384615385
1797.1147,0.20783995,1.0,0.33333334,0.5522388,1,0.0,0.0,0.0,0.82773346,0.0,0,0,0.0,0.0,0,0,68.0,0.0,513.0,5267.6923076923085,4777.948717948719,5324.615384615386,5223.589743589744,5071.282051282052,5372.820512820514,5249.2307692307695,5263.589743589744,4731.282051282052,5534.871794871796,5200.000000000001,5567.6923076923085,5053.333333333334,5157.435897435898
1797.3024,0.20783995,1.0,0.33333334,0.5522388,0,0.0,0.0,0.0,0.22958519,0.0,0,0,0.0,0.0,0,0,92.0,0.0,503.0,5002.564102564103,4443.076923076924,5005.128205128206,4915.8974358974365,4732.820512820514,5031.794871794872,4942.564102564103,4950.769230769231,4558.974358974359,5215.384615384616,4819.48717948718,5020.512820512821,4695.8974358974365,4908.205128205129
1797.5839,0.20783995,1.0,0.33333334,0.5522388,0,0.0,0.0,0.0,0.33688334,0.0,0,0,0.0,0.0,0,0,128.0,0.0,503.0,5016.410256410257,4471.794871794872,5040.512820512821,4946.666666666667,4746.666666666667,5046.153846153847,4966.666666666667,4956.923076923077,4610.769230769231,5235.384615384616,4858.461538461539,5049.2307692307695,4716.923076923077,4958.974358974359
1797.8341,0.20783995,1.0,0.33333334,0.5522388,1,0.0,0.0,0.0,0.0,0.0,0,0,0.0,0.0,0,0,31.0,0.0,0.0,5118.461538461539,4573.846153846154,5136.923076923077,5048.717948717949,4845.641025641026,5147.6923076923085,5065.641025641026,5050.256410256411,4643.589743589744,5323.589743589744,4971.282051282052,5196.410256410257,4817.948717948719,5032.820512820514
1798.0844,0.20783995,1.0,0.33333334,0.5522388,0,0.0,0.0,0.0,0.0,0.0,0,0,0.0,0.0,0,0,63.0,0.0,0.0,4966.666666666667,4380.000000000001,4942.051282051283,4877.948717948719,4653.846153846154,4955.384615384616,4876.923076923077,4863.589743589744,4580.000000000001,5155.384615384616,4756.410256410257,4889.743589743591,4608.205128205129,4886.153846153847
1798.0844,0.20783995,1.0,0.33333334,0.5522388,0,0.0,0.0,0.0,0.0,0.0,0,0,0.0,0.0,0,0,63.0,0.0,0.0,4966.666666666667,4380.000000000001,4942.051282051283,4877.948717948719,4653.846153846154,4955.384615384616,4876.923076923077,4863.589743589744,4580.000000000001,5155.384615384616,4756.410256410257,4889.743589743591,4608.205128205129,4886.153846153847
1798.616,0.20783995,1.0,0.33333334,0.5522388,0,0.0,0.0,0.0,0.0,0.0,0,0,0.0,0.0,0,0,2.0,0.0,415.0,4685.641025641026,3993.333333333334,4556.410256410257,4495.384615384616,4218.461538461539,4523.076923076924,4475.8974358974365,4446.666666666667,4424.615384615385,4741.538461538462,4331.794871794872,4257.435897435898,4240.512820512821,4604.102564102564
1798.8037,0.20783995,1.0,0.33333334,0.5522388,0,0.0,0.0,0.0,0.26281792,0.0,0,0,0.0,0.0,0,0,26.0,0.0,0.0,4550.769230769231,3868.205128205129,4424.615384615385,4363.076923076924,4142.051282051282,4448.205128205129,4390.769230769231,4357.435897435898,4391.794871794872,4628.205128205129,4180.512820512821,4071.2820512820517,4088.717948717949,4480.512820512821
1799.0852,0.20783995,1.0,0.33333334,0.5522388,1,0.0,0.0,0.0,0.1551974,0.0,0,0,0.0,0.0,0,0,62.0,0.0,0.0,4616.410256410257,3951.7948717948725,4509.2307692307695,4453.333333333334,4246.666666666667,4549.2307692307695,4481.025641025642,4461.025641025642,4413.333333333334,4704.615384615386,4279.48717948718,4216.923076923077,4181.025641025642,4526.153846153847
1799.3041,0.20783995,1.0,0.33333334,0.5522388,1,0.0,0.0,0.0,0.0,0.0,0,0,0.0,0.0,0,0,90.0,0.0,522.0,4310.769230769231,3612.820512820513,4158.974358974359,4105.128205128206,3857.9487179487182,4154.871794871796,4091.2820512820517,4070.7692307692314,4206.666666666667,4327.6923076923085,3874.8717948717954,3618.461538461539,3798.9743589743593,4218.461538461539
1799.5856,0.20783995,1.0,0.33333334,0.5522388,0,0.0,0.0,0.0,0.0,0.0,0,0,0.0,0.0,0,0,126.0,0.0,522.0,4550.769230769231,3878.9743589743593,4435.384615384616,4381.538461538462,4149.2307692307695,4446.666666666667,4377.948717948719,4364.615384615385,4364.102564102564,4617.948717948719,4210.769230769231,4080.5128205128212,4096.923076923077,4456.410256410257
1799.8046,0.20783995,1.0,0.33333334,0.5522388,1,0.0,0.0,0.0,0.6831487,0.0,0,0,0.0,0.0,0,0,25.0,0.0,0.0,4435.384615384616,3748.205128205129,4304.615384615385,4242.564102564103,4008.205128205129,4308.717948717949,4235.8974358974365,4217.948717948719,4284.102564102564,4490.769230769231,4087.692307692308,3863.076923076924,3961.0256410256416,4343.076923076924
1800.1486,0.20783995,1.0,0.33333334,0.5522388,0,0.0,0.0,0.0,0.35195497,0.0,0,0,0.0,0.0,0,0,69.0,0.0,537.0,4490.256410256411,3816.9230769230776,4377.948717948719,4300.512820512821,4082.564102564103,4380.000000000001,4301.025641025642,4286.666666666667,4340.512820512821,4557.948717948719,4160.512820512821,3990.2564102564106,4043.589743589744,4403.589743589744
1800.3676,0.20783995,1.0,0.33333334,0.5522388,1,0.0,0.0,0.0,0.0,0.0,0,0,0.0,0.0,0,0,97.0,0.0,850.0,4714.871794871796,4083.076923076924,4638.461538461539,4566.153846153847,4370.256410256411,4664.615384615386,4575.384615384616,4556.410256410257,4488.717948717949,4844.102564102564,4448.205128205129,4429.743589743591,4323.589743589744,4623.076923076924
1800.5864,0.20783995,1.0,0.33333334,0.5522388,0,0.0,0.0,0.0,0.0,0.0,0,0,0.0,0.0,0,0,125.0,0.0,850.0,4688.205128205129,4041.0256410256416,4607.6923076923085,4523.589743589744,4310.256410256411,4607.6923076923085,4527.6923076923085,4509.743589743591,4449.2307692307695,4788.205128205129,4402.051282051282,4363.589743589744,4285.641025641026,4586.153846153847
1800.8367,0.20783995,1.0,0.33333334,0.5522388,0,0.0,0.0,0.0,0.4905429,0.0,0,0,0.0,0.0,0,0,28.0,0.0,0.0,4567.179487179488,3891.7948717948725,4422.051282051282,4362.564102564103,4122.564102564103,4418.461538461539,4341.538461538462,4307.179487179487,4342.051282051282,4605.641025641026,4193.846153846154,4075.8974358974365,4113.333333333334,4442.564102564103
1801.0869,0.20783995,1.0,0.33333334,0.5522388,0,0.0,0.0,0.0,0.15884091,0.0,0,0,0.0,0.0,0,0,60.0,0.0,0.0,4620.512820512821,3966.666666666667,4515.384615384616,4447.6923076923085,4243.076923076924,4536.410256410257,4456.410256410257,4420.000000000001,4398.974358974359,4714.871794871796,4288.205128205129,4231.794871794872,4173.333333333334,4487.6923076923085
1801.3058,0.20783995,1.0,0.33333334,0.5522388,0,0.0,0.0,0.0,0.0,0.0,0,0,0.0,0.0,0,0,88.0,0.0,526.0,4560.000000000001,3898.9743589743593,4435.384615384616,4377.435897435898,4184.102564102564,4479.48717948718,4408.717948717949,4368.205128205129,4366.153846153847,4634.871794871796,4242.564102564103,4125.641025641026,4101.025641025642,4418.461538461539
