timestamp,excitement,frustration,meditation,engagementBoredom,blink,clench,laugh,smile,eyebrow,furrowBrow,lookLeft,lookRight,smirkLeft,smirkRight,winkLeft,winkRight,eeg0,eeg1,eeg2,eeg3,eeg4,eeg5,eeg6,eeg7,eeg8,eeg9,eeg10,eeg11,eeg12,eeg13,eeg14,eeg15,eeg16
228.45415,0.89385784,0.9296352,0.4329386,0.6045698,0,0.0,0.0,0.0,0.0,0.0,0,0,0.0,0.0,0,0,47.0,0.0,0.0,4687.6923076923085,3866.666666666667,4460.512820512821,4286.153846153847,4212.820512820514,4517.948717948719,4442.051282051282,4473.333333333334,4412.820512820514,4633.846153846154,4213.846153846154,4191.794871794872,4170.769230769231,4565.641025641026
228.70436,0.9089569,0.94153076,0.44381854,0.58778983,0,0.0,0.0,0.0,0.0,0.0,0,0,0.0,0.0,0,0,79.0,0.0,429.0,4604.102564102564,3806.1538461538466,4401.538461538462,4249.2307692307695,4272.820512820514,4529.743589743591,4354.871794871796,4369.743589743591,4358.461538461539,4547.6923076923085,4052.307692307693,4069.7435897435903,4075.8974358974365,4473.846153846154
228.70436,0.9089569,0.94153076,0.44381854,0.58778983,0,0.0,0.0,0.0,0.0,0.0,0,0,0.0,0.0,0,0,79.0,0.0,429.0,4604.102564102564,3806.1538461538466,4401.538461538462,4249.2307692307695,4272.820512820514,4529.743589743591,4354.871794871796,4369.743589743591,4358.461538461539,4547.6923076923085,4052.307692307693,4069.7435897435903,4075.8974358974365,4473.846153846154
229.20479,0.95770746,0.96552336,0.45190692,0.5738621,0,0.0,0.0,0.0,0.0,0.0,0,0,0.0,0.0,0,0,14.0,0.0,536.0,4603.589743589744,3863.589743589744,4420.512820512821,4332.307692307693,4270.256410256411,4541.538461538462,4368.205128205129,4345.128205128206,4354.358974358975,4565.641025641026,4075.8974358974365,4089.23076923077,4026.666666666667,4478.974358974359
229.455,0.95770746,0.96552336,0.45190692,0.5738621,0,0.0,0.0,0.0,0.0,0.0,0,0,0.50256413,0.0,0,0,46.0,0.0,0.0,4586.666666666667,3817.9487179487182,4425.641025641026,4297.435897435898,4256.923076923077,4531.794871794872,4373.333333333334,4404.102564102564,4376.410256410257,4627.179487179488,4090.7692307692314,4106.153846153847,4086.1538461538466,4501.025641025642
229.70522,0.97294337,0.9516625,0.4591722,0.5613262,0,0.0,0.0,0.0,0.0,0.037257068,0,0,0.0,0.0,0,0,78.0,0.0,536.0,4694.871794871796,3903.076923076924,4476.410256410257,4369.743589743591,4242.051282051282,4528.717948717949,4374.358974358975,4406.153846153847,4385.641025641026,4655.384615384616,4178.974358974359,4178.974358974359,4167.179487179487,4580.000000000001
229.83032,0.97294337,0.9516625,0.4591722,0.5613262,0,0.0,0.0,0.0,0.0,0.0,0,0,0.0,0.0,0,0,94.0,0.0,536.0,4649.743589743591,3855.8974358974365,4444.102564102564,4318.974358974359,4231.794871794872,4520.512820512821,4374.871794871796,4427.6923076923085,4362.051282051282,4622.051282051282,4082.564102564103,4121.025641025642,4076.410256410257,4520.000000000001
230.20564,0.85977167,0.9954351,0.46492192,0.5500435,0,0.0,0.0,0.0,0.0,0.0,0,0,0.0,0.0,0,0,13.0,0.0,937.0,4652.307692307693,3849.2307692307695,4413.846153846154,4333.846153846154,4218.461538461539,4511.282051282052,4378.974358974359,4409.743589743591,4384.615384615385,4575.384615384616,4219.48717948718,4147.179487179487,4055.8974358974365,4512.307692307693
230.20564,0.85977167,0.9954351,0.46492192,0.5500435,0,0.0,0.0,0.0,0.0,0.0,0,0,0.0,0.0,0,0,13.0,0.0,937.0,4652.307692307693,3849.2307692307695,4413.846153846154,4333.846153846154,4218.461538461539,4511.282051282052,4378.974358974359,4409.743589743591,4384.615384615385,4575.384615384616,4219.48717948718,4147.179487179487,4055.8974358974365,4512.307692307693
230.70607,0.9258632,0.98782873,0.47008133,0.5419591,0,0.0,0.0,0.0,0.0,0.0,0,0,0.0,0.0,0,0,77.0,0.0,938.0,4636.410256410257,3860.512820512821,4393.846153846154,4281.025641025642,4157.948717948719,4526.666666666667,4331.794871794872,4415.384615384616,4344.102564102564,4555.8974358974365,4062.0512820512827,4011.7948717948725,4034.358974358975,4488.717948717949
230.9563,0.9258632,0.98782873,0.47008133,0.5419591,0,0.0,0.0,0.0,0.0,0.0,0,0,0.16122356,0.0,0,0,109.0,0.0,938.0,4661.025641025642,3893.333333333334,4429.743589743591,4294.871794871796,4193.846153846154,4546.153846153847,4385.128205128206,4428.205128205129,4363.589743589744,4575.384615384616,4144.102564102564,4094.8717948717954,4072.307692307693,4478.461538461539
231.23778,0.92497873,0.9538065,0.47484964,0.53467387,0,0.0,0.0,0.0,0.0,0.0,0,0,0.27540874,0.0,0,0,16.0,0.0,0.0,4678.461538461539,3902.564102564103,4438.461538461539,4362.564102564103,4181.025641025642,4544.615384615385,4396.410256410257,4433.333333333334,4370.769230769231,4609.2307692307695,4195.8974358974365,4140.000000000001,4088.205128205129,4467.6923076923085
231.45673,0.92497873,0.9538065,0.47484964,0.53467387,0,0.0,0.0,0.0,0.0,0.0,0,0,0.5664576,0.0,0,0,44.0,0.0,0.0,4704.615384615386,3922.564102564103,4461.025641025642,4377.948717948719,4165.641025641026,4542.564102564103,4434.358974358975,4451.794871794872,4392.307692307693,4634.358974358975,4230.769230769231,4177.435897435898,4117.435897435898,4490.256410256411
231.70694,0.8664731,0.9436481,0.47899482,0.528131,0,0.0,0.0,0.0,0.0,0.0,0,0,0.19501065,0.0,0,0,76.0,0.0,676.0,4704.102564102564,3909.7435897435903,4458.974358974359,4363.076923076924,4201.538461538462,4562.051282051282,4470.256410256411,4486.153846153847,4385.641025641026,4582.564102564103,4198.974358974359,4188.717948717949,4082.564102564103,4486.153846153847
231.95715,0.8664731,0.9436481,0.47899482,0.528131,0,0.0,0.07258767,0.0,0.0,0.0,0,0,0.0,0.0,0,0,108.0,0.0,676.0,4767.6923076923085,4038.9743589743593,4537.435897435898,4285.128205128206,4271.794871794872,4604.102564102564,4547.179487179488,4649.2307692307695,4461.538461538462,4695.8974358974365,4474.358974358975,4397.948717948719,4214.358974358975,4582.051282051282
232.23865,0.9623785,0.9090483,0.47465312,0.527118,0,0.0,0.21001296,0.0,0.0,0.0,0,0,0.0,0.0,0,0,15.0,0.0,432.0,4735.384615384616,4020.0000000000005,4504.102564102564,4381.538461538462,4280.512820512821,4604.102564102564,4521.538461538462,4607.179487179488,4430.769230769231,4636.923076923077,4364.102564102564,4323.589743589744,4107.6923076923085,4560.512820512821
232.45758,0.9623785,0.9090483,0.47465312,0.527118,0,0.0,0.09792055,0.0,0.0,0.0,0,0,0.0,0.0,0,0,43.0,0.0,0.0,4688.717948717949,3983.076923076924,4471.794871794872,4440.512820512821,4245.641025641026,4586.153846153847,4471.794871794872,4534.871794871796,4398.461538461539,4621.025641025642,4337.948717948719,4255.8974358974365,4068.205128205129,4534.358974358975
232.7078,0.97344726,0.8682341,0.4603986,0.529643,0,0.0,0.0,0.0,0.0,0.0,0,0,0.5281763,0.0,0,0,75.0,0.0,432.0,4680.512820512821,3926.666666666667,4481.025641025642,4420.000000000001,4209.74358974359,4553.333333333334,4470.769230769231,4573.333333333334,4418.461538461539,4650.256410256411,4315.384615384616,4258.461538461539,4135.384615384616,4544.615384615385
232.95801,0.97344726,0.8682341,0.4603986,0.529643,0,0.0,0.0,0.0,0.0,0.0,0,0,0.0,0.0,0,0,107.0,0.0,432.0,4667.179487179488,3928.717948717949,4481.538461538462,4396.410256410257,4216.410256410257,4544.615384615385,4444.102564102564,4530.769230769231,4413.846153846154,4646.666666666667,4281.025641025642,4248.205128205129,4137.435897435898,4548.717948717949
233.20822,0.8911938,0.83508706,0.4475634,0.5319167,0,0.0,0.0,0.0,0.0,0.0,0,0,0.15051083,0.0,0,0,10.0,0.0,536.0,4663.076923076924,3928.205128205129,4486.153846153847,4382.564102564103,4230.769230769231,4548.205128205129,4430.769230769231,4500.512820512821,4421.025641025642,4641.538461538462,4312.820512820514,4253.333333333334,4124.102564102564,4549.743589743591
233.45844,0.8911938,0.83508706,0.4475634,0.5319167,0,0.0,0.0,0.0,0.0,0.008112289,0,0,0.0,0.0,0,0,42.0,0.0,0.0,4658.974358974359,3915.8974358974365,4489.743589743591,4377.435897435898,4247.179487179487,4541.025641025642,4412.820512820514,4470.256410256411,4410.256410256411,4656.923076923077,4291.282051282052,4249.74358974359,4141.025641025642,4552.307692307693
233.70866,0.76330405,0.7777071,0.4360054,0.53396404,0,0.0,0.0,0.0,0.0,0.018976815,0,0,0.0,0.0,0,0,74.0,0.0,536.0,4661.538461538462,3920.5128205128212,4477.435897435898,4371.794871794872,4243.589743589744,4533.333333333334,4398.461538461539,4449.2307692307695,4411.794871794872,4663.589743589744,4296.410256410257,4246.666666666667,4156.410256410257,4557.435897435898
233.95888,0.76330405,0.7777071,0.4360054,0.53396404,0,0.0,0.0,0.0,0.0,0.0,0,0,0.1338092,0.0,0,0,106.0,0.0,536.0,4661.538461538462,3925.1282051282055,4493.333333333334,4388.205128205129,4262.564102564103,4546.666666666667,4406.666666666667,4447.6923076923085,4405.641025641026,4681.538461538462,4292.307692307693,4252.307692307693,4146.153846153847,4538.974358974359
234.20909,0.63997406,0.7121712,0.42560777,0.53580636,0,0.0,0.0,0.0,0.0,0.061363824,0,0,0.0,0.0,0,0,9.0,0.0,485.0,4673.846153846154,3942.564102564103,4500.000000000001,4385.128205128206,4249.2307692307695,4537.435897435898,4403.589743589744,4459.48717948718,4412.307692307693,4687.6923076923085,4295.384615384616,4250.256410256411,4137.948717948719,4537.948717948719
234.4593,0.63997406,0.7121712,0.42560777,0.53580636,0,0.0,0.0,0.0,0.0,0.058565766,0,0,0.0,0.0,0,0,41.0,0.0,0.0,4672.307692307693,3940.5128205128212,4489.2307692307695,4380.512820512821,4253.333333333334,4540.512820512821,4408.205128205129,4442.564102564103,4413.333333333334,4684.102564102564,4297.948717948719,4262.051282051282,4136.923076923077,4522.564102564103
234.70952,0.5930702,0.65241045,0.41624397,0.53746533,0,0.0,0.0,0.0,0.0,0.020747539,0,0,0.0,0.0,0,0,73.0,0.0,484.0,4662.564102564103,3942.0512820512827,4491.282051282052,4350.256410256411,4252.820512820514,4545.641025641026,4423.589743589744,4474.358974358975,4430.256410256411,4696.410256410257,4274.871794871796,4274.358974358975,4154.871794871796,4521.538461538462
234.95973,0.5930702,0.65241045,0.41624397,0.53746533,0,0.0,0.0,0.0,0.0,0.0,0,0,0.121762395,0.0,0,0,105.0,0.0,958.0,4711.282051282052,3949.7435897435903,4525.128205128206,4336.923076923077,4276.410256410257,4581.538461538462,4447.179487179487,4550.256410256411,4459.48717948718,4772.307692307693,4460.000000000001,4389.743589743591,4252.820512820514,4581.025641025642
235.20995,0.6394238,0.60834146,0.40783134,0.5389592,0,0.0,0.0,0.0,0.0,0.0,0,0,0.08784794,0.0,0,0,8.0,0.0,505.0,4701.025641025642,3961.538461538462,4513.333333333334,4402.051282051282,4266.153846153847,4612.820512820514,4573.333333333334,4653.333333333334,4480.000000000001,4753.333333333334,4436.923076923077,4434.358974358975,4241.538461538462,4617.948717948719
235.46016,0.6394238,0.60834146,0.40783134,0.5389592,0,0.0,0.0,0.0763782,0.0,0.0,0,0,0.0,0.0,0,0,40.0,0.0,0.0,4713.846153846154,3957.435897435898,4510.256410256411,4411.794871794872,4260.512820512821,4619.48717948718,4603.076923076924,4644.102564102564,4487.179487179488,4765.128205128206,4497.948717948719,4457.435897435898,4235.8974358974365,4673.333333333334
235.71037,0.5877776,0.587232,0.4015231,0.5441965,0,0.0,0.0,0.056686323,0.0,0.0,0,0,0.0,0.0,0,0,72.0,0.0,505.0,4704.615384615386,3876.9230769230776,4443.076923076924,4384.615384615385,4253.846153846154,4618.461538461539,4540.000000000001,4603.076923076924,4457.948717948719,4710.256410256411,4452.307692307693,4378.974358974359,4152.820512820514,4613.333333333334
235.96059,0.5877776,0.587232,0.4015231,0.5441965,0,0.0,0.0,0.0,0.0,0.12456823,0,0,0.0,0.0,0,0,104.0,0.0,676.0,4719.48717948718,3863.589743589744,4432.820512820514,4323.589743589744,4248.205128205129,4606.153846153847,4514.358974358975,4610.769230769231,4438.461538461539,4610.769230769231,4326.153846153847,4320.000000000001,4110.769230769231,4589.2307692307695
236.2108,0.6195759,0.62673396,0.39925644,0.55229294,0,0.0,0.0,0.0,0.0,0.0,0,0,0.0,0.0,0,0,7.0,0.0,472.0,4789.2307692307695,3853.333333333334,4418.974358974359,4296.410256410257,4247.6923076923085,4586.666666666667,4463.589743589744,4528.717948717949,4400.000000000001,4590.769230769231,4248.717948717949,4247.6923076923085,4077.435897435898,4524.615384615385
236.2108,0.6195759,0.62673396,0.39925644,0.55229294,0,0.0,0.0,0.0,0.0,0.0,0,0,0.0,0.0,0,0,7.0,0.0,472.0,4789.2307692307695,3853.333333333334,4418.974358974359,4296.410256410257,4247.6923076923085,4586.666666666667,4463.589743589744,4528.717948717949,4400.000000000001,4590.769230769231,4248.717948717949,4247.6923076923085,4077.435897435898,4524.615384615385
236.71124,0.71871424,0.7804327,0.4038049,0.5595798,0,0.0,0.0,0.0,0.0,0.40717372,0,0,0.0,0.0,0,0,71.0,0.0,472.0,4997.435897435898,3894.8717948717954,4401.025641025642,4254.871794871796,4199.48717948718,4543.589743589744,4338.461538461539,4416.410256410257,4360.512820512821,4609.2307692307695,4060.5128205128212,4109.2307692307695,4057.9487179487182,4429.743589743591
236.96146,0.71871424,0.7804327,0.4038049,0.5595798,0,0.0,0.0,0.0,0.0,0.16661249,0,0,0.0,0.0,0,0,103.0,0.0,432.0,4965.128205128206,3880.0000000000005,4409.2307692307695,4248.205128205129,4214.871794871796,4553.333333333334,4367.179487179487,4410.769230769231,4368.205128205129,4677.948717948719,4008.717948717949,4104.102564102564,4011.2820512820517,4441.025641025642
237.21167,0.6611834,0.9398054,0.41687423,0.5661375,0,0.0,0.0,0.0,0.0,0.07901483,0,0,0.0,0.0,0,0,6.0,0.0,536.0,4965.128205128206,3900.5128205128212,4434.358974358975,4295.8974358974365,4238.461538461539,4556.410256410257,4406.666666666667,4433.333333333334,4391.282051282052,4677.948717948719,4137.948717948719,4168.717948717949,4062.564102564103,4473.846153846154
237.46188,0.6611834,0.9398054,0.41687423,0.5661375,0,0.0,0.0,0.186405,0.0,0.0,0,0,0.0,0.0,0,0,38.0,0.0,0.0,4951.282051282052,3921.0256410256416,4458.974358974359,4330.769230769231,4248.205128205129,4572.307692307693,4440.512820512821,4460.000000000001,4412.820512820514,4700.000000000001,4203.589743589744,4245.641025641026,4154.871794871796,4503.589743589744
237.7121,0.73109615,1.0,0.42862678,0.5690269,0,0.0,0.0,0.0,0.0,0.3883279,0,0,0.0,0.0,0,0,70.0,0.0,536.0,4927.6923076923085,3932.307692307693,4491.794871794872,4377.948717948719,4256.410256410257,4580.512820512821,4435.8974358974365,4473.846153846154,4424.102564102564,4711.282051282052,4235.384615384616,4285.641025641026,4201.025641025642,4522.051282051282
237.96231,0.73109615,1.0,0.42862678,0.5690269,0,0.0,0.0,0.0,0.0,0.2585168,0,0,0.0,0.0,0,0,102.0,0.0,536.0,4874.358974358975,3898.461538461539,4477.435897435898,4350.256410256411,4259.48717948718,4566.666666666667,4424.615384615385,4432.820512820514,4410.769230769231,4641.538461538462,4233.333333333334,4247.179487179487,4138.974358974359,4517.435897435898
238.21252,0.78348696,1.0,0.43919268,0.56859875,0,0.0,0.0,0.0,0.0,0.17206174,0,0,0.0,0.0,0,0,5.0,0.0,550.0,4792.307692307693,3834.358974358975,4310.256410256411,4278.461538461539,4200.000000000001,4490.769230769231,4349.743589743591,4345.641025641026,4355.384615384616,4560.000000000001,4109.74358974359,4100.000000000001,4038.9743589743593,4453.333333333334
238.46274,0.78348696,1.0,0.43919268,0.56859875,0,0.0,0.0,0.0,0.0,0.0,0,0,0.0,0.0,0,0,37.0,0.0,0.0,4741.025641025642,3862.0512820512827,4293.846153846154,4248.205128205129,4183.076923076924,4470.769230769231,4318.974358974359,4312.820512820514,4350.256410256411,4575.8974358974365,4011.7948717948725,4074.358974358975,4045.6410256410263,4446.666666666667
238.71295,0.7749219,0.97216254,0.44314507,0.56589276,0,0.0,0.0,0.0,0.0,0.08270542,0,0,0.0,0.0,0,0,69.0,0.0,550.0,4674.358974358975,3826.1538461538466,4266.153846153847,4201.025641025642,4164.102564102564,4462.564102564103,4307.179487179487,4311.794871794872,4330.769230769231,4539.48717948718,3972.307692307693,4030.7692307692314,3990.2564102564106,4423.076923076924
238.96317,0.7749219,0.97216254,0.44314507,0.56589276,0,0.0,0.0,0.0,0.0,0.08529483,0,0,0.0,0.0,0,0,101.0,0.0,966.0,4662.051282051282,3819.48717948718,4280.512820512821,4210.769230769231,4169.74358974359,4470.769230769231,4315.8974358974365,4351.794871794872,4343.589743589744,4539.48717948718,4062.564102564103,4072.820512820513,4011.2820512820517,4459.48717948718
239.2134,0.84223336,0.8732867,0.44277272,0.55918425,0,0.0,0.0,0.0,0.0,0.13436106,0,0,0.0,0.0,0,0,4.0,0.0,552.0,4673.846153846154,3866.666666666667,4326.666666666667,4233.846153846154,4194.871794871796,4487.6923076923085,4347.179487179487,4390.769230769231,4372.820512820514,4585.641025641026,4132.307692307693,4144.615384615385,4051.7948717948725,4491.282051282052
239.3385,0.84223336,0.8732867,0.44277272,0.55918425,0,0.0,0.0,0.0,0.0,0.0,0,0,0.0,0.0,0,0,20.0,0.0,0.0,4664.102564102564,3844.615384615385,4334.358974358975,4230.256410256411,4194.871794871796,4491.282051282052,4366.153846153847,4411.282051282052,4372.820512820514,4596.410256410257,4151.794871794872,4152.307692307693,4041.0256410256416,4477.948717948719
239.71382,0.8339572,0.7898905,0.4412221,0.557421,0,0.0,0.0,0.0,0.0,0.0,0,0,0.0,0.0,0,0,68.0,0.0,552.0,4668.717948717949,3880.0000000000005,4361.025641025642,4263.589743589744,4208.205128205129,4501.025641025642,4374.358974358975,4376.923076923077,4379.48717948718,4604.615384615385,4156.410256410257,4174.871794871796,4068.205128205129,4491.794871794872
239.71382,0.8339572,0.7898905,0.4412221,0.557421,0,0.0,0.0,0.0,0.0,0.0,0,0,0.0,0.0,0,0,68.0,0.0,552.0,4668.717948717949,3880.0000000000005,4361.025641025642,4263.589743589744,4208.205128205129,4501.025641025642,4374.358974358975,4376.923076923077,4379.48717948718,4604.615384615385,4156.410256410257,4174.871794871796,4068.205128205129,4491.794871794872
240.21425,0.7900922,0.7182294,0.43737596,0.5579218,0,0.0,0.0,0.0,0.0,0.0,0,0,0.0,0.0,0,0,3.0,0.0,541.0,4670.769230769231,3866.1538461538466,4356.923076923077,4275.384615384616,4205.641025641026,4508.717948717949,4380.512820512821,4417.948717948719,4404.615384615385,4650.256410256411,4236.923076923077,4212.307692307693,4095.3846153846157,4486.153846153847
240.21425,0.7900922,0.7182294,0.43737596,0.5579218,0,0.0,0.0,0.0,0.0,0.0,0,0,0.0,0.0,0,0,3.0,0.0,541.0,4670.769230769231,3866.1538461538466,4356.923076923077,4275.384615384616,4205.641025641026,4508.717948717949,4380.512820512821,4417.948717948719,4404.615384615385,4650.256410256411,4236.923076923077,4212.307692307693,4095.3846153846157,4486.153846153847
240.71468,0.7071637,0.6533807,0.43222222,0.55837226,0,0.0,0.0,0.0,0.0,0.0,0,0,0.0,0.0,0,0,67.0,0.0,541.0,4641.025641025642,3905.1282051282055,4385.128205128206,4244.615384615385,4205.641025641026,4513.333333333334,4336.923076923077,4374.871794871796,4372.820512820514,4775.8974358974365,4181.538461538462,4208.205128205129,4215.384615384616,4381.025641025642
240.96489,0.7071637,0.6533807,0.43222222,0.55837226,0,0.0,0.0,0.0,0.0,0.0,0,0,0.0,1.0,0,0,99.0,0.0,434.0,4659.48717948718,3872.307692307693,4428.717948717949,4274.358974358975,4212.820512820514,4525.128205128206,4372.820512820514,4407.6923076923085,4384.102564102564,4547.179487179488,4255.8974358974365,4198.974358974359,4132.307692307693,4433.846153846154
241.2151,0.65542066,0.61178195,0.4248254,0.56966984,0,0.0,0.0,0.0,0.0,0.0,0,0,0.0,1.0,0,0,2.0,0.0,442.0,4675.8974358974365,3876.9230769230776,4468.205128205129,4309.2307692307695,4211.794871794872,4528.717948717949,4383.589743589744,4432.820512820514,4408.205128205129,4560.512820512821,4356.410256410257,4244.102564102564,4107.179487179487,4474.358974358975
241.48096,0.65542066,0.61178195,0.4248254,0.56966984,0,0.0,0.0,0.0,0.0,0.0,0,0,0.0,0.49627122,0,0,34.0,0.0,0.0,4679.48717948718,3880.512820512821,4458.974358974359,4329.743589743591,4215.8974358974365,4526.666666666667,4397.435897435898,4442.564102564103,4413.333333333334,4598.974358974359,4372.307692307693,4266.666666666667,4096.410256410257,4494.871794871796
241.73117,0.6626173,0.5781933,0.41584322,0.5946826,0,0.0,0.0,0.0,0.0,0.0,0,0,0.0,0.0,0,0,66.0,0.0,442.0,4685.641025641026,3893.333333333334,4458.974358974359,4334.358974358975,4217.435897435898,4530.256410256411,4409.743589743591,4457.948717948719,4414.358974358975,4607.179487179488,4351.794871794872,4272.820512820514,4088.717948717949,4496.923076923077
241.73117,0.6626173,0.5781933,0.41584322,0.5946826,0,0.0,0.0,0.0,0.0,0.0,0,0,0.0,0.0,0,0,66.0,0.0,442.0,4685.641025641026,3893.333333333334,4458.974358974359,4334.358974358975,4217.435897435898,4530.256410256411,4409.743589743591,4457.948717948719,4414.358974358975,4607.179487179488,4351.794871794872,4272.820512820514,4088.717948717949,4496.923076923077
242.23161,0.67480826,0.54614145,0.40356827,0.6211633,0,0.0,0.0,0.0,0.0,0.0,0,0,0.0,0.0,0,0,1.0,0.0,466.0,4688.717948717949,3910.7692307692314,4476.410256410257,4364.102564102564,4229.74358974359,4532.307692307693,4431.794871794872,4468.205128205129,4441.025641025642,4666.153846153847,4376.410256410257,4310.256410256411,4103.589743589744,4525.128205128206
242.23161,0.67480826,0.54614145,0.40356827,0.6211633,0,0.0,0.0,0.0,0.0,0.0,0,0,0.0,0.0,0,0,1.0,0.0,466.0,4688.717948717949,3910.7692307692314,4476.410256410257,4364.102564102564,4229.74358974359,4532.307692307693,4431.794871794872,4468.205128205129,4441.025641025642,4666.153846153847,4376.410256410257,4310.256410256411,4103.589743589744,4525.128205128206
242.73204,0.6866195,0.4957303,0.39181185,0.6449771,0,0.0,0.0,0.0,0.0,0.0,0,0,0.0,0.0,0,0,65.0,0.0,466.0,4674.358974358975,3929.2307692307695,4459.48717948718,4372.307692307693,4247.179487179487,4538.461538461539,4444.615384615385,4443.589743589744,4445.641025641026,4701.538461538462,4380.512820512821,4309.2307692307695,4122.051282051282,4552.307692307693
242.73204,0.6866195,0.4957303,0.39181185,0.6449771,0,0.0,0.0,0.0,0.0,0.0,0,0,0.0,0.0,0,0,65.0,0.0,466.0,4674.358974358975,3929.2307692307695,4459.48717948718,4372.307692307693,4247.179487179487,4538.461538461539,4444.615384615385,4443.589743589744,4445.641025641026,4701.538461538462,4380.512820512821,4309.2307692307695,4122.051282051282,4552.307692307693
243.23247,0.75940794,0.4543594,0.38122717,0.66263074,0,0.0,0.0,0.0,0.0,0.0,0,0,0.0,0.0,0,0,0.0,0.0,490.0,4686.666666666667,3960.5128205128212,4489.743589743591,4402.564102564103,4230.769230769231,4536.410256410257,4484.102564102564,4467.6923076923085,4457.948717948719,4729.743589743591,4353.333333333334,4306.666666666667,4136.410256410257,4568.205128205129
243.23247,0.75940794,0.4543594,0.38122717,0.66263074,0,0.0,0.0,0.0,0.0,0.0,0,0,0.0,0.0,0,0,0.0,0.0,490.0,4686.666666666667,3960.5128205128212,4489.743589743591,4402.564102564103,4230.769230769231,4536.410256410257,4484.102564102564,4467.6923076923085,4457.948717948719,4729.743589743591,4353.333333333334,4306.666666666667,4136.410256410257,4568.205128205129
243.7329,0.809914,0.42009464,0.37233877,0.67451036,0,0.0,0.0,0.0,0.0,0.0,0,0,0.0,0.6088776,0,0,64.0,0.0,490.0,4657.948717948719,3922.0512820512827,4502.051282051282,4352.307692307693,4222.564102564103,4512.307692307693,4445.128205128206,4415.384615384616,4427.179487179487,4719.48717948718,4165.128205128206,4232.307692307693,4089.7435897435903,4522.564102564103
243.98311,0.809914,0.42009464,0.37233877,0.67451036,0,0.0,0.0,0.0,0.0,0.0,0,0,0.0,0.163398,0,0,96.0,0.0,673.0,4655.384615384616,3917.9487179487182,4490.256410256411,4357.948717948719,4208.205128205129,4502.051282051282,4431.794871794872,4409.2307692307695,4426.666666666667,4695.8974358974365,4225.641025641026,4232.820512820514,4096.923076923077,4567.179487179488
244.23332,0.7283022,0.39522278,0.36433634,0.68915254,0,0.0,0.0,0.0,0.0,0.0,0,0,0.0,0.0,0,0,128.0,0.0,673.0,4650.256410256411,3908.717948717949,4471.794871794872,4346.153846153847,4198.974358974359,4489.2307692307695,4418.461538461539,4431.794871794872,4422.564102564103,4688.717948717949,4193.846153846154,4193.846153846154,4087.692307692308,4583.589743589744
244.23332,0.7283022,0.39522278,0.36433634,0.68915254,0,0.0,0.0,0.0,0.0,0.0,0,0,0.0,0.0,0,0,128.0,0.0,673.0,4650.256410256411,3908.717948717949,4471.794871794872,4346.153846153847,4198.974358974359,4489.2307692307695,4418.461538461539,4431.794871794872,4422.564102564103,4688.717948717949,4193.846153846154,4193.846153846154,4087.692307692308,4583.589743589744
244.73375,0.6978445,0.37299648,0.35713184,0.70105547,0,0.0,0.0,0.0,0.0,0.0,0,0,0.0,0.0,0,0,63.0,0.0,0.0,4632.820512820514,3891.7948717948725,4446.666666666667,4326.153846153847,4190.769230769231,4474.871794871796,4404.102564102564,4476.923076923077,4426.666666666667,4684.615384615386,4217.948717948719,4181.538461538462,4100.000000000001,4561.538461538462
244.73375,0.6978445,0.37299648,0.35713184,0.70105547,0,0.0,0.0,0.0,0.0,0.0,0,0,0.0,0.0,0,0,63.0,0.0,0.0,4632.820512820514,3891.7948717948725,4446.666666666667,4326.153846153847,4190.769230769231,4474.871794871796,4404.102564102564,4476.923076923077,4426.666666666667,4684.615384615386,4217.948717948719,4181.538461538462,4100.000000000001,4561.538461538462
245.23419,0.61895496,0.3486188,0.35100442,0.70565444,0,0.0,0.0,0.0,0.0,0.0,0,0,0.0,0.0,0,0,127.0,0.0,434.0,4612.820512820514,3888.717948717949,4431.794871794872,4321.538461538462,4199.48717948718,4487.6923076923085,4407.6923076923085,4476.410256410257,4424.102564102564,4705.128205128206,4237.948717948719,4197.948717948719,4104.615384615385,4534.871794871796
245.23419,0.61895496,0.3486188,0.35100442,0.70565444,0,0.0,0.0,0.0,0.0,0.0,0,0,0.0,0.0,0,0,127.0,0.0,434.0,4612.820512820514,3888.717948717949,4431.794871794872,4321.538461538462,4199.48717948718,4487.6923076923085,4407.6923076923085,4476.410256410257,4424.102564102564,4705.128205128206,4237.948717948719,4197.948717948719,4104.615384615385,4534.871794871796
245.73462,0.62401104,0.32454622,0.34665817,0.7040627,0,0.0,0.0,0.0,0.0,0.0,0,0,0.0,0.0,0,0,62.0,0.0,0.0,4663.589743589744,3918.461538461539,4473.846153846154,4331.794871794872,4222.564102564103,4507.6923076923085,4484.615384615385,4529.2307692307695,4454.871794871796,4749.2307692307695,4317.948717948719,4283.589743589744,4150.769230769231,4538.461538461539
245.73462,0.62401104,0.32454622,0.34665817,0.7040627,0,0.0,0.0,0.0,0.0,0.0,0,0,0.0,0.0,0,0,62.0,0.0,0.0,4663.589743589744,3918.461538461539,4473.846153846154,4331.794871794872,4222.564102564103,4507.6923076923085,4484.615384615385,4529.2307692307695,4454.871794871796,4749.2307692307695,4317.948717948719,4283.589743589744,4150.769230769231,4538.461538461539
246.23505,0.7218503,0.3159361,0.34157473,0.7105679,0,0.0,0.0,0.0,0.0,0.0,0,0,0.0,0.19617395,0,0,126.0,0.0,536.0,4718.461538461539,3942.564102564103,4447.179487179487,4378.461538461539,4242.051282051282,4530.256410256411,4517.948717948719,4586.153846153847,4490.256410256411,4832.307692307693,4411.794871794872,4378.461538461539,4201.538461538462,4588.717948717949
246.48526,0.7218503,0.3159361,0.34157473,0.7105679,0,0.0,0.0,0.0,0.0,0.0,0,0,0.0,0.0,0,0,29.0,0.0,0.0,4718.974358974359,3950.2564102564106,4462.564102564103,4387.6923076923085,4242.051282051282,4528.717948717949,4531.282051282052,4597.948717948719,4486.666666666667,4841.025641025642,4416.410256410257,4389.743589743591,4202.051282051282,4576.410256410257
246.73547,0.7159706,0.3148661,0.33681956,0.72545373,0,0.0,0.0,0.0,0.0,0.0,0,0,0.0,0.0,0,0,61.0,0.0,0.0,4749.743589743591,3983.076923076924,4489.2307692307695,4416.410256410257,4252.307692307693,4545.641025641026,4524.102564102564,4562.051282051282,4487.6923076923085,4841.025641025642,4431.794871794872,4415.384615384616,4200.512820512821,4600.512820512821
246.73547,0.7159706,0.3148661,0.33681956,0.72545373,0,0.0,0.0,0.0,0.0,0.0,0,0,0.0,0.0,0,0,61.0,0.0,0.0,4749.743589743591,3983.076923076924,4489.2307692307695,4416.410256410257,4252.307692307693,4545.641025641026,4524.102564102564,4562.051282051282,4487.6923076923085,4841.025641025642,4431.794871794872,4415.384615384616,4200.512820512821,4600.512820512821
247.2359,0.7339381,0.31842867,0.33389184,0.73592657,0,0.0,0.0,0.0,0.0,0.0,0,0,0.0,0.0,0,0,125.0,0.0,937.0,4769.2307692307695,4008.205128205129,4524.102564102564,4445.128205128206,4269.2307692307695,4554.871794871796,4536.923076923077,4576.923076923077,4511.282051282052,4884.102564102564,4511.282051282052,4468.717948717949,4235.384615384616,4616.923076923077
247.2359,0.7339381,0.31842867,0.33389184,0.73592657,0,0.0,0.0,0.0,0.0,0.0,0,0,0.0,0.0,0,0,125.0,0.0,937.0,4769.2307692307695,4008.205128205129,4524.102564102564,4445.128205128206,4269.2307692307695,4554.871794871796,4536.923076923077,4576.923076923077,4511.282051282052,4884.102564102564,4511.282051282052,4468.717948717949,4235.384615384616,4616.923076923077
247.73634,0.8345125,0.32223603,0.33125684,0.74828494,0,0.0,0.0,0.0,0.0,0.0,0,0,0.0,0.0,0,0,60.0,0.0,0.0,4740.000000000001,4004.615384615385,4541.025641025642,4446.153846153847,4263.076923076924,4561.538461538462,4494.358974358975,4533.846153846154,4482.564102564103,4844.615384615386,4427.179487179487,4415.8974358974365,4204.102564102564,4588.205128205129
247.98656,0.8345125,0.32223603,0.33125684,0.74828494,0,0.0,0.0,0.0,0.0,0.0,0,0,0.0,0.41709626,0,0,92.0,0.0,663.0,4686.153846153847,3978.461538461539,4507.6923076923085,4405.128205128206,4264.615384615385,4555.8974358974365,4476.923076923077,4489.2307692307695,4459.48717948718,4834.358974358975,4369.2307692307695,4362.051282051282,4174.358974358975,4542.051282051282
248.23677,0.8409404,0.31457868,0.3283588,0.7630095,0,0.0,0.0,0.0,0.0,0.0,0,0,0.0,0.45279545,0,0,124.0,0.0,663.0,4631.282051282052,3975.3846153846157,4502.564102564103,4374.358974358975,4246.153846153847,4535.384615384616,4456.410256410257,4452.820512820514,4442.564102564103,4845.641025641026,4331.794871794872,4318.461538461539,4148.717948717949,4505.128205128206
248.36188,0.8409404,0.31457868,0.3283588,0.7630095,0,0.0,0.0,0.0,0.0,0.0,0,0,0.0,0.0,0,0,11.0,0.0,433.0,4652.820512820514,3987.692307692308,4509.743589743591,4392.307692307693,4232.820512820514,4528.205128205129,4448.205128205129,4442.051282051282,4448.205128205129,4851.794871794872,4301.025641025642,4320.000000000001,4156.410256410257,4509.743589743591
248.7372,0.8393258,0.3023802,0.32411656,0.7779278,0,0.0,0.0,0.0,0.0,0.0,0,0,0.0,0.0,0,0,59.0,0.0,0.0,4653.846153846154,3991.7948717948725,4512.820512820514,4404.615384615385,4212.307692307693,4515.384615384616,4451.282051282052,4408.205128205129,4445.641025641026,4849.2307692307695,4164.615384615385,4286.666666666667,4142.051282051282,4489.743589743591
248.98741,0.8393258,0.3023802,0.32411656,0.7779278,0,0.0,0.0,0.0,0.0,0.0,0,0,0.0,0.94886136,0,0,91.0,0.0,433.0,4671.282051282052,3967.692307692308,4489.2307692307695,4369.2307692307695,4221.025641025642,4524.615384615385,4426.666666666667,4369.743589743591,4428.717948717949,4895.8974358974365,4030.7692307692314,4243.589743589744,4104.615384615385,4486.666666666667
249.23763,0.71916074,0.28716567,0.31818455,0.7939528,0,0.0,0.0,0.0,0.0,0.0,0,0,0.0,1.0,0,0,123.0,0.0,433.0,4720.512820512821,3984.1025641025644,4508.205128205129,4382.051282051282,4222.564102564103,4525.641025641026,4446.153846153847,4403.589743589744,4447.6923076923085,4976.923076923077,4108.205128205129,4288.717948717949,4149.2307692307695,4529.2307692307695
249.48784,0.71916074,0.28716567,0.31818455,0.7939528,0,0.0,0.0,0.0,0.0,0.0,0,0,0.0,0.40913397,0,0,26.0,0.0,0.0,4739.48717948718,3988.205128205129,4530.256410256411,4362.051282051282,4226.153846153847,4528.717948717949,4472.820512820514,4425.641025641026,4464.102564102564,5028.205128205129,4393.846153846154,4350.769230769231,4165.641025641026,4564.615384615385
249.76933,0.74837923,0.27304393,0.31479943,0.8087888,0,0.0,0.0,0.0,0.0,0.0,0,0,0.0,0.63255614,0,0,62.0,0.0,0.0,4821.538461538462,4095.3846153846157,4613.333333333334,4479.48717948718,4350.256410256411,4652.820512820514,4585.128205128206,4536.923076923077,4533.333333333334,5103.076923076924,4618.974358974359,4534.358974358975,4299.48717948718,4701.025641025642
249.86316,0.74837923,0.27304393,0.31479943,0.8087888,0,0.0,0.0,0.0,0.0,0.0,0,0,0.0,1.0,0,0,74.0,0.0,535.0,4833.333333333334,4105.128205128206,4620.512820512821,4548.205128205129,4362.564102564103,4666.153846153847,4602.564102564103,4562.051282051282,4547.179487179488,5067.6923076923085,4693.846153846154,4561.025641025642,4315.8974358974365,4717.948717948719
250.26976,0.8685737,0.26033437,0.3117528,0.8221411,0,0.0,0.0,0.0,0.0,0.0,0,0,0.0,1.0,0,0,126.0,0.0,535.0,4878.974358974359,4130.256410256411,4659.48717948718,4622.051282051282,4349.2307692307695,4657.435897435898,4625.641025641026,4607.179487179488,4563.076923076924,5082.564102564103,4671.282051282052,4582.051282051282,4348.717948717949,4800.000000000001
250.48871,0.8685737,0.26033437,0.3117528,0.8221411,0,0.0,0.0,0.3539724,0.0,0.0,0,0,0.0,0.0,0,0,25.0,0.0,0.0,4832.820512820514,4150.769230769231,4662.051282051282,4650.256410256411,4367.6923076923085,4682.564102564103,4633.846153846154,4637.948717948719,4550.769230769231,5067.6923076923085,4637.948717948719,4576.410256410257,4363.076923076924,4814.358974358975
250.77019,0.9743449,0.24889576,0.30955717,0.8155402,0,0.0,0.0,0.4826472,0.0,0.0,0,0,0.0,0.0,0,0,61.0,0.0,0.0,4713.333333333334,4088.717948717949,4607.179487179488,4642.051282051282,4359.48717948718,4679.48717948718,4569.2307692307695,4602.564102564103,4487.6923076923085,5004.615384615386,4471.794871794872,4471.794871794872,4327.179487179487,4774.358974358975
250.98914,0.9743449,0.24889576,0.30955717,0.8155402,0,0.0,0.0,0.14773996,0.0,0.0,0,0,0.0,0.0,0,0,89.0,0.0,915.0,4550.769230769231,4115.384615384616,4621.538461538462,4658.974358974359,4340.000000000001,4651.282051282052,4582.051282051282,4634.871794871796,4472.307692307693,5004.102564102564,4454.871794871796,4449.743589743591,4354.358974358975,4756.923076923077
251.27063,0.9452308,0.23860101,0.31193477,0.78921,0,0.0,0.0,0.08548408,0.0,0.0,0,0,0.0,0.0,0,0,125.0,0.0,915.0,4491.282051282052,4113.846153846154,4618.461538461539,4654.358974358975,4332.307692307693,4644.615384615385,4578.974358974359,4669.2307692307695,4472.307692307693,4921.538461538462,4448.205128205129,4420.512820512821,4353.846153846154,4710.256410256411
251.48956,0.9452308,0.23860101,0.31193477,0.78921,0,0.0,0.46818525,0.0,0.0,0.0,0,0,0.0,0.0,0,0,24.0,0.0,0.0,4517.435897435898,4128.717948717949,4608.205128205129,4634.358974358975,4314.871794871796,4622.564102564103,4564.615384615385,4658.974358974359,4491.794871794872,4892.307692307693,4384.102564102564,4401.538461538462,4377.435897435898,4647.179487179488
251.77106,0.92140645,0.22933574,0.31407464,0.76551294,0,0.0,0.0,0.0,0.0,0.0,0,0,0.0,0.046386093,0,0,60.0,0.0,0.0,4547.179487179488,4126.666666666667,4616.923076923077,4634.358974358975,4303.589743589744,4614.358974358975,4620.000000000001,4648.205128205129,4503.589743589744,4901.538461538462,4298.974358974359,4397.435897435898,4393.846153846154,4608.717948717949
251.98999,0.92140645,0.22933574,0.31407464,0.76551294,0,0.0,0.0,0.0,0.0,0.0,0,0,0.0,0.06469718,0,0,88.0,0.0,641.0,4551.794871794872,4106.153846153847,4594.358974358975,4631.282051282052,4283.589743589744,4602.564102564103,4615.384615384616,4626.666666666667,4507.179487179488,4905.641025641026,4212.820512820514,4373.846153846154,4398.461538461539,4562.564102564103
252.2402,0.9017108,0.22099699,0.31601432,0.74391127,0,0.0,0.0,0.0,0.0,0.0,0,0,0.0,0.4867016,0,0,120.0,0.0,641.0,4598.974358974359,4102.051282051282,4616.410256410257,4635.384615384616,4238.974358974359,4561.538461538462,4609.2307692307695,4596.923076923077,4511.794871794872,4849.743589743591,4290.769230769231,4402.051282051282,4548.205128205129,4580.000000000001
252.49042,0.9017108,0.22099699,0.31601432,0.74391127,0,0.0,0.0,0.0,0.0,0.0,0,0,0.0,0.89952475,0,0,23.0,0.0,0.0,4605.128205128206,4030.2564102564106,4594.871794871796,4633.846153846154,4255.8974358974365,4576.410256410257,4582.051282051282,4564.102564102564,4501.538461538462,4810.256410256411,4248.205128205129,4367.6923076923085,4451.794871794872,4551.282051282052
252.74063,0.9208202,0.21349213,0.3177614,0.7245067,0,0.0,0.0,0.0,0.0,0.0,0,0,0.0,0.38826108,0,0,55.0,0.0,0.0,4644.615384615385,3998.9743589743593,4581.538461538462,4700.512820512821,4244.615384615385,4556.410256410257,4574.358974358975,4541.025641025642,4495.8974358974365,4803.076923076924,4317.948717948719,4371.794871794872,4376.410256410257,4557.948717948719
252.99086,0.9208202,0.21349213,0.3177614,0.7245067,0,0.0,0.0,0.25107205,0.0,0.0,0,0,0.0,0.0,0,0,87.0,0.0,431.0,4652.820512820514,3970.7692307692314,4564.102564102564,4646.153846153847,4248.205128205129,4566.666666666667,4547.6923076923085,4524.102564102564,4480.000000000001,4750.256410256411,4342.564102564103,4337.435897435898,4297.435897435898,4557.948717948719
253.27234,0.8406337,0.38727966,0.31932384,0.70724064,0,0.0,0.0,0.0,0.0,0.0,0,0,0.0,0.6391144,0,0,123.0,0.0,431.0,4753.333333333334,4021.538461538462,4581.025641025642,4650.256410256411,4228.717948717949,4538.974358974359,4553.333333333334,4503.589743589744,4483.076923076924,4725.641025641026,4401.538461538462,4365.641025641026,4305.641025641026,4648.717948717949
253.55383,0.8406337,0.38727966,0.31932384,0.70724064,0,0.0,0.0,0.0,0.0,0.0,0,0,0.0,0.29064128,0,0,30.0,0.0,0.0,4695.384615384616,3952.820512820513,4533.846153846154,4548.205128205129,4251.282051282052,4563.589743589744,4516.923076923077,4486.666666666667,4466.153846153847,4734.358974358975,4412.820512820514,4314.871794871796,4225.641025641026,4626.153846153847
253.77278,0.78736824,0.6431042,0.32072863,0.69171154,0,0.0,0.0,0.0,0.0,0.0,0,0,0.0,1.0,0,0,58.0,0.0,0.0,4706.666666666667,3955.3846153846157,4528.717948717949,4506.666666666667,4244.102564102564,4556.923076923077,4504.102564102564,4484.102564102564,4468.717948717949,4749.743589743591,4355.384615384616,4293.333333333334,4230.256410256411,4643.076923076924
253.99171,0.78736824,0.6431042,0.32072863,0.69171154,0,0.0,0.831549,0.0,0.0,0.0,0,0,0.0,0.0,0,0,86.0,0.0,532.0,4697.948717948719,3955.8974358974365,4508.205128205129,4521.025641025642,4258.974358974359,4570.769230769231,4488.205128205129,4471.794871794872,4452.820512820514,4730.256410256411,4239.48717948718,4253.333333333334,4211.282051282052,4636.410256410257
254.27321,0.7162817,0.87519455,0.32199034,0.677755,0,0.0,0.0,0.0,0.0,0.0,0,0,0.0,0.36305246,0,0,122.0,0.0,532.0,4683.076923076924,3949.2307692307695,4491.282051282052,4509.2307692307695,4246.153846153847,4562.564102564103,4478.974358974359,4472.820512820514,4456.923076923077,4714.358974358975,4391.282051282052,4248.717948717949,4212.307692307693,4629.2307692307695
254.49214,0.7162817,0.87519455,0.32199034,0.677755,0,0.0,0.0,0.0,0.0,0.0,0,0,0.0,0.3348501,0,0,21.0,0.0,0.0,4692.820512820514,3957.435897435898,4490.256410256411,4497.435897435898,4244.102564102564,4547.179487179488,4482.564102564103,4493.333333333334,4464.102564102564,4742.051282051282,4332.820512820514,4246.666666666667,4220.512820512821,4644.102564102564
254.77364,0.655849,0.967231,0.32312465,0.6652034,0,0.0,0.0,0.0,0.0,0.0,0,0,0.0,0.29287568,0,0,57.0,0.0,0.0,4676.410256410257,3911.2820512820517,4481.538461538462,4439.48717948718,4246.666666666667,4553.846153846154,4447.6923076923085,4455.8974358974365,4448.205128205129,4723.076923076924,4317.948717948719,4223.076923076924,4178.974358974359,4635.8974358974365
254.99257,0.655849,0.967231,0.32312465,0.6652034,0,0.0,0.0,0.0,0.0,0.0,0,0,0.0,0.15696381,0,0,85.0,0.0,910.0,4684.102564102564,3915.8974358974365,4472.307692307693,4429.2307692307695,4244.102564102564,4547.179487179488,4429.743589743591,4431.282051282052,4442.564102564103,4691.794871794872,4327.179487179487,4213.846153846154,4158.461538461539,4643.589743589744
255.27406,0.7462248,0.96438676,0.32414553,0.65390694,0,0.0,0.0,0.0,0.0,0.0,0,0,0.0,0.0,0,0,121.0,0.0,910.0,4632.820512820514,3888.205128205129,4435.384615384616,4371.282051282052,4243.589743589744,4549.2307692307695,4390.769230769231,4440.512820512821,4424.102564102564,4694.358974358975,4348.717948717949,4167.179487179487,4117.435897435898,4614.358974358975
255.27406,0.7462248,0.96438676,0.32414553,0.65390694,0,0.0,0.0,0.0,0.0,0.0,0,0,0.0,0.0,0,0,121.0,0.0,910.0,4632.820512820514,3888.205128205129,4435.384615384616,4371.282051282052,4243.589743589744,4549.2307692307695,4390.769230769231,4440.512820512821,4424.102564102564,4694.358974358975,4348.717948717949,4167.179487179487,4117.435897435898,4614.358974358975
255.77449,0.84256244,0.9416841,0.3250643,0.6437401,0,0.0,0.0,0.0,0.0,0.0,0,0,0.0,0.5333957,0,0,56.0,0.0,0.0,4623.076923076924,3893.333333333334,4428.205128205129,4417.435897435898,4243.589743589744,4550.256410256411,4365.641025641026,4431.282051282052,4410.256410256411,4713.333333333334,4337.435897435898,4148.717948717949,4104.102564102564,4601.538461538462
255.99344,0.84256244,0.9416841,0.3250643,0.6437401,0,0.0,0.0,0.10039325,0.0,0.0,0,0,0.0,0.0,0,0,84.0,0.0,643.0,4638.974358974359,3909.7435897435903,4434.871794871796,4413.846153846154,4249.74358974359,4546.666666666667,4358.461538461539,4403.076923076924,4411.282051282052,4685.128205128206,4398.974358974359,4160.512820512821,4123.589743589744,4612.307692307693
256.27493,0.8476898,0.93172497,0.3258912,0.63458997,0,0.0,0.17168432,0.0,0.0,0.0,0,0,0.0,0.0,0,0,120.0,0.0,643.0,4610.769230769231,3901.538461538462,4438.974358974359,4505.128205128206,4245.128205128206,4545.128205128206,4421.025641025642,4425.128205128206,4419.48717948718,4743.589743589744,4370.256410256411,4186.666666666667,4148.205128205129,4596.410256410257
256.49387,0.8476898,0.93172497,0.3258912,0.63458997,0,0.0,0.25767007,0.0,0.0,0.0,0,0,0.0,0.0,0,0,19.0,0.0,0.0,4628.717948717949,3926.666666666667,4458.461538461539,4441.025641025642,4249.2307692307695,4545.128205128206,4443.076923076924,4434.358974358975,4425.641025641026,4776.923076923077,4531.282051282052,4234.871794871796,4178.461538461539,4605.641025641026
256.77536,0.8235287,0.9208275,0.32663542,0.6263549,0,0.0,0.6949284,0.0,0.0,0.0,0,0,0.0,0.0,0,0,55.0,0.0,0.0,4618.974358974359,3979.48717948718,4474.871794871796,4359.48717948718,4249.74358974359,4548.717948717949,4444.615384615385,4397.435897435898,4370.769230769231,4786.153846153847,4318.461538461539,4186.153846153847,4163.076923076924,4565.128205128206
256.9943,0.8235287,0.9208275,0.32663542,0.6263549,0,0.0,0.0,0.3701752,0.0,0.0,0,0,0.0,0.0,0,0,83.0,0.0,431.0,4645.128205128206,4017.9487179487182,4502.564102564103,4297.948717948719,4241.025641025642,4538.461538461539,4458.974358974359,4427.179487179487,4409.743589743591,4863.589743589744,4415.8974358974365,4233.333333333334,4197.435897435898,4538.974358974359
257.2758,0.7859416,0.92702276,0.3273052,0.6189433,0,0.0,0.0,0.43871254,0.0,0.0,0,0,0.0,0.0,0,0,119.0,0.0,431.0,4651.282051282052,4034.8717948717954,4527.6923076923085,4171.794871794872,4224.615384615385,4521.538461538462,4474.871794871796,4411.794871794872,4408.205128205129,4906.153846153847,4373.333333333334,4228.717948717949,4227.179487179487,4492.820512820514
257.49472,0.7859416,0.92702276,0.3273052,0.6189433,0,0.0,0.0,0.32221645,0.0,0.0,0,0,0.0,0.0,0,0,18.0,0.0,0.0,4642.051282051282,4011.2820512820517,4523.076923076924,4226.153846153847,4209.2307692307695,4511.794871794872,4478.974358974359,4387.179487179487,4411.794871794872,4921.538461538462,4289.74358974359,4225.128205128206,4240.000000000001,4477.948717948719
257.7762,0.7623204,0.9128157,0.327908,0.6122728,0,0.0,0.0,0.0,0.0,0.0,0,0,0.0,0.7658886,0,0,54.0,0.0,0.0,4671.282051282052,4005.6410256410263,4549.2307692307695,4361.025641025642,4210.256410256411,4516.923076923077,4518.974358974359,4460.512820512821,4459.48717948718,4951.794871794872,4350.256410256411,4294.358974358975,4274.358974358975,4504.615384615385
257.87006,0.7623204,0.9128157,0.327908,0.6122728,0,0.0,0.0,0.0,0.0,0.0,0,0,0.0,0.0,0,0,66.0,0.0,446.0,4668.205128205129,3998.9743589743593,4539.48717948718,4319.48717948718,4215.8974358974365,4518.461538461539,4506.153846153847,4459.48717948718,4458.974358974359,4932.307692307693,4208.717948717949,4267.179487179487,4252.820512820514,4497.435897435898
258.24536,0.7012879,0.88053197,0.32845443,0.6062366,0,0.0,0.0,0.0,0.0,0.0,0,0,0.0,0.43125424,0,0,114.0,0.0,535.0,4692.307692307693,3964.615384615385,4520.512820512821,4412.307692307693,4210.256410256411,4518.461538461539,4494.358974358975,4460.000000000001,4474.358974358975,4909.2307692307695,4312.307692307693,4288.205128205129,4185.128205128206,4521.025641025642
258.49557,0.7012879,0.88053197,0.32845443,0.6062366,0,0.0,0.0,0.0,0.0,0.0,0,0,0.0,1.0,0,0,17.0,0.0,0.0,4716.923076923077,3966.1538461538466,4520.000000000001,4464.102564102564,4206.153846153847,4510.256410256411,4518.974358974359,4479.48717948718,4488.717948717949,4866.666666666667,4290.769230769231,4296.923076923077,4176.410256410257,4538.974358974359
258.7458,0.61532277,0.8477622,0.32894656,0.6008021,0,0.0,0.0,0.0,0.0,0.0,0,0,0.0,0.94219595,0,0,49.0,0.0,0.0,4712.820512820514,3943.589743589744,4507.179487179488,4476.923076923077,4205.641025641026,4511.794871794872,4512.307692307693,4474.871794871796,4490.769230769231,4864.102564102564,4351.794871794872,4292.820512820514,4161.025641025642,4560.512820512821
258.996,0.61532277,0.8477622,0.32894656,0.6008021,0,0.0,0.0,0.0,0.0,0.0,0,0,0.0,0.21329933,0,0,81.0,0.0,904.0,4724.102564102564,3930.2564102564106,4506.666666666667,4509.743589743591,4192.820512820514,4503.589743589744,4504.615384615385,4463.589743589744,4489.2307692307695,4856.410256410257,4441.025641025642,4308.717948717949,4154.358974358975,4602.051282051282
259.24622,0.6236295,0.81172085,0.32938984,0.59590936,0,0.0,0.0,0.0,0.0,0.0,0,0,0.0,0.12677544,0,0,113.0,0.0,904.0,4737.948717948719,3942.0512820512827,4512.307692307693,4508.717948717949,4188.717948717949,4506.153846153847,4496.410256410257,4463.076923076924,4491.794871794872,4850.769230769231,4341.538461538462,4311.794871794872,4163.589743589744,4634.358974358975
259.49643,0.6236295,0.81172085,0.32938984,0.59590936,0,0.0,0.0,0.0,0.0,0.0,0,0,0.0,0.18530922,0,0,16.0,0.0,0.0,4732.307692307693,3934.358974358975,4516.410256410257,4557.948717948719,4209.2307692307695,4516.410256410257,4502.051282051282,4469.2307692307695,4511.794871794872,4845.641025641026,4351.282051282052,4322.564102564103,4167.6923076923085,4694.871794871796
259.74667,0.568099,0.76572317,0.32978868,0.59150696,0,0.0,0.0,0.17463799,0.0,0.0,0,0,0.0,0.0,0,0,48.0,0.0,0.0,4775.384615384616,3981.538461538462,4516.410256410257,4524.102564102564,4210.769230769231,4521.538461538462,4476.923076923077,4431.282051282052,4492.307692307693,4812.307692307693,4497.948717948719,4342.564102564103,4204.102564102564,4718.461538461539
259.9969,0.568099,0.76572317,0.32978868,0.59150696,0,0.0,0.0,0.19357812,0.0,0.0,0,0,0.0,0.0,0,0,80.0,0.0,636.0,4718.974358974359,3928.205128205129,4506.153846153847,4454.871794871796,4223.076923076924,4530.769230769231,4475.384615384616,4434.871794871796,4470.769230769231,4786.153846153847,4402.564102564103,4299.48717948718,4149.74358974359,4685.128205128206
260.2471,0.5775856,0.7311012,0.3301472,0.5875487,0,0.0,0.0,0.050727043,0.0,0.0,0,0,0.0,0.0,0,0,112.0,0.0,636.0,4715.384615384616,3916.410256410257,4500.512820512821,4433.333333333334,4227.6923076923085,4542.051282051282,4490.256410256411,4460.512820512821,4460.000000000001,4784.102564102564,4440.000000000001,4313.846153846154,4146.153846153847,4686.153846153847
260.4973,0.5775856,0.7311012,0.3301472,0.5875487,0,0.0,0.0,0.1589438,0.0,0.0,0,0,0.0,0.0,0,0,15.0,0.0,430.0,4710.256410256411,3916.9230769230776,4506.153846153847,4430.256410256411,4229.2307692307695,4546.666666666667,4483.589743589744,4480.512820512821,4457.948717948719,4773.846153846154,4491.794871794872,4320.512820512821,4149.74358974359,4698.461538461539
260.74753,0.5300815,0.7014441,0.3273021,0.6043746,0,0.0,0.0,0.0,0.0,0.0,0,0,0.0,0.19456297,0,0,47.0,0.0,0.0,4708.205128205129,3933.333333333334,4512.307692307693,4436.410256410257,4228.717948717949,4545.641025641026,4491.794871794872,4498.974358974359,4467.179487179487,4763.589743589744,4484.615384615385,4325.641025641026,4158.461538461539,4690.769230769231
260.99774,0.5300815,0.7014441,0.3273021,0.6043746,0,0.0,0.0,0.0,0.0,0.0,0,0,0.0,0.11098267,0,0,79.0,0.0,430.0,4692.307692307693,3916.9230769230776,4500.512820512821,4435.384615384616,4230.769230769231,4544.102564102564,4505.641025641026,4514.358974358975,4451.794871794872,4744.102564102564,4355.8974358974365,4294.871794871796,4139.48717948718,4675.8974358974365
261.24796,0.44679803,0.6923934,0.3215656,0.6382554,0,0.0,0.0,0.0,0.0,0.0,0,0,0.0,0.289156,0,0,111.0,0.0,430.0,4718.461538461539,3936.410256410257,4509.743589743591,4482.051282051282,4234.358974358975,4539.48717948718,4502.564102564103,4524.102564102564,4467.179487179487,4775.384615384616,4467.6923076923085,4324.615384615385,4101.538461538462,4690.769230769231
261.49817,0.44679803,0.6923934,0.3215656,0.6382554,0,0.0,0.0,0.0,0.0,0.0,0,0,0.0,0.12787634,0,0,14.0,0.0,535.0,4717.948717948719,3941.538461538462,4522.564102564103,4492.307692307693,4232.307692307693,4536.410256410257,4503.076923076924,4499.48717948718,4473.333333333334,4763.076923076924,4458.974358974359,4326.666666666667,4131.282051282052,4696.923076923077
261.74838,0.3938789,0.66006273,0.31558567,0.6709138,0,0.0,0.0,0.0,0.0,0.0,0,0,0.0,0.100431286,0,0,46.0,0.0,0.0,4706.666666666667,3946.666666666667,4502.564102564103,4487.6923076923085,4234.871794871796,4540.512820512821,4496.923076923077,4496.410256410257,4463.076923076924,4772.820512820514,4336.923076923077,4306.153846153847,4146.666666666667,4677.948717948719
261.9986,0.3938789,0.66006273,0.31558567,0.6709138,0,0.0,0.0,0.0,0.0,0.0,0,0,0.0,0.3155449,0,0,78.0,0.0,535.0,4754.871794871796,3978.9743589743593,4525.128205128206,4480.000000000001,4232.307692307693,4538.461538461539,4504.102564102564,4494.358974358975,4463.076923076924,4811.794871794872,4375.384615384616,4338.974358974359,4205.641025641026,4696.923076923077
262.2801,0.354001,0.66106284,0.31018692,0.7004053,0,0.0,0.0,0.0,0.0,0.0,0,0,0.0,0.90485996,0,0,114.0,0.0,535.0,4682.564102564103,3925.1282051282055,4508.205128205129,4489.2307692307695,4223.589743589744,4535.8974358974365,4491.282051282052,4442.051282051282,4442.051282051282,4792.820512820514,4326.666666666667,4273.846153846154,4153.846153846154,4634.358974358975
262.49902,0.354001,0.66106284,0.31018692,0.7004053,0,0.0,0.0,0.0,0.0,0.0,0,0,0.0,0.1516297,0,0,13.0,0.0,929.0,4663.076923076924,3905.6410256410263,4475.384615384616,4491.282051282052,4221.025641025642,4529.2307692307695,4468.717948717949,4430.256410256411,4445.641025641026,4778.974358974359,4375.384615384616,4261.025641025642,4140.512820512821,4601.025641025642
262.74924,0.3684396,0.63517797,0.30616876,0.7245295,0,0.0,0.0,0.0,0.0,0.0,0,0,0.0,0.0,0,0,45.0,0.0,0.0,4648.205128205129,3903.076923076924,4474.358974358975,4504.102564102564,4214.871794871796,4523.589743589744,4450.256410256411,4405.641025641026,4426.666666666667,4740.000000000001,4336.410256410257,4239.48717948718,4147.179487179487,4582.051282051282
262.74924,0.3684396,0.63517797,0.30616876,0.7245295,0,0.0,0.0,0.0,0.0,0.0,0,0,0.0,0.0,0,0,45.0,0.0,0.0,4648.205128205129,3903.076923076924,4474.358974358975,4504.102564102564,4214.871794871796,4523.589743589744,4450.256410256411,4405.641025641026,4426.666666666667,4740.000000000001,4336.410256410257,4239.48717948718,4147.179487179487,4582.051282051282
263.28094,0.43833324,0.6066163,0.30571088,0.7260417,0,0.0,0.0,0.0,0.0,0.0,0,0,0.0,0.0,0,0,113.0,0.0,929.0,4614.358974358975,3889.7435897435903,4458.974358974359,4381.025641025642,4205.641025641026,4509.2307692307695,4453.333333333334,4438.461538461539,4426.666666666667,4690.769230769231,4233.333333333334,4198.461538461539,4132.820512820514,4543.076923076924
263.28094,0.43833324,0.6066163,0.30571088,0.7260417,0,0.0,0.0,0.0,0.0,0.0,0,0,0.0,0.0,0,0,113.0,0.0,929.0,4614.358974358975,3889.7435897435903,4458.974358974359,4381.025641025642,4205.641025641026,4509.2307692307695,4453.333333333334,4438.461538461539,4426.666666666667,4690.769230769231,4233.333333333334,4198.461538461539,4132.820512820514,4543.076923076924
263.78137,0.4320845,0.5874012,0.30847314,0.7086614,0,0.0,0.0,0.0,0.0,0.0,0,0,0.0,0.0,0,0,48.0,0.0,0.0,4598.974358974359,3870.7692307692314,4442.564102564103,4380.000000000001,4185.641025641026,4488.205128205129,4420.000000000001,4408.717948717949,4400.512820512821,4650.256410256411,4161.538461538462,4151.282051282052,4104.102564102564,4527.6923076923085
263.78137,0.4320845,0.5874012,0.30847314,0.7086614,0,0.0,0.0,0.0,0.0,0.0,0,0,0.0,0.0,0,0,48.0,0.0,0.0,4598.974358974359,3870.7692307692314,4442.564102564103,4380.000000000001,4185.641025641026,4488.205128205129,4420.000000000001,4408.717948717949,4400.512820512821,4650.256410256411,4161.538461538462,4151.282051282052,4104.102564102564,4527.6923076923085
264.2818,0.5429404,0.5459185,0.31095916,0.69301915,0,0.0,0.0,0.0,0.0,0.0,0,0,0.0,0.193422,0,0,112.0,0.0,635.0,4622.564102564103,3882.564102564103,4476.923076923077,4407.179487179487,4217.948717948719,4508.205128205129,4456.410256410257,4434.871794871796,4402.564102564103,4672.307692307693,4118.974358974359,4179.48717948718,4131.282051282052,4540.000000000001
264.50073,0.5429404,0.5459185,0.31095916,0.69301915,0,0.0,0.0,0.0,0.0,0.0,0,0,0.0,0.27943975,0,0,11.0,0.0,431.0,4658.461538461539,3907.692307692308,4490.769230769231,4418.461538461539,4227.179487179487,4516.410256410257,4474.358974358975,4457.435897435898,4413.333333333334,4689.2307692307695,4215.8974358974365,4219.48717948718,4153.333333333334,4582.051282051282
264.78223,0.5608939,0.512451,0.31319657,0.6789411,0,0.0,0.0,0.0,0.0,0.0,0,0,0.0,0.0,0,0,47.0,0.0,0.0,4662.564102564103,3943.076923076924,4488.717948717949,4432.307692307693,4244.615384615385,4529.743589743591,4474.358974358975,4445.128205128206,4411.794871794872,4685.128205128206,4202.564102564103,4211.282051282052,4120.000000000001,4590.256410256411
264.78223,0.5608939,0.512451,0.31319657,0.6789411,0,0.0,0.0,0.0,0.0,0.0,0,0,0.0,0.0,0,0,47.0,0.0,0.0,4662.564102564103,3943.076923076924,4488.717948717949,4432.307692307693,4244.615384615385,4529.743589743591,4474.358974358975,4445.128205128206,4411.794871794872,4685.128205128206,4202.564102564103,4211.282051282052,4120.000000000001,4590.256410256411
265.28265,0.58423996,0.5074044,0.31521025,0.66627085,0,0.0,0.0,0.0,0.0,0.0,0,0,0.0,0.0,0,0,111.0,0.0,431.0,4737.948717948719,3992.820512820513,4521.538461538462,4465.641025641026,4257.948717948719,4542.051282051282,4493.846153846154,4472.820512820514,4436.410256410257,4740.512820512821,4288.205128205129,4283.076923076924,4223.076923076924,4674.358974358975
265.53287,0.58423996,0.5074044,0.31521025,0.66627085,0,0.0,0.0,0.0,0.0,0.0,0,0,0.0,0.0,0,0,14.0,0.0,535.0,4686.666666666667,3945.1282051282055,4490.256410256411,4429.743589743591,4268.717948717949,4550.256410256411,4495.8974358974365,4486.666666666667,4431.282051282052,4727.179487179488,4241.025641025642,4244.615384615385,4183.589743589744,4624.102564102564
265.78308,0.49744132,0.5238543,0.31702256,0.65486765,0,0.0,0.0,0.0,0.0,0.0,0,0,0.0,0.0,0,0,46.0,0.0,0.0,4686.666666666667,3941.538461538462,4507.179487179488,4433.333333333334,4257.948717948719,4545.641025641026,4511.794871794872,4511.794871794872,4433.333333333334,4727.179487179488,4305.641025641026,4250.256410256411,4183.589743589744,4621.025641025642
266.00204,0.49744132,0.5238543,0.31702256,0.65486765,0,0.0,0.0,0.0,0.0,0.0,0,0,0.0,0.17691217,0,0,74.0,0.0,537.0,4675.384615384616,3935.8974358974365,4502.564102564103,4410.769230769231,4257.948717948719,4545.128205128206,4488.717948717949,4482.051282051282,4425.641025641026,4702.051282051282,4283.589743589744,4217.435897435898,4140.512820512821,4618.461538461539
266.28354,0.49848872,0.5280702,0.31865364,0.64460474,0,0.0,0.0,0.0,0.0,0.0,0,0,0.0,0.11498244,0,0,110.0,0.0,537.0,4657.948717948719,3981.538461538462,4480.512820512821,4442.564102564103,4241.025641025642,4531.282051282052,4468.205128205129,4444.102564102564,4397.948717948719,4654.358974358975,4209.74358974359,4178.461538461539,4069.7435897435903,4583.076923076924
266.53375,0.49848872,0.5280702,0.31865364,0.64460474,0,0.0,0.0,0.0,0.0,0.0,0,0,0.0,0.0,0,1,13.0,0.0,921.0,4652.820512820514,3926.666666666667,4471.282051282052,4397.948717948719,4253.846153846154,4544.615384615385,4476.410256410257,4467.179487179487,4413.333333333334,4730.256410256411,4169.74358974359,4204.615384615385,4188.205128205129,4611.794871794872
266.7527,0.46336526,0.54870003,0.32013196,0.63531023,0,0.0,0.0,0.0,0.0,0.0,0,0,0.0,0.0,0,1,41.0,0.0,0.0,4623.589743589744,3958.9743589743593,4471.794871794872,4351.794871794872,4253.333333333334,4546.153846153847,4467.179487179487,4468.205128205129,4386.153846153847,4788.717948717949,4163.589743589744,4196.410256410257,4163.589743589744,4568.717948717949
267.0029,0.46336526,0.54870003,0.32013196,0.63531023,0,0.0,0.0,0.7422778,0.0,0.0,0,0,0.0,0.0,0,0,73.0,0.0,474.0,4616.923076923077,3994.8717948717954,4489.743589743591,4318.461538461539,4246.666666666667,4544.615384615385,4471.282051282052,4468.205128205129,4381.538461538462,4833.333333333334,4173.846153846154,4197.435897435898,4187.179487179487,4518.974358974359
267.2844,0.41543692,0.55232894,0.32145417,0.6269942,0,0.0,0.0,0.4591064,0.0,0.0,0,0,0.0,0.0,0,0,109.0,0.0,921.0,4617.435897435898,4029.23076923077,4522.564102564103,4321.025641025642,4235.8974358974365,4537.948717948719,4501.025641025642,4473.846153846154,4395.384615384616,4865.641025641026,4093.8461538461543,4194.871794871796,4182.051282051282,4457.948717948719
267.50333,0.41543692,0.55232894,0.32145417,0.6269942,0,0.0,0.0,0.0,0.0,0.0,0,0,0.0,0.57406664,0,0,8.0,0.0,499.0,4626.153846153847,4036.410256410257,4557.435897435898,4240.000000000001,4235.384615384616,4539.48717948718,4505.641025641026,4465.641025641026,4414.871794871796,4896.410256410257,4151.794871794872,4206.666666666667,4205.128205128206,4463.589743589744
267.78482,0.38177907,0.54442865,0.32264414,0.6195098,0,0.0,0.0,0.0,0.0,0.0,0,0,0.0,0.49585837,0,0,44.0,0.0,0.0,4623.076923076924,3998.461538461539,4574.358974358975,4240.512820512821,4234.871794871796,4542.564102564103,4534.358974358975,4498.461538461539,4445.641025641026,4920.512820512821,4201.025641025642,4231.794871794872,4283.589743589744,4478.461538461539
268.00375,0.38177907,0.54442865,0.32264414,0.6195098,0,0.0,0.0,0.0,0.0,0.0,0,0,0.0,0.67307013,0,0,72.0,0.0,499.0,4639.48717948718,3997.9487179487182,4568.205128205129,4303.076923076924,4238.974358974359,4553.333333333334,4533.846153846154,4496.410256410257,4444.102564102564,4933.846153846154,4304.615384615385,4258.974358974359,4284.615384615385,4489.2307692307695
268.28525,0.38603425,0.5408286,0.3237141,0.6127783,0,0.0,0.0,0.0,0.0,0.0,0,0,0.0,0.5832856,0,0,108.0,0.0,635.0,4647.6923076923085,3972.307692307693,4549.743589743591,4349.2307692307695,4232.820512820514,4556.923076923077,4535.8974358974365,4505.128205128206,4448.205128205129,4881.025641025642,4320.512820512821,4256.923076923077,4247.6923076923085,4496.923076923077
268.3791,0.38603425,0.5408286,0.3237141,0.6127783,0,0.0,0.0,0.0,0.0,0.0,0,0,0.0,1.0,0,0,120.0,0.0,635.0,4664.102564102564,3970.7692307692314,4556.410256410257,4371.282051282052,4244.615384615385,4567.179487179488,4554.871794871796,4524.615384615385,4461.025641025642,4865.128205128206,4279.48717948718,4268.717948717949,4241.025641025642,4503.076923076924
268.78568,0.36360908,0.5358001,0.324676,0.6067243,0,0.0,0.0,0.0,0.0,0.0,0,0,0.0,1.0,0,0,43.0,0.0,0.0,4716.410256410257,3978.9743589743593,4561.025641025642,4477.435897435898,4241.025641025642,4560.512820512821,4559.48717948718,4540.512820512821,4483.589743589744,4854.871794871796,4354.358974358975,4318.974358974359,4211.794871794872,4550.769230769231
269.0046,0.36360908,0.5358001,0.324676,0.6067243,0,0.0,0.0,0.0,0.0,0.0,0,0,0.0,0.7408466,0,0,71.0,0.0,476.0,4726.153846153847,3970.7692307692314,4552.307692307693,4583.076923076924,4258.974358974359,4575.8974358974365,4550.256410256411,4533.846153846154,4478.461538461539,4809.743589743591,4426.666666666667,4333.333333333334,4181.025641025642,4566.666666666667
269.25482,0.35368073,0.5529057,0.32554784,0.6012469,1,0.0,0.0,0.0,0.0,0.0,0,0,0.0,0.36129567,0,0,103.0,0.0,432.0,4751.282051282052,3969.2307692307695,4554.871794871796,4681.025641025642,4261.025641025642,4570.256410256411,4539.48717948718,4582.564102564103,4495.384615384616,4813.846153846154,4377.948717948719,4364.615384615385,4200.512820512821,4604.102564102564
269.50504,0.35368073,0.5529057,0.32554784,0.6012469,0,0.0,0.0,0.07670577,0.0,0.0,0,0,0.0,0.0,0,0,6.0,0.0,536.0,4712.820512820514,3922.0512820512827,4515.384615384616,4643.589743589744,4266.153846153847,4567.6923076923085,4531.282051282052,4551.282051282052,4457.435897435898,4755.384615384616,4412.307692307693,4318.461538461539,4150.256410256411,4575.384615384616
269.75525,0.3992142,0.5870741,0.32633308,0.59631544,0,0.0,0.0,0.0,0.0,0.0,0,0,0.0,0.23927394,0,0,38.0,0.0,0.0,4731.282051282052,3944.1025641025644,4521.025641025642,4587.179487179488,4258.461538461539,4552.307692307693,4495.384615384616,4519.48717948718,4452.307692307693,4733.333333333334,4298.461538461539,4290.769230769231,4176.923076923077,4607.6923076923085
270.00546,0.3992142,0.5870741,0.32633308,0.59631544,0,0.0,0.0,0.0,0.0,0.0,0,0,0.0,0.22837685,0,0,70.0,0.0,536.0,4706.666666666667,3920.5128205128212,4488.717948717949,4578.461538461539,4254.358974358975,4557.948717948719,4507.179487179488,4523.589743589744,4444.102564102564,4708.717948717949,4357.948717948719,4280.000000000001,4164.615384615385,4585.641025641026
270.28696,0.41726232,0.6239179,0.3270354,0.59189785,0,0.0,0.0,0.0,0.0,0.0,0,0,0.0,0.11374064,0,0,106.0,0.0,537.0,4685.641025641026,3894.8717948717954,4467.6923076923085,4591.282051282052,4244.102564102564,4544.102564102564,4495.8974358974365,4526.666666666667,4439.48717948718,4706.666666666667,4178.974358974359,4247.179487179487,4236.923076923077,4601.538461538462
270.5059,0.41726232,0.6239179,0.3270354,0.59189785,0,0.0,0.0,0.138879,0.0,0.0,0,0,0.0,0.0,0,0,5.0,0.0,549.0,4690.256410256411,3901.0256410256416,4472.307692307693,4516.410256410257,4250.256410256411,4554.358974358975,4473.333333333334,4504.102564102564,4435.384615384616,4700.000000000001,4313.846153846154,4225.641025641026,4126.153846153847,4630.769230769231
270.78738,0.44721195,0.6365498,0.3276669,0.58792466,0,0.0,0.0,0.0,0.0,0.0,0,0,0.0,0.27292818,0,0,41.0,0.0,0.0,4676.410256410257,3902.0512820512827,4470.769230769231,4471.794871794872,4251.794871794872,4551.282051282052,4458.461538461539,4461.538461538462,4417.948717948719,4664.102564102564,4204.102564102564,4172.307692307693,4098.461538461539,4632.307692307693
271.00635,0.44721195,0.6365498,0.3276669,0.58792466,0,0.0,0.0,0.0,0.0,0.0,0,0,0.0,0.3446313,0,0,69.0,0.0,549.0,4678.974358974359,3909.7435897435903,4458.461538461539,4421.538461538462,4249.2307692307695,4544.615384615385,4454.871794871796,4465.641025641026,4425.641025641026,4643.589743589744,4220.512820512821,4168.717948717949,4108.717948717949,4629.743589743591
271.28784,0.44107452,0.6104945,0.32823408,0.5843537,0,0.0,0.0,0.0,0.0,0.0,0,0,0.0,0.29851317,0,0,105.0,0.0,929.0,4683.076923076924,3915.3846153846157,4473.333333333334,4426.153846153847,4248.205128205129,4544.615384615385,4455.384615384616,4462.564102564103,4417.435897435898,4650.256410256411,4216.410256410257,4177.435897435898,4125.128205128206,4624.615384615385
271.50677,0.44107452,0.6104945,0.32823408,0.5843537,0,0.0,0.0,0.0,0.0,0.0,0,0,0.0,0.0,0,0,4.0,0.0,552.0,4639.48717948718,3912.820512820513,4459.48717948718,4414.871794871796,4250.769230769231,4552.307692307693,4444.615384615385,4449.743589743591,4409.743589743591,4630.256410256411,4234.358974358975,4162.051282051282,4107.6923076923085,4599.48717948718
271.78827,0.3786136,0.58664775,0.32874402,0.58114225,0,0.0,0.0,0.0,0.0,0.0,0,0,0.0,0.0,0,0,40.0,0.0,0.0,4622.564102564103,3918.461538461539,4466.666666666667,4404.615384615385,4243.076923076924,4545.641025641026,4448.717948717949,4462.564102564103,4413.333333333334,4660.512820512821,4274.871794871796,4171.794871794872,4135.384615384616,4600.000000000001
272.0072,0.3786136,0.58664775,0.32874402,0.58114225,0,0.0,0.0,0.0,0.0,0.0,0,0,0.0,0.52406,0,0,68.0,0.0,552.0,4608.205128205129,3923.076923076924,4460.000000000001,4417.948717948719,4237.435897435898,4542.564102564103,4435.8974358974365,4441.538461538462,4391.794871794872,4658.974358974359,4188.717948717949,4142.564102564103,4115.384615384616,4571.794871794872
272.2887,0.34868574,0.54683954,0.32920295,0.5782519,0,0.0,0.0,0.0,0.0,0.0,0,0,0.0,0.18617137,0,0,104.0,0.0,635.0,4651.794871794872,3971.2820512820517,4482.564102564103,4430.256410256411,4234.358974358975,4540.000000000001,4437.435897435898,4438.974358974359,4397.948717948719,4674.871794871796,4099.48717948718,4162.051282051282,4184.615384615385,4598.974358974359
272.50763,0.34868574,0.54683954,0.32920295,0.5782519,0,0.0,0.0,0.0,0.0,0.0,0,0,0.0,0.1618891,0,0,3.0,0.0,539.0,4603.076923076924,3925.6410256410263,4458.974358974359,4397.948717948719,4231.282051282052,4537.948717948719,4443.076923076924,4447.179487179487,4396.923076923077,4658.461538461539,4056.410256410257,4124.102564102564,4134.871794871796,4544.102564102564
272.78912,0.31118342,0.51662123,0.32961598,0.5756506,0,0.0,0.0,0.0,0.0,0.0,0,0,0.0,0.0651422,0,0,39.0,0.0,0.0,4629.743589743591,3933.333333333334,4481.538461538462,4427.179487179487,4223.589743589744,4530.769230769231,4441.025641025642,4444.102564102564,4416.923076923077,4676.923076923077,4215.384615384616,4173.846153846154,4173.846153846154,4554.358974358975
273.00806,0.31118342,0.51662123,0.32961598,0.5756506,0,0.0,0.0,0.0,0.0,0.0,0,0,0.0,0.35392144,0,0,67.0,0.0,539.0,4652.307692307693,3938.9743589743593,4491.282051282052,4433.333333333334,4214.871794871796,4523.076923076924,4433.846153846154,4431.282051282052,4407.6923076923085,4664.102564102564,4197.435897435898,4173.846153846154,4187.179487179487,4553.846153846154
273.28955,0.2968069,0.48413056,0.3299877,0.5733094,0,0.0,0.0,0.0,0.0,0.0,0,0,0.0,0.3423704,0,0,103.0,0.0,432.0,4671.794871794872,3929.7435897435903,4496.923076923077,4435.8974358974365,4208.205128205129,4515.384615384616,4429.2307692307695,4445.641025641026,4410.256410256411,4640.512820512821,4252.820512820514,4178.461538461539,4177.435897435898,4552.820512820514
273.50848,0.2968069,0.48413056,0.3299877,0.5733094,0,0.0,0.0,0.0,0.0,0.0,0,0,0.0,0.18053326,0,0,2.0,0.0,446.0,4662.051282051282,3908.717948717949,4487.6923076923085,4429.2307692307695,4215.8974358974365,4516.923076923077,4430.256410256411,4446.666666666667,4396.923076923077,4639.48717948718,4252.307692307693,4167.6923076923085,4158.461538461539,4530.769230769231
273.78998,0.27118883,0.45980936,0.3303223,0.57120234,0,0.0,0.0,0.0,0.0,0.0,0,0,0.0,0.239783,0,0,38.0,0.0,0.0,4663.589743589744,3921.538461538462,4474.871794871796,4421.025641025642,4221.025641025642,4524.102564102564,4404.102564102564,4436.923076923077,4381.538461538462,4644.615384615385,4163.076923076924,4143.076923076924,4126.153846153847,4497.948717948719
274.0089,0.27118883,0.45980936,0.3303223,0.57120234,0,0.0,0.0,0.0,0.0,0.0,0,0,0.0,0.307565,0,0,66.0,0.0,446.0,4657.435897435898,3925.6410256410263,4471.282051282052,4437.435897435898,4229.2307692307695,4533.846153846154,4428.205128205129,4463.589743589744,4393.333333333334,4677.948717948719,4203.589743589744,4175.8974358974365,4156.923076923077,4474.871794871796
274.2904,0.28603786,0.44465178,0.3306234,0.56930596,0,0.0,0.0,0.0,0.0,0.0,0,0,0.0,0.2827924,0,0,102.0,0.0,537.0,4661.538461538462,3927.692307692308,4480.512820512821,4446.153846153847,4230.769230769231,4537.435897435898,4443.589743589744,4472.307692307693,4378.974358974359,4672.820512820514,4248.717948717949,4195.384615384616,4172.820512820514,4463.076923076924
274.50934,0.28603786,0.44465178,0.3306234,0.56930596,0,0.0,0.0,0.0,0.0,0.0,0,0,0.0,0.0847124,0,0,1.0,0.0,455.0,4647.179487179488,3930.2564102564106,4483.589743589744,4493.333333333334,4228.717948717949,4540.000000000001,4442.051282051282,4483.076923076924,4367.179487179487,4673.333333333334,4055.3846153846157,4178.461538461539,4167.6923076923085,4463.589743589744
274.79083,0.2544818,0.42476064,0.33089438,0.56759924,0,0.0,0.0,0.0,0.0,0.0,0,0,0.0,0.29895982,0,0,37.0,0.0,0.0,4672.307692307693,3937.435897435898,4496.923076923077,4501.025641025642,4210.769230769231,4524.615384615385,4429.2307692307695,4483.076923076924,4374.358974358975,4667.6923076923085,4174.871794871796,4199.48717948718,4174.358974358975,4478.461538461539
275.00977,0.2544818,0.42476064,0.33089438,0.56759924,0,0.0,0.0,0.0,0.0,0.0,0,0,0.0,0.23607713,0,0,65.0,0.0,455.0,4616.923076923077,3921.538461538462,4475.384615384616,4481.025641025642,4211.794871794872,4524.615384615385,4431.794871794872,4477.435897435898,4356.923076923077,4648.205128205129,4256.923076923077,4189.74358974359,4163.589743589744,4473.333333333334
275.29126,0.25161758,0.4169645,0.33113828,0.5660632,0,0.0,0.0,0.0,0.0,0.0,0,0,0.0,0.21418384,0,0,101.0,0.0,925.0,4627.179487179488,3946.1538461538466,4489.743589743591,4436.410256410257,4174.871794871796,4500.000000000001,4424.102564102564,4450.256410256411,4345.641025641026,4687.6923076923085,4073.8461538461543,4160.512820512821,4223.589743589744,4444.615384615385
275.5102,0.25161758,0.4169645,0.33113828,0.5660632,0,0.0,0.0,0.0,0.0,0.0,0,0,0.0,0.63186944,0,0,0.0,0.0,489.0,4611.794871794872,3923.076923076924,4479.48717948718,4464.615384615385,4189.2307692307695,4518.974358974359,4446.153846153847,4460.512820512821,4365.641025641026,4693.846153846154,4069.7435897435903,4167.6923076923085,4190.769230769231,4437.948717948719
275.7604,0.22338457,0.42317227,0.33135933,0.56467414,0,0.0,0.0,0.0,0.0,0.0,0,0,0.0,0.12184584,0,0,32.0,0.0,0.0,4611.282051282052,3903.589743589744,4461.538461538462,4472.820512820514,4195.8974358974365,4511.794871794872,4441.538461538462,4432.820512820514,4368.717948717949,4682.051282051282,4187.179487179487,4172.307692307693,4150.769230769231,4473.333333333334
276.01065,0.22338457,0.42317227,0.33135933,0.56467414,0,0.0,0.0,0.0,0.0,0.0,0,0,0.0,0.2308804,0,0,64.0,0.0,489.0,4626.153846153847,3900.5128205128212,4459.48717948718,4446.666666666667,4206.153846153847,4519.48717948718,4447.179487179487,4414.358974358975,4367.6923076923085,4668.205128205129,4195.384615384616,4165.128205128206,4132.820512820514,4506.153846153847
276.2921,0.1725664,0.41696486,0.33155704,0.5634293,0,0.0,0.0,0.0,0.0,0.0,0,0,0.0,0.25189683,0,0,100.0,0.0,632.0,4629.2307692307695,3880.0000000000005,4457.948717948719,4424.615384615385,4223.076923076924,4531.794871794872,4493.846153846154,4448.717948717949,4373.846153846154,4670.256410256411,4206.666666666667,4179.48717948718,4155.384615384616,4536.410256410257
276.51108,0.1725664,0.41696486,0.33155704,0.5634293,0,0.0,0.0,0.0,0.0,0.0,0,0,0.0,0.22089466,0,0,128.0,0.0,632.0,4704.615384615386,3941.538461538462,4492.820512820514,4450.256410256411,4222.564102564103,4526.153846153847,4481.538461538462,4468.205128205129,4394.358974358975,4710.769230769231,4243.076923076924,4230.256410256411,4236.410256410257,4626.153846153847
276.79257,0.2401096,0.42950413,0.33173496,0.5623089,0,0.0,0.0,0.0,0.0,0.0,0,0,0.0,0.11544323,0,0,35.0,0.0,0.0,4647.6923076923085,3882.0512820512827,4466.153846153847,4381.538461538462,4256.410256410257,4558.974358974359,4483.589743589744,4475.384615384616,4382.564102564103,4693.333333333334,4273.333333333334,4189.74358974359,4169.74358974359,4607.179487179488
277.0115,0.2401096,0.42950413,0.33173496,0.5623089,0,0.0,0.0,0.0,0.0,0.0,0,0,0.0,0.26669267,0,0,63.0,0.0,0.0,4671.794871794872,3913.333333333334,4480.512820512821,4376.410256410257,4260.512820512821,4557.948717948719,4491.794871794872,4488.205128205129,4390.769230769231,4693.333333333334,4297.948717948719,4205.128205128206,4170.769230769231,4624.615384615385
277.293,0.2133772,0.4334351,0.33189496,0.56130123,0,0.0,0.0,0.0,0.0,0.0,0,0,0.0,0.23850681,0,0,99.0,0.0,433.0,4684.102564102564,3944.1025641025644,4502.564102564103,4287.6923076923085,4278.461538461539,4573.333333333334,4482.051282051282,4525.128205128206,4407.6923076923085,4706.153846153847,4282.564102564103,4217.435897435898,4177.948717948719,4645.641025641026
277.51193,0.2133772,0.4334351,0.33189496,0.56130123,0,0.0,0.0,0.0,0.0,0.0,0,0,0.0,0.3696756,0,0,127.0,0.0,433.0,4687.179487179488,3947.692307692308,4520.512820512821,4128.205128205129,4313.333333333334,4610.256410256411,4496.923076923077,4497.948717948719,4393.333333333334,4716.923076923077,4216.410256410257,4199.48717948718,4162.564102564103,4636.923076923077
277.76215,0.27414683,0.44712445,0.3320398,0.56039065,0,0.0,0.0,0.0,0.0,0.0,0,0,0.0,0.0,0,0,30.0,0.0,0.0,4701.538461538462,3953.333333333334,4539.48717948718,4116.923076923077,4297.948717948719,4599.48717948718,4500.512820512821,4502.051282051282,4402.051282051282,4723.076923076924,4205.641025641026,4220.000000000001,4166.153846153847,4663.076923076924
277.76215,0.27414683,0.44712445,0.3320398,0.56039065,0,0.0,0.0,0.0,0.0,0.0,0,0,0.0,0.0,0,0,30.0,0.0,0.0,4701.538461538462,3953.333333333334,4539.48717948718,4116.923076923077,4297.948717948719,4599.48717948718,4500.512820512821,4502.051282051282,4402.051282051282,4723.076923076924,4205.641025641026,4220.000000000001,4166.153846153847,4663.076923076924
278.29385,0.26019263,0.44980538,0.33216935,0.5595746,0,0.0,0.0,0.0,0.0,0.0,0,0,0.0,0.38548544,0,0,98.0,0.0,537.0,4692.820512820514,3963.076923076924,4538.974358974359,4184.615384615385,4279.48717948718,4578.461538461539,4482.564102564103,4501.025641025642,4411.794871794872,4702.564102564103,4330.256410256411,4245.128205128206,4196.923076923077,4666.666666666667
278.5128,0.26019263,0.44980538,0.33216935,0.5595746,0,0.0,0.0,0.0,0.0,0.0,0,0,0.0,0.3100886,0,0,126.0,0.0,537.0,4704.615384615386,3966.666666666667,4550.256410256411,4229.2307692307695,4269.74358974359,4574.358974358975,4477.435897435898,4490.769230769231,4415.8974358974365,4719.48717948718,4234.871794871796,4245.128205128206,4205.128205128206,4663.076923076924
278.79428,0.3041903,0.43524617,0.33228594,0.55884016,0,0.0,0.0,0.0,0.0,0.0,0,0,0.0,0.29110074,0,0,33.0,0.0,0.0,4707.6923076923085,3995.8974358974365,4556.923076923077,4286.153846153847,4270.256410256411,4569.743589743591,4501.025641025642,4496.410256410257,4412.820512820514,4718.461538461539,4405.641025641026,4288.205128205129,4220.512820512821,4658.461538461539
279.0132,0.3041903,0.43524617,0.33228594,0.55884016,0,0.0,0.0,0.0,0.0,0.0,0,0,0.0,0.25290233,0,0,61.0,0.0,0.0,4689.2307692307695,3977.9487179487182,4532.307692307693,4269.2307692307695,4278.461538461539,4570.769230769231,4464.102564102564,4446.666666666667,4396.923076923077,4731.282051282052,4267.6923076923085,4248.717948717949,4206.666666666667,4622.051282051282
279.2947,0.28901026,0.4130464,0.3323908,0.5581796,0,0.0,0.0,0.0,0.0,0.0,0,0,0.0,0.2866997,0,0,97.0,0.0,900.0,4648.717948717949,3996.410256410257,4508.205128205129,4267.179487179487,4281.538461538462,4573.846153846154,4467.179487179487,4470.769230769231,4387.6923076923085,4729.743589743591,4292.820512820514,4241.538461538462,4192.820512820514,4541.538461538462
279.51364,0.28901026,0.4130464,0.3323908,0.5581796,0,0.0,0.0,0.0,0.0,0.0,0,0,0.0,0.13452668,0,0,125.0,0.0,900.0,4664.102564102564,4036.9230769230776,4539.48717948718,4306.666666666667,4269.74358974359,4560.000000000001,4494.358974358975,4498.974358974359,4385.641025641026,4771.282051282052,4369.743589743591,4278.974358974359,4239.48717948718,4519.48717948718
279.79514,0.31408492,0.39182988,0.33248505,0.55758554,0,0.0,0.0,0.0,0.0,0.0,0,0,0.0,0.34092388,0,0,32.0,0.0,0.0,4659.48717948718,4026.666666666667,4534.871794871796,4313.333333333334,4272.307692307693,4555.384615384616,4490.769230769231,4506.666666666667,4397.948717948719,4800.000000000001,4433.333333333334,4296.923076923077,4290.769230769231,4478.461538461539
280.01407,0.31408492,0.39182988,0.33248505,0.55758554,0,0.0,0.0,0.0,0.0,0.0,0,0,0.0,0.24760163,0,0,60.0,0.0,0.0,4626.666666666667,3995.3846153846157,4521.025641025642,4328.205128205129,4271.794871794872,4554.358974358975,4482.564102564103,4474.358974358975,4390.256410256411,4771.794871794872,4292.307692307693,4249.2307692307695,4273.333333333334,4455.8974358974365
280.29556,0.38511866,0.38133714,0.33256987,0.5570508,0,0.0,0.0,0.0,0.0,0.0,0,0,0.0,0.19112298,0,0,96.0,0.0,627.0,4626.666666666667,3991.7948717948725,4526.666666666667,4379.48717948718,4272.820512820514,4555.8974358974365,4492.307692307693,4476.923076923077,4410.256410256411,4796.923076923077,4144.102564102564,4248.717948717949,4323.076923076924,4455.384615384616
280.5145,0.38511866,0.38133714,0.33256987,0.5570508,0,0.0,0.0,0.0,0.0,0.0,0,0,0.0,0.17014387,0,0,124.0,0.0,627.0,4617.435897435898,3963.589743589744,4502.564102564103,4399.48717948718,4250.769230769231,4536.923076923077,4464.615384615385,4469.743589743591,4400.512820512821,4755.384615384616,4272.820512820514,4223.589743589744,4269.2307692307695,4454.358974358975
280.796,0.3864085,0.36882073,0.33264622,0.55656964,0,0.0,0.0,0.0,0.0,0.0,0,0,0.0,0.07880694,0,0,31.0,0.0,0.0,4635.8974358974365,3944.615384615385,4501.538461538462,4440.512820512821,4256.923076923077,4538.461538461539,4490.256410256411,4536.410256410257,4413.333333333334,4755.8974358974365,4248.205128205129,4235.384615384616,4229.2307692307695,4497.948717948719
281.01492,0.3864085,0.36882073,0.33264622,0.55656964,0,0.0,0.0,0.0,0.0,0.0,0,0,0.0,0.0023262943,0,0,59.0,0.0,0.0,4656.923076923077,3949.7435897435903,4505.128205128206,4475.8974358974365,4266.666666666667,4557.435897435898,4531.794871794872,4676.410256410257,4436.923076923077,4771.794871794872,4293.333333333334,4268.717948717949,4198.974358974359,4504.102564102564
281.29642,0.39102936,0.36793885,0.33271495,0.55613655,0,0.0,0.0,0.00700265,0.0,0.0,0,0,0.0,0.0,0,0,95.0,0.0,433.0,4666.666666666667,3932.307692307693,4491.282051282052,4476.923076923077,4253.333333333334,4541.025641025642,4527.179487179488,4759.48717948718,4443.589743589744,4756.410256410257,4230.256410256411,4265.641025641026,4181.538461538462,4550.769230769231
281.51538,0.39102936,0.36793885,0.33271495,0.55613655,0,0.0,0.0,0.0,0.0,0.0,0,0,0.0,0.12684393,0,0,123.0,0.0,433.0,4700.000000000001,3955.3846153846157,4523.589743589744,4498.974358974359,4257.948717948719,4548.717948717949,4539.48717948718,4732.820512820514,4445.128205128206,4744.102564102564,4384.102564102564,4290.256410256411,4187.179487179487,4584.615384615385
281.79684,0.32084993,0.39306045,0.33277678,0.5557468,0,0.0,0.0,0.0,0.0,0.0,0,0,0.0,0.095869526,0,0,30.0,0.0,0.0,4722.564102564103,3972.307692307693,4532.307692307693,4508.717948717949,4257.948717948719,4547.179487179488,4524.615384615385,4728.717948717949,4451.282051282052,4734.871794871796,4438.974358974359,4298.974358974359,4182.051282051282,4614.358974358975
282.0158,0.32084993,0.39306045,0.33277678,0.5557468,0,0.0,0.0,0.0,0.0,0.0,0,0,0.0,0.1729941,0,0,58.0,0.0,0.0,4698.974358974359,3959.48717948718,4516.410256410257,4442.051282051282,4253.846153846154,4546.153846153847,4506.666666666667,4729.2307692307695,4430.769230769231,4731.282051282052,4375.8974358974365,4268.717948717949,4172.307692307693,4623.076923076924
282.2973,0.3789354,0.42179155,0.33283243,0.55539596,0,0.0,0.0,0.0,0.0,0.0,0,0,0.0,0.8224423,0,0,94.0,0.0,537.0,4649.2307692307695,3955.3846153846157,4502.051282051282,4413.333333333334,4252.307692307693,4549.743589743591,4485.128205128206,4736.410256410257,4392.307692307693,4745.641025641026,4259.48717948718,4215.8974358974365,4148.717948717949,4601.538461538462
282.51624,0.3789354,0.42179155,0.33283243,0.55539596,0,0.0,0.5080001,0.0,0.0,0.0,0,0,0.0,0.0,0,0,122.0,0.0,537.0,4713.846153846154,4049.7435897435903,4544.615384615385,4297.435897435898,4262.564102564103,4556.410256410257,4491.282051282052,4718.974358974359,4398.461538461539,4817.435897435898,4337.435897435898,4271.794871794872,4321.025641025642,4664.615384615386
282.79773,0.41051257,0.47102034,0.33288252,0.5550803,0,0.0,0.06733437,0.0,0.0,0.0,0,0,0.0,0.0,0,0,29.0,0.0,0.0,4628.717948717949,3969.7435897435903,4541.025641025642,4856.923076923077,4251.282051282052,4547.6923076923085,4506.666666666667,4650.256410256411,4412.820512820514,4810.769230769231,4186.153846153847,4288.205128205129,4338.974358974359,4618.461538461539
283.01666,0.41051257,0.47102034,0.33288252,0.5550803,0,0.0,0.0,0.028777765,0.0,0.0,0,0,0.0,0.0,0,0,57.0,0.0,0.0,4635.384615384616,3974.8717948717954,4544.615384615385,4799.48717948718,4254.871794871796,4549.743589743591,4501.538461538462,4597.435897435898,4421.025641025642,4830.256410256411,4251.282051282052,4289.2307692307695,4353.333333333334,4605.128205128206
283.29816,0.39007294,0.5090058,0.3329276,0.5547961,0,0.0,0.0,0.0,0.0,0.0,0,0,0.0,0.055727407,0,0,93.0,0.0,876.0,4653.846153846154,4011.2820512820517,4550.256410256411,4744.615384615386,4240.512820512821,4538.461538461539,4485.641025641026,4531.794871794872,4398.461538461539,4758.974358974359,4241.538461538462,4229.74358974359,4271.794871794872,4585.128205128206
283.5171,0.39007294,0.5090058,0.3329276,0.5547961,0,0.0,0.0,0.0,0.0,0.0,0,0,0.0,0.09485639,0,0,121.0,0.0,876.0,4692.820512820514,4036.410256410257,4572.820512820514,4667.6923076923085,4235.384615384616,4536.410256410257,4524.615384615385,4587.179487179488,4443.589743589744,4802.051282051282,4255.384615384616,4260.512820512821,4281.538461538462,4606.153846153847
283.79858,0.3601077,0.5444442,0.33296818,0.5545404,0,0.0,0.0,0.0,0.0,0.0,0,0,0.0,0.09990551,0,0,28.0,0.0,0.0,4695.8974358974365,4002.0512820512827,4579.48717948718,4628.205128205129,4218.461538461539,4532.307692307693,4539.48717948718,4661.538461538462,4442.564102564103,4818.974358974359,4243.589743589744,4261.538461538462,4257.948717948719,4640.000000000001
284.01752,0.3601077,0.5444442,0.33296818,0.5545404,0,0.0,0.0,0.0,0.0,0.0,0,0,0.0,0.018650979,0,0,56.0,0.0,0.0,4733.333333333334,4017.435897435898,4586.153846153847,4664.102564102564,4203.589743589744,4528.717948717949,4567.6923076923085,4774.871794871796,4456.410256410257,4815.8974358974365,4165.128205128206,4286.153846153847,4246.666666666667,4660.512820512821
284.299,0.38979998,0.59066415,0.33300468,0.5543102,0,0.0,0.0,0.0,0.0,0.0,0,0,0.0,0.08462656,0,0,92.0,0.0,622.0,4716.923076923077,3975.8974358974365,4560.000000000001,4629.2307692307695,4200.000000000001,4526.153846153847,4540.512820512821,4727.179487179488,4453.333333333334,4783.076923076924,4355.384615384616,4259.48717948718,4181.025641025642,4659.48717948718
284.51794,0.38979998,0.59066415,0.33300468,0.5543102,0,0.0,0.0,0.0,0.0,0.0,0,0,0.0,0.07392343,0,0,120.0,0.0,622.0,4764.102564102564,4005.1282051282055,4583.076923076924,4789.743589743591,4231.282051282052,4553.333333333334,4533.333333333334,4676.410256410257,4445.641025641026,4772.307692307693,4442.564102564103,4313.333333333334,4202.051282051282,4712.820512820514
284.79944,0.34447166,0.68197256,0.33303756,0.5541031,0,0.0,0.0,0.0,0.0,0.0,0,0,0.0,0.6324624,0,0,27.0,0.0,0.0,4788.205128205129,4001.0256410256416,4608.205128205129,4843.589743589744,4253.333333333334,4575.8974358974365,4522.564102564103,4687.179487179488,4454.871794871796,4708.205128205129,4265.128205128206,4314.871794871796,4224.102564102564,4741.538461538462
285.01837,0.34447166,0.68197256,0.33303756,0.5541031,0,0.0,0.0,0.9065114,0.0,0.0,0,0,0.0,0.0,0,0,55.0,0.0,0.0,4782.564102564103,4000.0000000000005,4585.641025641026,4815.384615384616,4264.615384615385,4581.025641025642,4507.6923076923085,4674.871794871796,4441.025641025642,4688.717948717949,4367.6923076923085,4298.461538461539,4199.48717948718,4743.076923076924
285.29987,0.4494211,0.7952696,0.33306712,0.55391663,1,0.0,0.0,0.0,0.0,0.0,0,0,0.0,0.43377066,0,0,91.0,0.0,433.0,4763.589743589744,3971.7948717948725,4573.333333333334,4765.641025641026,4275.384615384616,4581.025641025642,4532.307692307693,4680.000000000001,4436.410256410257,4684.615384615386,4413.333333333334,4278.974358974359,4174.871794871796,4735.384615384616
285.5188,0.4494211,0.7952696,0.33306712,0.55391663,0,0.0,0.0,0.0,0.0,0.0,0,0,0.0,0.2497932,0,0,119.0,0.0,433.0,4761.538461538462,3973.8461538461543,4565.641025641026,4740.000000000001,4276.923076923077,4580.000000000001,4517.948717948719,4683.589743589744,4440.000000000001,4710.256410256411,4292.307692307693,4262.051282051282,4107.6923076923085,4732.820512820514
285.8003,0.43863058,0.90041906,0.33309376,0.55374885,0,0.0,0.0,0.0,0.0,0.0,0,0,0.0,1.0,0,0,26.0,0.0,0.0,4738.974358974359,3989.23076923077,4546.666666666667,4698.974358974359,4293.846153846154,4587.179487179488,4506.153846153847,4671.282051282052,4434.871794871796,4839.48717948718,4263.589743589744,4256.923076923077,4102.564102564103,4724.615384615386
285.8003,0.43863058,0.90041906,0.33309376,0.55374885,0,0.0,0.0,0.0,0.0,0.0,0,0,0.0,1.0,0,0,26.0,0.0,0.0,4738.974358974359,3989.23076923077,4546.666666666667,4698.974358974359,4293.846153846154,4587.179487179488,4506.153846153847,4671.282051282052,4434.871794871796,4839.48717948718,4263.589743589744,4256.923076923077,4102.564102564103,4724.615384615386
286.30072,0.4949609,1.0,0.33311772,0.55359787,0,0.0,0.0,0.0,0.0,0.0,0,0,0.0,0.34612593,0,0,90.0,0.0,537.0,4707.179487179488,4028.717948717949,4522.564102564103,4692.820512820514,4276.410256410257,4557.435897435898,4485.641025641026,4619.48717948718,4407.179487179487,4818.974358974359,4370.769230769231,4226.666666666667,4037.9487179487182,4689.2307692307695
286.51965,0.4949609,1.0,0.33311772,0.55359787,0,0.0,0.0,0.0,0.0,0.0,0,0,0.0,0.44972193,0,0,118.0,0.0,537.0,4683.589743589744,3974.8717948717954,4497.435897435898,4675.8974358974365,4267.179487179487,4551.794871794872,4447.6923076923085,4561.538461538462,4395.8974358974365,4729.743589743591,4173.846153846154,4165.128205128206,4021.538461538462,4676.410256410257
286.80115,0.52396464,1.0,0.33313927,0.55346197,0,0.0,0.0,0.0,0.0,0.0,0,0,0.0,1.0,0,0,25.0,0.0,0.0,4655.384615384616,3961.538461538462,4472.307692307693,4594.358974358975,4258.974358974359,4536.410256410257,4412.307692307693,4552.820512820514,4399.48717948718,4692.820512820514,4238.974358974359,4117.948717948719,4045.6410256410263,4687.6923076923085
287.0201,0.52396464,1.0,0.33313927,0.55346197,0,0.0,0.0,0.0,0.0,0.0,0,0,0.0,1.0,0,0,53.0,0.0,0.0,4553.846153846154,3888.717948717949,4401.538461538462,4432.307692307693,4211.282051282052,4491.794871794872,4368.717948717949,4481.025641025642,4381.025641025642,5142.051282051283,4189.74358974359,4077.435897435898,4135.384615384616,4607.179487179488
287.30157,0.64271194,1.0,0.33315867,0.55333966,0,0.0,0.0,0.0,0.0,0.0,0,0,0.0,1.0,0,0,89.0,0.0,868.0,4485.128205128206,3812.820512820513,4360.512820512821,4444.102564102564,4179.48717948718,4468.717948717949,4323.589743589744,4381.025641025642,4311.282051282052,4749.2307692307695,4060.0000000000005,3858.461538461539,4042.564102564103,3963.589743589744
287.52054,0.64271194,1.0,0.33315867,0.55333966,0,0.0,0.0,0.0,0.0,1.0,0,0,0.0,0.0,0,0,117.0,0.0,868.0,4504.102564102564,3861.538461538462,4382.564102564103,4473.846153846154,4208.717948717949,4496.923076923077,4326.153846153847,4446.666666666667,4323.589743589744,4616.410256410257,4218.461538461539,3912.307692307693,3918.461538461539,4114.358974358975
287.80203,0.7755864,1.0,0.33317614,0.5532296,0,0.0,0.0,0.0,0.0,0.5042532,0,0,0.0,0.0,0,0,24.0,0.0,0.0,4549.743589743591,3878.9743589743593,4414.358974358975,4472.820512820514,4227.179487179487,4515.8974358974365,4366.153846153847,4480.000000000001,4360.512820512821,4642.564102564103,4263.589743589744,3981.0256410256416,3944.615384615385,4247.179487179487
288.02097,0.7755864,1.0,0.33317614,0.5532296,0,0.0,0.0,0.09324208,0.0,0.0,0,0,0.0,0.0,0,0,52.0,0.0,0.0,4586.153846153847,3894.8717948717954,4435.384615384616,4487.179487179488,4244.102564102564,4532.820512820514,4378.974358974359,4454.871794871796,4373.846153846154,4615.384615384616,4391.794871794872,4040.0000000000005,3987.1794871794878,4366.153846153847
288.30246,0.85101694,1.0,0.33319187,0.5531305,0,0.0,0.0,0.0,0.0,0.0,0,0,0.0,0.32241032,0,0,88.0,0.0,619.0,4607.6923076923085,3890.2564102564106,4455.384615384616,4456.410256410257,4247.6923076923085,4545.641025641026,4426.666666666667,4533.333333333334,4396.923076923077,4615.384615384616,4436.923076923077,4077.9487179487187,4035.3846153846157,4411.282051282052
288.5214,0.85101694,1.0,0.33319187,0.5531305,0,0.0,0.0,0.0,0.0,0.0,0,0,0.0,0.26130277,0,0,116.0,0.0,619.0,4607.179487179488,3902.564102564103,4457.435897435898,4454.871794871796,4256.410256410257,4549.2307692307695,4432.307692307693,4519.48717948718,4388.717948717949,4576.410256410257,4472.307692307693,4086.1538461538466,4053.333333333334,4441.025641025642
288.8029,0.83730555,1.0,0.333206,0.55304134,0,0.0,0.0,0.0,0.0,0.0,0,0,0.0,0.5493178,0,0,23.0,0.0,0.0,4625.641025641026,3902.564102564103,4472.307692307693,4433.333333333334,4246.153846153847,4546.666666666667,4460.000000000001,4506.153846153847,4404.615384615385,4590.256410256411,4636.410256410257,4112.820512820514,4081.538461538462,4516.410256410257
289.02182,0.83730555,1.0,0.333206,0.55304134,0,0.0,0.0,0.0,0.0,0.0,0,0,0.0,0.12140875,0,0,51.0,0.0,0.0,4632.820512820514,3902.564102564103,4470.769230769231,4407.179487179487,4242.051282051282,4545.128205128206,4451.282051282052,4486.666666666667,4392.820512820514,4581.025641025642,4608.717948717949,4114.871794871796,4090.7692307692314,4535.8974358974365
289.3033,0.73836994,1.0,0.33321875,0.55296105,0,0.0,0.0,0.0,0.0,0.0,0,0,0.0,0.04580612,0,0,87.0,0.0,434.0,4635.384615384616,3907.692307692308,4481.025641025642,4403.076923076924,4224.615384615385,4531.794871794872,4439.48717948718,4408.205128205129,4381.025641025642,4574.358974358975,4654.358974358975,4111.794871794872,4098.974358974359,4577.948717948719
289.52225,0.73836994,1.0,0.33321875,0.55296105,0,0.0,0.0,0.0,0.0,0.0,0,0,0.0,0.0,0,0,115.0,0.0,434.0,4644.615384615385,3910.2564102564106,4489.2307692307695,4409.743589743591,4228.717948717949,4536.923076923077,4449.2307692307695,4406.666666666667,4378.974358974359,4584.102564102564,4526.666666666667,4110.769230769231,4112.820512820514,4600.512820512821
289.80374,0.7088715,1.0,0.3332302,0.5528889,0,0.0,0.0,0.0,0.0,0.0,0,0,0.0,0.28671855,0,0,22.0,0.0,0.0,4647.179487179488,3888.717948717949,4488.205128205129,4396.410256410257,4243.589743589744,4545.128205128206,4476.410256410257,4469.743589743591,4406.666666666667,4647.6923076923085,4593.333333333334,4154.871794871796,4169.74358974359,4615.8974358974365
290.02267,0.7088715,1.0,0.3332302,0.5528889,0,0.0,0.0,0.0,0.0,0.0,0,0,0.0,0.23438556,0,0,50.0,0.0,0.0,4735.384615384616,3984.615384615385,4523.076923076924,4445.641025641026,4241.025641025642,4538.974358974359,4480.000000000001,4480.512820512821,4402.564102564103,4598.461538461539,4455.8974358974365,4180.512820512821,4181.538461538462,4660.000000000001
290.2807,0.6652709,1.0,0.3332405,0.55282384,0,0.0,0.0,0.0,0.0,0.29700634,0,0,0.0,0.0,0,0,86.0,0.0,537.0,4673.846153846154,3933.333333333334,4493.333333333334,4424.615384615385,4255.384615384616,4551.282051282052,4480.000000000001,4474.871794871796,4410.256410256411,4597.435897435898,4518.461538461539,4172.820512820514,4134.871794871796,4612.820512820514
290.49966,0.6652709,1.0,0.3332405,0.55282384,0,0.0,0.0,0.0,0.0,0.0,0,0,0.0,0.19536452,0,0,114.0,0.0,537.0,4671.282051282052,3920.0000000000005,4500.000000000001,4409.743589743591,4247.179487179487,4545.641025641026,4478.461538461539,4457.948717948719,4402.564102564103,4573.333333333334,4469.743589743591,4161.538461538462,4116.923076923077,4605.641025641026
290.78113,0.68124706,1.0,0.3332498,0.5527653,0,0.0,0.0,0.0,0.0,0.0,0,0,0.0,0.12865673,0,0,21.0,0.0,0.0,4683.076923076924,3925.1282051282055,4506.153846153847,4411.794871794872,4238.461538461539,4538.974358974359,4457.948717948719,4483.589743589744,4408.717948717949,4613.846153846154,4438.974358974359,4155.8974358974365,4160.512820512821,4617.435897435898
291.0001,0.68124706,1.0,0.3332498,0.5527653,0,0.0,0.0,0.0,0.0,0.0,0,0,0.0,0.21006039,0,0,49.0,0.0,0.0,4673.333333333334,3922.564102564103,4491.794871794872,4398.461538461539,4225.641025641026,4521.538461538462,4415.384615384616,4443.589743589744,4410.256410256411,4606.666666666667,4341.538461538462,4108.717948717949,4144.615384615385,4620.512820512821
291.2503,0.7260329,0.94592375,0.3332582,0.55271244,0,0.0,0.0,0.0,0.0,0.0,0,0,0.0,0.043868087,0,0,81.0,0.0,855.0,4654.871794871796,3901.0256410256416,4492.307692307693,4387.179487179487,4214.358974358975,4514.358974358975,4402.564102564103,4389.2307692307695,4386.153846153847,4592.307692307693,4414.871794871796,4084.615384615385,4139.48717948718,4601.025641025642
291.50052,0.7260329,0.94592375,0.3332582,0.55271244,0,0.0,0.0,0.0,0.0,0.0,0,0,0.0,0.06570688,0,0,113.0,0.0,855.0,4665.641025641026,3913.333333333334,4482.051282051282,4384.102564102564,4200.000000000001,4505.128205128206,4379.48717948718,4478.974358974359,4377.948717948719,4561.025641025642,4427.6923076923085,4093.333333333334,4133.846153846154,4590.256410256411
291.782,0.6929093,0.89328057,0.33326572,0.552665,0,0.0,0.0,0.0,0.0,0.0,0,0,0.0,0.0061509493,0,0,20.0,0.0,0.0,4635.384615384616,3885.6410256410263,4473.846153846154,4369.743589743591,4205.641025641026,4503.076923076924,4379.48717948718,4550.769230769231,4391.794871794872,4586.153846153847,4447.179487179487,4105.128205128206,4135.8974358974365,4572.820512820514
292.00095,0.6929093,0.89328057,0.33326572,0.552665,0,0.0,0.0,0.0,0.0,0.0,0,0,0.0,0.007222452,0,0,48.0,0.0,0.0,4633.333333333334,3882.0512820512827,4468.205128205129,4363.076923076924,4195.8974358974365,4497.435897435898,4354.871794871796,4558.974358974359,4367.6923076923085,4543.076923076924,4271.794871794872,4076.9230769230776,4113.333333333334,4560.512820512821
292.28244,0.7006178,0.8124268,0.33327252,0.5526223,0,0.0,0.0,0.0,0.0,0.0,0,0,0.0,0.08110293,0,0,84.0,0.0,607.0,4647.179487179488,3892.307692307693,4475.384615384616,4377.435897435898,4196.410256410257,4501.538461538462,4351.794871794872,4552.307692307693,4381.538461538462,4570.256410256411,4381.538461538462,4116.923076923077,4121.538461538462,4556.410256410257
292.50137,0.7006178,0.8124268,0.33327252,0.5526223,0,0.0,0.0,0.0,0.0,0.0,0,0,0.0,0.017662747,0,0,112.0,0.0,607.0,4656.923076923077,3904.615384615385,4487.6923076923085,4396.410256410257,4207.6923076923085,4504.102564102564,4355.8974358974365,4503.589743589744,4387.6923076923085,4593.333333333334,4294.871794871796,4122.564102564103,4137.948717948719,4570.769230769231
292.78287,0.7139653,0.75289565,0.3332786,0.552584,0,0.0,0.0,0.075648285,0.0,0.0,0,0,0.0,0.0,0,0,19.0,0.0,0.0,4636.410256410257,3895.8974358974365,4484.102564102564,4393.333333333334,4211.282051282052,4511.794871794872,4363.589743589744,4454.358974358975,4373.846153846154,4601.025641025642,4203.589743589744,4110.256410256411,4130.769230769231,4563.589743589744
293.0018,0.7139653,0.75289565,0.3332786,0.552584,0,0.0,0.0,0.0,0.0,0.0,0,0,0.0,0.05541269,0,0,47.0,0.0,0.0,4656.410256410257,3909.2307692307695,4491.794871794872,4393.333333333334,4214.871794871796,4514.871794871796,4385.641025641026,4434.871794871796,4380.512820512821,4606.153846153847,4298.461538461539,4133.846153846154,4133.846153846154,4575.8974358974365
293.2833,0.71381015,0.6962447,0.33328408,0.5525494,0,0.0,0.0,0.0,0.0,0.0,0,0,0.0,0.023236763,0,0,83.0,0.0,434.0,4663.589743589744,3921.538461538462,4500.512820512821,4406.153846153847,4229.74358974359,4518.974358974359,4409.743589743591,4423.076923076924,4391.794871794872,4648.717948717949,4309.2307692307695,4162.051282051282,4165.128205128206,4588.717948717949
293.50223,0.71381015,0.6962447,0.33328408,0.5525494,0,0.0,0.0,0.0,0.0,0.0,0,0,0.0,0.17973423,0,0,111.0,0.0,434.0,4665.641025641026,3922.564102564103,4505.128205128206,4428.717948717949,4237.435897435898,4532.820512820514,4426.666666666667,4410.769230769231,4394.358974358975,4657.948717948719,4206.666666666667,4158.461538461539,4168.717948717949,4580.000000000001
293.75244,0.653608,0.63443816,0.33328903,0.55251825,0,0.0,0.0,0.0,0.0,0.0,0,0,0.0,0.113788076,0,0,14.0,0.0,537.0,4661.538461538462,3925.6410256410263,4491.794871794872,4452.307692307693,4244.102564102564,4539.48717948718,4434.358974358975,4382.051282051282,4386.153846153847,4651.282051282052,4198.461538461539,4154.871794871796,4155.384615384616,4554.871794871796
294.00266,0.653608,0.63443816,0.33328903,0.55251825,0,0.0,0.0,0.0,0.0,0.0,0,0,0.0,0.08932658,0,0,46.0,0.0,0.0,4673.333333333334,3923.589743589744,4504.102564102564,4457.948717948719,4237.435897435898,4534.871794871796,4470.769230769231,4372.307692307693,4384.102564102564,4667.6923076923085,4260.512820512821,4171.282051282052,4157.948717948719,4557.435897435898
294.25287,0.6542928,0.58100045,0.3332935,0.5524901,0,0.0,0.0,0.0,0.0,0.0,0,0,0.0,0.028756246,0,0,78.0,0.0,537.0,4672.307692307693,3920.5128205128212,4496.923076923077,4464.102564102564,4240.000000000001,4536.410256410257,4484.615384615385,4378.974358974359,4396.923076923077,4668.717948717949,4393.333333333334,4188.717948717949,4155.8974358974365,4558.974358974359
294.50308,0.6542928,0.58100045,0.3332935,0.5524901,0,0.0,0.0,0.0,0.0,0.0,0,0,0.0,0.1764186,0,0,110.0,0.0,537.0,4665.128205128206,3917.9487179487182,4488.205128205129,4460.000000000001,4252.307692307693,4545.128205128206,4498.461538461539,4370.256410256411,4379.48717948718,4652.307692307693,4335.8974358974365,4170.769230769231,4149.2307692307695,4581.538461538462
294.7533,0.6507162,0.5239799,0.33329752,0.55246484,0,0.0,0.0,0.0,0.0,0.0,0,0,0.0,0.20274904,0,0,13.0,0.0,853.0,4665.128205128206,3916.9230769230776,4490.256410256411,4465.128205128206,4253.333333333334,4545.128205128206,4503.076923076924,4387.179487179487,4396.923076923077,4669.743589743591,4183.589743589744,4166.666666666667,4156.923076923077,4622.564102564103
295.0035,0.6507162,0.5239799,0.33329752,0.55246484,0,0.0,0.0,0.0,0.0,0.0,0,0,0.0,0.051330265,0,0,45.0,0.0,0.0,4662.051282051282,3924.1025641025644,4491.282051282052,4476.923076923077,4255.384615384616,4547.6923076923085,4480.000000000001,4431.282051282052,4401.025641025642,4678.461538461539,4316.923076923077,4191.282051282052,4162.051282051282,4671.794871794872
295.285,0.6310148,0.47920024,0.33330113,0.55244213,0,0.0,0.0,0.0,0.0,0.0,0,0,0.0,0.01747748,0,0,81.0,0.0,853.0,4633.333333333334,3936.9230769230776,4507.6923076923085,4473.846153846154,4270.769230769231,4553.846153846154,4475.384615384616,4470.769230769231,4413.846153846154,4684.102564102564,4313.846153846154,4208.717948717949,4169.74358974359,4672.307692307693
295.50394,0.6310148,0.47920024,0.33330113,0.55244213,0,0.0,0.0,0.0,0.0,0.0,0,0,0.0,0.19967683,0,0,109.0,0.0,853.0,4598.461538461539,3938.9743589743593,4493.333333333334,4461.538461538462,4269.74358974359,4566.666666666667,4463.076923076924,4451.794871794872,4409.743589743591,4682.564102564103,4197.435897435898,4186.153846153847,4158.974358974359,4643.076923076924
295.78543,0.62142783,0.44193244,0.33330435,0.5524218,1,0.0,0.0,0.0,0.0,0.0,0,0,0.0,0.2376226,0,0,16.0,0.0,0.0,4637.435897435898,3935.3846153846157,4498.461538461539,4462.051282051282,4256.923076923077,4555.8974358974365,4466.153846153847,4504.102564102564,4409.2307692307695,4682.051282051282,4281.538461538462,4216.410256410257,4162.564102564103,4624.615384615385
296.0044,0.62142783,0.44193244,0.33330435,0.5524218,0,0.0,0.0,0.0,0.0,0.0,0,0,0.0,0.0058431537,0,0,44.0,0.0,0.0,4636.410256410257,3940.0000000000005,4489.2307692307695,4450.256410256411,4250.256410256411,4551.794871794872,4472.307692307693,4593.333333333334,4416.410256410257,4683.076923076924,4175.384615384616,4210.769230769231,4162.051282051282,4606.153846153847
296.28586,0.5950615,0.4183198,0.33330724,0.55240345,0,0.0,0.0,0.011922036,0.0,0.0,0,0,0.0,0.0,0,0,80.0,0.0,609.0,4650.256410256411,3925.6410256410263,4490.769230769231,4442.564102564103,4266.666666666667,4566.666666666667,4525.128205128206,4614.871794871796,4447.6923076923085,4703.076923076924,4335.384615384616,4264.615384615385,4212.307692307693,4603.076923076924
296.50482,0.5950615,0.4183198,0.33330724,0.55240345,0,0.0,0.0,0.0,0.0,0.0,0,0,0.0,0.19732362,0,0,108.0,0.0,609.0,4656.410256410257,3930.7692307692314,4491.282051282052,4444.102564102564,4277.948717948719,4570.769230769231,4535.384615384616,4614.358974358975,4446.153846153847,4718.461538461539,4338.461538461539,4279.48717948718,4200.512820512821,4591.282051282052
296.78632,0.56301695,0.41647217,0.33330986,0.552387,0,0.0,0.0,0.0,0.0,0.0,0,0,0.0,0.02460838,0,0,15.0,0.0,434.0,4682.564102564103,3934.358974358975,4503.589743589744,4458.974358974359,4283.589743589744,4575.8974358974365,4520.000000000001,4566.666666666667,4442.051282051282,4705.641025641026,4326.666666666667,4271.794871794872,4205.641025641026,4571.282051282052
297.00525,0.56301695,0.41647217,0.33330986,0.552387,0,0.0,0.0,0.0,0.0,0.0,0,0,0.0,0.10240198,0,0,43.0,0.0,0.0,4689.743589743591,3936.410256410257,4494.358974358975,4445.128205128206,4273.846153846154,4569.743589743591,4488.205128205129,4552.307692307693,4431.794871794872,4693.333333333334,4342.051282051282,4261.025641025642,4190.256410256411,4569.2307692307695
297.28674,0.53524625,0.40913853,0.3333122,0.5523722,0,0.0,0.0,0.0,0.0,0.0,0,0,0.0,0.031028345,0,0,79.0,0.0,434.0,4698.461538461539,3928.717948717949,4497.948717948719,4458.461538461539,4277.435897435898,4570.769230769231,4480.512820512821,4605.641025641026,4426.153846153847,4692.820512820514,4317.948717948719,4255.384615384616,4185.128205128206,4582.051282051282
297.50568,0.53524625,0.40913853,0.3333122,0.5523722,0,0.0,0.0,0.0,0.0,0.0,0,0,0.0,0.0,0,0,107.0,0.0,434.0,4702.051282051282,3936.410256410257,4503.589743589744,4465.128205128206,4282.564102564103,4571.794871794872,4470.769230769231,4636.923076923077,4438.974358974359,4695.384615384616,4273.333333333334,4255.8974358974365,4189.74358974359,4594.871794871796
297.7559,0.45125687,0.38449657,0.33331433,0.5523588,0,0.0,0.0,0.0,0.0,0.0,0,0,0.0,0.054327585,0,0,10.0,0.0,537.0,4729.743589743591,3974.8717948717954,4512.820512820514,4470.769230769231,4283.589743589744,4571.282051282052,4457.435897435898,4654.358974358975,4445.128205128206,4699.48717948718,4357.435897435898,4287.6923076923085,4209.74358974359,4636.410256410257
298.03738,0.45125687,0.38449657,0.33331433,0.5523588,0,0.0,0.0,0.0,0.0,0.0,0,0,0.0,0.08221976,0,0,46.0,0.0,0.0,4684.615384615386,3937.9487179487182,4493.333333333334,4444.615384615385,4283.589743589744,4565.641025641026,4457.948717948719,4573.333333333334,4425.128205128206,4687.6923076923085,4368.205128205129,4234.358974358975,4170.256410256411,4687.179487179488
298.25632,0.42299807,0.37164548,0.33331624,0.5523467,0,0.0,0.0,0.0,0.0,0.11794405,0,0,0.0,0.0,0,0,74.0,0.0,537.0,4676.923076923077,3940.5128205128212,4495.8974358974365,4422.564102564103,4287.179487179487,4572.820512820514,4472.307692307693,4546.153846153847,4440.000000000001,4694.358974358975,4357.948717948719,4232.820512820514,4175.8974358974365,4734.358974358975
298.50653,0.42299807,0.37164548,0.33331624,0.5523467,0,0.0,0.0,0.0,0.0,0.1137168,0,0,0.0,0.0,0,0,106.0,0.0,537.0,4685.641025641026,3937.9487179487182,4497.435897435898,4432.820512820514,4269.74358974359,4554.358974358975,4455.8974358974365,4578.461538461539,4426.153846153847,4685.641025641026,3904.615384615385,4177.948717948719,4166.153846153847,4770.256410256411
298.78802,0.4113545,0.35423946,0.33331797,0.5523359,0,0.0,0.0,0.0,0.0,0.0,0,0,0.0,0.10924895,0,0,13.0,0.0,854.0,4660.512820512821,3896.9230769230776,4472.820512820514,4384.102564102564,4240.512820512821,4534.358974358975,4437.435897435898,4543.076923076924,4423.589743589744,4682.564102564103,4409.2307692307695,4209.2307692307695,4180.000000000001,4785.641025641026
299.00696,0.4113545,0.35423946,0.33331797,0.5523359,0,0.0,0.0,0.0,0.0,0.0,0,0,0.0,0.108310826,0,0,41.0,0.0,0.0,4658.461538461539,3888.205128205129,4458.974358974359,4381.538461538462,4238.974358974359,4533.846153846154,4407.6923076923085,4521.025641025642,4413.846153846154,4674.871794871796,4390.769230769231,4190.256410256411,4163.589743589744,4771.282051282052
299.28845,0.34137273,0.33770072,0.33331951,0.5523262,0,0.0,0.0,0.0,0.0,0.0,0,0,0.0,0.11561044,0,0,77.0,0.0,852.0,4701.538461538462,3961.0256410256416,4500.512820512821,4421.538461538462,4221.538461538462,4523.589743589744,4392.820512820514,4497.948717948719,4411.794871794872,4660.512820512821,4105.128205128206,4170.769230769231,4158.461538461539,4759.48717948718
299.5074,0.34137273,0.33770072,0.33331951,0.5523262,0,0.0,0.0,0.07458145,0.0,0.0,0,0,0.0,0.0,0,0,105.0,0.0,852.0,4672.820512820514,3940.0000000000005,4497.948717948719,4417.435897435898,4241.538461538462,4545.641025641026,4423.589743589744,4509.743589743591,4430.769230769231,4703.589743589744,4253.333333333334,4205.128205128206,4146.666666666667,4765.641025641026
299.78888,0.28422076,0.36049592,0.3333209,0.55231744,0,0.0,0.0,0.0,0.0,0.0,0,0,0.0,0.17144607,0,0,12.0,0.0,608.0,4675.384615384616,3914.8717948717954,4502.051282051282,4411.794871794872,4241.025641025642,4543.589743589744,4433.846153846154,4525.641025641026,4427.179487179487,4712.307692307693,4162.564102564103,4197.435897435898,4169.74358974359,4749.2307692307695
300.0078,0.28422076,0.36049592,0.3333209,0.55231744,0,0.0,0.0,0.0,0.0,0.0,0,0,0.0,0.22254035,0,0,40.0,0.0,0.0,4688.205128205129,3922.564102564103,4505.641025641026,4427.6923076923085,4237.435897435898,4536.410256410257,4437.948717948719,4517.435897435898,4427.179487179487,4690.256410256411,4274.358974358975,4209.74358974359,4161.538461538462,4734.358974358975
300.2893,0.21813512,0.34412342,0.33332214,0.5523096,0,0.0,0.0,0.0,0.0,0.0,0,0,0.0,0.16691455,0,0,76.0,0.0,608.0,4692.307692307693,3945.1282051282055,4506.666666666667,4458.461538461539,4250.256410256411,4562.051282051282,4449.2307692307695,4468.717948717949,4432.307692307693,4676.410256410257,4131.794871794872,4195.8974358974365,4136.410256410257,4687.6923076923085
300.50824,0.21813512,0.34412342,0.33332214,0.5523096,0,0.0,0.0,0.0,0.0,0.0,0,0,0.0,0.056892503,0,0,104.0,0.0,608.0,4686.666666666667,3924.615384615385,4490.256410256411,4436.410256410257,4246.666666666667,4554.358974358975,4443.076923076924,4445.641025641026,4423.076923076924,4674.871794871796,4370.256410256411,4211.794871794872,4134.358974358975,4650.256410256411
300.75845,0.16455062,0.32514685,0.33332327,0.5523025,0,0.0,0.0,0.0,0.0,0.0,0,0,0.0,0.14238948,0,0,7.0,0.0,471.0,4684.102564102564,3920.0000000000005,4491.282051282052,4433.846153846154,4238.461538461539,4538.974358974359,4441.538461538462,4431.794871794872,4412.820512820514,4642.564102564103,4187.179487179487,4187.179487179487,4127.6923076923085,4624.615384615385
301.00867,0.16455062,0.32514685,0.33332327,0.5523025,0,0.0,0.0,0.0,0.0,0.0,0,0,0.0,0.16399902,0,0,39.0,0.0,0.0,4693.846153846154,3940.0000000000005,4509.743589743591,4443.076923076924,4257.435897435898,4554.871794871796,4444.615384615385,4429.743589743591,4427.179487179487,4667.6923076923085,4307.179487179487,4220.512820512821,4156.923076923077,4629.2307692307695
301.25888,0.21482395,0.31105104,0.33332428,0.55229604,0,0.0,0.0,0.0,0.0,0.0,0,0,0.0,0.07015142,0,0,71.0,0.0,473.0,4693.846153846154,3938.461538461539,4507.179487179488,4452.307692307693,4255.384615384616,4548.717948717949,4448.717948717949,4400.000000000001,4427.179487179487,4692.820512820514,4225.128205128206,4218.461538461539,4156.410256410257,4614.871794871796
301.50912,0.21482395,0.31105104,0.33332428,0.55229604,0,0.0,0.0,0.0,0.0,0.0,0,0,0.0,0.12708569,0,0,103.0,0.0,433.0,4689.743589743591,3945.6410256410263,4509.743589743591,4449.743589743591,4252.820512820514,4549.2307692307695,4450.769230769231,4379.48717948718,4425.128205128206,4688.717948717949,4346.666666666667,4216.923076923077,4147.179487179487,4603.589743589744
301.75934,0.27301812,0.28389317,0.33332518,0.5522903,0,0.0,0.0,0.0,0.0,0.0,0,0,0.0,0.18162271,0,0,6.0,0.0,536.0,4672.307692307693,3937.9487179487182,4491.282051282052,4435.384615384616,4239.48717948718,4535.384615384616,4431.282051282052,4340.512820512821,4397.948717948719,4664.102564102564,4278.974358974359,4168.205128205129,4126.666666666667,4567.179487179488
302.00955,0.27301812,0.28389317,0.33332518,0.5522903,0,0.0,0.0,0.0,0.0,0.0,0,0,0.0,0.18206394,0,0,38.0,0.0,0.0,4672.307692307693,3948.205128205129,4498.974358974359,4440.512820512821,4241.538461538462,4541.538461538462,4432.307692307693,4330.769230769231,4405.641025641026,4675.384615384616,4262.051282051282,4171.794871794872,4137.435897435898,4565.641025641026
302.25977,0.2606407,0.26070103,0.333326,0.55228513,0,0.0,0.0,0.0,0.0,0.0,0,0,0.0,0.51949704,0,0,70.0,0.0,536.0,4680.000000000001,3953.333333333334,4495.384615384616,4456.410256410257,4270.769230769231,4565.128205128206,4448.717948717949,4345.128205128206,4414.358974358975,4708.205128205129,4160.000000000001,4188.205128205129,4171.282051282052,4564.615384615385
302.50998,0.2606407,0.26070103,0.333326,0.55228513,0,0.0,0.0,0.0,0.0,0.0,0,0,0.0,0.22997671,0,0,102.0,0.0,537.0,4670.256410256411,3951.7948717948725,4509.2307692307695,4458.974358974359,4266.153846153847,4572.307692307693,4464.615384615385,4345.128205128206,4426.153846153847,4707.179487179488,4232.820512820514,4205.641025641026,4180.512820512821,4543.076923076924
302.7602,0.31760675,0.24782301,0.33332676,0.5522804,0,0.0,0.0,0.0,0.0,0.0,0,0,0.0,0.23318294,0,0,5.0,0.0,549.0,4652.307692307693,3923.589743589744,4491.282051282052,4440.512820512821,4248.717948717949,4560.000000000001,4467.6923076923085,4331.282051282052,4409.2307692307695,4690.769230769231,4257.948717948719,4186.666666666667,4153.846153846154,4524.615384615385
303.0104,0.31760675,0.24782301,0.33332676,0.5522804,0,0.0,0.0,0.0,0.0,0.0,0,0,0.0,0.25173724,0,0,37.0,0.0,0.0,4651.282051282052,3924.615384615385,4477.948717948719,4432.307692307693,4256.923076923077,4565.641025641026,4443.076923076924,4291.794871794872,4405.128205128206,4692.820512820514,4194.358974358975,4172.820512820514,4151.282051282052,4510.256410256411
303.2919,0.37381136,0.23216651,0.3333274,0.55227625,0,0.0,0.0,0.0,0.0,0.0,0,0,0.0,0.20365277,0,0,73.0,0.0,478.0,4653.846153846154,3950.2564102564106,4493.846153846154,4450.769230769231,4268.717948717949,4577.948717948719,4480.000000000001,4307.6923076923085,4419.48717948718,4701.538461538462,4163.589743589744,4195.384615384616,4159.48717948718,4501.538461538462
303.51083,0.37381136,0.23216651,0.3333274,0.55227625,0,0.0,0.0,0.0,0.0,0.0,0,0,0.0,0.1549176,0,0,101.0,0.0,846.0,4635.384615384616,3926.666666666667,4484.102564102564,4431.282051282052,4257.948717948719,4563.076923076924,4480.000000000001,4309.743589743591,4414.871794871796,4693.846153846154,4190.769230769231,4189.2307692307695,4144.615384615385,4483.076923076924
303.76105,0.42121425,0.23021251,0.333328,0.5522725,0,0.0,0.0,0.0,0.0,0.0,0,0,0.0,0.0,0,0,4.0,0.0,552.0,4625.128205128206,3909.2307692307695,4475.8974358974365,4412.307692307693,4246.153846153847,4549.2307692307695,4468.205128205129,4281.025641025642,4398.974358974359,4684.615384615386,4166.153846153847,4174.871794871796,4146.153846153847,4476.410256410257
303.76105,0.42121425,0.23021251,0.333328,0.5522725,0,0.0,0.0,0.0,0.0,0.0,0,0,0.0,0.0,0,0,4.0,0.0,552.0,4625.128205128206,3909.2307692307695,4475.8974358974365,4412.307692307693,4246.153846153847,4549.2307692307695,4468.205128205129,4281.025641025642,4398.974358974359,4684.615384615386,4166.153846153847,4174.871794871796,4146.153846153847,4476.410256410257
304.26147,0.46145356,0.257536,0.33332855,0.5522691,0,0.0,0.0,0.0,0.0,0.0,0,0,0.0,0.0,0,0,68.0,0.0,552.0,4647.179487179488,3909.7435897435903,4501.538461538462,4413.333333333334,4244.102564102564,4554.871794871796,4475.384615384616,4280.000000000001,4408.717948717949,4672.307692307693,4307.6923076923085,4191.282051282052,4166.153846153847,4489.743589743591
304.5117,0.46145356,0.257536,0.33332855,0.5522691,0,0.0,0.0,0.0,0.0,0.0,0,0,0.0,0.2570926,0,0,100.0,0.0,607.0,4629.2307692307695,3896.410256410257,4488.205128205129,4413.846153846154,4232.820512820514,4546.666666666667,4456.410256410257,4262.564102564103,4394.358974358975,4658.974358974359,4155.384615384616,4159.48717948718,4147.179487179487,4476.410256410257
304.7619,0.4807407,0.2710768,0.33332902,0.55226606,0,0.0,0.0,0.0,0.0,0.0,0,0,0.0,0.546886,0,0,3.0,0.0,539.0,4625.641025641026,3901.0256410256416,4488.205128205129,4429.2307692307695,4248.205128205129,4553.846153846154,4468.717948717949,4282.051282051282,4407.6923076923085,4684.615384615386,4152.307692307693,4169.74358974359,4151.282051282052,4473.333333333334
305.01212,0.4807407,0.2710768,0.33332902,0.55226606,0,0.0,0.0,0.0,0.0,0.0,0,0,0.0,0.27062166,0,0,35.0,0.0,0.0,4602.051282051282,3889.7435897435903,4474.358974358975,4413.333333333334,4231.282051282052,4545.128205128206,4457.948717948719,4271.794871794872,4401.025641025642,4670.256410256411,4339.48717948718,4175.8974358974365,4138.974358974359,4457.435897435898
305.26233,0.51982224,0.28132015,0.33332947,0.5522633,0,0.0,0.0,0.0,0.0,0.0,0,0,0.0,0.42345807,0,0,67.0,0.0,539.0,4583.589743589744,3878.461538461539,4456.923076923077,4383.076923076924,4196.410256410257,4517.435897435898,4442.051282051282,4252.820512820514,4385.641025641026,4643.076923076924,4260.512820512821,4133.333333333334,4124.102564102564,4442.051282051282
305.51254,0.51982224,0.28132015,0.33332947,0.5522633,0,0.0,0.0,0.0,0.0,0.0,0,0,0.0,0.11213692,0,0,99.0,0.0,433.0,4569.2307692307695,3857.435897435898,4452.820512820514,4358.974358974359,4193.333333333334,4513.846153846154,4457.435897435898,4274.358974358975,4376.923076923077,4627.6923076923085,4243.076923076924,4120.000000000001,4127.6923076923085,4414.871794871796
305.79404,0.47461745,0.31186566,0.33332986,0.5522609,0,0.0,0.0,0.0,0.0,0.0,0,0,0.0,0.17487027,0,0,6.0,0.0,536.0,4597.435897435898,3894.8717948717954,4477.435897435898,4392.307692307693,4208.717948717949,4528.205128205129,4463.076923076924,4281.538461538462,4378.974358974359,4596.923076923077,4253.333333333334,4146.153846153847,4126.153846153847,4442.051282051282
306.01297,0.47461745,0.31186566,0.33332986,0.5522609,0,0.0,0.0,0.0,0.0,0.0,0,0,0.0,0.46478525,0,0,34.0,0.0,0.0,4571.282051282052,3900.5128205128212,4467.179487179487,4360.512820512821,4243.589743589744,4556.410256410257,4463.589743589744,4294.358974358975,4378.974358974359,4633.333333333334,4288.205128205129,4162.564102564103,4146.153846153847,4434.871794871796
306.29446,0.43482375,0.3111569,0.3333302,0.5522587,0,0.0,0.0,0.0,0.0,0.0,0,0,0.0,1.0,0,0,70.0,0.0,536.0,4545.641025641026,3921.538461538462,4457.435897435898,4327.6923076923085,4256.923076923077,4565.641025641026,4430.256410256411,4253.333333333334,4353.846153846154,4638.974358974359,4118.461538461539,4114.871794871796,4112.307692307693,4394.871794871796
306.5134,0.43482375,0.3111569,0.3333302,0.5522587,0,0.0,0.0,0.0,0.0,0.0,0,0,0.0,0.89423317,0,0,98.0,0.0,536.0,4536.923076923077,3957.9487179487182,4461.538461538462,4329.743589743591,4256.410256410257,4564.102564102564,4430.256410256411,4284.615384615385,4368.717948717949,4701.538461538462,4271.282051282052,4159.48717948718,4129.2307692307695,4377.948717948719
306.7949,0.34461036,0.31933308,0.3333305,0.55225664,0,0.0,0.0,0.0,0.0,0.0,0,0,0.0,0.78111106,0,0,5.0,0.0,549.0,4542.051282051282,3984.615384615385,4488.717948717949,4367.179487179487,4251.794871794872,4563.076923076924,4411.794871794872,4276.410256410257,4366.153846153847,4737.948717948719,4142.564102564103,4163.589743589744,4136.410256410257,4367.6923076923085
307.01385,0.34461036,0.31933308,0.3333305,0.55225664,0,0.0,0.0,0.0,0.0,0.0,0,0,0.0,0.7096678,0,0,33.0,0.0,0.0,4574.358974358975,3980.5128205128212,4515.8974358974365,4389.2307692307695,4241.025641025642,4548.205128205129,4447.179487179487,4293.333333333334,4365.641025641026,4747.6923076923085,4300.000000000001,4200.000000000001,4143.589743589744,4384.615384615385
307.26407,0.4044945,0.32860032,0.3333308,0.55225486,0,0.0,0.0,0.0,0.0,0.0,0,0,0.0,0.6424535,0,0,65.0,0.0,458.0,4601.538461538462,4001.0256410256416,4520.512820512821,4417.948717948719,4240.000000000001,4548.205128205129,4442.564102564103,4295.8974358974365,4376.410256410257,4766.666666666667,4268.205128205129,4216.410256410257,4165.128205128206,4391.794871794872
307.5768,0.4044945,0.32860032,0.3333308,0.55225486,1,0.0,0.0,0.0,0.0,0.0,0,0,0.0,0.3342668,0,0,105.0,0.0,844.0,4629.2307692307695,3984.1025641025644,4521.025641025642,4423.589743589744,4216.410256410257,4525.641025641026,4442.564102564103,4294.871794871796,4381.025641025642,4765.641025641026,4059.48717948718,4204.615384615385,4208.205128205129,4419.48717948718
307.7645,0.3893107,0.3421738,0.33333105,0.55225325,0,0.0,0.0,0.0,0.0,0.0,0,0,0.0,0.22553678,0,0,0.0,0.0,488.0,4629.743589743591,3959.48717948718,4515.8974358974365,4424.102564102564,4209.74358974359,4523.076923076924,4456.923076923077,4330.256410256411,4403.076923076924,4748.717948717949,4169.74358974359,4225.128205128206,4191.282051282052,4412.307692307693
308.0147,0.3893107,0.3421738,0.33333105,0.55225325,0,0.0,0.0,0.0,0.0,0.0,0,0,0.0,0.64367586,0,0,32.0,0.0,0.0,4672.307692307693,3974.8717948717954,4525.641025641026,4456.410256410257,4215.8974358974365,4528.205128205129,4466.666666666667,4346.666666666667,4417.948717948719,4737.948717948719,4094.8717948717954,4240.000000000001,4174.358974358975,4438.461538461539
308.2962,0.3542206,0.35391504,0.3333313,0.5522518,0,0.0,0.0,0.0,0.0,0.0,0,0,0.0,0.8687918,0,0,68.0,0.0,552.0,4663.589743589744,3950.7692307692314,4513.333333333334,4461.025641025642,4224.102564102564,4537.948717948719,4460.000000000001,4376.410256410257,4425.128205128206,4725.128205128206,4278.461538461539,4267.179487179487,4174.871794871796,4446.153846153847
308.51514,0.3542206,0.35391504,0.3333313,0.5522518,0,0.0,0.0,0.0,0.0,0.0,0,0,0.0,0.1499216,0,0,96.0,0.0,607.0,4672.820512820514,3949.7435897435903,4520.512820512821,4478.461538461539,4238.461538461539,4555.384615384616,4473.333333333334,4387.179487179487,4430.256410256411,4700.512820512821,4411.282051282052,4298.461538461539,4187.179487179487,4477.948717948719
308.79663,0.298344,0.36183366,0.3333315,0.5522505,0,0.0,0.0,0.0,0.0,0.0,0,0,0.0,0.31152776,0,0,3.0,0.0,539.0,4691.282051282052,3963.589743589744,4528.205128205129,4500.512820512821,4238.974358974359,4552.820512820514,4459.48717948718,4394.358974358975,4446.666666666667,4731.794871794872,4329.743589743591,4316.410256410257,4194.871794871796,4520.000000000001
309.01556,0.298344,0.36183366,0.3333315,0.5522505,0,0.0,0.0,0.0,0.0,0.0,0,0,0.0,0.2233776,0,0,31.0,0.0,0.0,4705.641025641026,3966.1538461538466,4529.743589743591,4504.102564102564,4250.256410256411,4562.051282051282,4473.333333333334,4427.179487179487,4457.948717948719,4724.615384615386,4327.6923076923085,4327.6923076923085,4204.102564102564,4522.564102564103
309.29706,0.34469402,0.37538847,0.33333167,0.5522493,0,0.0,0.0,0.0,0.0,0.0,0,0,0.0,0.03834025,0,0,67.0,0.0,539.0,4682.051282051282,3932.820512820513,4505.641025641026,4457.435897435898,4239.48717948718,4545.641025641026,4495.384615384616,4400.000000000001,4425.641025641026,4698.974358974359,4223.076923076924,4278.974358974359,4161.025641025642,4523.589743589744
309.516,0.34469402,0.37538847,0.33333167,0.5522493,0,0.0,0.0,0.0,0.0,0.0,0,0,0.0,0.156316,0,0,95.0,0.0,438.0,4675.384615384616,3943.076923076924,4496.410256410257,4462.564102564103,4265.128205128206,4565.128205128206,4485.641025641026,4412.307692307693,4437.948717948719,4688.205128205129,4184.102564102564,4283.589743589744,4165.128205128206,4513.333333333334
309.7975,0.3693652,0.36568588,0.33333185,0.5522483,0,0.0,0.0,0.0,0.0,0.0,0,0,0.0,0.12654364,0,0,2.0,0.0,446.0,4655.8974358974365,3936.410256410257,4489.2307692307695,4414.871794871796,4255.384615384616,4558.974358974359,4477.435897435898,4420.512820512821,4429.2307692307695,4692.820512820514,4220.000000000001,4269.2307692307695,4144.615384615385,4491.794871794872
310.01642,0.3693652,0.36568588,0.33333185,0.5522483,0,0.0,0.0,0.0,0.0,0.0,0,0,0.0,0.13301678,0,0,30.0,0.0,0.0,4673.333333333334,3935.3846153846157,4508.717948717949,4425.641025641026,4248.717948717949,4554.358974358975,4468.717948717949,4411.282051282052,4427.179487179487,4690.256410256411,4369.743589743591,4297.948717948719,4171.794871794872,4520.000000000001
310.2979,0.3490206,0.3448084,0.333332,0.55224735,0,0.0,0.0,0.0,0.0,0.0,0,0,0.0,0.22270848,0,0,66.0,0.0,446.0,4720.000000000001,3965.1282051282055,4526.153846153847,4438.461538461539,4252.307692307693,4558.974358974359,4479.48717948718,4422.051282051282,4429.743589743591,4699.48717948718,4211.794871794872,4314.358974358975,4223.076923076924,4565.641025641026
310.51685,0.3490206,0.3448084,0.333332,0.55224735,0,0.0,0.0,0.0,0.0,0.0,0,0,0.0,0.13011076,0,0,94.0,0.0,536.0,4668.205128205129,3926.666666666667,4508.717948717949,4437.948717948719,4249.2307692307695,4555.8974358974365,4485.128205128206,4429.2307692307695,4428.205128205129,4693.846153846154,4017.435897435898,4269.2307692307695,4172.820512820514,4520.512820512821
310.79834,0.31360304,0.35389328,0.33333212,0.55224645,0,0.0,0.0,0.0,0.0,0.0,0,0,0.0,0.19567907,0,0,1.0,0.0,458.0,4700.512820512821,3943.589743589744,4528.205128205129,4441.025641025642,4243.589743589744,4548.205128205129,4475.8974358974365,4427.6923076923085,4432.820512820514,4708.205128205129,4340.000000000001,4324.102564102564,4210.256410256411,4537.435897435898
