timestamp,excitement,frustration,meditation,engagementBoredom,blink,clench,laugh,smile,eyebrow,furrowBrow,lookLeft,lookRight,smirkLeft,smirkRight,winkLeft,winkRight,eeg0,eeg1,eeg2,eeg3,eeg4,eeg5,eeg6,eeg7,eeg8,eeg9,eeg10,eeg11,eeg12,eeg13,eeg14,eeg15,eeg16
1118.336,0.584935,0.5303882,0.48929313,0.4332192,0,0.0,0.0,0.0,0.0,0.0,0,0,0.0,0.22258835,0,0,77.0,0.0,722.0,4637.948717948719,3862.0512820512827,4485.641025641026,4523.076923076924,4253.333333333334,4571.282051282052,4409.743589743591,4398.461538461539,4472.307692307693,4590.769230769231,4423.589743589744,4249.2307692307695,4109.2307692307695,4503.589743589744
1118.5863,0.66522294,0.5613753,0.50362176,0.42437086,0,0.0,0.0,0.0,0.0,0.034121595,0,0,0.0,0.0,0,0,109.0,0.0,722.0,4631.794871794872,3867.1794871794878,4493.333333333334,4516.923076923077,4251.794871794872,4568.205128205129,4439.48717948718,4421.538461538462,4461.025641025642,4595.384615384616,4407.179487179487,4254.871794871796,4084.615384615385,4503.589743589744
1118.8365,0.66522294,0.5613753,0.50362176,0.42437086,0,0.0,0.0,0.0,0.0,0.0057603074,0,0,0.0,0.0,0,0,12.0,0.0,535.0,4651.282051282052,3911.7948717948725,4513.333333333334,4535.8974358974365,4253.846153846154,4563.589743589744,4435.384615384616,4429.2307692307695,4469.2307692307695,4629.2307692307695,4438.461538461539,4285.128205128206,4121.025641025642,4519.48717948718
1119.0867,0.7580005,0.58470666,0.5156344,0.41667062,0,0.0,0.0,0.0,0.0,0.09474786,0,0,0.0,0.0,0,0,44.0,0.0,0.0,4615.384615384616,3891.7948717948725,4483.076923076924,4488.205128205129,4252.307692307693,4568.717948717949,4418.461538461539,4391.794871794872,4440.512820512821,4575.384615384616,4384.615384615385,4237.948717948719,4083.076923076924,4479.48717948718
1119.3369,0.7580005,0.58470666,0.5156344,0.41667062,0,0.0,0.0,0.0,0.0,0.0,0,0,0.0,0.0,0,0,76.0,0.0,535.0,4597.435897435898,3904.615384615385,4482.051282051282,4477.948717948719,4239.48717948718,4552.820512820514,4429.743589743591,4407.6923076923085,4446.666666666667,4622.564102564103,4385.641025641026,4242.051282051282,4092.820512820513,4477.948717948719
1119.462,0.7682351,0.5997754,0.5228517,0.41264734,0,0.0,0.0,0.0,0.0,0.0,0,0,0.0,0.0,0,0,92.0,0.0,535.0,4600.000000000001,3909.2307692307695,4482.564102564103,4471.794871794872,4236.410256410257,4548.205128205129,4420.000000000001,4397.435897435898,4440.000000000001,4621.538461538462,4388.205128205129,4237.948717948719,4102.051282051282,4475.8974358974365
1119.8374,0.7682351,0.5997754,0.5228517,0.41264734,0,0.0,0.0,0.0,0.0,0.08364094,0,0,0.0,0.0,0,0,11.0,0.0,445.0,4607.179487179488,3899.48717948718,4492.820512820514,4430.769230769231,4222.564102564103,4538.461538461539,4426.153846153847,4420.512820512821,4440.512820512821,4684.102564102564,4363.076923076924,4242.051282051282,4108.205128205129,4488.205128205129
1120.0875,0.75646204,0.6244258,0.52933866,0.40628642,0,0.0,0.0,0.0,0.0,0.025900388,0,0,0.0,0.0,0,0,43.0,0.0,0.0,4663.589743589744,3929.7435897435903,4498.974358974359,4441.538461538462,4226.666666666667,4538.461538461539,4444.102564102564,4423.076923076924,4452.820512820514,4826.666666666667,4471.282051282052,4294.358974358975,4196.410256410257,4528.205128205129
1120.3378,0.75646204,0.6244258,0.52933866,0.40628642,0,0.0,0.0,0.16734447,0.0,0.0,0,0,0.0,0.0,0,0,75.0,0.0,445.0,4660.000000000001,3941.0256410256416,4460.000000000001,4417.948717948719,4200.000000000001,4525.128205128206,4387.6923076923085,4332.820512820514,4409.743589743591,4896.410256410257,4482.051282051282,4280.000000000001,4277.435897435898,4538.974358974359
1120.588,0.7400579,0.66981083,0.53516805,0.4033215,0,0.0,0.0,0.063112885,0.0,0.0,0,0,0.0,0.0,0,0,107.0,0.0,445.0,4694.871794871796,4024.1025641025644,4482.051282051282,4483.076923076924,4266.153846153847,4564.102564102564,4437.948717948719,4459.48717948718,4468.205128205129,4953.846153846154,4536.410256410257,4374.871794871796,4381.025641025642,4545.641025641026
1120.8383,0.7400579,0.66981083,0.53516805,0.4033215,0,0.0,0.20940802,0.0,0.0,0.0,0,0,0.0,0.0,0,0,10.0,0.0,528.0,4604.102564102564,3984.615384615385,4474.358974358975,4501.025641025642,4301.025641025642,4583.076923076924,4420.512820512821,4379.48717948718,4433.333333333334,4863.076923076924,4478.461538461539,4316.410256410257,4327.179487179487,4450.769230769231
1121.0885,0.7338704,0.73514736,0.52794755,0.4030798,0,0.0,0.19832604,0.0,0.0,0.0,0,0,0.0,0.0,0,0,42.0,0.0,0.0,4555.8974358974365,3925.6410256410263,4443.076923076924,4467.179487179487,4288.717948717949,4559.48717948718,4374.358974358975,4347.179487179487,4406.153846153847,4826.666666666667,4426.153846153847,4272.820512820514,4294.871794871796,4411.282051282052
1121.3386,0.7338704,0.73514736,0.52794755,0.4030798,0,0.0,0.0,0.0,0.0,0.009232333,0,0,0.0,0.0,0,0,74.0,0.0,528.0,4565.641025641026,3900.0000000000005,4447.6923076923085,4497.948717948719,4292.820512820514,4566.666666666667,4392.307692307693,4363.589743589744,4412.307692307693,4794.871794871796,4494.871794871796,4281.538461538462,4299.48717948718,4434.358974358975
1121.5889,0.8043136,0.7750566,0.51323044,0.4115071,0,0.0,0.10695768,0.0,0.0,0.0,0,0,0.0,0.0,0,0,106.0,0.0,528.0,4591.282051282052,3926.1538461538466,4476.923076923077,4512.307692307693,4287.179487179487,4555.8974358974365,4344.615384615385,4324.615384615385,4404.102564102564,4785.128205128206,4511.282051282052,4280.000000000001,4298.974358974359,4441.538461538462
1121.8391,0.8043136,0.7750566,0.51323044,0.4115071,0,0.0,0.46783707,0.0,0.0,0.0,0,0,0.0,0.0,0,0,9.0,0.0,457.0,4610.256410256411,3911.2820512820517,4467.179487179487,4446.153846153847,4292.820512820514,4571.794871794872,4359.48717948718,4321.538461538462,4382.564102564103,4677.435897435898,4473.846153846154,4270.769230769231,4267.6923076923085,4444.102564102564
1121.9955,0.69284177,0.7787909,0.49524072,0.42558026,0,0.0,0.0,0.0,0.0,0.0,0,0,0.0,0.0,0,0,29.0,0.0,0.0,4566.153846153847,3855.3846153846157,4455.384615384616,4430.256410256411,4285.128205128206,4571.794871794872,4390.256410256411,4352.307692307693,4390.769230769231,4667.6923076923085,4447.179487179487,4253.333333333334,4198.461538461539,4432.307692307693
1122.3395,0.69284177,0.7787909,0.49524072,0.42558026,0,0.0,0.0,0.0,0.0,0.006355295,0,0,0.0,0.0,0,0,73.0,0.0,457.0,4582.564102564103,3890.2564102564106,4475.384615384616,4475.8974358974365,4261.025641025642,4558.461538461539,4401.538461538462,4376.410256410257,4393.846153846154,4632.307692307693,4424.102564102564,4269.74358974359,4123.589743589744,4434.358974358975
1122.5897,0.6834973,0.7615507,0.47904998,0.43824613,0,0.0,0.0,0.0,0.0,0.11342408,0,0,0.0,0.0,0,0,105.0,0.0,722.0,4642.051282051282,3945.6410256410263,4511.794871794872,4514.871794871796,4248.717948717949,4551.794871794872,4413.333333333334,4385.128205128206,4388.205128205129,4600.000000000001,4418.461538461539,4285.128205128206,4101.025641025642,4483.076923076924
1122.84,0.6834973,0.7615507,0.47904998,0.43824613,0,0.0,0.0,0.0,0.0,0.051958684,0,0,0.0,0.0,0,0,8.0,0.0,408.0,4590.769230769231,3896.410256410257,4493.333333333334,4464.102564102564,4249.74358974359,4557.948717948719,4430.256410256411,4396.410256410257,4387.179487179487,4622.564102564103,4383.076923076924,4272.820512820514,4081.538461538462,4448.717948717949
1123.0902,0.5856142,0.74680144,0.46443936,0.44967908,0,0.0,0.0,0.0,0.0,0.06474729,0,0,0.0,0.0,0,0,40.0,0.0,0.0,4604.102564102564,3894.358974358975,4493.333333333334,4473.846153846154,4234.871794871796,4541.025641025642,4436.410256410257,4412.307692307693,4380.000000000001,4622.051282051282,4404.102564102564,4274.358974358975,4115.8974358974365,4486.666666666667
1123.3403,0.5856142,0.74680144,0.46443936,0.44967908,0,0.0,0.0,0.0,0.0,0.045612466,0,0,0.0,0.0,0,0,72.0,0.0,408.0,4620.512820512821,3920.5128205128212,4511.282051282052,4468.205128205129,4243.076923076924,4547.179487179488,4451.282051282052,4420.512820512821,4389.2307692307695,4696.923076923077,4409.2307692307695,4299.48717948718,4145.641025641026,4498.974358974359
1123.5906,0.6237969,0.73239845,0.45128787,0.45996803,0,0.0,0.0,0.0,0.0,0.028513778,0,0,0.0,0.0,0,0,104.0,0.0,535.0,4621.538461538462,3984.1025641025644,4503.076923076924,4489.743589743591,4256.923076923077,4556.923076923077,4430.256410256411,4417.948717948719,4391.282051282052,4801.025641025642,4405.641025641026,4328.717948717949,4225.641025641026,4517.948717948719
1123.8408,0.6237969,0.73239845,0.45128787,0.45996803,0,0.0,0.0,0.0,0.0,0.037314042,0,0,0.0,0.0,0,0,7.0,0.0,475.0,4555.384615384616,3938.461538461539,4458.461538461539,4441.538461538462,4279.48717948718,4563.076923076924,4406.666666666667,4380.000000000001,4366.153846153847,4832.820512820514,4350.769230769231,4323.076923076924,4261.538461538462,4456.410256410257
1124.0911,0.5758513,0.7167257,0.43944955,0.46922803,0,0.0,0.0,0.0,0.0,0.22388467,0,0,0.0,0.0,0,0,39.0,0.0,0.0,4535.8974358974365,3965.6410256410263,4450.769230769231,4546.666666666667,4301.025641025642,4568.205128205129,4366.153846153847,4348.717948717949,4334.358974358975,4791.794871794872,4264.615384615385,4348.205128205129,4222.051282051282,4409.743589743591
1124.3412,0.5758513,0.7167257,0.43944955,0.46922803,0,0.0,0.0,0.23846091,0.0,0.0,0,0,0.0,0.0,0,0,71.0,0.0,475.0,4494.358974358975,3858.9743589743593,4418.974358974359,4459.48717948718,4307.179487179487,4581.538461538462,4351.794871794872,4354.871794871796,4349.2307692307695,4853.333333333334,4293.846153846154,4362.564102564103,4321.025641025642,4397.435897435898
1124.5914,0.6185989,0.7204369,0.42879647,0.47756228,0,0.0,0.0,0.10135772,0.0,0.0,0,0,0.0,0.0,0,0,103.0,0.0,447.0,4523.076923076924,3876.410256410257,4450.256410256411,4475.384615384616,4304.615384615385,4572.820512820514,4338.461538461539,4344.615384615385,4344.102564102564,4842.051282051283,4323.589743589744,4376.923076923077,4312.307692307693,4414.871794871796
1124.8417,0.6185989,0.7204369,0.42879647,0.47756228,0,0.0,0.0,0.0,0.0,0.0,0,0,0.0,0.0,0,0,6.0,0.0,536.0,4600.512820512821,3945.1282051282055,4497.435897435898,4511.794871794872,4288.205128205129,4562.051282051282,4345.128205128206,4337.435897435898,4349.743589743591,4740.512820512821,4366.153846153847,4403.076923076924,4320.512820512821,4465.128205128206
1125.0605,0.5628731,0.7300255,0.41921324,0.4850636,0,0.0,0.0,0.0,0.0,0.0,0,0,0.0,0.0,0,0,34.0,0.0,0.0,4541.025641025642,3889.2307692307695,4485.641025641026,4487.6923076923085,4294.871794871796,4573.846153846154,4387.6923076923085,4361.025641025642,4342.564102564103,4720.000000000001,4357.948717948719,4382.564102564103,4250.769230769231,4432.820512820514
1125.0605,0.5628731,0.7300255,0.41921324,0.4850636,0,0.0,0.0,0.0,0.0,0.0,0,0,0.0,0.0,0,0,34.0,0.0,0.0,4541.025641025642,3889.2307692307695,4485.641025641026,4487.6923076923085,4294.871794871796,4573.846153846154,4387.6923076923085,4361.025641025642,4342.564102564103,4720.000000000001,4357.948717948719,4382.564102564103,4250.769230769231,4432.820512820514
1125.5923,0.6182144,0.74022174,0.4147278,0.4918132,0,0.0,0.0,0.0,0.0,0.12525257,0,0,0.0,0.0,0,0,102.0,0.0,528.0,4550.256410256411,3862.564102564103,4485.641025641026,4463.076923076924,4264.102564102564,4572.307692307693,4396.410256410257,4381.025641025642,4345.128205128206,4605.128205128206,4366.153846153847,4350.256410256411,4167.6923076923085,4454.871794871796
1125.8425,0.6182144,0.74022174,0.4147278,0.4918132,0,0.0,0.0,0.0,0.0,0.0,0,0,0.0,0.0,0,0,5.0,0.0,545.0,4562.051282051282,3872.307692307693,4494.358974358975,4457.948717948719,4236.923076923077,4553.333333333334,4403.076923076924,4387.179487179487,4333.846153846154,4569.743589743591,4348.717948717949,4341.025641025642,4107.6923076923085,4465.128205128206
1126.0928,0.56526476,0.7298147,0.415667,0.4978842,0,0.0,0.0,0.0,0.0,0.14888948,0,0,0.0,0.0,0,0,37.0,0.0,0.0,4629.2307692307695,3962.0512820512827,4523.589743589744,4517.435897435898,4213.846153846154,4534.871794871796,4405.128205128206,4354.358974358975,4318.974358974359,4525.641025641026,4358.461538461539,4365.128205128206,4093.333333333334,4520.000000000001
1126.3429,0.56526476,0.7298147,0.415667,0.4978842,0,0.0,0.0,0.0,0.0,0.11525437,0,0,0.0,0.0,0,0,69.0,0.0,545.0,4602.564102564103,3943.589743589744,4531.282051282052,4492.820512820514,4219.48717948718,4542.051282051282,4458.461538461539,4424.102564102564,4347.6923076923085,4564.615384615385,4367.6923076923085,4358.461538461539,4052.820512820513,4515.384615384616
1126.5931,0.6070337,0.7192192,0.41651,0.4974527,0,0.0,0.0,0.0,0.0,0.026277006,0,0,0.0,0.0,0,0,101.0,0.0,723.0,4615.8974358974365,3959.48717948718,4526.153846153847,4494.871794871796,4208.717948717949,4532.820512820514,4463.076923076924,4438.461538461539,4346.666666666667,4554.871794871796,4351.282051282052,4351.794871794872,4049.7435897435903,4515.8974358974365
1126.8434,0.6070337,0.7192192,0.41651,0.4974527,0,0.0,0.0,0.0,0.0,0.0796545,0,0,0.0,0.0,0,0,4.0,0.0,548.0,4640.000000000001,3928.717948717949,4553.333333333334,4492.820512820514,4209.74358974359,4537.948717948719,4508.205128205129,4504.615384615385,4378.461538461539,4667.179487179488,4458.461538461539,4411.794871794872,4156.410256410257,4580.512820512821
1127.0936,0.6758631,0.7060302,0.42157242,0.49588823,0,0.0,0.0,0.0,0.0,0.05581417,0,0,0.0,0.0,0,0,36.0,0.0,0.0,4632.307692307693,3938.461538461539,4553.333333333334,4489.2307692307695,4208.205128205129,4536.410256410257,4508.717948717949,4493.846153846154,4377.948717948719,4703.589743589744,4466.666666666667,4408.717948717949,4174.871794871796,4587.179487179488
1127.3439,0.6758631,0.7060302,0.42157242,0.49588823,0,0.0,0.0,0.0,0.0,0.092115164,0,0,0.0,0.0,0,0,68.0,0.0,548.0,4629.2307692307695,3947.692307692308,4532.307692307693,4476.923076923077,4212.307692307693,4540.000000000001,4495.384615384616,4463.589743589744,4349.743589743591,4652.820512820514,4412.820512820514,4360.512820512821,4125.641025641026,4558.461538461539
1127.594,0.62369096,0.7174219,0.42972726,0.4909129,0,0.0,0.0,0.0,0.0,0.03412832,0,0,0.0,0.0,0,0,100.0,0.0,538.0,4626.666666666667,3946.666666666667,4538.461538461539,4469.743589743591,4211.794871794872,4535.8974358974365,4608.205128205129,4497.435897435898,4354.871794871796,4652.307692307693,4397.948717948719,4370.256410256411,4106.153846153847,4557.948717948719
1127.8442,0.62369096,0.7174219,0.42972726,0.4909129,0,0.0,0.0,0.0,0.0,0.0075351116,0,0,0.0,0.0,0,0,3.0,0.0,528.0,4621.025641025642,3973.333333333334,4544.615384615385,4480.512820512821,4224.615384615385,4545.128205128206,4663.076923076924,4529.2307692307695,4377.435897435898,4764.615384615386,4435.8974358974365,4412.820512820514,4207.179487179487,4559.48717948718
1128.0945,0.64426607,0.72772014,0.445249,0.4864374,0,0.0,0.0,0.0,0.0,0.0240849,0,0,0.0,0.0,0,0,35.0,0.0,0.0,4603.589743589744,3982.0512820512827,4524.615384615385,4468.717948717949,4249.74358974359,4552.820512820514,4611.794871794872,4478.461538461539,4364.615384615385,4831.794871794872,4401.025641025642,4415.8974358974365,4271.794871794872,4543.076923076924
1128.3447,0.64426607,0.72772014,0.445249,0.4864374,0,0.0,0.0,0.0,0.0,0.0023940373,0,0,0.0,0.0,0,0,67.0,0.0,528.0,4580.512820512821,3956.9230769230776,4494.871794871796,4434.358974358975,4263.076923076924,4554.358974358975,4537.948717948719,4433.333333333334,4349.743589743591,4846.153846153847,4376.923076923077,4395.384615384616,4327.179487179487,4512.307692307693
1128.5948,0.6214754,0.6957256,0.45400822,0.4850609,0,0.0,0.0,0.0,0.0,0.0046778508,0,0,0.0,0.0,0,0,99.0,0.0,447.0,4575.384615384616,3961.538461538462,4500.512820512821,4450.256410256411,4282.051282051282,4558.974358974359,4516.923076923077,4409.2307692307695,4348.205128205129,4877.948717948719,4374.358974358975,4414.358974358975,4373.846153846154,4510.769230769231
1128.8451,0.6214754,0.6957256,0.45400822,0.4850609,0,0.0,0.0,0.0,0.0,0.0059182113,0,0,0.0,0.0,0,0,2.0,0.0,441.0,4573.846153846154,3958.9743589743593,4503.076923076924,4465.641025641026,4271.794871794872,4546.666666666667,4471.794871794872,4393.333333333334,4342.564102564103,4921.025641025642,4376.410256410257,4411.794871794872,4374.871794871796,4496.410256410257
1129.0953,0.6303822,0.64119965,0.46175307,0.48739478,0,0.0,0.0,0.0,0.0,0.0,0,0,0.0,0.0,0,0,34.0,0.0,0.0,4630.769230769231,4009.7435897435903,4534.358974358975,4510.769230769231,4261.025641025642,4538.974358974359,4459.48717948718,4406.153846153847,4340.000000000001,4887.6923076923085,4396.923076923077,4417.435897435898,4385.128205128206,4534.358974358975
1129.0953,0.6303822,0.64119965,0.46175307,0.48739478,0,0.0,0.0,0.0,0.0,0.0,0,0,0.0,0.0,0,0,34.0,0.0,0.0,4630.769230769231,4009.7435897435903,4534.358974358975,4510.769230769231,4261.025641025642,4538.974358974359,4459.48717948718,4406.153846153847,4340.000000000001,4887.6923076923085,4396.923076923077,4417.435897435898,4385.128205128206,4534.358974358975
1129.4707,0.57145303,0.5898873,0.4687186,0.49035275,0,0.0,0.0,0.0,0.0,0.0,0,0,0.0,0.0,0,0,82.0,0.0,528.0,4590.256410256411,3971.2820512820517,4529.2307692307695,4501.538461538462,4260.000000000001,4543.076923076924,4463.589743589744,4423.589743589744,4348.205128205129,4803.076923076924,4383.589743589744,4378.974358974359,4288.717948717949,4510.256410256411
1129.4707,0.57145303,0.5898873,0.4687186,0.49035275,0,0.0,0.0,0.0,0.0,0.0,0,0,0.0,0.0,0,0,82.0,0.0,528.0,4590.256410256411,3971.2820512820517,4529.2307692307695,4501.538461538462,4260.000000000001,4543.076923076924,4463.589743589744,4423.589743589744,4348.205128205129,4803.076923076924,4383.589743589744,4378.974358974359,4288.717948717949,4510.256410256411
1129.9711,0.49526432,0.5424035,0.46916062,0.49094388,0,0.0,0.0,0.0,0.0,0.0,0,0,0.0,0.0,0,0,17.0,0.0,0.0,4589.2307692307695,3956.9230769230776,4544.102564102564,4515.8974358974365,4241.025641025642,4536.410256410257,4505.128205128206,4429.2307692307695,4348.205128205129,4717.435897435898,4404.615384615385,4364.615384615385,4242.051282051282,4545.128205128206
1130.3464,0.49526432,0.5424035,0.46916062,0.49094388,0,0.0,0.0,0.0,0.0,0.11596325,0,0,0.0,0.0,0,0,65.0,0.0,483.0,4692.820512820514,4019.48717948718,4586.153846153847,4661.538461538462,4217.435897435898,4523.589743589744,4510.256410256411,4450.256410256411,4360.512820512821,4703.076923076924,4430.769230769231,4408.205128205129,4273.333333333334,4627.6923076923085
1130.5966,0.4530951,0.5110976,0.46536136,0.49147737,0,0.0,0.0,0.0,0.0,0.06531025,0,0,0.0,0.0,0,0,97.0,0.0,717.0,4600.512820512821,3956.9230769230776,4548.205128205129,4607.179487179488,4244.615384615385,4550.256410256411,4504.102564102564,4518.461538461539,4364.615384615385,4751.282051282052,4373.846153846154,4373.846153846154,4201.538461538462,4575.8974358974365
1130.8468,0.4530951,0.5110976,0.46536136,0.49147737,0,0.0,0.0,0.0,0.0,0.07046034,0,0,0.0,0.0,0,0,0.0,0.0,488.0,4591.282051282052,3976.410256410257,4522.051282051282,4573.333333333334,4256.923076923077,4557.435897435898,4468.205128205129,4495.384615384616,4352.820512820514,4757.948717948719,4343.589743589744,4341.538461538462,4193.333333333334,4527.179487179488
1131.097,0.4067623,0.48801863,0.45651582,0.4860627,0,0.0,0.0,0.0,0.0,0.14865288,0,0,0.0,0.0,0,0,32.0,0.0,0.0,4608.205128205129,3994.358974358975,4536.923076923077,4578.461538461539,4257.435897435898,4556.410256410257,4466.666666666667,4478.974358974359,4347.6923076923085,4734.871794871796,4352.307692307693,4350.769230769231,4213.333333333334,4512.820512820514
1131.3473,0.4067623,0.48801863,0.45651582,0.4860627,0,0.0,0.0,0.0,0.0,0.030135753,0,0,0.0,0.0,0,0,64.0,0.0,488.0,4603.076923076924,3982.564102564103,4527.179487179488,4548.717948717949,4251.282051282052,4544.615384615385,4462.564102564103,4464.102564102564,4354.871794871796,4699.48717948718,4335.8974358974365,4323.076923076924,4193.333333333334,4501.538461538462
1131.5974,0.42028126,0.4587393,0.44534066,0.47404364,0,0.0,0.0,0.0,0.0,0.011957798,0,0,0.0,0.0,0,0,96.0,0.0,538.0,4602.051282051282,4037.9487179487182,4523.076923076924,4529.2307692307695,4258.461538461539,4554.871794871796,4481.538461538462,4493.846153846154,4370.256410256411,4702.564102564103,4347.6923076923085,4333.333333333334,4184.102564102564,4503.076923076924
1131.8477,0.42028126,0.4587393,0.44534066,0.47404364,1,0.0,0.0,0.0,0.0,0.23112205,0,0,0.0,0.0,0,0,128.0,0.0,538.0,4652.307692307693,4017.9487179487182,4537.948717948719,4532.820512820514,4246.666666666667,4541.538461538462,4481.538461538462,4493.846153846154,4378.461538461539,4713.846153846154,4402.564102564103,4354.358974358975,4233.333333333334,4557.435897435898
1132.0979,0.4062409,0.46966222,0.43528095,0.4626291,0,0.0,0.0,0.0,0.0,0.05299093,0,0,0.0,0.0,0,0,31.0,0.0,0.0,4656.410256410257,4000.0000000000005,4535.384615384616,4522.564102564103,4229.2307692307695,4529.743589743591,4472.820512820514,4467.6923076923085,4372.820512820514,4675.8974358974365,4394.358974358975,4328.717948717949,4194.358974358975,4554.871794871796
1132.3481,0.4062409,0.46966222,0.43528095,0.4626291,0,0.0,0.0,0.0,0.0,0.03219928,0,0,0.0,0.0,0,0,63.0,0.0,0.0,4667.6923076923085,4007.692307692308,4544.615384615385,4527.179487179488,4226.666666666667,4523.076923076924,4491.282051282052,4474.358974358975,4372.307692307693,4679.48717948718,4410.769230769231,4330.256410256411,4188.205128205129,4557.435897435898
1132.5984,0.3633445,0.43984184,0.42911938,0.45121372,1,0.0,0.0,0.0,0.0,0.12755786,0,0,0.0,0.0,0,0,95.0,0.0,447.0,4688.717948717949,4017.435897435898,4555.384615384616,4536.410256410257,4236.410256410257,4536.410256410257,4503.076923076924,4466.153846153847,4371.794871794872,4662.051282051282,4408.205128205129,4330.256410256411,4176.410256410257,4571.282051282052
1132.8485,0.3633445,0.43984184,0.42911938,0.45121372,0,0.0,0.0,0.0,0.0,0.036953878,0,0,0.0,0.0,0,0,127.0,0.0,447.0,4683.076923076924,3996.9230769230776,4548.205128205129,4537.948717948719,4232.820512820514,4534.871794871796,4521.025641025642,4491.794871794872,4385.641025641026,4681.025641025642,4474.871794871796,4331.282051282052,4160.512820512821,4561.025641025642
1133.0988,0.30049816,0.454642,0.4289999,0.43584114,0,0.0,0.0,0.0,0.0,0.023051517,0,0,0.0,0.0,0,0,30.0,0.0,0.0,4673.333333333334,3973.333333333334,4538.461538461539,4510.256410256411,4223.076923076924,4525.128205128206,4512.307692307693,4470.256410256411,4387.6923076923085,4671.794871794872,4451.282051282052,4329.2307692307695,4210.769230769231,4559.48717948718
1133.349,0.30049816,0.454642,0.4289999,0.43584114,0,0.0,0.0,0.0,0.0,0.12307539,0,0,0.0,0.0,0,0,62.0,0.0,0.0,4740.000000000001,4096.410256410257,4560.000000000001,4567.6923076923085,4217.948717948719,4522.051282051282,4480.000000000001,4430.256410256411,4377.948717948719,4627.179487179488,4390.769230769231,4312.307692307693,4144.102564102564,4558.461538461539
1133.5992,0.30773434,0.4954381,0.42485344,0.42712447,0,0.0,0.0,0.0,0.0,0.122411646,0,0,0.0,0.0,0,0,94.0,0.0,528.0,4658.974358974359,4000.0000000000005,4514.871794871796,4513.333333333334,4226.153846153847,4529.743589743591,4484.615384615385,4439.48717948718,4381.025641025642,4635.384615384616,4367.6923076923085,4277.435897435898,4109.2307692307695,4517.435897435898
1133.8494,0.30773434,0.4954381,0.42485344,0.42712447,0,0.0,0.0,0.0,0.0,0.116768606,0,0,0.0,0.0,0,0,126.0,0.0,528.0,4726.153846153847,3980.0000000000005,4549.2307692307695,4501.025641025642,4202.051282051282,4504.615384615385,4475.8974358974365,4443.589743589744,4396.410256410257,4668.205128205129,4444.102564102564,4312.820512820514,4240.512820512821,4600.512820512821
1134.0996,0.3045252,0.5210228,0.4221559,0.41928926,0,0.0,0.0,0.0,0.0,0.11779789,0,0,0.0,0.0,0,1,29.0,0.0,0.0,4679.48717948718,3950.2564102564106,4528.205128205129,4483.589743589744,4216.410256410257,4516.923076923077,4475.384615384616,4454.358974358975,4399.48717948718,4668.717948717949,4414.871794871796,4288.717948717949,4183.589743589744,4548.717948717949
1134.3499,0.3045252,0.5210228,0.4221559,0.41928926,0,0.0,0.0,0.0,0.0,0.095957704,0,0,0.0,0.0,0,0,61.0,0.0,0.0,4664.102564102564,3947.1794871794878,4524.615384615385,4478.461538461539,4219.48717948718,4521.025641025642,4485.128205128206,4457.435897435898,4401.538461538462,4683.589743589744,4410.256410256411,4288.205128205129,4172.307692307693,4540.000000000001
1134.6001,0.23827873,0.5468094,0.42076522,0.41690964,1,0.0,0.0,0.0,0.0,0.046002626,0,0,0.0,0.0,0,0,93.0,0.0,715.0,4692.307692307693,3962.0512820512827,4534.871794871796,4520.512820512821,4220.512820512821,4520.512820512821,4483.076923076924,4451.794871794872,4404.102564102564,4702.051282051282,4438.974358974359,4308.717948717949,4218.974358974359,4567.6923076923085
1134.8502,0.23827873,0.5468094,0.42076522,0.41690964,0,0.0,0.0,0.0,0.0,0.1098339,0,0,0.0,0.0,0,0,125.0,0.0,715.0,4658.974358974359,3944.1025641025644,4506.666666666667,4505.128205128206,4222.564102564103,4524.102564102564,4478.461538461539,4444.615384615385,4398.461538461539,4703.589743589744,4396.410256410257,4283.076923076924,4175.8974358974365,4529.2307692307695
1135.1005,0.2574415,0.5661779,0.42174596,0.41933408,0,0.0,0.0,0.0,0.0,0.08025432,0,0,0.0,0.0,0,0,28.0,0.0,0.0,4639.48717948718,3933.333333333334,4512.307692307693,4490.769230769231,4227.6923076923085,4535.8974358974365,4472.307692307693,4445.128205128206,4402.051282051282,4714.358974358975,4409.2307692307695,4285.641025641026,4188.717948717949,4534.358974358975
1135.3507,0.2574415,0.5661779,0.42174596,0.41933408,0,0.0,0.0,0.0,0.0,0.06323833,0,0,0.0,0.0,0,0,60.0,0.0,0.0,4638.974358974359,3947.1794871794878,4518.461538461539,4499.48717948718,4234.358974358975,4540.000000000001,4483.076923076924,4448.717948717949,4407.6923076923085,4712.820512820514,4402.051282051282,4282.564102564103,4172.307692307693,4520.512820512821
1135.601,0.24827875,0.5378799,0.42192584,0.42151982,0,0.0,0.0,0.0,0.0,0.07896067,0,0,0.0,0.0,0,0,92.0,0.0,538.0,4647.179487179488,3953.8461538461543,4525.641025641026,4503.076923076924,4227.6923076923085,4538.974358974359,4466.666666666667,4420.512820512821,4400.512820512821,4728.205128205129,4388.205128205129,4281.025641025642,4179.48717948718,4509.2307692307695
1135.8511,0.24827875,0.5378799,0.42192584,0.42151982,0,0.0,0.0,0.0,0.0,0.105610006,0,0,0.0,0.0,0,0,124.0,0.0,538.0,4660.000000000001,3949.7435897435903,4527.6923076923085,4113.333333333334,4228.205128205129,4535.384615384616,4463.589743589744,4413.333333333334,4393.846153846154,4758.461538461539,4389.743589743591,4250.769230769231,4203.076923076924,4522.564102564103
1136.1013,0.23452424,0.49030995,0.42055017,0.42349073,0,0.0,0.24527957,0.0,0.0,0.0,0,0,0.0,0.0,0,0,27.0,0.0,0.0,4639.48717948718,3957.9487179487182,4518.461538461539,3973.333333333334,4230.256410256411,4535.384615384616,4464.102564102564,4397.948717948719,4382.051282051282,4727.6923076923085,4344.102564102564,4217.948717948719,4161.025641025642,4493.846153846154
1136.3516,0.23452424,0.49030995,0.42055017,0.42349073,0,0.0,0.45761886,0.0,0.0,0.0,0,0,0.0,0.0,0,0,59.0,0.0,0.0,4634.358974358975,3972.307692307693,4502.564102564103,3972.820512820513,4248.205128205129,4548.717948717949,4433.333333333334,4391.794871794872,4375.8974358974365,4777.435897435898,4352.307692307693,4229.74358974359,4233.846153846154,4490.256410256411
1136.6018,0.18711811,0.45254964,0.4193098,0.4286433,0,0.0,0.0,0.0,0.0,0.0,0,0,0.0,0.0,0,0,91.0,0.0,447.0,4596.410256410257,3948.205128205129,4470.769230769231,4008.717948717949,4260.000000000001,4547.6923076923085,4401.025641025642,4344.615384615385,4348.205128205129,4744.615384615386,4324.615384615385,4207.6923076923085,4283.076923076924,4442.564102564103
1136.8519,0.18711811,0.45254964,0.4193098,0.4286433,0,0.0,0.0,0.0,0.0,0.09016085,0,0,0.0,0.0,0,0,123.0,0.0,447.0,4570.256410256411,3944.1025641025644,4457.435897435898,4086.666666666667,4270.256410256411,4550.256410256411,4396.410256410257,4340.000000000001,4341.025641025642,4740.000000000001,4313.846153846154,4217.948717948719,4320.000000000001,4406.153846153847
1137.1022,0.2546011,0.41569185,0.4156252,0.43328243,0,0.0,0.0,0.0,0.0,0.19803868,0,0,0.0,0.0,0,0,26.0,0.0,0.0,4546.666666666667,3953.8461538461543,4471.794871794872,4178.461538461539,4278.974358974359,4552.307692307693,4411.794871794872,4362.051282051282,4356.923076923077,4742.051282051282,4325.641025641026,4238.461538461539,4355.8974358974365,4398.461538461539
1137.2273,0.2546011,0.41569185,0.4156252,0.43328243,0,0.0,0.0,0.0,0.0,0.0,0,0,0.0,0.0,0,0,42.0,0.0,0.0,4538.461538461539,3943.589743589744,4472.820512820514,4205.641025641026,4270.769230769231,4547.6923076923085,4415.8974358974365,4340.512820512821,4341.538461538462,4706.153846153847,4315.8974358974365,4233.333333333334,4339.48717948718,4395.8974358974365
1137.4775,0.26148534,0.39377972,0.4129349,0.4290316,0,0.0,0.0,0.0,0.0,0.0,0,0,0.0,0.0,0,0,74.0,0.0,528.0,4550.256410256411,3954.8717948717954,4489.2307692307695,4283.076923076924,4265.128205128206,4545.641025641026,4436.410256410257,4330.769230769231,4341.538461538462,4699.48717948718,4317.948717948719,4248.205128205129,4312.307692307693,4411.794871794872
1137.4775,0.26148534,0.39377972,0.4129349,0.4290316,0,0.0,0.0,0.0,0.0,0.0,0,0,0.0,0.0,0,0,74.0,0.0,528.0,4550.256410256411,3954.8717948717954,4489.2307692307695,4283.076923076924,4265.128205128206,4545.641025641026,4436.410256410257,4330.769230769231,4341.538461538462,4699.48717948718,4317.948717948719,4248.205128205129,4312.307692307693,4411.794871794872
1137.9779,0.33954045,0.38780496,0.41051164,0.41938865,0,0.0,0.0,0.0,0.0,0.0,0,0,0.0,0.0,1,0,9.0,0.0,459.0,4647.179487179488,4003.076923076924,4511.282051282052,4402.051282051282,4262.564102564103,4541.025641025642,4587.6923076923085,4333.846153846154,4348.205128205129,4728.205128205129,4482.051282051282,4304.615384615385,4281.538461538462,4449.743589743591
1138.322,0.33954045,0.38780496,0.41051164,0.41938865,0,0.0,0.0,0.0,0.0,0.0,0,0,0.0,0.0,0,0,53.0,0.0,0.0,4591.794871794872,3944.1025641025644,4501.538461538462,4420.000000000001,4258.974358974359,4552.307692307693,4569.743589743591,4355.384615384616,4340.000000000001,4717.435897435898,4422.564102564103,4269.74358974359,4179.48717948718,4406.666666666667
1138.4784,0.37978733,0.40607718,0.4061372,0.41072157,0,0.0,0.0,0.0,0.0,0.0,0,0,0.0,0.0,0,0,73.0,0.0,459.0,4610.256410256411,3969.2307692307695,4503.589743589744,4472.307692307693,4250.769230769231,4553.846153846154,4569.743589743591,4394.358974358975,4355.8974358974365,4737.435897435898,4440.000000000001,4282.051282051282,4165.641025641026,4417.435897435898
1138.4784,0.37978733,0.40607718,0.4061372,0.41072157,0,0.0,0.0,0.0,0.0,0.0,0,0,0.0,0.0,0,0,73.0,0.0,459.0,4610.256410256411,3969.2307692307695,4503.589743589744,4472.307692307693,4250.769230769231,4553.846153846154,4569.743589743591,4394.358974358975,4355.8974358974365,4737.435897435898,4440.000000000001,4282.051282051282,4165.641025641026,4417.435897435898
1138.9788,0.4057323,0.4288391,0.40540522,0.39709058,0,0.0,0.0,0.0,0.0,0.0,0,0,0.0,0.0,0,0,8.0,0.0,408.0,4641.025641025642,3941.0256410256416,4511.794871794872,4535.8974358974365,4230.769230769231,4540.512820512821,4521.538461538462,4395.384615384616,4360.000000000001,4750.769230769231,4418.974358974359,4276.923076923077,4136.923076923077,4451.282051282052
1138.9788,0.4057323,0.4288391,0.40540522,0.39709058,0,0.0,0.0,0.0,0.0,0.0,0,0,0.0,0.0,0,0,8.0,0.0,408.0,4641.025641025642,3941.0256410256416,4511.794871794872,4535.8974358974365,4230.769230769231,4540.512820512821,4521.538461538462,4395.384615384616,4360.000000000001,4750.769230769231,4418.974358974359,4276.923076923077,4136.923076923077,4451.282051282052
1139.6044,0.41470242,0.47383973,0.4075038,0.38471165,0,0.0,0.0,0.0,0.0,0.21285364,0,0,0.0,0.0,0,0,88.0,0.0,538.0,4687.179487179488,3932.307692307693,4547.6923076923085,4547.6923076923085,4200.512820512821,4518.974358974359,4523.076923076924,4445.128205128206,4390.769230769231,4717.435897435898,4445.128205128206,4291.794871794872,4169.2307692307695,4528.205128205129
1139.8546,0.41470242,0.47383973,0.4075038,0.38471165,0,0.0,0.0,0.0,0.0,0.03310459,0,0,0.0,0.0,0,0,120.0,0.0,538.0,4680.000000000001,3948.205128205129,4543.076923076924,4542.051282051282,4204.615384615385,4519.48717948718,4506.153846153847,4427.179487179487,4387.179487179487,4696.923076923077,4446.153846153847,4279.48717948718,4154.358974358975,4533.846153846154
1140.1047,0.38977903,0.4718535,0.4093905,0.37359187,0,0.0,0.0,0.0,0.0,0.018434132,0,0,0.0,0.0,0,0,23.0,0.0,0.0,4684.102564102564,3960.5128205128212,4547.179487179488,4556.923076923077,4197.948717948719,4508.717948717949,4504.615384615385,4436.410256410257,4383.589743589744,4690.256410256411,4491.282051282052,4284.102564102564,4144.615384615385,4531.282051282052
1140.355,0.38977903,0.4718535,0.4093905,0.37359187,0,0.0,0.0,0.0,0.0,0.0,0,0,0.0,0.0,0,0,55.0,0.0,0.0,4670.769230769231,3964.615384615385,4552.307692307693,4573.333333333334,4212.820512820514,4523.589743589744,4510.256410256411,4446.153846153847,4396.923076923077,4690.769230769231,4490.769230769231,4288.717948717949,4138.974358974359,4517.435897435898
1140.4801,0.3627494,0.4601276,0.41069832,0.3636067,0,0.0,0.0,0.0,0.0,0.0,0,0,0.0,0.0,0,0,71.0,0.0,472.0,4662.051282051282,3959.48717948718,4551.794871794872,4576.410256410257,4203.076923076924,4513.333333333334,4495.8974358974365,4466.153846153847,4398.974358974359,4681.538461538462,4467.179487179487,4276.923076923077,4136.410256410257,4518.461538461539
1140.4801,0.3627494,0.4601276,0.41069832,0.3636067,0,0.0,0.0,0.0,0.0,0.0,0,0,0.0,0.0,0,0,71.0,0.0,472.0,4662.051282051282,3959.48717948718,4551.794871794872,4576.410256410257,4203.076923076924,4513.333333333334,4495.8974358974365,4466.153846153847,4398.974358974359,4681.538461538462,4467.179487179487,4276.923076923077,4136.410256410257,4518.461538461539
1140.9806,0.3025294,0.44950664,0.40950024,0.36405587,0,0.0,0.0,0.0,0.0,0.0,0,0,0.0,0.0,0,0,6.0,0.0,532.0,4629.743589743591,3967.692307692308,4535.8974358974365,4573.846153846154,4225.128205128206,4537.435897435898,4497.948717948719,4450.256410256411,4404.615384615385,4689.2307692307695,4423.076923076924,4267.179487179487,4151.282051282052,4510.256410256411
1140.9806,0.3025294,0.44950664,0.40950024,0.36405587,0,0.0,0.0,0.0,0.0,0.0,0,0,0.0,0.0,0,0,6.0,0.0,532.0,4629.743589743591,3967.692307692308,4535.8974358974365,4573.846153846154,4225.128205128206,4537.435897435898,4497.948717948719,4450.256410256411,4404.615384615385,4689.2307692307695,4423.076923076924,4267.179487179487,4151.282051282052,4510.256410256411
1141.481,0.2916027,0.41372585,0.40734103,0.3730748,0,0.0,0.0,0.0,0.0,0.0,0,0,0.0,0.0,0,0,70.0,0.0,532.0,4604.615384615385,3946.666666666667,4520.000000000001,4563.589743589744,4219.48717948718,4534.871794871796,4474.358974358975,4418.974358974359,4391.794871794872,4678.461538461539,4395.8974358974365,4237.435897435898,4142.051282051282,4486.153846153847
1141.481,0.2916027,0.41372585,0.40734103,0.3730748,0,0.0,0.0,0.0,0.0,0.0,0,0,0.0,0.0,0,0,70.0,0.0,532.0,4604.615384615385,3946.666666666667,4520.000000000001,4563.589743589744,4219.48717948718,4534.871794871796,4474.358974358975,4418.974358974359,4391.794871794872,4678.461538461539,4395.8974358974365,4237.435897435898,4142.051282051282,4486.153846153847
1141.9814,0.2987455,0.38276798,0.4062552,0.38119146,0,0.0,0.0,0.0,0.0,0.0,0,0,0.0,0.0,0,0,5.0,0.0,545.0,4588.717948717949,3957.435897435898,4518.461538461539,4606.666666666667,4234.358974358975,4541.538461538462,4471.794871794872,4432.307692307693,4405.641025641026,4745.128205128206,4392.820512820514,4248.205128205129,4149.74358974359,4487.6923076923085
1141.9814,0.2987455,0.38276798,0.4062552,0.38119146,0,0.0,0.0,0.0,0.0,0.0,0,0,0.0,0.0,0,0,5.0,0.0,545.0,4588.717948717949,3957.435897435898,4518.461538461539,4606.666666666667,4234.358974358975,4541.538461538462,4471.794871794872,4432.307692307693,4405.641025641026,4745.128205128206,4392.820512820514,4248.205128205129,4149.74358974359,4487.6923076923085
1142.4818,0.2844339,0.3498705,0.40186414,0.39162764,0,0.0,0.0,0.0,0.0,0.0,0,0,0.0,0.0,0,0,69.0,0.0,545.0,4549.743589743591,3941.538461538462,4480.512820512821,4613.333333333334,4254.358974358975,4555.8974358974365,4411.282051282052,4393.333333333334,4374.871794871796,4791.794871794872,4366.153846153847,4232.820512820514,4165.128205128206,4452.307692307693
1142.4818,0.2844339,0.3498705,0.40186414,0.39162764,0,0.0,0.0,0.0,0.0,0.0,0,0,0.0,0.0,0,0,69.0,0.0,545.0,4549.743589743591,3941.538461538462,4480.512820512821,4613.333333333334,4254.358974358975,4555.8974358974365,4411.282051282052,4393.333333333334,4374.871794871796,4791.794871794872,4366.153846153847,4232.820512820514,4165.128205128206,4452.307692307693
1142.9823,0.30060446,0.30693415,0.40132332,0.3978878,0,0.0,0.0,0.0,0.0,0.0,0,0,0.0,0.0,0,0,4.0,0.0,548.0,4545.641025641026,3931.7948717948725,4476.923076923077,4596.410256410257,4268.205128205129,4557.435897435898,4436.410256410257,4398.461538461539,4372.307692307693,4767.179487179488,4354.871794871796,4232.307692307693,4180.512820512821,4446.153846153847
1142.9823,0.30060446,0.30693415,0.40132332,0.3978878,0,0.0,0.0,0.0,0.0,0.0,0,0,0.0,0.0,0,0,4.0,0.0,548.0,4545.641025641026,3931.7948717948725,4476.923076923077,4596.410256410257,4268.205128205129,4557.435897435898,4436.410256410257,4398.461538461539,4372.307692307693,4767.179487179488,4354.871794871796,4232.307692307693,4180.512820512821,4446.153846153847
1143.4827,0.32506427,0.2777115,0.40083486,0.3967752,0,0.0,0.0,0.0,0.0,0.0,0,0,0.0,0.0,0,0,68.0,0.0,548.0,4555.8974358974365,3947.692307692308,4500.000000000001,4562.051282051282,4268.717948717949,4562.051282051282,4442.564102564103,4413.846153846154,4380.512820512821,4775.384615384616,4365.641025641026,4246.153846153847,4203.589743589744,4471.282051282052
1143.4827,0.32506427,0.2777115,0.40083486,0.3967752,0,0.0,0.0,0.0,0.0,0.0,0,0,0.0,0.0,0,0,68.0,0.0,548.0,4555.8974358974365,3947.692307692308,4500.000000000001,4562.051282051282,4268.717948717949,4562.051282051282,4442.564102564103,4413.846153846154,4380.512820512821,4775.384615384616,4365.641025641026,4246.153846153847,4203.589743589744,4471.282051282052
1143.9832,0.31841475,0.25101152,0.4057763,0.3895088,0,0.0,0.0,0.0,0.0,0.0,0,0,0.0,0.0,0,0,3.0,0.0,528.0,4567.179487179488,3969.2307692307695,4510.769230769231,4533.846153846154,4267.179487179487,4565.128205128206,4458.974358974359,4436.410256410257,4392.307692307693,4771.282051282052,4381.538461538462,4264.615384615385,4221.025641025642,4485.128205128206
1143.9832,0.31841475,0.25101152,0.4057763,0.3895088,0,0.0,0.0,0.0,0.0,0.0,0,0,0.0,0.0,0,0,3.0,0.0,528.0,4567.179487179488,3969.2307692307695,4510.769230769231,4533.846153846154,4267.179487179487,4565.128205128206,4458.974358974359,4436.410256410257,4392.307692307693,4771.282051282052,4381.538461538462,4264.615384615385,4221.025641025642,4485.128205128206
1144.4835,0.29394418,0.23899116,0.41206974,0.37223026,0,0.0,0.0,0.0,0.0,0.0,0,0,0.0,0.0,0,0,67.0,0.0,528.0,4585.128205128206,3971.2820512820517,4512.820512820514,4515.8974358974365,4250.256410256411,4549.2307692307695,4457.435897435898,4423.589743589744,4389.743589743591,4746.666666666667,4380.000000000001,4256.410256410257,4206.153846153847,4492.307692307693
1144.4835,0.29394418,0.23899116,0.41206974,0.37223026,0,0.0,0.0,0.0,0.0,0.0,0,0,0.0,0.0,0,0,67.0,0.0,528.0,4585.128205128206,3971.2820512820517,4512.820512820514,4515.8974358974365,4250.256410256411,4549.2307692307695,4457.435897435898,4423.589743589744,4389.743589743591,4746.666666666667,4380.000000000001,4256.410256410257,4206.153846153847,4492.307692307693
1144.984,0.26573184,0.23128788,0.4177314,0.35671028,0,0.0,0.0,0.0,0.0,0.0,0,0,0.0,0.0,0,0,2.0,0.0,441.0,4623.589743589744,3984.1025641025644,4524.615384615385,4511.794871794872,4242.564102564103,4551.282051282052,4475.384615384616,4426.153846153847,4404.615384615385,4747.179487179488,4407.6923076923085,4270.769230769231,4222.564102564103,4511.282051282052
1144.984,0.26573184,0.23128788,0.4177314,0.35671028,0,0.0,0.0,0.0,0.0,0.0,0,0,0.0,0.0,0,0,2.0,0.0,441.0,4623.589743589744,3984.1025641025644,4524.615384615385,4511.794871794872,4242.564102564103,4551.282051282052,4475.384615384616,4426.153846153847,4404.615384615385,4747.179487179488,4407.6923076923085,4270.769230769231,4222.564102564103,4511.282051282052
1145.4844,0.23361278,0.23007019,0.42282432,0.342776,0,0.0,0.0,0.0,0.0,0.0,0,0,0.0,0.0,0,0,66.0,0.0,441.0,4620.512820512821,3986.666666666667,4529.2307692307695,4516.410256410257,4240.000000000001,4544.102564102564,4474.358974358975,4428.717948717949,4403.076923076924,4724.102564102564,4408.205128205129,4267.179487179487,4218.974358974359,4518.461538461539
1145.4844,0.23361278,0.23007019,0.42282432,0.342776,0,0.0,0.0,0.0,0.0,0.0,0,0,0.0,0.0,0,0,66.0,0.0,441.0,4620.512820512821,3986.666666666667,4529.2307692307695,4516.410256410257,4240.000000000001,4544.102564102564,4474.358974358975,4428.717948717949,4403.076923076924,4724.102564102564,4408.205128205129,4267.179487179487,4218.974358974359,4518.461538461539
1145.9849,0.29710987,0.25444806,0.41974947,0.33714795,0,0.0,0.0,0.0,0.0,0.0,0,0,0.0,0.0,0,0,1.0,0.0,480.0,4621.025641025642,3977.9487179487182,4527.6923076923085,4500.512820512821,4249.74358974359,4552.307692307693,4495.8974358974365,4437.435897435898,4409.743589743591,4713.846153846154,4402.564102564103,4270.769230769231,4206.666666666667,4544.102564102564
1146.3601,0.29710987,0.25444806,0.41974947,0.33714795,0,0.0,0.0,0.0,0.0,0.10552839,0,0,0.0,0.0,0,0,49.0,0.0,0.0,4601.538461538462,3983.589743589744,4518.974358974359,4501.025641025642,4251.794871794872,4553.333333333334,4495.384615384616,4446.153846153847,4411.282051282052,4728.205128205129,4443.589743589744,4276.410256410257,4235.8974358974365,4545.641025641026
1146.6104,0.24963748,0.2712293,0.41698,0.33825958,0,0.0,0.0,0.0,0.0,0.07691558,0,0,0.0,0.0,0,0,81.0,0.0,718.0,4614.871794871796,3994.358974358975,4545.128205128206,4510.256410256411,4261.538461538462,4560.512820512821,4496.410256410257,4466.666666666667,4423.589743589744,4736.410256410257,4460.000000000001,4291.794871794872,4259.48717948718,4566.153846153847
1146.8606,0.24963748,0.2712293,0.41698,0.33825958,0,0.0,0.0,0.0,0.0,0.0,0,0,0.0,0.0,0,0,113.0,0.0,718.0,4607.6923076923085,3984.615384615385,4532.307692307693,4504.102564102564,4238.974358974359,4544.102564102564,4471.282051282052,4434.358974358975,4404.102564102564,4722.051282051282,4425.641025641026,4261.538461538462,4243.076923076924,4546.153846153847
1146.9857,0.28168464,0.304246,0.4144854,0.3392725,0,0.0,0.0,0.0,0.0,0.0,0,0,0.0,0.0,0,0,0.0,0.0,488.0,4604.615384615385,3984.1025641025644,4537.435897435898,4500.000000000001,4242.051282051282,4545.128205128206,4480.512820512821,4454.871794871796,4407.6923076923085,4736.410256410257,4432.820512820514,4267.179487179487,4232.820512820514,4539.48717948718
1146.9857,0.28168464,0.304246,0.4144854,0.3392725,0,0.0,0.0,0.0,0.0,0.0,0,0,0.0,0.0,0,0,0.0,0.0,488.0,4604.615384615385,3984.1025641025644,4537.435897435898,4500.000000000001,4242.051282051282,4545.128205128206,4480.512820512821,4454.871794871796,4407.6923076923085,4736.410256410257,4432.820512820514,4267.179487179487,4232.820512820514,4539.48717948718
1147.4861,0.23509222,0.3112703,0.41145203,0.34019658,0,0.0,0.0,0.0,0.0,0.0,0,0,0.0,0.0,0,0,64.0,0.0,488.0,4610.769230769231,3976.9230769230776,4529.2307692307695,4514.358974358975,4243.076923076924,4550.769230769231,4487.179487179488,4453.333333333334,4418.461538461539,4746.153846153847,4422.051282051282,4267.179487179487,4231.282051282052,4554.871794871796
1147.8615,0.23509222,0.3112703,0.41145203,0.34019658,0,0.0,0.0,0.0,0.0,0.15701002,0,0,0.0,0.0,0,0,112.0,0.0,538.0,4595.384615384616,3981.538461538462,4534.358974358975,4520.512820512821,4247.6923076923085,4548.717948717949,4483.076923076924,4444.102564102564,4411.794871794872,4723.076923076924,4445.128205128206,4253.333333333334,4212.820512820514,4528.717948717949
1148.1117,0.21410412,0.30038214,0.40742132,0.3420684,0,0.0,0.0,0.0,0.0,0.05871466,0,0,0.0,0.0,0,0,15.0,0.0,447.0,4586.153846153847,3977.9487179487182,4526.153846153847,4497.435897435898,4265.128205128206,4547.179487179488,4476.923076923077,4450.256410256411,4414.871794871796,4734.358974358975,4431.794871794872,4251.282051282052,4214.358974358975,4512.307692307693
1148.2368,0.21410412,0.30038214,0.40742132,0.3420684,0,0.0,0.0,0.0,0.0,0.0,0,0,0.0,0.0,0,0,31.0,0.0,0.0,4595.8974358974365,3960.5128205128212,4522.051282051282,4495.8974358974365,4258.461538461539,4541.025641025642,4465.641025641026,4433.333333333334,4410.256410256411,4714.871794871796,4425.128205128206,4234.871794871796,4194.871794871796,4497.435897435898
1148.4869,0.21265396,0.2872644,0.4037919,0.34376374,0,0.0,0.0,0.0,0.0,0.0,0,0,0.0,0.0,0,0,63.0,0.0,0.0,4606.153846153847,3961.538461538462,4523.589743589744,4478.461538461539,4248.717948717949,4536.410256410257,4450.256410256411,4433.333333333334,4417.948717948719,4703.589743589744,4413.333333333334,4231.794871794872,4191.794871794872,4494.871794871796
1148.4869,0.21265396,0.2872644,0.4037919,0.34376374,0,0.0,0.0,0.0,0.0,0.0,0,0,0.0,0.0,0,0,63.0,0.0,0.0,4606.153846153847,3961.538461538462,4523.589743589744,4478.461538461539,4248.717948717949,4536.410256410257,4450.256410256411,4433.333333333334,4417.948717948719,4703.589743589744,4413.333333333334,4231.794871794872,4191.794871794872,4494.871794871796
1148.9874,0.23260128,0.29017138,0.3997413,0.3468225,0,0.0,0.0,0.0,0.0,0.0,0,0,0.0,0.0,0,0,127.0,0.0,447.0,4603.076923076924,3968.205128205129,4526.666666666667,4482.564102564103,4255.384615384616,4546.153846153847,4473.333333333334,4458.461538461539,4445.128205128206,4734.358974358975,4418.461538461539,4261.538461538462,4208.717948717949,4515.8974358974365
1148.9874,0.23260128,0.29017138,0.3997413,0.3468225,0,0.0,0.0,0.0,0.0,0.0,0,0,0.0,0.0,0,0,127.0,0.0,447.0,4603.076923076924,3968.205128205129,4526.666666666667,4482.564102564103,4255.384615384616,4546.153846153847,4473.333333333334,4458.461538461539,4445.128205128206,4734.358974358975,4418.461538461539,4261.538461538462,4208.717948717949,4515.8974358974365
1149.4878,0.19203983,0.28477457,0.39609414,0.3449018,0,0.0,0.0,0.0,0.0,0.0,0,0,0.0,0.0,0,0,62.0,0.0,0.0,4578.974358974359,3962.0512820512827,4507.6923076923085,4460.000000000001,4221.025641025642,4536.410256410257,4445.641025641026,4421.538461538462,4421.538461538462,4729.2307692307695,4400.512820512821,4227.6923076923085,4190.256410256411,4512.820512820514
1149.4878,0.19203983,0.28477457,0.39609414,0.3449018,0,0.0,0.0,0.0,0.0,0.0,0,0,0.0,0.0,0,0,62.0,0.0,0.0,4578.974358974359,3962.0512820512827,4507.6923076923085,4460.000000000001,4221.025641025642,4536.410256410257,4445.641025641026,4421.538461538462,4421.538461538462,4729.2307692307695,4400.512820512821,4227.6923076923085,4190.256410256411,4512.820512820514
1149.9883,0.23906024,0.2832297,0.39281023,0.34432635,0,0.0,0.0,0.0,0.0,0.0,0,0,0.0,0.0,0,0,126.0,0.0,528.0,4609.743589743591,3935.3846153846157,4490.256410256411,4431.794871794872,4210.769230769231,4528.717948717949,4438.461538461539,4417.435897435898,4389.743589743591,4697.948717948719,4358.461538461539,4202.051282051282,4152.307692307693,4494.871794871796
1150.3636,0.23906024,0.2832297,0.39281023,0.34432635,0,0.0,0.0,0.0,0.0,0.12527776,0,0,0.0,0.0,0,0,45.0,0.0,0.0,4674.871794871796,4029.7435897435903,4514.358974358975,4491.282051282052,4226.153846153847,4537.435897435898,4429.2307692307695,4412.820512820514,4392.820512820514,4706.666666666667,4364.615384615385,4231.282051282052,4153.846153846154,4504.102564102564
1150.6138,0.20891602,0.29333007,0.3839619,0.35165513,0,0.0,0.0,0.0,0.0,0.08345874,0,0,0.0,0.0,0,0,77.0,0.0,718.0,4595.384615384616,3944.615384615385,4480.000000000001,4428.717948717949,4247.179487179487,4552.307692307693,4477.435897435898,4457.948717948719,4396.923076923077,4716.410256410257,4310.256410256411,4208.717948717949,4108.205128205129,4468.205128205129
1150.864,0.20891602,0.29333007,0.3839619,0.35165513,0,0.0,0.0,0.0,0.0,0.046744548,0,0,0.0,0.0,0,0,109.0,0.0,718.0,4597.948717948719,3937.435897435898,4483.076923076924,4431.794871794872,4230.769230769231,4547.179487179488,4447.6923076923085,4411.794871794872,4382.564102564103,4726.153846153847,4320.000000000001,4193.333333333334,4129.74358974359,4480.000000000001
1151.1143,0.20516008,0.27931222,0.37599725,0.36033067,0,0.0,0.0,0.0,0.0,0.085733354,0,0,0.0,0.0,0,0,12.0,0.0,538.0,4627.179487179488,3938.9743589743593,4496.923076923077,4450.256410256411,4237.435897435898,4555.384615384616,4447.179487179487,4406.666666666667,4392.307692307693,4721.538461538462,4318.461538461539,4205.641025641026,4149.2307692307695,4515.8974358974365
1151.3645,0.20516008,0.27931222,0.37599725,0.36033067,0,0.0,0.0,0.0,0.0,0.15781687,0,0,0.0,0.0,0,0,44.0,0.0,0.0,4634.358974358975,3975.3846153846157,4503.076923076924,4497.435897435898,4226.153846153847,4556.923076923077,4456.923076923077,4436.410256410257,4408.205128205129,4749.2307692307695,4389.743589743591,4245.641025641026,4191.282051282052,4584.615384615385
1151.6146,0.18028809,0.2958841,0.3720122,0.36526662,0,0.0,0.0,0.0,0.0,0.40273988,0,0,0.0,0.0,0,0,76.0,0.0,538.0,4603.589743589744,3987.1794871794878,4496.923076923077,4552.307692307693,4253.846153846154,4605.641025641026,4481.538461538462,4458.461538461539,4401.538461538462,4830.769230769231,4399.48717948718,4269.74358974359,4213.333333333334,4550.256410256411
1151.8649,0.18028809,0.2958841,0.3720122,0.36526662,0,0.0,0.0,0.0,0.0,0.10784925,0,0,0.0,0.0,0,0,108.0,0.0,538.0,4521.025641025642,3971.7948717948725,4424.615384615385,4460.512820512821,4319.48717948718,4643.589743589744,4378.461538461539,4352.820512820514,4342.564102564103,4800.000000000001,4298.974358974359,4209.74358974359,4190.769230769231,4470.769230769231
1151.99,0.17384537,0.32629272,0.36842474,0.36808947,0,0.0,0.0,0.0,0.0,0.0,0,0,0.0,0.0,0,0,124.0,0.0,538.0,4502.564102564103,4014.358974358975,4425.128205128206,4434.358974358975,4335.8974358974365,4649.2307692307695,4324.615384615385,4314.358974358975,4338.974358974359,4802.564102564103,4282.051282051282,4195.384615384616,4191.282051282052,4451.282051282052
1152.3654,0.17384537,0.32629272,0.36842474,0.36808947,0,0.0,0.0,0.28891233,0.0,0.0,0,0,0.0,0.0,0,0,36.0,0.0,0.0,4456.923076923077,3982.564102564103,4388.205128205129,4384.102564102564,4367.6923076923085,4662.051282051282,4328.205128205129,4293.333333333334,4317.948717948719,4780.000000000001,4266.666666666667,4178.461538461539,4229.74358974359,4416.410256410257
1152.5842,0.27545226,0.3357564,0.36519516,0.37694007,0,0.0,0.0,0.0,0.0,0.0,0,0,0.0,0.0,0,1,71.0,0.0,472.0,4530.769230769231,3963.589743589744,4445.128205128206,4418.461538461539,4367.6923076923085,4640.000000000001,4352.307692307693,4337.435897435898,4331.282051282052,4860.512820512821,4380.000000000001,4252.307692307693,4385.641025641026,4477.948717948719
1152.8657,0.27545226,0.3357564,0.36519516,0.37694007,0,0.0,0.0,0.87151206,0.0,0.0,0,0,0.0,0.0,0,1,86.0,0.0,528.0,4554.871794871796,3903.076923076924,4445.641025641026,4484.102564102564,4424.102564102564,4647.6923076923085,4365.128205128206,4381.538461538462,4330.769230769231,4887.179487179488,4367.6923076923085,4272.307692307693,4395.8974358974365,4472.820512820514
1152.9908,0.432891,0.34422258,0.36228776,0.38940123,0,0.0,0.0,0.7615739,0.0,0.0,0,0,0.0,0.0,0,0,123.0,0.0,447.0,4481.025641025642,3761.538461538462,4350.769230769231,4563.589743589744,4438.461538461539,4662.564102564103,4243.076923076924,4274.871794871796,4336.410256410257,4769.2307692307695,4158.461538461539,4157.435897435898,4249.74358974359,4424.615384615385
1153.335,0.432891,0.34422258,0.36228776,0.38940123,0,0.0,1.0,0.0,0.0,0.0,0,0,0.0,0.0,0,0,38.0,0.0,0.0,4553.846153846154,3872.820512820513,4445.128205128206,4612.820512820514,4377.948717948719,4627.6923076923085,4297.948717948719,4294.358974358975,4422.051282051282,4755.384615384616,4199.48717948718,4208.205128205129,4251.794871794872,4475.384615384616
1153.4913,0.47262102,0.35184216,0.36231968,0.41358262,0,0.0,0.21967514,0.0,0.0,0.0,0,0,0.0,0.0,0,0,58.0,0.0,0.0,4468.205128205129,3797.435897435898,4397.948717948719,4544.615384615385,4374.358974358975,4637.948717948719,4291.282051282052,4289.74358974359,4405.641025641026,4759.48717948718,4136.923076923077,4148.205128205129,4186.666666666667,4421.025641025642
1153.7415,0.47262102,0.35184216,0.36231968,0.41358262,0,0.0,0.13912964,0.0,0.0,0.0,0,0,0.0,0.0,0,0,90.0,0.0,525.0,4435.384615384616,3825.1282051282055,4392.307692307693,4416.410256410257,4351.794871794872,4631.794871794872,4288.717948717949,4311.794871794872,4413.846153846154,4732.307692307693,4121.538461538462,4106.153846153847,4144.615384615385,4408.205128205129
1153.9917,0.51299834,0.35869977,0.36995336,0.44603118,0,0.0,0.48892143,0.0,0.0,0.0,0,0,0.0,0.0,0,0,122.0,0.0,525.0,4422.564102564103,3811.2820512820517,4386.153846153847,4343.589743589744,4369.743589743591,4618.974358974359,4306.153846153847,4340.000000000001,4435.8974358974365,4690.769230769231,4113.846153846154,4069.7435897435903,4137.948717948719,4398.974358974359
1154.2107,0.51299834,0.35869977,0.36995336,0.44603118,1,0.0,0.0,0.0,0.0,0.0,0,0,0.0,0.0,0,0,21.0,0.0,0.0,4488.717948717949,3882.564102564103,4421.538461538462,4398.974358974359,4340.512820512821,4609.2307692307695,4324.102564102564,4340.000000000001,4441.025641025642,4708.205128205129,4203.076923076924,4102.564102564103,4197.435897435898,4455.8974358974365
1154.4922,0.5328844,0.36487162,0.38230255,0.47522792,0,0.0,0.0,0.0,0.0,0.0,0,0,0.0,0.0,0,0,57.0,0.0,0.0,4537.435897435898,3885.6410256410263,4456.410256410257,4499.48717948718,4323.589743589744,4602.051282051282,4403.589743589744,4368.205128205129,4464.102564102564,4676.923076923077,4227.179487179487,4119.48717948718,4195.384615384616,4434.358974358975
1154.4922,0.5328844,0.36487162,0.38230255,0.47522792,0,0.0,0.0,0.0,0.0,0.0,0,0,0.0,0.0,0,0,57.0,0.0,0.0,4537.435897435898,3885.6410256410263,4456.410256410257,4499.48717948718,4323.589743589744,4602.051282051282,4403.589743589744,4368.205128205129,4464.102564102564,4676.923076923077,4227.179487179487,4119.48717948718,4195.384615384616,4434.358974358975
1154.9926,0.46696725,0.45777273,0.3934153,0.5015024,0,0.0,0.0,0.0,0.0,0.0,0,0,0.0,0.0,0,0,121.0,0.0,717.0,4635.384615384616,3948.717948717949,4501.538461538462,4557.435897435898,4269.74358974359,4562.564102564103,4470.256410256411,4367.179487179487,4472.307692307693,4667.6923076923085,4242.051282051282,4146.153846153847,4169.2307692307695,4478.974358974359
1154.9926,0.46696725,0.45777273,0.3934153,0.5015024,0,0.0,0.0,0.0,0.0,0.0,0,0,0.0,0.0,0,0,121.0,0.0,717.0,4635.384615384616,3948.717948717949,4501.538461538462,4557.435897435898,4269.74358974359,4562.564102564103,4470.256410256411,4367.179487179487,4472.307692307693,4667.6923076923085,4242.051282051282,4146.153846153847,4169.2307692307695,4478.974358974359
1155.493,0.48432678,0.4859233,0.40341488,0.5222092,0,0.0,0.0,0.0,0.0,0.0,0,0,0.0,0.0,0,0,56.0,0.0,0.0,4657.948717948719,4036.410256410257,4509.2307692307695,4675.384615384616,4223.589743589744,4526.666666666667,4468.205128205129,4393.846153846154,4467.179487179487,4638.974358974359,4257.435897435898,4173.846153846154,4144.102564102564,4510.769230769231
1155.837,0.48432678,0.4859233,0.40341488,0.5222092,0,0.0,0.0,0.0,0.0,0.0,0,0,0.0,0.0,0,1,100.0,0.0,541.0,4693.333333333334,4017.435897435898,4526.153846153847,4632.307692307693,4229.74358974359,4532.820512820514,4513.333333333334,4485.128205128206,4508.717948717949,4753.333333333334,4354.358974358975,4245.641025641026,4242.051282051282,4571.282051282052
1155.9934,0.6362075,0.5486368,0.41189477,0.5377956,0,0.0,0.0,0.0,0.0,0.0,0,0,0.0,0.0,0,1,120.0,0.0,541.0,4670.256410256411,4001.538461538462,4514.358974358975,4603.076923076924,4236.923076923077,4535.384615384616,4506.666666666667,4486.153846153847,4500.000000000001,4766.666666666667,4346.666666666667,4233.333333333334,4226.666666666667,4549.743589743591
1156.1812,0.6362075,0.5486368,0.41189477,0.5377956,0,0.0,0.0,0.0,0.0,0.0,0,0,0.0,0.0,0,0,15.0,0.0,446.0,4665.128205128206,4010.2564102564106,4509.743589743591,4575.8974358974365,4243.589743589744,4535.8974358974365,4491.282051282052,4475.8974358974365,4470.769230769231,4778.461538461539,4342.564102564103,4227.179487179487,4229.2307692307695,4540.512820512821
1156.5876,0.65045124,0.57068396,0.4167595,0.551157,1,0.0,0.0,0.0,0.0,0.0,0,0,0.0,0.0,0,0,67.0,0.0,525.0,4685.128205128206,4046.666666666667,4547.179487179488,4578.461538461539,4253.333333333334,4536.923076923077,4502.564102564103,4490.769230769231,4462.564102564103,4812.307692307693,4433.846153846154,4268.717948717949,4343.076923076924,4577.948717948719
1156.7441,0.65045124,0.57068396,0.4167595,0.551157,0,0.0,0.0,0.0,0.0,0.0,0,0,0.0,0.0,0,0,87.0,0.0,446.0,4614.871794871796,4004.1025641025644,4512.820512820514,4546.153846153847,4277.948717948719,4558.461538461539,4503.589743589744,4493.333333333334,4467.179487179487,4809.2307692307695,4393.333333333334,4240.512820512821,4285.128205128206,4511.282051282052
1156.9943,0.6915702,0.6088647,0.42113525,0.56037754,0,0.0,0.0,0.0,0.0,0.0,0,0,0.0,0.0,0,0,119.0,0.0,446.0,4603.076923076924,4006.666666666667,4519.48717948718,4539.48717948718,4261.025641025642,4535.8974358974365,4501.538461538462,4458.974358974359,4461.025641025642,4763.589743589744,4384.615384615385,4223.076923076924,4255.8974358974365,4493.846153846154
1156.9943,0.6915702,0.6088647,0.42113525,0.56037754,0,0.0,0.0,0.0,0.0,0.0,0,0,0.0,0.0,0,0,119.0,0.0,446.0,4603.076923076924,4006.666666666667,4519.48717948718,4539.48717948718,4261.025641025642,4535.8974358974365,4501.538461538462,4458.974358974359,4461.025641025642,4763.589743589744,4384.615384615385,4223.076923076924,4255.8974358974365,4493.846153846154
1157.4948,0.6850529,0.6643522,0.417266,0.5714811,0,0.0,0.0,0.0,0.0,0.0,0,0,0.0,0.0,0,0,54.0,0.0,0.0,4585.641025641026,3981.538461538462,4514.871794871796,4501.538461538462,4254.871794871796,4540.000000000001,4520.000000000001,4464.102564102564,4480.000000000001,4746.666666666667,4369.743589743591,4213.846153846154,4222.564102564103,4493.333333333334
1157.4948,0.6850529,0.6643522,0.417266,0.5714811,0,0.0,0.0,0.0,0.0,0.0,0,0,0.0,0.0,0,0,54.0,0.0,0.0,4585.641025641026,3981.538461538462,4514.871794871796,4501.538461538462,4254.871794871796,4540.000000000001,4520.000000000001,4464.102564102564,4480.000000000001,4746.666666666667,4369.743589743591,4213.846153846154,4222.564102564103,4493.333333333334
1157.9951,0.5970184,0.67114633,0.41038144,0.57699925,0,0.0,0.0,0.0,0.0,0.0,0,0,0.0,0.0,0,0,118.0,0.0,528.0,4634.358974358975,3991.2820512820517,4534.358974358975,4487.179487179488,4246.153846153847,4534.871794871796,4532.307692307693,4498.461538461539,4482.564102564103,4741.538461538462,4420.512820512821,4220.512820512821,4174.358974358975,4514.358974358975
1157.9951,0.5970184,0.67114633,0.41038144,0.57699925,0,0.0,0.0,0.0,0.0,0.0,0,0,0.0,0.0,0,0,118.0,0.0,528.0,4634.358974358975,3991.2820512820517,4534.358974358975,4487.179487179488,4246.153846153847,4534.871794871796,4532.307692307693,4498.461538461539,4482.564102564103,4741.538461538462,4420.512820512821,4220.512820512821,4174.358974358975,4514.358974358975
1158.4956,0.5622997,0.6869208,0.40905094,0.5735272,0,0.0,0.0,0.0,0.0,0.0,0,0,0.0,0.0,0,0,53.0,0.0,0.0,4662.564102564103,4050.7692307692314,4562.051282051282,4518.461538461539,4212.307692307693,4514.871794871796,4524.615384615385,4484.102564102564,4462.564102564103,4678.461538461539,4361.025641025642,4202.051282051282,4103.589743589744,4523.589743589744
1158.7458,0.5622997,0.6869208,0.40905094,0.5735272,0,0.0,0.0,0.0,0.0,0.06951195,0,0,0.0,0.0,0,0,85.0,0.0,722.0,4600.512820512821,4017.435897435898,4550.769230769231,4493.846153846154,4218.974358974359,4521.025641025642,4558.461538461539,4538.461538461539,4481.538461538462,4715.384615384616,4370.256410256411,4208.205128205129,4110.769230769231,4516.410256410257
1158.996,0.52316314,0.6765392,0.40785155,0.5687958,0,0.0,0.0,0.0,0.0,0.27946106,0,0,0.0,0.0,0,0,117.0,0.0,722.0,4601.538461538462,4025.6410256410263,4563.076923076924,4494.871794871796,4223.589743589744,4522.051282051282,4526.666666666667,4521.025641025642,4466.153846153847,4708.717948717949,4378.974358974359,4207.6923076923085,4111.794871794872,4534.358974358975
1159.1211,0.52316314,0.6765392,0.40785155,0.5687958,0,0.0,0.0,0.0,0.0,0.0,0,0,0.0,0.0,0,0,4.0,0.0,546.0,4602.051282051282,4025.1282051282055,4564.102564102564,4496.410256410257,4221.025641025642,4523.076923076924,4521.538461538462,4511.794871794872,4456.410256410257,4705.128205128206,4385.641025641026,4204.615384615385,4120.512820512821,4533.333333333334
1159.4965,0.48022637,0.6527409,0.40149423,0.5683197,0,0.0,0.0,0.0,0.0,0.0,0,0,0.0,0.0,0,0,52.0,0.0,0.0,4608.717948717949,4047.1794871794878,4564.615384615385,4514.358974358975,4225.641025641026,4524.615384615385,4502.564102564103,4589.743589743591,4453.846153846154,4709.2307692307695,4404.615384615385,4218.974358974359,4142.051282051282,4533.333333333334
1159.7467,0.48022637,0.6527409,0.40149423,0.5683197,0,0.0,0.0,0.0,0.0,0.08388916,0,0,0.0,0.0,0,0,84.0,0.0,541.0,4578.461538461539,3956.9230769230776,4536.923076923077,4456.410256410257,4224.615384615385,4530.769230769231,4530.256410256411,4598.461538461539,4455.384615384616,4732.820512820514,4443.076923076924,4219.48717948718,4215.8974358974365,4545.641025641026
1159.9968,0.4596281,0.63286155,0.39577112,0.5678908,0,0.0,0.0,0.0,0.0,0.14295833,0,0,0.0,0.0,0,0,116.0,0.0,541.0,4555.8974358974365,3943.589743589744,4532.307692307693,4462.051282051282,4233.846153846154,4533.333333333334,4526.153846153847,4604.615384615385,4466.153846153847,4790.769230769231,4429.743589743591,4232.820512820514,4230.256410256411,4531.794871794872
1160.122,0.4596281,0.63286155,0.39577112,0.5678908,0,0.0,0.0,0.0,0.0,0.0,0,0,0.0,0.0,0,0,3.0,0.0,526.0,4552.307692307693,3952.820512820513,4535.384615384616,4463.076923076924,4246.153846153847,4542.051282051282,4515.384615384616,4579.48717948718,4448.205128205129,4799.48717948718,4409.743589743591,4220.512820512821,4213.846153846154,4523.076923076924
1160.4973,0.41602096,0.5926287,0.39407814,0.5675045,0,0.0,0.0,0.0,0.0,0.0,0,0,0.0,0.0,0,0,51.0,0.0,0.0,4538.461538461539,3978.9743589743593,4505.128205128206,4534.358974358975,4273.846153846154,4539.48717948718,4454.358974358975,4467.6923076923085,4406.153846153847,4813.846153846154,4357.948717948719,4203.076923076924,4266.153846153847,4468.205128205129
1160.4973,0.41602096,0.5926287,0.39407814,0.5675045,0,0.0,0.0,0.0,0.0,0.0,0,0,0.0,0.0,0,0,51.0,0.0,0.0,4538.461538461539,3978.9743589743593,4505.128205128206,4534.358974358975,4273.846153846154,4539.48717948718,4454.358974358975,4467.6923076923085,4406.153846153847,4813.846153846154,4357.948717948719,4203.076923076924,4266.153846153847,4468.205128205129
1160.9977,0.43760836,0.5561831,0.3948787,0.56834096,0,0.0,0.0,0.0,0.0,0.0,0,0,0.0,0.0,0,0,115.0,0.0,445.0,4517.435897435898,3983.076923076924,4491.794871794872,4538.461538461539,4284.615384615385,4540.512820512821,4433.846153846154,4426.153846153847,4397.948717948719,4782.564102564103,4363.076923076924,4198.461538461539,4331.282051282052,4428.205128205129
1160.9977,0.43760836,0.5561831,0.3948787,0.56834096,0,0.0,0.0,0.0,0.0,0.0,0,0,0.0,0.0,0,0,115.0,0.0,445.0,4517.435897435898,3983.076923076924,4491.794871794872,4538.461538461539,4284.615384615385,4540.512820512821,4433.846153846154,4426.153846153847,4397.948717948719,4782.564102564103,4363.076923076924,4198.461538461539,4331.282051282052,4428.205128205129
1161.4982,0.55366755,0.50794095,0.3908206,0.56955355,0,0.0,0.0,0.3040241,0.0,0.0,0,0,0.0,0.0,0,0,50.0,0.0,0.0,4521.538461538462,3988.205128205129,4488.205128205129,4505.128205128206,4274.871794871796,4532.820512820514,4429.743589743591,4403.076923076924,4408.717948717949,4734.358974358975,4408.205128205129,4175.384615384616,4250.769230769231,4416.923076923077
1161.6233,0.55366755,0.50794095,0.3908206,0.56955355,0,0.0,0.0,0.0,0.0,0.0,0,0,0.0,0.0,0,0,66.0,0.0,440.0,4516.410256410257,3970.7692307692314,4479.48717948718,4486.153846153847,4266.666666666667,4534.871794871796,4412.307692307693,4378.461538461539,4405.128205128206,4706.666666666667,4391.282051282052,4153.846153846154,4228.717948717949,4414.358974358975
1161.9987,0.49912873,0.47763798,0.38716698,0.57601494,0,0.0,0.0,0.0,0.0,0.0,0,0,0.0,0.0,0,0,114.0,0.0,528.0,4589.2307692307695,3992.307692307693,4522.051282051282,4507.6923076923085,4259.48717948718,4540.000000000001,4460.000000000001,4409.743589743591,4417.435897435898,4689.743589743591,4396.410256410257,4189.2307692307695,4212.820512820514,4469.743589743591
1161.9987,0.49912873,0.47763798,0.38716698,0.57601494,0,0.0,0.0,0.0,0.0,0.0,0,0,0.0,0.0,0,0,114.0,0.0,528.0,4589.2307692307695,3992.307692307693,4522.051282051282,4507.6923076923085,4259.48717948718,4540.000000000001,4460.000000000001,4409.743589743591,4417.435897435898,4689.743589743591,4396.410256410257,4189.2307692307695,4212.820512820514,4469.743589743591
1162.499,0.51642096,0.4662292,0.38511154,0.5858443,0,0.0,0.0,0.0,0.0,0.0,0,0,0.0,0.0,0,0,49.0,0.0,0.0,4596.410256410257,3963.589743589744,4528.717948717949,4483.076923076924,4237.948717948719,4540.000000000001,4488.717948717949,4450.256410256411,4437.948717948719,4715.384615384616,4391.794871794872,4183.589743589744,4147.179487179487,4492.307692307693
1162.499,0.51642096,0.4662292,0.38511154,0.5858443,0,0.0,0.0,0.0,0.0,0.0,0,0,0.0,0.0,0,0,49.0,0.0,0.0,4596.410256410257,3963.589743589744,4528.717948717949,4483.076923076924,4237.948717948719,4540.000000000001,4488.717948717949,4450.256410256411,4437.948717948719,4715.384615384616,4391.794871794872,4183.589743589744,4147.179487179487,4492.307692307693
1162.9995,0.5178298,0.4721449,0.38327232,0.5994515,0,0.0,0.0,0.0,0.0,0.0,0,0,0.0,0.0,0,0,113.0,0.0,718.0,4568.717948717949,3955.3846153846157,4495.384615384616,4345.641025641026,4249.74358974359,4536.410256410257,4439.48717948718,4401.538461538462,4389.743589743591,4721.538461538462,4336.923076923077,4145.641025641026,4113.333333333334,4450.256410256411
1162.9995,0.5178298,0.4721449,0.38327232,0.5994515,0,0.0,0.0,0.0,0.0,0.0,0,0,0.0,0.0,0,0,113.0,0.0,718.0,4568.717948717949,3955.3846153846157,4495.384615384616,4345.641025641026,4249.74358974359,4536.410256410257,4439.48717948718,4401.538461538462,4389.743589743591,4721.538461538462,4336.923076923077,4145.641025641026,4113.333333333334,4450.256410256411
1163.4999,0.51488954,0.48712152,0.3777158,0.61815965,0,0.0,0.0,0.0,0.0,0.0,0,0,0.0,0.0,0,0,48.0,0.0,0.0,4508.205128205129,3889.7435897435903,4453.333333333334,4347.179487179487,4268.205128205129,4552.820512820514,4434.358974358975,4434.358974358975,4409.743589743591,4748.717948717949,4362.051282051282,4161.538461538462,4175.384615384616,4412.820512820514
1163.4999,0.51488954,0.48712152,0.3777158,0.61815965,0,0.0,0.0,0.0,0.0,0.0,0,0,0.0,0.0,0,0,48.0,0.0,0.0,4508.205128205129,3889.7435897435903,4453.333333333334,4347.179487179487,4268.205128205129,4552.820512820514,4434.358974358975,4434.358974358975,4409.743589743591,4748.717948717949,4362.051282051282,4161.538461538462,4175.384615384616,4412.820512820514
1164.0004,0.49263433,0.49208978,0.36942843,0.64355385,0,0.0,0.0,0.0,0.0,0.0,0,0,0.0,0.0,0,0,112.0,0.0,539.0,4547.179487179488,3936.410256410257,4497.435897435898,4277.948717948719,4263.589743589744,4554.358974358975,4422.564102564103,4451.794871794872,4421.538461538462,4724.102564102564,4364.615384615385,4175.8974358974365,4146.153846153847,4442.564102564103
1164.0004,0.49263433,0.49208978,0.36942843,0.64355385,0,0.0,0.0,0.0,0.0,0.0,0,0,0.0,0.0,0,0,112.0,0.0,539.0,4547.179487179488,3936.410256410257,4497.435897435898,4277.948717948719,4263.589743589744,4554.358974358975,4422.564102564103,4451.794871794872,4421.538461538462,4724.102564102564,4364.615384615385,4175.8974358974365,4146.153846153847,4442.564102564103
1164.5007,0.4098644,0.4857237,0.36525527,0.6663971,0,0.0,0.0,0.0,0.0,0.0,0,0,0.0,0.0,0,0,47.0,0.0,0.0,4590.256410256411,3942.0512820512827,4529.743589743591,4495.384615384616,4235.8974358974365,4541.025641025642,4447.179487179487,4461.025641025642,4444.102564102564,4676.410256410257,4431.282051282052,4221.025641025642,4143.589743589744,4489.2307692307695
1164.5007,0.4098644,0.4857237,0.36525527,0.6663971,0,0.0,0.0,0.0,0.0,0.0,0,0,0.0,0.0,0,0,47.0,0.0,0.0,4590.256410256411,3942.0512820512827,4529.743589743591,4495.384615384616,4235.8974358974365,4541.025641025642,4447.179487179487,4461.025641025642,4444.102564102564,4676.410256410257,4431.282051282052,4221.025641025642,4143.589743589744,4489.2307692307695
1165.0012,0.4031582,0.4703086,0.36540157,0.6869404,0,0.0,0.0,0.0,0.0,0.0,0,0,0.0,0.0,0,0,111.0,0.0,446.0,4591.794871794872,3929.2307692307695,4525.128205128206,4528.205128205129,4227.179487179487,4532.820512820514,4455.384615384616,4474.358974358975,4448.717948717949,4696.410256410257,4421.025641025642,4231.794871794872,4150.256410256411,4496.410256410257
1165.0012,0.4031582,0.4703086,0.36540157,0.6869404,0,0.0,0.0,0.0,0.0,0.0,0,0,0.0,0.0,0,0,111.0,0.0,446.0,4591.794871794872,3929.2307692307695,4525.128205128206,4528.205128205129,4227.179487179487,4532.820512820514,4455.384615384616,4474.358974358975,4448.717948717949,4696.410256410257,4421.025641025642,4231.794871794872,4150.256410256411,4496.410256410257
1165.5016,0.47555047,0.45647445,0.36387232,0.69658196,0,0.0,0.0,0.0,0.0,0.0,0,0,0.0,0.0,0,0,46.0,0.0,0.0,4594.871794871796,3935.3846153846157,4528.717948717949,4496.410256410257,4226.153846153847,4535.384615384616,4462.564102564103,4474.871794871796,4452.820512820514,4707.179487179488,4416.410256410257,4222.564102564103,4165.641025641026,4463.076923076924
1165.5016,0.47555047,0.45647445,0.36387232,0.69658196,0,0.0,0.0,0.0,0.0,0.0,0,0,0.0,0.0,0,0,46.0,0.0,0.0,4594.871794871796,3935.3846153846157,4528.717948717949,4496.410256410257,4226.153846153847,4535.384615384616,4462.564102564103,4474.871794871796,4452.820512820514,4707.179487179488,4416.410256410257,4222.564102564103,4165.641025641026,4463.076923076924
1166.0021,0.4176696,0.43663558,0.357055,0.69827104,0,0.0,0.0,0.0,0.0,0.0,0,0,0.0,0.0,0,0,110.0,0.0,529.0,4581.538461538462,3931.7948717948725,4510.256410256411,4457.435897435898,4224.615384615385,4528.717948717949,4440.000000000001,4434.358974358975,4434.871794871796,4693.846153846154,4376.410256410257,4204.615384615385,4148.205128205129,4467.179487179487
1166.0021,0.4176696,0.43663558,0.357055,0.69827104,0,0.0,0.0,0.0,0.0,0.0,0,0,0.0,0.0,0,0,110.0,0.0,529.0,4581.538461538462,3931.7948717948725,4510.256410256411,4457.435897435898,4224.615384615385,4528.717948717949,4440.000000000001,4434.358974358975,4434.871794871796,4693.846153846154,4376.410256410257,4204.615384615385,4148.205128205129,4467.179487179487
1166.5024,0.38535464,0.4077047,0.34804434,0.6916477,0,0.0,0.0,0.0,0.0,0.0,0,0,0.0,0.0,0,0,45.0,0.0,0.0,4595.8974358974365,3923.589743589744,4518.461538461539,4425.128205128206,4220.512820512821,4535.384615384616,4459.48717948718,4449.743589743591,4438.974358974359,4756.410256410257,4382.051282051282,4233.846153846154,4191.282051282052,4513.333333333334
1166.5024,0.38535464,0.4077047,0.34804434,0.6916477,0,0.0,0.0,0.0,0.0,0.0,0,0,0.0,0.0,0,0,45.0,0.0,0.0,4595.8974358974365,3923.589743589744,4518.461538461539,4425.128205128206,4220.512820512821,4535.384615384616,4459.48717948718,4449.743589743591,4438.974358974359,4756.410256410257,4382.051282051282,4233.846153846154,4191.282051282052,4513.333333333334
1167.0029,0.34320122,0.38763845,0.33798268,0.68096167,0,0.0,0.0,0.0,0.0,0.0,0,0,0.0,0.0,0,0,109.0,0.0,711.0,4603.076923076924,3916.410256410257,4495.8974358974365,4272.820512820514,4215.384615384616,4531.794871794872,4462.051282051282,4461.025641025642,4433.846153846154,4714.871794871796,4349.743589743591,4195.8974358974365,4140.512820512821,4488.717948717949
1167.0029,0.34320122,0.38763845,0.33798268,0.68096167,0,0.0,0.0,0.0,0.0,0.0,0,0,0.0,0.0,0,0,109.0,0.0,711.0,4603.076923076924,3916.410256410257,4495.8974358974365,4272.820512820514,4215.384615384616,4531.794871794872,4462.051282051282,4461.025641025642,4433.846153846154,4714.871794871796,4349.743589743591,4195.8974358974365,4140.512820512821,4488.717948717949
1167.5972,0.3156966,0.3869564,0.3289271,0.67301387,0,0.0,0.0,0.0,0.0,0.0,0,0,0.0,0.0,0,0,56.0,0.0,0.0,4645.128205128206,3923.589743589744,4523.076923076924,3938.9743589743593,4205.641025641026,4516.923076923077,4497.435897435898,4485.641025641026,4434.871794871796,4704.102564102564,4373.333333333334,4190.769230769231,4176.410256410257,4532.820512820514
1167.5972,0.3156966,0.3869564,0.3289271,0.67301387,0,0.0,0.0,0.0,0.0,0.0,0,0,0.0,0.0,0,0,56.0,0.0,0.0,4645.128205128206,3923.589743589744,4523.076923076924,3938.9743589743593,4205.641025641026,4516.923076923077,4497.435897435898,4485.641025641026,4434.871794871796,4704.102564102564,4373.333333333334,4190.769230769231,4176.410256410257,4532.820512820514
1168.0038,0.31022978,0.38962954,0.32077718,0.6658605,0,0.0,0.0,0.0,0.0,0.0,0,0,0.0,0.0,0,0,108.0,0.0,539.0,4616.923076923077,3913.333333333334,4511.282051282052,3986.1538461538466,4228.717948717949,4538.974358974359,4497.435897435898,4461.538461538462,4426.153846153847,4708.717948717949,4362.051282051282,4192.820512820514,4171.794871794872,4522.051282051282
1168.0038,0.31022978,0.38962954,0.32077718,0.6658605,0,0.0,0.0,0.0,0.0,0.0,0,0,0.0,0.0,0,0,108.0,0.0,539.0,4616.923076923077,3913.333333333334,4511.282051282052,3986.1538461538466,4228.717948717949,4538.974358974359,4497.435897435898,4461.538461538462,4426.153846153847,4708.717948717949,4362.051282051282,4192.820512820514,4171.794871794872,4522.051282051282
1168.5042,0.2754548,0.3829636,0.3186454,0.6594216,0,0.0,0.0,0.0,0.0,0.0,0,0,0.0,0.0,0,0,43.0,0.0,0.0,4604.615384615385,3910.2564102564106,4505.128205128206,4096.410256410257,4234.871794871796,4537.435897435898,4468.717948717949,4429.743589743591,4424.615384615385,4727.179487179488,4367.179487179487,4200.512820512821,4170.256410256411,4527.6923076923085
1168.5042,0.2754548,0.3829636,0.3186454,0.6594216,0,0.0,0.0,0.0,0.0,0.0,0,0,0.0,0.0,0,0,43.0,0.0,0.0,4604.615384615385,3910.2564102564106,4505.128205128206,4096.410256410257,4234.871794871796,4537.435897435898,4468.717948717949,4429.743589743591,4424.615384615385,4727.179487179488,4367.179487179487,4200.512820512821,4170.256410256411,4527.6923076923085
1169.0046,0.23133506,0.38037407,0.31686446,0.6569608,0,0.0,0.0,0.0,0.0,0.0,0,0,0.0,0.0,0,0,107.0,0.0,446.0,4600.512820512821,3923.589743589744,4496.410256410257,4211.794871794872,4249.74358974359,4543.076923076924,4478.974358974359,4419.48717948718,4420.512820512821,4721.025641025642,4337.435897435898,4204.102564102564,4133.846153846154,4525.128205128206
1169.0046,0.23133506,0.38037407,0.31686446,0.6569608,0,0.0,0.0,0.0,0.0,0.0,0,0,0.0,0.0,0,0,107.0,0.0,446.0,4600.512820512821,3923.589743589744,4496.410256410257,4211.794871794872,4249.74358974359,4543.076923076924,4478.974358974359,4419.48717948718,4420.512820512821,4721.025641025642,4337.435897435898,4204.102564102564,4133.846153846154,4525.128205128206
1169.505,0.17183252,0.3654774,0.31526202,0.6684028,0,0.0,0.0,0.0,0.0,0.0,0,0,0.0,0.0,0,0,42.0,0.0,0.0,4602.051282051282,3924.615384615385,4499.48717948718,4306.153846153847,4259.48717948718,4553.333333333334,4480.512820512821,4422.564102564103,4428.717948717949,4691.794871794872,4358.974358974359,4214.871794871796,4130.256410256411,4524.102564102564
1169.505,0.17183252,0.3654774,0.31526202,0.6684028,0,0.0,0.0,0.0,0.0,0.0,0,0,0.0,0.0,0,0,42.0,0.0,0.0,4602.051282051282,3924.615384615385,4499.48717948718,4306.153846153847,4259.48717948718,4553.333333333334,4480.512820512821,4422.564102564103,4428.717948717949,4691.794871794872,4358.974358974359,4214.871794871796,4130.256410256411,4524.102564102564
1170.0055,0.102305494,0.3542438,0.3177915,0.6825697,0,0.0,0.0,0.0,0.0,0.0,0,0,0.0,0.0,0,0,106.0,0.0,529.0,4549.743589743591,3923.589743589744,4461.538461538462,4285.641025641026,4284.102564102564,4567.179487179488,4428.717948717949,4368.205128205129,4392.820512820514,4762.051282051282,4314.871794871796,4195.8974358974365,4147.6923076923085,4480.512820512821
1170.0055,0.102305494,0.3542438,0.3177915,0.6825697,0,0.0,0.0,0.0,0.0,0.0,0,0,0.0,0.0,0,0,106.0,0.0,529.0,4549.743589743591,3923.589743589744,4461.538461538462,4285.641025641026,4284.102564102564,4567.179487179488,4428.717948717949,4368.205128205129,4392.820512820514,4762.051282051282,4314.871794871796,4195.8974358974365,4147.6923076923085,4480.512820512821
1170.5059,0.11463065,0.3378939,0.31760564,0.69530606,0,0.0,0.0,0.0,0.0,0.0,0,0,0.0,0.0,0,0,41.0,0.0,0.0,4465.128205128206,3964.1025641025644,4427.6923076923085,4269.74358974359,4322.564102564103,4578.974358974359,4366.153846153847,4308.205128205129,4356.923076923077,4749.2307692307695,4285.128205128206,4170.769230769231,4252.307692307693,4422.564102564103
1170.7561,0.11463065,0.3378939,0.31760564,0.69530606,0,0.0,0.0,0.062156357,0.0,0.0,0,0,0.0,0.0,0,0,73.0,0.0,460.0,4504.615384615385,4010.7692307692314,4459.48717948718,4288.717948717949,4318.461538461539,4576.410256410257,4340.000000000001,4303.076923076924,4368.717948717949,4753.846153846154,4323.076923076924,4199.48717948718,4325.128205128206,4469.743589743591
1171.0688,0.20538081,0.36334747,0.3147051,0.7125516,0,0.0,0.0,0.0,0.0,0.0,0,0,0.0,0.0,0,0,113.0,0.0,707.0,4533.846153846154,3996.410256410257,4500.512820512821,4353.333333333334,4290.256410256411,4554.358974358975,4415.384615384616,4366.666666666667,4393.333333333334,4770.256410256411,4362.564102564103,4227.6923076923085,4321.025641025642,4495.8974358974365
1171.2566,0.20538081,0.36334747,0.3147051,0.7125516,0,0.0,0.0,0.0,0.0,0.031971224,0,0,0.0,0.0,0,0,8.0,0.0,409.0,4531.282051282052,3992.307692307693,4489.743589743591,4378.974358974359,4285.128205128206,4553.333333333334,4408.205128205129,4378.461538461539,4395.8974358974365,4736.410256410257,4350.769230769231,4211.282051282052,4265.641025641026,4481.025641025642
1171.5067,0.19994955,0.3650878,0.30966187,0.72804874,0,0.0,0.0,0.0,0.0,0.1370654,0,0,0.0,0.0,0,0,40.0,0.0,0.0,4567.179487179488,4014.358974358975,4512.307692307693,4416.410256410257,4275.384615384616,4553.846153846154,4412.307692307693,4384.102564102564,4398.974358974359,4701.025641025642,4338.974358974359,4213.333333333334,4216.410256410257,4494.358974358975
1171.757,0.19994955,0.3650878,0.30966187,0.72804874,0,0.0,0.0,0.0,0.0,0.035213403,0,0,0.0,0.0,0,0,72.0,0.0,409.0,4575.384615384616,3982.0512820512827,4504.615384615385,4402.051282051282,4258.974358974359,4552.307692307693,4458.461538461539,4418.974358974359,4405.128205128206,4679.48717948718,4317.948717948719,4207.6923076923085,4176.410256410257,4509.2307692307695
1172.0072,0.097749494,0.38315886,0.30755737,0.7376205,0,0.0,0.0,0.0,0.0,0.07080222,0,0,0.0,0.0,0,0,104.0,0.0,539.0,4597.435897435898,3967.1794871794878,4532.820512820514,4423.076923076924,4235.8974358974365,4534.358974358975,4451.794871794872,4436.410256410257,4406.666666666667,4672.820512820514,4355.8974358974365,4215.384615384616,4162.564102564103,4541.538461538462
1172.2574,0.097749494,0.38315886,0.30755737,0.7376205,0,0.0,0.0,0.0,0.0,0.114570245,0,0,0.0,0.0,0,0,7.0,0.0,471.0,4586.666666666667,3956.410256410257,4533.846153846154,4445.128205128206,4222.051282051282,4530.769230769231,4472.820512820514,4459.48717948718,4414.358974358975,4695.384615384616,4347.6923076923085,4222.051282051282,4152.307692307693,4574.358974358975
1172.5076,0.119306214,0.40055764,0.30839962,0.7404184,0,0.0,0.0,0.0,0.0,0.26960483,0,0,0.0,0.0,0,0,39.0,0.0,0.0,4618.974358974359,3933.333333333334,4553.333333333334,4447.179487179487,4208.717948717949,4521.538461538462,4490.769230769231,4513.333333333334,4445.128205128206,4761.025641025642,4456.923076923077,4279.48717948718,4266.153846153847,4665.128205128206
1172.7578,0.119306214,0.40055764,0.30839962,0.7404184,0,0.0,0.0,0.0,0.0,0.11503689,0,0,0.0,0.0,0,0,71.0,0.0,470.0,4571.282051282052,3902.564102564103,4520.512820512821,4411.282051282052,4219.48717948718,4536.923076923077,4522.051282051282,4504.102564102564,4436.410256410257,4740.512820512821,4390.256410256411,4245.128205128206,4165.641025641026,4616.410256410257
1173.008,0.13403986,0.41446805,0.3149497,0.7382799,0,0.0,0.0,0.0,0.0,0.01471523,0,0,0.0,0.0,0,0,103.0,0.0,443.0,4586.153846153847,3909.2307692307695,4525.641025641026,4412.820512820514,4218.461538461539,4531.794871794872,4521.538461538462,4495.8974358974365,4432.307692307693,4732.307692307693,4389.2307692307695,4245.641025641026,4170.769230769231,4628.717948717949
1173.1332,0.13403986,0.41446805,0.3149497,0.7382799,0,0.0,0.0,0.0,0.0,0.0,0,0,0.0,0.0,0,0,119.0,0.0,443.0,4579.48717948718,3928.205128205129,4517.435897435898,4422.564102564103,4230.769230769231,4541.538461538462,4517.435897435898,4480.512820512821,4428.717948717949,4721.025641025642,4368.717948717949,4241.538461538462,4148.205128205129,4619.48717948718
1173.5085,0.20158067,0.42790526,0.33246103,0.7268158,0,0.0,0.0,0.0,0.0,0.0,0,0,0.0,0.0,0,0,38.0,0.0,0.0,4594.358974358975,3930.7692307692314,4516.410256410257,4409.743589743591,4221.025641025642,4533.846153846154,4480.512820512821,4436.410256410257,4420.000000000001,4715.8974358974365,4378.974358974359,4232.307692307693,4170.256410256411,4614.871794871796
1173.5085,0.20158067,0.42790526,0.33246103,0.7268158,0,0.0,0.0,0.0,0.0,0.0,0,0,0.0,0.0,0,0,38.0,0.0,0.0,4594.358974358975,3930.7692307692314,4516.410256410257,4409.743589743591,4221.025641025642,4533.846153846154,4480.512820512821,4436.410256410257,4420.000000000001,4715.8974358974365,4378.974358974359,4232.307692307693,4170.256410256411,4614.871794871796
1174.0089,0.21338864,0.41541678,0.35266355,0.69348335,0,0.0,0.0,0.0,0.0,0.0,0,0,0.0,0.0,0,0,102.0,0.0,529.0,4578.974358974359,3942.0512820512827,4510.256410256411,4402.051282051282,4247.179487179487,4551.282051282052,4470.256410256411,4457.948717948719,4433.846153846154,4720.512820512821,4348.717948717949,4231.794871794872,4126.666666666667,4575.384615384616
1174.0089,0.21338864,0.41541678,0.35266355,0.69348335,0,0.0,0.0,0.0,0.0,0.0,0,0,0.0,0.0,0,0,102.0,0.0,529.0,4578.974358974359,3942.0512820512827,4510.256410256411,4402.051282051282,4247.179487179487,4551.282051282052,4470.256410256411,4457.948717948719,4433.846153846154,4720.512820512821,4348.717948717949,4231.794871794872,4126.666666666667,4575.384615384616
1174.5094,0.16396415,0.38512307,0.37084526,0.663498,0,0.0,0.0,0.0,0.0,0.0,0,0,0.0,0.0,0,0,37.0,0.0,0.0,4576.923076923077,3945.1282051282055,4509.2307692307695,4382.564102564103,4248.717948717949,4552.307692307693,4451.794871794872,4412.307692307693,4417.948717948719,4699.48717948718,4336.410256410257,4218.461538461539,4134.871794871796,4568.205128205129
1174.7595,0.16396415,0.38512307,0.37084526,0.663498,1,0.0,0.0,0.0,0.0,0.0,0,0,0.0,0.0,0,0,69.0,0.0,544.0,4612.307692307693,3983.076923076924,4523.076923076924,4386.666666666667,4267.179487179487,4558.974358974359,4437.948717948719,4400.512820512821,4405.641025641026,4765.128205128206,4372.820512820514,4254.871794871796,4248.205128205129,4594.358974358975
1175.0098,0.15037556,0.3610748,0.3872076,0.6365181,0,0.0,0.0,0.0,0.0,0.0,0,0,0.0,0.0,0,0,101.0,0.0,704.0,4566.666666666667,3965.6410256410263,4472.307692307693,4394.871794871796,4296.923076923077,4573.846153846154,4394.358974358975,4367.6923076923085,4387.6923076923085,4785.641025641026,4309.743589743591,4227.6923076923085,4277.435897435898,4502.564102564103
1175.0098,0.15037556,0.3610748,0.3872076,0.6365181,0,0.0,0.0,0.0,0.0,0.0,0,0,0.0,0.0,0,0,101.0,0.0,704.0,4566.666666666667,3965.6410256410263,4472.307692307693,4394.871794871796,4296.923076923077,4573.846153846154,4394.358974358975,4367.6923076923085,4387.6923076923085,4785.641025641026,4309.743589743591,4227.6923076923085,4277.435897435898,4502.564102564103
1175.5103,0.22794308,0.35420913,0.3914456,0.624592,0,0.0,0.0,0.0,0.0,0.056294877,0,0,0.0,0.0,0,0,36.0,0.0,0.0,4576.923076923077,4050.2564102564106,4462.564102564103,4427.6923076923085,4278.974358974359,4536.923076923077,4349.2307692307695,4277.435897435898,4341.538461538462,4762.051282051282,4213.333333333334,4182.051282051282,4256.923076923077,4450.769230769231
1175.7604,0.22794308,0.35420913,0.3914456,0.624592,0,0.0,0.0,0.0,0.0,0.07216903,0,0,0.0,0.0,0,0,68.0,0.0,546.0,4524.102564102564,3983.076923076924,4435.384615384616,4389.743589743591,4282.051282051282,4542.564102564103,4369.743589743591,4321.538461538462,4355.384615384616,4782.051282051282,4209.2307692307695,4153.846153846154,4217.435897435898,4413.333333333334
1176.0106,0.25719067,0.3665734,0.3923114,0.6201316,0,0.0,0.0,0.0,0.0,0.03218874,0,0,0.0,0.0,0,0,100.0,0.0,539.0,4567.6923076923085,3992.307692307693,4463.589743589744,4399.48717948718,4280.512820512821,4545.641025641026,4392.307692307693,4336.410256410257,4358.461538461539,4781.538461538462,4244.102564102564,4184.615384615385,4238.974358974359,4457.435897435898
1176.2609,0.25719067,0.3665734,0.3923114,0.6201316,0,0.0,0.0,0.0,0.0,0.08792069,0,0,0.0,0.0,0,0,3.0,0.0,526.0,4594.871794871796,3991.2820512820517,4477.948717948719,4417.948717948719,4256.923076923077,4535.8974358974365,4410.769230769231,4367.179487179487,4370.769230769231,4729.2307692307695,4258.974358974359,4186.153846153847,4198.461538461539,4467.6923076923085
1176.5111,0.16811411,0.38721344,0.39129826,0.6161162,0,0.0,0.0,0.0,0.0,0.0,0,0,0.0,0.0,0,0,35.0,0.0,0.0,4627.6923076923085,3984.615384615385,4511.282051282052,4442.051282051282,4249.2307692307695,4536.410256410257,4429.2307692307695,4383.589743589744,4385.128205128206,4717.435897435898,4293.846153846154,4208.205128205129,4213.333333333334,4520.000000000001
1176.5111,0.16811411,0.38721344,0.39129826,0.6161162,0,0.0,0.0,0.0,0.0,0.0,0,0,0.0,0.0,0,0,35.0,0.0,0.0,4627.6923076923085,3984.615384615385,4511.282051282052,4442.051282051282,4249.2307692307695,4536.410256410257,4429.2307692307695,4383.589743589744,4385.128205128206,4717.435897435898,4293.846153846154,4208.205128205129,4213.333333333334,4520.000000000001
1177.0115,0.082324706,0.38898143,0.39038503,0.6125013,0,0.0,0.0,0.0,0.0,0.050612744,0,0,0.0,0.0,0,0,99.0,0.0,444.0,4653.333333333334,3949.7435897435903,4521.025641025642,4444.102564102564,4225.128205128206,4527.179487179488,4480.512820512821,4445.641025641026,4402.051282051282,4704.102564102564,4309.743589743591,4211.282051282052,4164.615384615385,4533.846153846154
1177.3556,0.082324706,0.38898143,0.39038503,0.6125013,1,0.0,0.0,0.0,0.0,0.056864474,0,0,0.0,0.0,0,0,14.0,0.0,529.0,4643.076923076924,3901.0256410256416,4513.333333333334,4388.717948717949,4232.307692307693,4530.256410256411,4444.102564102564,4440.512820512821,4387.6923076923085,4847.179487179488,4377.948717948719,4253.333333333334,4316.410256410257,4568.205128205129
1177.512,0.10662243,0.391,0.39058623,0.60753286,0,0.0,0.0,0.0,0.0,0.063128285,0,0,0.0,0.0,0,0,34.0,0.0,0.0,4608.205128205129,3907.1794871794878,4503.589743589744,4387.179487179487,4251.794871794872,4534.358974358975,4433.846153846154,4426.153846153847,4376.923076923077,4850.769230769231,4341.025641025642,4232.820512820514,4285.128205128206,4524.615384615385
1177.7621,0.10662243,0.391,0.39058623,0.60753286,0,0.0,0.0,0.0,0.0,0.2883859,0,0,0.0,0.0,0,0,66.0,0.0,442.0,4582.051282051282,3920.5128205128212,4474.871794871796,4362.564102564103,4290.256410256411,4535.8974358974365,4377.435897435898,4364.102564102564,4340.000000000001,4821.538461538462,4276.923076923077,4176.410256410257,4264.615384615385,4475.8974358974365
1178.0123,0.19567375,0.38261026,0.39076588,0.60306036,0,0.0,0.0,0.0,0.0,0.0,0,0,0.0,0.0,0,0,98.0,0.0,529.0,4540.512820512821,3916.9230769230776,4435.8974358974365,4342.564102564103,4342.051282051282,4557.435897435898,4351.794871794872,4345.128205128206,4351.794871794872,4837.948717948719,4238.974358974359,4121.538461538462,4205.641025641026,4381.538461538462
1178.2626,0.19567375,0.38261026,0.39076588,0.60306036,0,0.0,0.0,0.0,0.0,0.7509336,0,0,0.0,0.0,0,0,1.0,0.0,484.0,4570.769230769231,3932.307692307693,4439.48717948718,4369.2307692307695,4342.564102564103,4564.102564102564,4371.794871794872,4356.923076923077,4364.615384615385,4848.205128205129,4230.769230769231,4115.384615384616,4195.384615384616,4358.461538461539
1178.5128,0.17728922,0.37895533,0.39092612,0.5990343,0,0.0,0.0,0.0,0.0,0.08114956,0,0,0.0,0.0,0,0,33.0,0.0,0.0,4605.128205128206,3943.076923076924,4462.051282051282,4390.769230769231,4330.256410256411,4564.102564102564,4413.846153846154,4414.358974358975,4388.205128205129,4850.769230769231,4254.358974358975,4146.153846153847,4211.282051282052,4372.820512820514
1178.638,0.17728922,0.37895533,0.39092612,0.5990343,0,0.0,0.0,0.0,0.0,0.0,0,0,0.0,0.0,0,0,49.0,0.0,0.0,4628.717948717949,3945.1282051282055,4485.641025641026,4405.641025641026,4323.589743589744,4559.48717948718,4414.871794871796,4409.2307692307695,4387.179487179487,4827.179487179488,4273.846153846154,4153.333333333334,4222.564102564103,4389.2307692307695
1179.0132,0.20004824,0.3817876,0.38910684,0.5975546,0,0.0,0.0,0.0,0.0,0.0,0,0,0.0,0.0,0,0,97.0,0.0,705.0,4695.384615384616,3931.7948717948725,4512.307692307693,4437.948717948719,4270.256410256411,4529.743589743591,4462.051282051282,4446.666666666667,4406.666666666667,4771.794871794872,4304.615384615385,4169.74358974359,4217.948717948719,4419.48717948718
1179.0132,0.20004824,0.3817876,0.38910684,0.5975546,0,0.0,0.0,0.0,0.0,0.0,0,0,0.0,0.0,0,0,97.0,0.0,705.0,4695.384615384616,3931.7948717948725,4512.307692307693,4437.948717948719,4270.256410256411,4529.743589743591,4462.051282051282,4446.666666666667,4406.666666666667,4771.794871794872,4304.615384615385,4169.74358974359,4217.948717948719,4419.48717948718
1179.5137,0.19217587,0.37662017,0.3857995,0.60335785,0,0.0,0.0,0.0,0.0,0.0,0,0,0.0,0.0,0,0,32.0,0.0,0.0,4748.717948717949,3936.9230769230776,4558.974358974359,4493.846153846154,4262.564102564103,4538.461538461539,4527.6923076923085,4495.384615384616,4429.2307692307695,4707.179487179488,4347.6923076923085,4221.538461538462,4210.256410256411,4472.820512820514
1179.5137,0.19217587,0.37662017,0.3857995,0.60335785,0,0.0,0.0,0.0,0.0,0.0,0,0,0.0,0.0,0,0,32.0,0.0,0.0,4748.717948717949,3936.9230769230776,4558.974358974359,4493.846153846154,4262.564102564103,4538.461538461539,4527.6923076923085,4495.384615384616,4429.2307692307695,4707.179487179488,4347.6923076923085,4221.538461538462,4210.256410256411,4472.820512820514
1180.014,0.3170287,0.37484908,0.37979397,0.61323166,0,0.0,0.0,0.0,0.0,0.0,0,0,0.0,0.0,0,0,96.0,0.0,540.0,4758.461538461539,3930.2564102564106,4563.589743589744,4489.2307692307695,4236.410256410257,4534.358974358975,4513.333333333334,4495.8974358974365,4436.923076923077,4672.820512820514,4361.538461538462,4227.179487179487,4169.74358974359,4523.589743589744
1180.014,0.3170287,0.37484908,0.37979397,0.61323166,0,0.0,0.0,0.0,0.0,0.0,0,0,0.0,0.0,0,0,96.0,0.0,540.0,4758.461538461539,3930.2564102564106,4563.589743589744,4489.2307692307695,4236.410256410257,4534.358974358975,4513.333333333334,4495.8974358974365,4436.923076923077,4672.820512820514,4361.538461538462,4227.179487179487,4169.74358974359,4523.589743589744
1180.5145,0.3730673,0.3667604,0.36884457,0.62211525,0,0.0,0.0,0.0,0.0,0.0,0,0,0.0,0.0,0,0,31.0,0.0,0.0,4740.000000000001,3977.9487179487182,4553.333333333334,4477.435897435898,4232.307692307693,4531.794871794872,4495.384615384616,4479.48717948718,4422.564102564103,4691.794871794872,4366.153846153847,4229.2307692307695,4137.435897435898,4527.6923076923085
1180.5145,0.3730673,0.3667604,0.36884457,0.62211525,0,0.0,0.0,0.0,0.0,0.0,0,0,0.0,0.0,0,0,31.0,0.0,0.0,4740.000000000001,3977.9487179487182,4553.333333333334,4477.435897435898,4232.307692307693,4531.794871794872,4495.384615384616,4479.48717948718,4422.564102564103,4691.794871794872,4366.153846153847,4229.2307692307695,4137.435897435898,4527.6923076923085
1181.0149,0.4175069,0.3477963,0.3604715,0.63010705,0,0.0,0.0,0.0,0.0,0.0,0,0,0.0,0.0,0,0,95.0,0.0,444.0,4705.641025641026,3967.1794871794878,4533.846153846154,4474.871794871796,4244.615384615385,4541.538461538462,4491.794871794872,4454.358974358975,4401.538461538462,4682.564102564103,4363.589743589744,4217.435897435898,4138.974358974359,4501.025641025642
1181.0149,0.4175069,0.3477963,0.3604715,0.63010705,0,0.0,0.0,0.0,0.0,0.0,0,0,0.0,0.0,0,0,95.0,0.0,444.0,4705.641025641026,3967.1794871794878,4533.846153846154,4474.871794871796,4244.615384615385,4541.538461538462,4491.794871794872,4454.358974358975,4401.538461538462,4682.564102564103,4363.589743589744,4217.435897435898,4138.974358974359,4501.025641025642
1181.5154,0.33809206,0.32295415,0.35293505,0.6332046,0,0.0,0.0,0.0,0.0,0.0048408834,0,0,0.0,0.0,0,0,30.0,0.0,0.0,4691.794871794872,3966.1538461538466,4549.2307692307695,4485.641025641026,4257.948717948719,4557.435897435898,4604.615384615385,4481.025641025642,4429.2307692307695,4694.358974358975,4398.974358974359,4252.820512820514,4168.717948717949,4497.948717948719
1181.7656,0.33809206,0.32295415,0.35293505,0.6332046,0,0.0,0.0,0.0,0.0,0.0,0,0,0.0,0.0,0,0,62.0,0.0,0.0,4650.769230769231,3936.410256410257,4532.820512820514,4454.871794871796,4254.871794871796,4554.358974358975,4587.6923076923085,4464.615384615385,4416.410256410257,4663.589743589744,4381.025641025642,4228.717948717949,4162.564102564103,4480.000000000001
1182.0157,0.31705776,0.29511908,0.34615183,0.6287975,0,0.0,0.0,0.0,0.0,0.0,0,0,0.0,0.0,0,0,94.0,0.0,529.0,4636.923076923077,3944.1025641025644,4550.256410256411,4470.769230769231,4242.051282051282,4546.153846153847,4576.410256410257,4485.128205128206,4435.384615384616,4687.179487179488,4413.333333333334,4246.666666666667,4180.000000000001,4502.051282051282
1182.0157,0.31705776,0.29511908,0.34615183,0.6287975,0,0.0,0.0,0.0,0.0,0.0,0,0,0.0,0.0,0,0,94.0,0.0,529.0,4636.923076923077,3944.1025641025644,4550.256410256411,4470.769230769231,4242.051282051282,4546.153846153847,4576.410256410257,4485.128205128206,4435.384615384616,4687.179487179488,4413.333333333334,4246.666666666667,4180.000000000001,4502.051282051282
1182.5162,0.28153896,0.27338913,0.34856185,0.6212645,0,0.0,0.0,0.0,0.0,0.0,0,0,0.0,0.0,0,0,29.0,0.0,0.0,4598.461538461539,3924.615384615385,4540.000000000001,4470.256410256411,4231.282051282052,4542.564102564103,4538.974358974359,4478.974358974359,4432.820512820514,4693.846153846154,4402.564102564103,4235.8974358974365,4183.076923076924,4509.2307692307695
1182.5162,0.28153896,0.27338913,0.34856185,0.6212645,0,0.0,0.0,0.0,0.0,0.0,0,0,0.0,0.0,0,0,29.0,0.0,0.0,4598.461538461539,3924.615384615385,4540.000000000001,4470.256410256411,4231.282051282052,4542.564102564103,4538.974358974359,4478.974358974359,4432.820512820514,4693.846153846154,4402.564102564103,4235.8974358974365,4183.076923076924,4509.2307692307695
1183.0166,0.28259057,0.25734124,0.35254407,0.6141878,0,0.0,0.0,0.0,0.0,0.0,0,0,0.13268214,0.0,0,0,93.0,0.0,706.0,4603.076923076924,3924.1025641025644,4525.128205128206,4462.051282051282,4227.6923076923085,4539.48717948718,4488.717948717949,4469.743589743591,4427.179487179487,4678.461538461539,4383.589743589744,4224.102564102564,4183.076923076924,4493.333333333334
1183.2668,0.28259057,0.25734124,0.35254407,0.6141878,0,0.0,0.0,0.0,0.0,0.0,0,0,0.21997847,0.0,0,0,125.0,0.0,706.0,4638.461538461539,3925.1282051282055,4527.6923076923085,4465.128205128206,4208.717948717949,4521.025641025642,4460.512820512821,4447.179487179487,4412.820512820514,4671.282051282052,4391.282051282052,4229.2307692307695,4213.846153846154,4514.871794871796
1183.5171,0.24398002,0.26554534,0.35612756,0.6081146,0,0.0,0.0,0.24238862,0.0,0.0,0,0,0.0,0.0,0,0,28.0,0.0,0.0,4615.8974358974365,3896.410256410257,4515.384615384616,4440.512820512821,4235.384615384616,4537.948717948719,4472.307692307693,4483.076923076924,4425.641025641026,4704.102564102564,4370.256410256411,4230.256410256411,4206.666666666667,4510.256410256411
1183.7673,0.24398002,0.26554534,0.35612756,0.6081146,0,0.0,0.0,0.21419081,0.0,0.0,0,0,0.0,0.0,0,0,60.0,0.0,0.0,4553.333333333334,3882.0512820512827,4489.2307692307695,4421.538461538462,4229.2307692307695,4534.871794871796,4475.8974358974365,4482.051282051282,4444.102564102564,4705.128205128206,4332.820512820514,4212.307692307693,4157.948717948719,4494.871794871796
1184.0176,0.18314247,0.2686229,0.35935214,0.6059901,0,0.0,0.0,0.0,0.0,0.0,0,0,0.24365215,0.0,0,0,92.0,0.0,540.0,4550.769230769231,3894.8717948717954,4488.717948717949,4429.743589743591,4233.333333333334,4535.384615384616,4464.102564102564,4446.153846153847,4419.48717948718,4701.025641025642,4312.820512820514,4199.48717948718,4141.025641025642,4501.538461538462
1184.2677,0.18314247,0.2686229,0.35935214,0.6059901,1,0.0,0.0,0.0,0.0,0.0,0,0,0.19432415,0.0,0,0,124.0,0.0,540.0,4613.846153846154,3925.1282051282055,4528.717948717949,4442.564102564103,4233.846153846154,4537.948717948719,4440.512820512821,4434.358974358975,4421.025641025642,4715.384615384616,4377.948717948719,4240.512820512821,4207.6923076923085,4574.358974358975
1184.518,0.20116869,0.2923124,0.35688537,0.6004376,0,0.0,0.0,0.0,0.0,0.1419779,0,0,0.0,0.0,0,0,27.0,0.0,0.0,4558.974358974359,3912.307692307693,4512.820512820514,4442.051282051282,4247.6923076923085,4547.179487179488,4463.589743589744,4442.051282051282,4411.282051282052,4708.717948717949,4340.512820512821,4217.948717948719,4155.384615384616,4531.282051282052
1184.7682,0.20116869,0.2923124,0.35688537,0.6004376,0,0.0,0.0,0.0,0.0,0.1957672,0,0,0.0,0.0,0,0,59.0,0.0,0.0,4570.769230769231,3950.7692307692314,4511.794871794872,4452.307692307693,4253.846153846154,4551.794871794872,4445.128205128206,4432.307692307693,4404.615384615385,4701.538461538462,4321.025641025642,4215.8974358974365,4134.871794871796,4515.8974358974365
1185.0184,0.20352326,0.3749219,0.3546647,0.5962692,0,0.0,0.0,0.0,0.0,0.08960917,0,0,0.0,0.0,0,0,91.0,0.0,444.0,4526.666666666667,3945.1282051282055,4499.48717948718,4547.179487179488,4261.538461538462,4557.948717948719,4435.384615384616,4395.8974358974365,4396.410256410257,4659.48717948718,4276.923076923077,4190.769230769231,4087.1794871794878,4466.666666666667
1185.2686,0.20352326,0.3749219,0.3546647,0.5962692,0,0.0,0.0,0.0,0.0,0.6381617,0,0,0.0,0.0,0,0,123.0,0.0,444.0,4525.641025641026,3918.461538461539,4495.8974358974365,4632.820512820514,4277.435897435898,4568.205128205129,4448.717948717949,4431.794871794872,4420.000000000001,4711.282051282052,4330.769230769231,4218.974358974359,4133.846153846154,4475.8974358974365
1185.5188,0.22719319,0.40723252,0.35266563,0.59629595,0,0.0,0.0,0.0,0.0,0.0,0,0,0.0,0.0,0,0,26.0,0.0,0.0,4569.743589743591,3944.1025641025644,4522.564102564103,4597.435897435898,4281.538461538462,4575.384615384616,4450.769230769231,4428.205128205129,4413.333333333334,4692.820512820514,4352.307692307693,4234.358974358975,4154.358974358975,4488.205128205129
1185.5188,0.22719319,0.40723252,0.35266563,0.59629595,0,0.0,0.0,0.0,0.0,0.0,0,0,0.0,0.0,0,0,26.0,0.0,0.0,4569.743589743591,3944.1025641025644,4522.564102564103,4597.435897435898,4281.538461538462,4575.384615384616,4450.769230769231,4428.205128205129,4413.333333333334,4692.820512820514,4352.307692307693,4234.358974358975,4154.358974358975,4488.205128205129
1186.0193,0.23758687,0.44303384,0.35162824,0.60056853,0,0.0,0.0,0.0,0.0,0.0,0,0,0.0,0.0,0,0,90.0,0.0,529.0,4595.8974358974365,3922.0512820512827,4523.589743589744,4470.256410256411,4262.051282051282,4562.051282051282,4450.769230769231,4420.000000000001,4413.333333333334,4704.615384615386,4355.384615384616,4229.74358974359,4165.641025641026,4478.461538461539
1186.0193,0.23758687,0.44303384,0.35162824,0.60056853,0,0.0,0.0,0.0,0.0,0.0,0,0,0.0,0.0,0,0,90.0,0.0,529.0,4595.8974358974365,3922.0512820512827,4523.589743589744,4470.256410256411,4262.051282051282,4562.051282051282,4450.769230769231,4420.000000000001,4413.333333333334,4704.615384615386,4355.384615384616,4229.74358974359,4165.641025641026,4478.461538461539
1186.5197,0.23336458,0.4482871,0.35069415,0.6083467,0,0.0,0.0,0.0,0.0,0.0,0,0,0.0,0.0,0,0,25.0,0.0,0.0,4607.6923076923085,3927.1794871794878,4531.282051282052,4398.974358974359,4241.538461538462,4550.769230769231,4444.615384615385,4422.564102564103,4402.564102564103,4710.769230769231,4377.948717948719,4224.615384615385,4169.74358974359,4478.461538461539
1186.5197,0.23336458,0.4482871,0.35069415,0.6083467,0,0.0,0.0,0.0,0.0,0.0,0,0,0.0,0.0,0,0,25.0,0.0,0.0,4607.6923076923085,3927.1794871794878,4531.282051282052,4398.974358974359,4241.538461538462,4550.769230769231,4444.615384615385,4422.564102564103,4402.564102564103,4710.769230769231,4377.948717948719,4224.615384615385,4169.74358974359,4478.461538461539
1187.0201,0.2532396,0.44646665,0.34985304,0.6110939,0,0.0,0.0,0.0,0.0,0.0,0,0,0.0,0.0,0,0,89.0,0.0,708.0,4582.051282051282,3932.307692307693,4511.282051282052,4367.6923076923085,4263.076923076924,4558.974358974359,4435.384615384616,4420.000000000001,4397.435897435898,4718.974358974359,4363.589743589744,4212.820512820514,4155.8974358974365,4467.6923076923085
1187.0201,0.2532396,0.44646665,0.34985304,0.6110939,0,0.0,0.0,0.0,0.0,0.0,0,0,0.0,0.0,0,0,89.0,0.0,708.0,4582.051282051282,3932.307692307693,4511.282051282052,4367.6923076923085,4263.076923076924,4558.974358974359,4435.384615384616,4420.000000000001,4397.435897435898,4718.974358974359,4363.589743589744,4212.820512820514,4155.8974358974365,4467.6923076923085
1187.5205,0.21857648,0.43256265,0.34637797,0.6135646,0,0.0,0.0,0.0,0.0,0.0,0,0,0.0,0.0,0,0,24.0,0.0,0.0,4555.8974358974365,3917.9487179487182,4486.153846153847,4332.307692307693,4285.128205128206,4570.256410256411,4442.051282051282,4414.871794871796,4392.820512820514,4695.384615384616,4339.48717948718,4188.205128205129,4143.589743589744,4445.641025641026
1187.5205,0.21857648,0.43256265,0.34637797,0.6135646,0,0.0,0.0,0.0,0.0,0.0,0,0,0.0,0.0,0,0,24.0,0.0,0.0,4555.8974358974365,3917.9487179487182,4486.153846153847,4332.307692307693,4285.128205128206,4570.256410256411,4442.051282051282,4414.871794871796,4392.820512820514,4695.384615384616,4339.48717948718,4188.205128205129,4143.589743589744,4445.641025641026
1188.021,0.18640542,0.41520086,0.33282855,0.60803837,0,0.0,0.0,0.0,0.0,0.0,0,0,0.0,0.0,0,0,88.0,0.0,540.0,4563.076923076924,3912.307692307693,4491.794871794872,4332.820512820514,4262.051282051282,4554.358974358975,4426.153846153847,4414.871794871796,4399.48717948718,4697.948717948719,4355.8974358974365,4196.923076923077,4158.974358974359,4472.307692307693
1188.021,0.18640542,0.41520086,0.33282855,0.60803837,0,0.0,0.0,0.0,0.0,0.0,0,0,0.0,0.0,0,0,88.0,0.0,540.0,4563.076923076924,3912.307692307693,4491.794871794872,4332.820512820514,4262.051282051282,4554.358974358975,4426.153846153847,4414.871794871796,4399.48717948718,4697.948717948719,4355.8974358974365,4196.923076923077,4158.974358974359,4472.307692307693
1188.5214,0.23600896,0.39688444,0.3206341,0.586508,0,0.0,0.0,0.0,0.0,0.0,0,0,0.0,0.0,0,0,23.0,0.0,0.0,4600.512820512821,3930.2564102564106,4503.076923076924,4386.666666666667,4252.820512820514,4555.8974358974365,4432.820512820514,4418.974358974359,4397.435897435898,4699.48717948718,4365.641025641026,4214.358974358975,4175.384615384616,4496.923076923077
1188.5214,0.23600896,0.39688444,0.3206341,0.586508,0,0.0,0.0,0.0,0.0,0.0,0,0,0.0,0.0,0,0,23.0,0.0,0.0,4600.512820512821,3930.2564102564106,4503.076923076924,4386.666666666667,4252.820512820514,4555.8974358974365,4432.820512820514,4418.974358974359,4397.435897435898,4699.48717948718,4365.641025641026,4214.358974358975,4175.384615384616,4496.923076923077
1189.0219,0.21774289,0.3786817,0.30929747,0.56713045,0,0.0,0.0,0.0,0.0,0.0,0,0,0.0,0.0,0,0,87.0,0.0,447.0,4637.435897435898,3936.410256410257,4521.538461538462,4397.948717948719,4241.538461538462,4549.2307692307695,4441.538461538462,4451.282051282052,4408.717948717949,4722.564102564103,4406.666666666667,4231.794871794872,4186.666666666667,4509.2307692307695
1189.0219,0.21774289,0.3786817,0.30929747,0.56713045,0,0.0,0.0,0.0,0.0,0.0,0,0,0.0,0.0,0,0,87.0,0.0,447.0,4637.435897435898,3936.410256410257,4521.538461538462,4397.948717948719,4241.538461538462,4549.2307692307695,4441.538461538462,4451.282051282052,4408.717948717949,4722.564102564103,4406.666666666667,4231.794871794872,4186.666666666667,4509.2307692307695
1189.5222,0.19526589,0.36260548,0.29909518,0.5496904,0,0.0,0.0,0.0,0.0,0.0,0,0,0.0,0.0,0,0,22.0,0.0,0.0,4611.282051282052,3940.5128205128212,4467.179487179487,4353.846153846154,4293.333333333334,4569.2307692307695,4412.307692307693,4397.435897435898,4364.102564102564,4825.128205128206,4398.461538461539,4226.153846153847,4237.435897435898,4437.948717948719
1189.5222,0.19526589,0.36260548,0.29909518,0.5496904,0,0.0,0.0,0.0,0.0,0.0,0,0,0.0,0.0,0,0,22.0,0.0,0.0,4611.282051282052,3940.5128205128212,4467.179487179487,4353.846153846154,4293.333333333334,4569.2307692307695,4412.307692307693,4397.435897435898,4364.102564102564,4825.128205128206,4398.461538461539,4226.153846153847,4237.435897435898,4437.948717948719
1190.0227,0.23663709,0.33980387,0.29433364,0.53881013,0,0.0,0.0,0.0,0.0,0.0,0,0,0.0,0.0,0,0,86.0,0.0,529.0,4557.948717948719,3956.410256410257,4436.923076923077,4344.102564102564,4314.358974358975,4570.256410256411,4361.025641025642,4328.717948717949,4352.820512820514,4804.102564102564,4313.846153846154,4177.435897435898,4273.846153846154,4372.820512820514
1190.0227,0.23663709,0.33980387,0.29433364,0.53881013,0,0.0,0.0,0.0,0.0,0.0,0,0,0.0,0.0,0,0,86.0,0.0,529.0,4557.948717948719,3956.410256410257,4436.923076923077,4344.102564102564,4314.358974358975,4570.256410256411,4361.025641025642,4328.717948717949,4352.820512820514,4804.102564102564,4313.846153846154,4177.435897435898,4273.846153846154,4372.820512820514
1190.5231,0.22268882,0.30990988,0.29004923,0.5355549,0,0.0,0.0,0.0,0.0,0.0,0,0,0.0,0.0,0,0,21.0,0.0,0.0,4597.435897435898,3977.9487179487182,4472.820512820514,4377.435897435898,4276.923076923077,4546.666666666667,4382.051282051282,4375.384615384616,4374.871794871796,4786.666666666667,4308.717948717949,4178.461538461539,4242.051282051282,4379.48717948718
1190.5231,0.22268882,0.30990988,0.29004923,0.5355549,0,0.0,0.0,0.0,0.0,0.0,0,0,0.0,0.0,0,0,21.0,0.0,0.0,4597.435897435898,3977.9487179487182,4472.820512820514,4377.435897435898,4276.923076923077,4546.666666666667,4382.051282051282,4375.384615384616,4374.871794871796,4786.666666666667,4308.717948717949,4178.461538461539,4242.051282051282,4379.48717948718
1191.0236,0.2189116,0.2924024,0.2863941,0.53895336,0,0.0,0.0,0.0,0.0,0.0,0,0,0.0,0.0,0,0,85.0,0.0,705.0,4667.179487179488,3987.692307692308,4509.2307692307695,4422.564102564103,4234.871794871796,4521.538461538462,4428.717948717949,4407.179487179487,4383.076923076924,4745.128205128206,4356.410256410257,4217.948717948719,4216.410256410257,4435.384615384616
1191.0236,0.2189116,0.2924024,0.2863941,0.53895336,0,0.0,0.0,0.0,0.0,0.0,0,0,0.0,0.0,0,0,85.0,0.0,705.0,4667.179487179488,3987.692307692308,4509.2307692307695,4422.564102564103,4234.871794871796,4521.538461538462,4428.717948717949,4407.179487179487,4383.076923076924,4745.128205128206,4356.410256410257,4217.948717948719,4216.410256410257,4435.384615384616
1191.5239,0.14758678,0.27733615,0.2814771,0.5420123,0,0.0,0.0,0.0,0.0,0.11523688,0,0,0.0,0.0,0,0,20.0,0.0,0.0,4675.8974358974365,3956.9230769230776,4509.743589743591,4437.948717948719,4210.769230769231,4511.282051282052,4457.948717948719,4434.871794871796,4381.025641025642,4686.153846153847,4350.769230769231,4210.769230769231,4161.538461538462,4466.666666666667
1191.8054,0.14758678,0.27733615,0.2814771,0.5420123,1,0.0,0.0,0.0,0.0,0.0,0,0,0.0,0.0,0,0,56.0,0.0,0.0,4752.820512820514,3964.1025641025644,4547.179487179488,4457.435897435898,4183.589743589744,4495.384615384616,4460.000000000001,4461.025641025642,4400.000000000001,4721.025641025642,4444.615384615385,4271.794871794872,4276.410256410257,4556.923076923077
1192.0244,0.2252492,0.28316745,0.27675858,0.5504952,0,0.0,0.0,0.0,0.0,0.11852704,0,0,0.0,0.0,0,0,84.0,0.0,540.0,4681.025641025642,3895.3846153846157,4524.102564102564,4425.641025641026,4206.153846153847,4520.512820512821,4478.974358974359,4501.025641025642,4413.333333333334,4723.589743589744,4400.512820512821,4250.769230769231,4191.794871794872,4516.923076923077
1192.2747,0.2252492,0.28316745,0.27675858,0.5504952,0,0.0,0.0,0.0,0.0,0.06618241,0,0,0.0,0.0,0,0,116.0,0.0,540.0,4672.307692307693,3917.435897435898,4524.102564102564,4446.666666666667,4212.820512820514,4525.128205128206,4486.153846153847,4480.000000000001,4406.666666666667,4713.333333333334,4383.076923076924,4251.282051282052,4185.128205128206,4532.307692307693
1192.5248,0.20882615,0.3006806,0.27251345,0.563894,0,0.0,0.0,0.0,0.0,0.0,0,0,0.0,0.0,0,0,19.0,0.0,0.0,4673.846153846154,3927.1794871794878,4531.794871794872,4452.820512820514,4220.000000000001,4530.256410256411,4471.282051282052,4472.307692307693,4415.8974358974365,4704.615384615386,4396.410256410257,4255.384615384616,4174.358974358975,4542.564102564103
1192.5248,0.20882615,0.3006806,0.27251345,0.563894,0,0.0,0.0,0.0,0.0,0.0,0,0,0.0,0.0,0,0,19.0,0.0,0.0,4673.846153846154,3927.1794871794878,4531.794871794872,4452.820512820514,4220.000000000001,4530.256410256411,4471.282051282052,4472.307692307693,4415.8974358974365,4704.615384615386,4396.410256410257,4255.384615384616,4174.358974358975,4542.564102564103
1193.0253,0.21610337,0.31267777,0.26869443,0.5729833,0,0.0,0.0,0.0,0.0,0.09584872,0,0,0.0,0.0,0,0,83.0,0.0,447.0,4629.743589743591,3914.8717948717954,4508.717948717949,4443.589743589744,4234.871794871796,4534.871794871796,4477.435897435898,4475.8974358974365,4416.923076923077,4688.205128205129,4362.051282051282,4241.025641025642,4138.461538461539,4500.000000000001
1193.2755,0.21610337,0.31267777,0.26869443,0.5729833,0,0.0,0.0,0.0,0.0,0.11152839,0,0,0.0,0.0,0,0,115.0,0.0,447.0,4645.641025641026,3919.48717948718,4519.48717948718,4445.641025641026,4230.769230769231,4536.923076923077,4469.2307692307695,4454.871794871796,4414.871794871796,4682.051282051282,4375.8974358974365,4242.051282051282,4150.256410256411,4517.435897435898
1193.5256,0.20151934,0.31694385,0.26756224,0.5704374,0,0.0,0.0,0.0,0.0,0.016645422,0,0,0.0,0.0,0,0,18.0,0.0,0.0,4636.923076923077,3918.461538461539,4521.025641025642,4447.179487179487,4233.333333333334,4537.435897435898,4458.461538461539,4435.8974358974365,4415.384615384616,4688.717948717949,4376.923076923077,4235.8974358974365,4150.256410256411,4517.948717948719
1193.7759,0.20151934,0.31694385,0.26756224,0.5704374,0,0.0,0.0,0.0,0.0,0.0,0,0,0.0,0.0,0,0,50.0,0.0,0.0,4638.974358974359,3926.666666666667,4521.025641025642,4450.769230769231,4248.717948717949,4551.794871794872,4471.794871794872,4444.102564102564,4413.846153846154,4695.384615384616,4385.641025641026,4246.666666666667,4171.282051282052,4511.794871794872
1194.0261,0.20331825,0.30663443,0.2723147,0.55781436,0,0.0,0.0,0.0,0.0,0.0,0,0,0.0,0.0,0,0,82.0,0.0,529.0,4631.282051282052,3925.1282051282055,4513.333333333334,4422.564102564103,4245.128205128206,4549.2307692307695,4467.179487179487,4430.256410256411,4407.179487179487,4700.512820512821,4385.641025641026,4249.2307692307695,4182.051282051282,4498.974358974359
1194.0261,0.20331825,0.30663443,0.2723147,0.55781436,0,0.0,0.0,0.0,0.0,0.0,0,0,0.0,0.0,0,0,82.0,0.0,529.0,4631.282051282052,3925.1282051282055,4513.333333333334,4422.564102564103,4245.128205128206,4549.2307692307695,4467.179487179487,4430.256410256411,4407.179487179487,4700.512820512821,4385.641025641026,4249.2307692307695,4182.051282051282,4498.974358974359
1194.5266,0.18373118,0.29182315,0.2775987,0.5443131,0,0.0,0.0,0.0,0.0,0.0,0,0,0.0,0.0,0,0,17.0,0.0,0.0,4620.512820512821,3918.461538461539,4506.666666666667,4408.205128205129,4233.846153846154,4540.512820512821,4429.2307692307695,4409.743589743591,4402.051282051282,4676.923076923077,4384.102564102564,4235.384615384616,4183.076923076924,4494.871794871796
1194.5266,0.18373118,0.29182315,0.2775987,0.5443131,0,0.0,0.0,0.0,0.0,0.0,0,0,0.0,0.0,0,0,17.0,0.0,0.0,4620.512820512821,3918.461538461539,4506.666666666667,4408.205128205129,4233.846153846154,4540.512820512821,4429.2307692307695,4409.743589743591,4402.051282051282,4676.923076923077,4384.102564102564,4235.384615384616,4183.076923076924,4494.871794871796
1195.027,0.16675483,0.27499554,0.28235555,0.53216213,0,0.0,0.0,0.0,0.0,0.0,0,0,0.0,0.0,0,0,81.0,0.0,706.0,4637.948717948719,3938.461538461539,4519.48717948718,4415.384615384616,4237.435897435898,4544.615384615385,4444.102564102564,4424.102564102564,4413.333333333334,4702.564102564103,4395.384615384616,4245.128205128206,4188.205128205129,4504.102564102564
1195.027,0.16675483,0.27499554,0.28235555,0.53216213,0,0.0,0.0,0.0,0.0,0.0,0,0,0.0,0.0,0,0,81.0,0.0,706.0,4637.948717948719,3938.461538461539,4519.48717948718,4415.384615384616,4237.435897435898,4544.615384615385,4444.102564102564,4424.102564102564,4413.333333333334,4702.564102564103,4395.384615384616,4245.128205128206,4188.205128205129,4504.102564102564
1195.5275,0.15189406,0.267923,0.28663787,0.52122694,0,0.0,0.0,0.0,0.0,0.0,0,0,0.0,0.0,0,0,16.0,0.0,0.0,4624.615384615385,3928.205128205129,4516.923076923077,4395.384615384616,4234.871794871796,4541.538461538462,4457.435897435898,4429.743589743591,4406.666666666667,4723.589743589744,4385.128205128206,4251.794871794872,4176.923076923077,4498.461538461539
1195.5275,0.15189406,0.267923,0.28663787,0.52122694,0,0.0,0.0,0.0,0.0,0.0,0,0,0.0,0.0,0,0,16.0,0.0,0.0,4624.615384615385,3928.205128205129,4516.923076923077,4395.384615384616,4234.871794871796,4541.538461538462,4457.435897435898,4429.743589743591,4406.666666666667,4723.589743589744,4385.128205128206,4251.794871794872,4176.923076923077,4498.461538461539
1196.0278,0.12303101,0.25567713,0.28099456,0.51499313,0,0.0,0.0,0.0,0.0,0.0,0,0,0.0,0.0,0,0,80.0,0.0,540.0,4567.179487179488,3922.0512820512827,4465.641025641026,4351.282051282052,4294.358974358975,4575.8974358974365,4437.435897435898,4389.2307692307695,4375.384615384616,4768.205128205129,4380.512820512821,4242.051282051282,4226.153846153847,4430.769230769231
1196.0278,0.12303101,0.25567713,0.28099456,0.51499313,0,0.0,0.0,0.0,0.0,0.0,0,0,0.0,0.0,0,0,80.0,0.0,540.0,4567.179487179488,3922.0512820512827,4465.641025641026,4351.282051282052,4294.358974358975,4575.8974358974365,4437.435897435898,4389.2307692307695,4375.384615384616,4768.205128205129,4380.512820512821,4242.051282051282,4226.153846153847,4430.769230769231
1196.5283,0.17263107,0.24199845,0.27229035,0.5156264,0,0.0,0.0,0.0,0.0,0.036433384,0,0,0.0,0.0,0,0,15.0,0.0,447.0,4573.846153846154,3934.8717948717954,4446.153846153847,4355.384615384616,4296.923076923077,4557.948717948719,4383.076923076924,4335.8974358974365,4356.410256410257,4733.846153846154,4295.8974358974365,4201.538461538462,4247.179487179487,4392.307692307693
1196.7784,0.17263107,0.24199845,0.27229035,0.5156264,0,0.0,0.0,0.0,0.0,0.0,0,0,0.0,0.0,0,0,47.0,0.0,0.0,4591.794871794872,3943.076923076924,4454.358974358975,4368.717948717949,4276.410256410257,4540.512820512821,4368.205128205129,4335.8974358974365,4363.076923076924,4714.871794871796,4288.717948717949,4196.923076923077,4244.102564102564,4404.615384615385
1197.0287,0.24638775,0.2329054,0.2644583,0.5255554,1,0.0,0.0,0.0,0.0,0.0,0,0,0.0,0.0,0,0,79.0,0.0,447.0,4653.333333333334,3958.461538461539,4486.666666666667,4396.923076923077,4250.256410256411,4519.48717948718,4370.256410256411,4369.743589743591,4378.974358974359,4719.48717948718,4355.384615384616,4237.948717948719,4297.948717948719,4469.743589743591
1197.185,0.24638775,0.2329054,0.2644583,0.5255554,0,0.0,0.0,0.0,0.0,0.0,0,0,0.0,0.0,0,0,99.0,0.0,447.0,4642.051282051282,3939.48717948718,4480.000000000001,4394.871794871796,4249.2307692307695,4521.025641025642,4380.512820512821,4388.205128205129,4384.615384615385,4723.076923076924,4338.974358974359,4228.205128205129,4262.564102564103,4449.2307692307695
1197.5292,0.2581673,0.22958188,0.25470266,0.53916216,0,0.0,0.0,0.0,0.0,0.01769385,0,0,0.0,0.0,0,0,14.0,0.0,529.0,4647.6923076923085,3928.205128205129,4481.025641025642,4396.410256410257,4225.641025641026,4511.794871794872,4406.153846153847,4410.769230769231,4379.48717948718,4685.128205128206,4321.538461538462,4216.923076923077,4208.717948717949,4456.410256410257
1197.6543,0.2581673,0.22958188,0.25470266,0.53916216,0,0.0,0.0,0.0,0.0,0.0,0,0,0.0,0.0,0,0,30.0,0.0,0.0,4664.102564102564,3937.9487179487182,4489.2307692307695,4410.769230769231,4218.461538461539,4507.179487179488,4404.615384615385,4410.769230769231,4381.538461538462,4696.923076923077,4347.179487179487,4230.769230769231,4220.000000000001,4477.435897435898
1198.0295,0.24315071,0.23940337,0.24884173,0.5587644,0,0.0,0.0,0.0,0.0,0.0,0,0,0.0,0.0,0,0,78.0,0.0,529.0,4681.025641025642,3930.7692307692314,4497.948717948719,4436.410256410257,4229.2307692307695,4527.6923076923085,4426.153846153847,4431.794871794872,4388.205128205129,4700.512820512821,4362.564102564103,4237.948717948719,4188.717948717949,4488.205128205129
1198.0295,0.24315071,0.23940337,0.24884173,0.5587644,0,0.0,0.0,0.0,0.0,0.0,0,0,0.0,0.0,0,0,78.0,0.0,529.0,4681.025641025642,3930.7692307692314,4497.948717948719,4436.410256410257,4229.2307692307695,4527.6923076923085,4426.153846153847,4431.794871794872,4388.205128205129,4700.512820512821,4362.564102564103,4237.948717948719,4188.717948717949,4488.205128205129
1198.53,0.2733425,0.259226,0.24651106,0.5764062,0,0.0,0.0,0.0,0.0,0.0,0,0,0.0,0.0,0,0,13.0,0.0,707.0,4709.743589743591,3925.6410256410263,4530.769230769231,4464.102564102564,4229.74358974359,4538.974358974359,4458.974358974359,4456.923076923077,4397.948717948719,4702.051282051282,4385.641025641026,4258.461538461539,4152.820512820514,4511.794871794872
1198.53,0.2733425,0.259226,0.24651106,0.5764062,0,0.0,0.0,0.0,0.0,0.0,0,0,0.0,0.0,0,0,13.0,0.0,707.0,4709.743589743591,3925.6410256410263,4530.769230769231,4464.102564102564,4229.74358974359,4538.974358974359,4458.974358974359,4456.923076923077,4397.948717948719,4702.051282051282,4385.641025641026,4258.461538461539,4152.820512820514,4511.794871794872
1199.0304,0.2577479,0.25068074,0.24441579,0.59110075,0,0.0,0.0,0.0,0.0,0.0,0,0,0.0,0.0,0,0,77.0,0.0,707.0,4681.538461538462,3920.0000000000005,4512.307692307693,4450.769230769231,4230.256410256411,4541.025641025642,4461.025641025642,4453.846153846154,4401.025641025642,4704.102564102564,4380.512820512821,4248.205128205129,4140.000000000001,4511.282051282052
1199.0304,0.2577479,0.25068074,0.24441579,0.59110075,0,0.0,0.0,0.0,0.0,0.0,0,0,0.0,0.0,0,0,77.0,0.0,707.0,4681.538461538462,3920.0000000000005,4512.307692307693,4450.769230769231,4230.256410256411,4541.025641025642,4461.025641025642,4453.846153846154,4401.025641025642,4704.102564102564,4380.512820512821,4248.205128205129,4140.000000000001,4511.282051282052
1199.5309,0.22896692,0.24110381,0.23982123,0.59551615,0,0.0,0.0,0.0,0.0,0.0,0,0,0.0,0.0,0,0,12.0,0.0,540.0,4679.48717948718,3924.615384615385,4513.846153846154,4463.076923076924,4236.410256410257,4541.025641025642,4463.076923076924,4459.48717948718,4401.538461538462,4724.615384615386,4377.948717948719,4258.974358974359,4153.333333333334,4525.641025641026
1199.5309,0.22896692,0.24110381,0.23982123,0.59551615,0,0.0,0.0,0.0,0.0,0.0,0,0,0.0,0.0,0,0,12.0,0.0,540.0,4679.48717948718,3924.615384615385,4513.846153846154,4463.076923076924,4236.410256410257,4541.025641025642,4463.076923076924,4459.48717948718,4401.538461538462,4724.615384615386,4377.948717948719,4258.974358974359,4153.333333333334,4525.641025641026
1200.0312,0.23207821,0.2332065,0.23627023,0.5793757,0,0.0,0.0,0.0,0.0,0.041652422,0,0,0.0,0.0,0,0,76.0,0.0,540.0,4672.820512820514,3914.358974358975,4495.8974358974365,4437.948717948719,4222.564102564103,4527.6923076923085,4430.769230769231,4428.205128205129,4388.717948717949,4692.820512820514,4359.48717948718,4231.794871794872,4141.025641025642,4509.2307692307695
1200.2815,0.23207821,0.2332065,0.23627023,0.5793757,0,0.0,0.0,0.0,0.0,0.0,0,0,0.0,0.0,0,0,108.0,0.0,540.0,4689.743589743591,3907.1794871794878,4509.743589743591,4442.051282051282,4230.769230769231,4533.333333333334,4433.333333333334,4436.410256410257,4385.641025641026,4705.128205128206,4357.948717948719,4234.871794871796,4143.076923076924,4512.307692307693
1200.5317,0.21291374,0.22575913,0.2366297,0.5579457,0,0.0,0.0,0.0,0.0,0.27254376,0,0,0.0,0.0,0,0,11.0,0.0,447.0,4732.307692307693,3925.6410256410263,4514.871794871796,4453.333333333334,4233.333333333334,4533.333333333334,4440.512820512821,4425.641025641026,4391.794871794872,4714.871794871796,4374.871794871796,4244.615384615385,4164.615384615385,4516.923076923077
1200.782,0.21291374,0.22575913,0.2366297,0.5579457,0,0.0,0.0,0.0,0.0,0.15748434,0,0,0.0,0.0,0,0,43.0,0.0,0.0,4702.564102564103,3925.6410256410263,4492.307692307693,4434.358974358975,4232.820512820514,4536.410256410257,4448.717948717949,4425.641025641026,4400.000000000001,4713.333333333334,4368.205128205129,4236.923076923077,4151.282051282052,4495.384615384616
1201.0321,0.15370698,0.20897521,0.23695567,0.5381961,0,0.0,0.0,0.0,0.0,0.20709695,0,0,0.0,0.0,0,0,75.0,0.0,447.0,4687.179487179488,3930.7692307692314,4497.948717948719,4447.179487179487,4231.794871794872,4531.794871794872,4440.512820512821,4426.153846153847,4396.410256410257,4738.461538461539,4368.717948717949,4241.025641025642,4160.512820512821,4502.564102564103
