timestamp,excitement,frustration,meditation,engagementBoredom,blink,clench,laugh,smile,eyebrow,furrowBrow,lookLeft,lookRight,smirkLeft,smirkRight,winkLeft,winkRight,eeg0,eeg1,eeg2,eeg3,eeg4,eeg5,eeg6,eeg7,eeg8,eeg9,eeg10,eeg11,eeg12,eeg13,eeg14,eeg15,eeg16
715.0129,0.7083324,0.917192,0.44873354,0.5964405,0,0.0,0.0,0.25301474,0.0,0.0,0,0,0.0,0.0,0,0,93.0,0.0,691.0,4648.717948717949,3836.9230769230776,4487.179487179488,4332.820512820514,4215.8974358974365,4547.179487179488,4434.871794871796,4547.179487179488,4411.282051282052,5069.2307692307695,4319.48717948718,4314.871794871796,4233.846153846154,4649.743589743591
715.2631,0.6937267,0.9498407,0.44673616,0.59174603,0,0.0,0.0,0.8869591,0.0,0.0,0,1,0.0,0.0,0,0,125.0,0.0,691.0,4663.589743589744,3904.615384615385,4482.564102564103,4377.948717948719,4271.282051282052,4571.282051282052,4410.256410256411,4555.384615384616,4412.820512820514,5007.6923076923085,4397.435897435898,4332.307692307693,4270.256410256411,4617.435897435898
715.5133,0.6937267,0.9498407,0.44673616,0.59174603,0,0.0,0.0,0.39690092,0.0,0.0,0,1,0.0,0.0,0,0,28.0,0.0,0.0,4694.358974358975,3976.410256410257,4506.666666666667,4428.717948717949,4292.307692307693,4576.923076923077,4442.051282051282,4592.307692307693,4426.666666666667,5022.564102564103,4511.794871794872,4367.6923076923085,4451.794871794872,4589.743589743591
715.76355,0.75817037,0.97989726,0.4353911,0.5877897,0,0.0,0.0,0.0,0.0,0.0,0,0,0.0,1.0,0,0,60.0,0.0,0.0,4709.2307692307695,4050.7692307692314,4507.6923076923085,4455.384615384616,4308.717948717949,4578.974358974359,4417.435897435898,4493.333333333334,4361.538461538462,4807.6923076923085,4392.307692307693,4266.153846153847,4337.435897435898,4502.051282051282
716.0138,0.75817037,0.97989726,0.4353911,0.5877897,0,0.0,0.0,0.0,0.0,0.0,0,0,0.0,0.9215514,0,0,92.0,0.0,551.0,4654.358974358975,3985.6410256410263,4475.384615384616,4397.948717948719,4283.589743589744,4549.2307692307695,4398.461538461539,4441.538461538462,4332.307692307693,4715.8974358974365,4322.051282051282,4181.538461538462,4253.846153846154,4418.461538461539
716.264,0.87718993,1.0,0.42513898,0.5842192,0,0.0,0.0,0.09722235,0.0,0.0,0,0,0.0,0.0,0,0,124.0,0.0,551.0,4663.076923076924,3992.820512820513,4499.48717948718,4434.871794871796,4272.820512820514,4545.641025641026,4426.153846153847,4496.410256410257,4336.410256410257,4672.820512820514,4358.461538461539,4208.717948717949,4226.153846153847,4457.435897435898
716.5142,0.87718993,1.0,0.42513898,0.5842192,0,0.0,0.6628362,0.0,0.0,0.0,0,0,0.0,0.0,0,0,27.0,0.0,0.0,4699.48717948718,3980.5128205128212,4513.846153846154,4470.256410256411,4260.512820512821,4529.2307692307695,4421.025641025642,4500.000000000001,4374.871794871796,4656.923076923077,4392.307692307693,4231.282051282052,4309.743589743591,4500.512820512821
716.7644,0.8359361,1.0,0.41590905,0.58100766,0,0.0,0.38775942,0.0,0.0,0.0,0,0,0.0,0.0,0,0,59.0,0.0,0.0,4677.435897435898,3935.8974358974365,4503.076923076924,4449.2307692307695,4247.179487179487,4526.153846153847,4424.102564102564,4485.128205128206,4363.589743589744,4607.179487179488,4375.8974358974365,4206.666666666667,4255.8974358974365,4498.974358974359
716.8895,0.8359361,1.0,0.41590905,0.58100766,0,0.0,0.0,0.0,0.0,0.0,0,0,0.0,0.0,0,0,75.0,0.0,446.0,4662.564102564103,3917.435897435898,4494.871794871796,4449.743589743591,4254.358974358975,4534.871794871796,4433.333333333334,4440.000000000001,4354.871794871796,4617.435897435898,4355.8974358974365,4198.974358974359,4214.358974358975,4485.128205128206
717.1397,0.76485366,1.0,0.40760404,0.5781178,0,0.0,0.0,0.0,0.0,0.0,0,0,0.0,0.0,0,0,107.0,0.0,446.0,4669.743589743591,3911.2820512820517,4501.025641025642,4443.589743589744,4272.820512820514,4544.615384615385,4414.358974358975,4445.128205128206,4360.512820512821,4603.076923076924,4317.948717948719,4202.051282051282,4157.948717948719,4498.974358974359
717.1397,0.76485366,1.0,0.40760404,0.5781178,0,0.0,0.0,0.0,0.0,0.0,0,0,0.0,0.0,0,0,107.0,0.0,446.0,4669.743589743591,3911.2820512820517,4501.025641025642,4443.589743589744,4272.820512820514,4544.615384615385,4414.358974358975,4445.128205128206,4360.512820512821,4603.076923076924,4317.948717948719,4202.051282051282,4157.948717948719,4498.974358974359
717.76526,0.8129584,1.0,0.40013072,0.5755171,0,0.0,0.0,0.0,0.0,0.5513116,0,0,0.0,0.0,0,0,58.0,0.0,0.0,4773.846153846154,3860.0000000000005,4473.333333333334,4381.538461538462,4168.717948717949,4500.512820512821,4353.333333333334,4393.333333333334,4339.48717948718,4571.794871794872,4257.435897435898,4116.923076923077,4058.9743589743593,4602.051282051282
718.0155,0.8129584,1.0,0.40013072,0.5755171,0,0.0,0.0,0.0,0.0,0.2597829,0,0,0.0,0.0,1,0,90.0,0.0,531.0,4757.435897435898,3868.717948717949,4483.076923076924,4423.076923076924,4229.2307692307695,4532.820512820514,4410.769230769231,4424.615384615385,4350.769230769231,4564.615384615385,4251.794871794872,4177.435897435898,4055.8974358974365,4556.410256410257
718.2657,0.8757969,1.0,0.39340964,0.5731779,0,0.0,0.0,0.0,0.0,0.25222227,0,0,0.0,0.0,0,0,122.0,0.0,531.0,4763.076923076924,3887.692307692308,4520.512820512821,4465.641025641026,4321.538461538462,4610.256410256411,4502.564102564103,4484.615384615385,4389.743589743591,4629.743589743591,4327.6923076923085,4265.641025641026,4112.820512820514,4563.076923076924
718.5159,0.8757969,1.0,0.39340964,0.5731779,0,0.0,0.0,0.0,0.0,0.035452887,0,0,0.0,0.0,0,0,25.0,0.0,0.0,4754.358974358975,3900.0000000000005,4525.128205128206,4495.384615384616,4308.717948717949,4607.6923076923085,4498.461538461539,4555.384615384616,4381.025641025642,4607.6923076923085,4318.974358974359,4277.435897435898,4090.7692307692314,4572.307692307693
718.7661,0.91153574,1.0,0.38921732,0.5717275,0,0.0,0.0,0.06391605,0.0,0.0,0,0,0.0,0.0,0,0,57.0,0.0,0.0,4726.153846153847,3886.1538461538466,4497.435897435898,4457.948717948719,4305.641025641026,4595.8974358974365,4494.871794871796,4512.820512820514,4347.179487179487,4588.205128205129,4263.589743589744,4231.794871794872,4055.8974358974365,4551.282051282052
719.01636,0.91153574,1.0,0.38921732,0.5717275,0,0.0,0.0,0.07618926,0.0,0.0,0,0,0.0,0.0,0,0,89.0,0.0,690.0,4693.333333333334,3863.589743589744,4478.461538461539,4470.769230769231,4291.794871794872,4576.410256410257,4459.48717948718,4466.666666666667,4331.282051282052,4608.205128205129,4289.74358974359,4212.307692307693,4088.205128205129,4559.48717948718
719.26654,0.904362,1.0,0.38947538,0.57042164,0,0.0,0.0,0.0,0.0,0.0,0,0,0.0,0.0,0,0,121.0,0.0,690.0,4696.410256410257,3877.9487179487182,4494.358974358975,4485.641025641026,4252.820512820514,4549.2307692307695,4466.153846153847,4468.205128205129,4348.205128205129,4631.282051282052,4262.564102564103,4200.512820512821,4089.23076923077,4556.410256410257
719.26654,0.904362,1.0,0.38947538,0.57042164,0,0.0,0.0,0.0,0.0,0.0,0,0,0.0,0.0,0,0,121.0,0.0,690.0,4696.410256410257,3877.9487179487182,4494.358974358975,4485.641025641026,4252.820512820514,4549.2307692307695,4466.153846153847,4468.205128205129,4348.205128205129,4631.282051282052,4262.564102564103,4200.512820512821,4089.23076923077,4556.410256410257
719.6419,0.8384993,1.0,0.38970524,0.5807671,0,0.0,0.0,0.0,0.0,0.0,0,0,0.0,0.0,0,0,40.0,0.0,0.0,4712.307692307693,3952.307692307693,4527.6923076923085,4530.769230769231,4269.2307692307695,4565.128205128206,4509.2307692307695,4491.794871794872,4351.794871794872,4685.128205128206,4318.974358974359,4242.564102564103,4131.282051282052,4580.512820512821
719.6419,0.8384993,1.0,0.38970524,0.5807671,0,0.0,0.0,0.0,0.0,0.0,0,0,0.0,0.0,0,0,40.0,0.0,0.0,4712.307692307693,3952.307692307693,4527.6923076923085,4530.769230769231,4269.2307692307695,4565.128205128206,4509.2307692307695,4491.794871794872,4351.794871794872,4685.128205128206,4318.974358974359,4242.564102564103,4131.282051282052,4580.512820512821
720.14233,0.7495372,0.94911885,0.3899097,0.60176826,0,0.0,0.0,0.0,0.0,0.0,0,0,0.0,0.0,0,0,104.0,0.0,552.0,4671.282051282052,3980.5128205128212,4521.025641025642,4518.461538461539,4292.307692307693,4578.974358974359,4497.948717948719,4448.205128205129,4328.717948717949,4655.8974358974365,4297.948717948719,4222.051282051282,4084.615384615385,4521.538461538462
720.14233,0.7495372,0.94911885,0.3899097,0.60176826,0,0.0,0.0,0.0,0.0,0.0,0,0,0.0,0.0,0,0,104.0,0.0,552.0,4671.282051282052,3980.5128205128212,4521.025641025642,4518.461538461539,4292.307692307693,4578.974358974359,4497.948717948719,4448.205128205129,4328.717948717949,4655.8974358974365,4297.948717948719,4222.051282051282,4084.615384615385,4521.538461538462
720.64276,0.7025956,0.8890463,0.38673943,0.62066376,0,0.0,0.0,0.0,0.0,0.0,0,0,0.0,0.0,0,0,39.0,0.0,0.0,4608.205128205129,3948.717948717949,4481.025641025642,4434.358974358975,4306.153846153847,4559.48717948718,4411.282051282052,4386.666666666667,4309.2307692307695,4645.641025641026,4311.282051282052,4188.205128205129,4175.384615384616,4452.820512820514
721.01807,0.7025956,0.8890463,0.38673943,0.62066376,0,0.0,0.0,0.0,0.0,0.0,0,0,0.0,0.0,0,0,87.0,0.0,446.0,4600.000000000001,3969.2307692307695,4480.512820512821,4440.000000000001,4291.794871794872,4549.2307692307695,4438.461538461539,4370.256410256411,4323.076923076924,4623.076923076924,4367.179487179487,4194.358974358975,4195.384615384616,4425.641025641026
721.1432,0.6273417,0.8308659,0.3860647,0.64304185,0,0.0,0.0,0.0,0.0,0.0,0,0,0.0,0.0,0,0,103.0,0.0,446.0,4621.538461538462,3989.7435897435903,4482.564102564103,4450.256410256411,4285.128205128206,4550.769230769231,4419.48717948718,4355.8974358974365,4322.051282051282,4658.974358974359,4387.6923076923085,4205.641025641026,4220.000000000001,4440.000000000001
721.1432,0.6273417,0.8308659,0.3860647,0.64304185,0,0.0,0.0,0.0,0.0,0.0,0,0,0.0,0.0,0,0,103.0,0.0,446.0,4621.538461538462,3989.7435897435903,4482.564102564103,4450.256410256411,4285.128205128206,4550.769230769231,4419.48717948718,4355.8974358974365,4322.051282051282,4658.974358974359,4387.6923076923085,4205.641025641026,4220.000000000001,4440.000000000001
721.6436,0.72952795,0.77808756,0.38545525,0.6798849,0,0.0,0.0,0.0,0.0,0.0,0,0,0.0,0.0,0,0,38.0,0.0,0.0,4627.6923076923085,4012.307692307693,4500.000000000001,4503.589743589744,4282.051282051282,4548.205128205129,4451.282051282052,4400.512820512821,4324.102564102564,4709.743589743591,4526.666666666667,4256.410256410257,4211.794871794872,4435.8974358974365
721.6436,0.72952795,0.77808756,0.38545525,0.6798849,0,0.0,0.0,0.0,0.0,0.0,0,0,0.0,0.0,0,0,38.0,0.0,0.0,4627.6923076923085,4012.307692307693,4500.000000000001,4503.589743589744,4282.051282051282,4548.205128205129,4451.282051282052,4400.512820512821,4324.102564102564,4709.743589743591,4526.666666666667,4256.410256410257,4211.794871794872,4435.8974358974365
722.26917,0.67845917,0.7313803,0.37972468,0.72043383,0,0.0,0.0,0.0,0.0,0.23074464,0,0,0.0,0.0,0,0,118.0,0.0,531.0,4580.512820512821,3966.666666666667,4517.435897435898,4534.358974358975,4246.666666666667,4538.974358974359,4466.666666666667,4424.615384615385,4335.384615384616,4732.307692307693,4580.512820512821,4282.051282051282,4238.974358974359,4505.128205128206
722.51935,0.67845917,0.7313803,0.37972468,0.72043383,0,0.0,0.0,0.0,0.0,0.10238558,0,0,0.0,0.0,0,0,21.0,0.0,0.0,4562.564102564103,3916.9230769230776,4504.102564102564,4511.282051282052,4237.435897435898,4526.666666666667,4470.769230769231,4428.205128205129,4345.128205128206,4995.8974358974365,4595.8974358974365,4303.076923076924,4228.717948717949,4524.102564102564
722.6445,0.64522344,0.71611506,0.3774434,0.7568426,0,0.0,0.0,1.0,0.0,0.0,0,0,0.0,0.0,0,0,37.0,0.0,0.0,4566.153846153847,3904.615384615385,4513.846153846154,4518.461538461539,4228.205128205129,4530.256410256411,4490.769230769231,4468.717948717949,4378.461538461539,4959.48717948718,4606.153846153847,4314.358974358975,4222.051282051282,4537.948717948719
723.0198,0.64522344,0.71611506,0.3774434,0.7568426,0,0.0,0.0,1.0,0.0,0.0,0,0,0.0,0.0,0,0,85.0,0.0,690.0,4624.102564102564,3898.461538461539,4512.820512820514,4498.461538461539,4222.051282051282,4524.102564102564,4480.000000000001,4446.666666666667,4371.282051282052,4751.794871794872,4514.358974358975,4278.974358974359,4202.564102564103,4563.076923076924
723.1449,0.65188813,0.71874684,0.37630892,0.7836794,0,0.0,0.0,0.0,0.0,0.0,0,0,0.0,0.0,0,0,101.0,0.0,690.0,4637.948717948719,3902.564102564103,4503.076923076924,4486.153846153847,4232.307692307693,4529.743589743591,4484.615384615385,4440.000000000001,4367.179487179487,4742.051282051282,4502.051282051282,4272.820512820514,4200.512820512821,4543.076923076924
723.1449,0.65188813,0.71874684,0.37630892,0.7836794,0,0.0,0.0,0.0,0.0,0.0,0,0,0.0,0.0,0,0,101.0,0.0,690.0,4637.948717948719,3902.564102564103,4503.076923076924,4486.153846153847,4232.307692307693,4529.743589743591,4484.615384615385,4440.000000000001,4367.179487179487,4742.051282051282,4502.051282051282,4272.820512820514,4200.512820512821,4543.076923076924
723.77045,0.59267884,0.76010185,0.3765595,0.80772287,0,0.0,0.0,0.0,0.0,0.05014417,0,0,0.0,0.0,0,0,52.0,0.0,0.0,4682.051282051282,3965.1282051282055,4512.820512820514,4500.000000000001,4244.102564102564,4516.923076923077,4480.512820512821,4471.794871794872,4343.589743589744,4730.256410256411,4457.435897435898,4261.025641025642,4206.153846153847,4528.205128205129
724.05194,0.59267884,0.76010185,0.3765595,0.80772287,1,0.0,0.0,0.0,0.0,0.12897147,0,0,0.0,0.0,0,0,88.0,0.0,548.0,4703.076923076924,3968.205128205129,4534.358974358975,4529.2307692307695,4238.974358974359,4516.923076923077,4461.538461538462,4429.743589743591,4348.717948717949,4707.179487179488,4454.871794871796,4262.564102564103,4213.333333333334,4562.564102564103
724.2709,0.49883983,0.7576652,0.37550932,0.8201646,0,0.0,0.0,0.0,0.0,0.10700216,0,0,0.0,0.0,0,0,116.0,0.0,548.0,4691.282051282052,3952.307692307693,4534.358974358975,4530.256410256411,4241.538461538462,4524.102564102564,4481.025641025642,4459.48717948718,4363.076923076924,4729.2307692307695,4448.717948717949,4267.6923076923085,4199.48717948718,4558.461538461539
724.396,0.49883983,0.7576652,0.37550932,0.8201646,0,0.0,0.0,0.0,0.0,0.0,0,0,0.0,0.0,0,0,3.0,0.0,531.0,4675.8974358974365,3935.3846153846157,4522.051282051282,4509.743589743591,4232.820512820514,4526.666666666667,4475.384615384616,4457.948717948719,4360.512820512821,4717.435897435898,4417.435897435898,4249.74358974359,4175.384615384616,4539.48717948718
724.7713,0.4152861,0.725266,0.37167972,0.823611,0,0.0,0.0,0.0,0.0,0.0,0,0,0.0,0.0,0,0,51.0,0.0,0.0,4722.564102564103,3942.564102564103,4545.641025641026,4529.2307692307695,4224.615384615385,4529.743589743591,4481.538461538462,4503.076923076924,4385.128205128206,4723.589743589744,4463.589743589744,4278.461538461539,4194.871794871796,4573.846153846154
724.7713,0.4152861,0.725266,0.37167972,0.823611,0,0.0,0.0,0.0,0.0,0.0,0,0,0.0,0.0,0,0,51.0,0.0,0.0,4722.564102564103,3942.564102564103,4545.641025641026,4529.2307692307695,4224.615384615385,4529.743589743591,4481.538461538462,4503.076923076924,4385.128205128206,4723.589743589744,4463.589743589744,4278.461538461539,4194.871794871796,4573.846153846154
725.1466,0.38975692,0.6969672,0.36445796,0.82454544,0,0.0,0.0,0.0,0.0,0.0,0,0,0.0,0.0,0,0,99.0,0.0,446.0,4763.589743589744,3931.2820512820517,4563.589743589744,4538.974358974359,4218.974358974359,4535.8974358974365,4503.589743589744,4501.538461538462,4394.358974358975,4737.435897435898,4433.846153846154,4286.666666666667,4173.846153846154,4612.820512820514
725.1466,0.38975692,0.6969672,0.36445796,0.82454544,0,0.0,0.0,0.0,0.0,0.0,0,0,0.0,0.0,0,0,99.0,0.0,446.0,4763.589743589744,3931.2820512820517,4563.589743589744,4538.974358974359,4218.974358974359,4535.8974358974365,4503.589743589744,4501.538461538462,4394.358974358975,4737.435897435898,4433.846153846154,4286.666666666667,4173.846153846154,4612.820512820514
725.64703,0.3496934,0.6396304,0.35116747,0.82067275,0,0.0,0.0,0.0,0.0,0.0,0,0,0.0,0.0,0,0,34.0,0.0,0.0,4762.564102564103,3956.9230769230776,4572.307692307693,4546.153846153847,4222.564102564103,4542.051282051282,4501.025641025642,4495.384615384616,4396.410256410257,4721.538461538462,4414.871794871796,4290.256410256411,4163.589743589744,4645.641025641026
725.64703,0.3496934,0.6396304,0.35116747,0.82067275,0,0.0,0.0,0.0,0.0,0.0,0,0,0.0,0.0,0,0,34.0,0.0,0.0,4762.564102564103,3956.9230769230776,4572.307692307693,4546.153846153847,4222.564102564103,4542.051282051282,4501.025641025642,4495.384615384616,4396.410256410257,4721.538461538462,4414.871794871796,4290.256410256411,4163.589743589744,4645.641025641026
726.14746,0.39662045,0.57948613,0.33850953,0.81793916,0,0.0,0.0,0.0,0.0,0.0,0,0,0.0,0.0,0,0,98.0,0.0,531.0,4690.256410256411,3968.205128205129,4542.051282051282,4527.179487179488,4259.48717948718,4561.025641025642,4463.589743589744,4454.358974358975,4392.820512820514,4661.538461538462,4353.333333333334,4243.076923076924,4067.692307692308,4593.333333333334
726.14746,0.39662045,0.57948613,0.33850953,0.81793916,0,0.0,0.0,0.0,0.0,0.0,0,0,0.0,0.0,0,0,98.0,0.0,531.0,4690.256410256411,3968.205128205129,4542.051282051282,4527.179487179488,4259.48717948718,4561.025641025642,4463.589743589744,4454.358974358975,4392.820512820514,4661.538461538462,4353.333333333334,4243.076923076924,4067.692307692308,4593.333333333334
726.773,0.36227942,0.53212005,0.32711717,0.8154525,0,0.0,0.0,0.36041242,0.0,0.0,0,0,0.0,0.0,0,0,49.0,0.0,0.0,4669.2307692307695,3884.1025641025644,4506.666666666667,4437.435897435898,4248.717948717949,4557.948717948719,4446.153846153847,4484.615384615385,4407.6923076923085,4730.256410256411,4449.2307692307695,4266.153846153847,4186.666666666667,4635.8974358974365
727.02325,0.36227942,0.53212005,0.32711717,0.8154525,0,0.0,0.0,0.21940006,0.0,0.0,0,0,0.0,0.0,0,0,81.0,0.0,665.0,4667.179487179488,3872.820512820513,4514.358974358975,4414.358974358975,4253.846153846154,4558.974358974359,4435.8974358974365,4467.6923076923085,4413.333333333334,4749.743589743591,4481.025641025642,4273.846153846154,4212.307692307693,4641.025641025642
727.27344,0.33604538,0.4960012,0.3168643,0.8045246,0,0.0,0.0,0.107399166,0.0,0.0,0,0,0.0,0.0,0,0,113.0,0.0,665.0,4645.641025641026,3880.0000000000005,4506.666666666667,4282.564102564103,4288.717948717949,4564.102564102564,4410.769230769231,4435.8974358974365,4399.48717948718,4748.205128205129,4499.48717948718,4258.974358974359,4236.410256410257,4650.769230769231
727.39856,0.33604538,0.4960012,0.3168643,0.8045246,0,0.0,0.0,0.0,0.0,0.0,0,0,0.0,0.0,0,0,0.0,0.0,489.0,4607.6923076923085,3857.435897435898,4512.820512820514,4303.076923076924,4287.179487179487,4564.102564102564,4424.102564102564,4443.076923076924,4401.025641025642,4745.128205128206,4490.256410256411,4249.74358974359,4187.179487179487,4615.384615384616
727.77386,0.35357824,0.4785062,0.31339693,0.7939976,0,0.0,0.0,0.33964372,0.0,0.0,0,0,0.0,0.0,0,0,48.0,0.0,0.0,4609.743589743591,3893.8461538461543,4508.205128205129,4334.871794871796,4251.282051282052,4551.794871794872,4424.102564102564,4423.076923076924,4390.769230769231,4717.948717948719,4461.538461538462,4237.948717948719,4168.205128205129,4585.128205128206
728.0241,0.35357824,0.4785062,0.31339693,0.7939976,0,0.0,0.0,0.0,0.0,0.0,0,0,0.0,0.0,0,0,80.0,0.0,548.0,4638.461538461539,3922.564102564103,4520.000000000001,4387.6923076923085,4227.179487179487,4530.256410256411,4430.256410256411,4416.410256410257,4376.410256410257,4700.512820512821,4435.8974358974365,4242.564102564103,4144.102564102564,4587.6923076923085
728.1492,0.32450706,0.47554153,0.31922615,0.8004231,0,0.0,0.0,0.0,0.0,0.0,0,0,0.0,0.0,0,0,96.0,0.0,548.0,4608.205128205129,3927.692307692308,4501.538461538462,4370.769230769231,4236.410256410257,4542.051282051282,4438.974358974359,4433.846153846154,4382.564102564103,4712.307692307693,4405.641025641026,4232.820512820514,4115.8974358974365,4555.8974358974365
728.52454,0.32450706,0.47554153,0.31922615,0.8004231,0,0.0,0.0,0.0,0.0,0.34858823,0,0,0.0,0.0,0,0,15.0,0.0,445.0,4568.205128205129,3931.7948717948725,4470.256410256411,4331.794871794872,4248.717948717949,4535.384615384616,4400.000000000001,4395.8974358974365,4389.2307692307695,4742.564102564103,4404.615384615385,4221.538461538462,4150.769230769231,4505.641025641026
728.7747,0.21860258,0.4591105,0.32549116,0.8162974,0,0.0,0.0,0.0,0.0,0.020701008,0,0,0.0,0.0,0,0,47.0,0.0,0.0,4598.974358974359,4007.692307692308,4496.410256410257,4344.102564102564,4271.282051282052,4535.8974358974365,4381.025641025642,4346.666666666667,4346.153846153847,4856.410256410257,4426.153846153847,4251.794871794872,4237.435897435898,4523.076923076924
729.02496,0.21860258,0.4591105,0.32549116,0.8162974,0,0.0,0.0,0.0,0.0,0.17128757,0,0,0.0,0.0,0,0,79.0,0.0,445.0,4540.000000000001,3987.1794871794878,4487.179487179488,4337.948717948719,4274.358974358975,4538.974358974359,4421.538461538462,4379.48717948718,4349.2307692307695,4862.051282051283,4424.615384615385,4247.6923076923085,4241.538461538462,4482.564102564103
729.27515,0.27737024,0.4572107,0.33113,0.81666493,0,0.0,0.0,0.0,0.0,0.0704623,0,0,0.0,0.0,0,0,111.0,0.0,445.0,4555.8974358974365,4007.1794871794878,4496.923076923077,4369.743589743591,4270.256410256411,4528.717948717949,4429.2307692307695,4374.871794871796,4348.205128205129,4776.923076923077,4426.666666666667,4245.641025641026,4258.461538461539,4483.076923076924
729.40027,0.27737024,0.4572107,0.33113,0.81666493,0,0.0,0.0,0.0,0.0,0.0,0,0,0.0,0.0,0,0,127.0,0.0,445.0,4554.358974358975,3993.333333333334,4500.512820512821,4380.512820512821,4264.615384615385,4524.615384615385,4443.076923076924,4397.948717948719,4368.205128205129,4776.410256410257,4430.769230769231,4255.8974358974365,4271.282051282052,4490.256410256411
729.6505,0.2999716,0.451821,0.33620507,0.80875957,0,0.0,0.0,0.0,0.0,0.0,0,0,0.0,0.0,0,0,30.0,0.0,0.0,4528.205128205129,3987.692307692308,4507.6923076923085,4413.333333333334,4264.615384615385,4531.794871794872,4453.333333333334,4422.564102564103,4370.769230769231,4760.000000000001,4399.48717948718,4254.871794871796,4254.358974358975,4492.820512820514
729.6505,0.2999716,0.451821,0.33620507,0.80875957,0,0.0,0.0,0.0,0.0,0.0,0,0,0.0,0.0,0,0,30.0,0.0,0.0,4528.205128205129,3987.692307692308,4507.6923076923085,4413.333333333334,4264.615384615385,4531.794871794872,4453.333333333334,4422.564102564103,4370.769230769231,4760.000000000001,4399.48717948718,4254.871794871796,4254.358974358975,4492.820512820514
730.15094,0.21337014,0.43977234,0.33813187,0.81219244,0,0.0,0.0,0.0,0.0,0.0,0,0,0.0,0.0,0,0,94.0,0.0,532.0,4542.564102564103,3965.6410256410263,4515.384615384616,4432.820512820514,4255.8974358974365,4537.435897435898,4455.8974358974365,4452.307692307693,4374.871794871796,4772.307692307693,4400.000000000001,4263.076923076924,4211.282051282052,4512.307692307693
730.52625,0.21337014,0.43977234,0.33813187,0.81219244,0,0.0,0.0,0.0,0.0,1.0,0,0,0.0,0.0,0,0,13.0,0.0,662.0,4438.974358974359,3982.564102564103,4511.794871794872,4431.794871794872,4282.051282051282,4547.179487179488,4463.076923076924,4446.153846153847,4349.2307692307695,4764.102564102564,4399.48717948718,4256.923076923077,4224.102564102564,4487.6923076923085
730.7764,0.19236185,0.42598656,0.33636615,0.81937367,0,0.0,0.0,0.0,0.0,0.9381157,0,0,0.0,0.0,0,0,45.0,0.0,0.0,4409.2307692307695,3978.461538461539,4506.153846153847,4432.307692307693,4277.948717948719,4545.641025641026,4449.743589743591,4420.000000000001,4318.974358974359,4757.948717948719,4392.307692307693,4239.48717948718,4220.512820512821,4460.512820512821
731.0267,0.19236185,0.42598656,0.33636615,0.81937367,0,0.0,0.0,0.0,0.0,0.0,0,0,0.0,0.0,0,0,77.0,0.0,663.0,4452.820512820514,3978.461538461539,4502.051282051282,4451.794871794872,4281.538461538462,4544.102564102564,4451.794871794872,4410.256410256411,4320.512820512821,4764.102564102564,4389.743589743591,4248.717948717949,4232.307692307693,4457.435897435898
731.1518,0.22315885,0.39900526,0.3306668,0.82577205,0,0.0,0.0,0.0,0.0,0.0,0,0,0.0,0.0,0,0,93.0,0.0,663.0,4477.948717948719,3973.333333333334,4514.871794871796,4462.564102564103,4281.025641025642,4548.205128205129,4466.666666666667,4423.076923076924,4331.794871794872,4769.743589743591,4410.769230769231,4263.076923076924,4250.769230769231,4473.333333333334
731.1518,0.22315885,0.39900526,0.3306668,0.82577205,0,0.0,0.0,0.0,0.0,0.0,0,0,0.0,0.0,0,0,93.0,0.0,663.0,4477.948717948719,3973.333333333334,4514.871794871796,4462.564102564103,4281.025641025642,4548.205128205129,4466.666666666667,4423.076923076924,4331.794871794872,4769.743589743591,4410.769230769231,4263.076923076924,4250.769230769231,4473.333333333334
731.6522,0.2147891,0.38416746,0.3227711,0.8314655,0,0.0,0.0,0.0,0.0,0.0,0,0,0.0,0.0,0,0,28.0,0.0,0.0,4571.794871794872,3966.666666666667,4538.974358974359,4507.6923076923085,4245.128205128206,4534.358974358975,4543.076923076924,4466.666666666667,4367.179487179487,4715.8974358974365,4419.48717948718,4294.358974358975,4256.410256410257,4493.846153846154
731.6522,0.2147891,0.38416746,0.3227711,0.8314655,0,0.0,0.0,0.0,0.0,0.0,0,0,0.0,0.0,0,0,28.0,0.0,0.0,4571.794871794872,3966.666666666667,4538.974358974359,4507.6923076923085,4245.128205128206,4534.358974358975,4543.076923076924,4466.666666666667,4367.179487179487,4715.8974358974365,4419.48717948718,4294.358974358975,4256.410256410257,4493.846153846154
732.15265,0.18444866,0.3824458,0.3143539,0.8365243,0,0.0,0.0,0.0,0.0,0.0,0,0,0.0,0.0,0,0,92.0,0.0,549.0,4603.589743589744,3902.0512820512827,4524.615384615385,4520.000000000001,4198.974358974359,4503.076923076924,4574.871794871796,4453.846153846154,4405.641025641026,4723.076923076924,4371.794871794872,4285.128205128206,4215.8974358974365,4541.538461538462
732.52795,0.18444866,0.3824458,0.3143539,0.8365243,0,0.0,0.0,0.0,0.0,0.35503238,0,0,0.0,0.0,0,0,11.0,0.0,445.0,4647.6923076923085,3900.5128205128212,4521.538461538462,4514.358974358975,4205.641025641026,4500.000000000001,4569.2307692307695,4457.435897435898,4410.769230769231,4715.8974358974365,4349.2307692307695,4287.6923076923085,4185.641025641026,4582.564102564103
732.7782,0.18213922,0.40022808,0.30677924,0.841012,1,0.0,0.0,0.0,0.0,0.29636875,0,0,0.0,0.0,0,0,43.0,0.0,0.0,4658.974358974359,3900.5128205128212,4527.179487179488,4506.153846153847,4195.384615384616,4495.8974358974365,4562.564102564103,4458.461538461539,4417.435897435898,4733.333333333334,4358.974358974359,4285.641025641026,4176.410256410257,4595.8974358974365
733.0284,0.18213922,0.40022808,0.30677924,0.841012,0,0.0,0.0,0.0,0.0,0.0,0,0,0.0,0.0,0,0,75.0,0.0,445.0,4655.384615384616,3888.205128205129,4517.435897435898,4486.666666666667,4192.307692307693,4497.948717948719,4547.6923076923085,4433.846153846154,4393.333333333334,4716.410256410257,4338.461538461539,4261.538461538462,4153.333333333334,4563.076923076924
733.1535,0.2833151,0.43696105,0.2999632,0.84244025,0,0.0,0.0,0.0,0.0,0.0,0,0,0.0,0.0,0,0,91.0,0.0,445.0,4645.128205128206,3905.1282051282055,4512.820512820514,4471.794871794872,4208.717948717949,4503.589743589744,4547.6923076923085,4437.435897435898,4385.128205128206,4732.820512820514,4325.128205128206,4258.974358974359,4164.102564102564,4558.461538461539
733.5288,0.2833151,0.43696105,0.2999632,0.84244025,0,0.0,0.0,0.0,0.0,0.38359165,0,0,0.0,0.0,0,0,10.0,0.0,532.0,4609.2307692307695,3983.589743589744,4506.153846153847,4441.025641025642,4238.974358974359,4532.307692307693,4530.256410256411,4423.076923076924,4341.025641025642,4753.846153846154,4313.846153846154,4260.000000000001,4183.589743589744,4496.410256410257
733.65393,0.19297992,0.45382574,0.29598597,0.84192914,0,0.0,0.0,0.0,0.0,1.0,0,0,0.0,0.0,0,0,26.0,0.0,0.0,4575.384615384616,4008.717948717949,4507.6923076923085,4442.051282051282,4245.641025641026,4534.358974358975,4536.923076923077,4440.512820512821,4345.128205128206,4785.641025641026,4345.641025641026,4268.717948717949,4224.615384615385,4486.153846153847
734.02924,0.19297992,0.45382574,0.29598597,0.84192914,0,0.0,0.0,0.0,0.0,0.54437965,0,0,0.0,0.0,0,0,74.0,0.0,532.0,4556.410256410257,4015.8974358974365,4511.794871794872,4445.641025641026,4242.564102564103,4529.743589743591,4543.589743589744,4428.717948717949,4365.128205128206,4821.538461538462,4380.512820512821,4279.48717948718,4243.589743589744,4493.333333333334
734.15436,0.2333115,0.4427691,0.29620856,0.84013987,0,0.0,0.0,0.0,0.0,0.0,0,0,0.0,0.0,0,0,90.0,0.0,532.0,4565.641025641026,4003.076923076924,4508.717948717949,4448.717948717949,4245.641025641026,4532.307692307693,4542.564102564103,4434.358974358975,4375.384615384616,4820.512820512821,4395.384615384616,4283.589743589744,4240.000000000001,4497.948717948719
734.15436,0.2333115,0.4427691,0.29620856,0.84013987,0,0.0,0.0,0.0,0.0,0.0,0,0,0.0,0.0,0,0,90.0,0.0,532.0,4565.641025641026,4003.076923076924,4508.717948717949,4448.717948717949,4245.641025641026,4532.307692307693,4542.564102564103,4434.358974358975,4375.384615384616,4820.512820512821,4395.384615384616,4283.589743589744,4240.000000000001,4497.948717948719
734.7799,0.17876293,0.45175847,0.29641038,0.83155465,0,0.0,0.0,0.0,0.0,0.14250502,0,0,0.0,0.0,0,0,41.0,0.0,0.0,4615.8974358974365,3931.2820512820517,4515.384615384616,4478.974358974359,4225.128205128206,4526.666666666667,4544.102564102564,4437.435897435898,4419.48717948718,4828.205128205129,4421.538461538462,4289.2307692307695,4184.102564102564,4502.564102564103
735.0301,0.17876293,0.45175847,0.29641038,0.83155465,0,0.0,0.0,0.0,0.0,0.055123866,0,0,0.0,0.0,0,0,73.0,0.0,469.0,4638.974358974359,3920.0000000000005,4521.025641025642,4484.102564102564,4202.051282051282,4521.025641025642,4546.153846153847,4462.051282051282,4432.820512820514,4771.794871794872,4404.615384615385,4288.205128205129,4176.923076923077,4522.051282051282
735.28033,0.090185545,0.4546354,0.2974528,0.8238215,0,0.0,0.0,0.0,0.0,0.4012655,0,0,0.0,0.0,0,0,105.0,0.0,656.0,4674.871794871796,3930.7692307692314,4546.153846153847,4495.8974358974365,4209.2307692307695,4529.2307692307695,4555.8974358974365,4476.923076923077,4452.820512820514,4779.48717948718,4414.358974358975,4309.743589743591,4178.461538461539,4564.102564102564
735.5305,0.090185545,0.4546354,0.2974528,0.8238215,0,0.0,0.0,0.0,0.0,0.0,0,0,0.0,0.0,0,0,8.0,0.0,431.0,4700.512820512821,3932.307692307693,4544.102564102564,4496.410256410257,4215.384615384616,4534.871794871796,4547.179487179488,4495.8974358974365,4454.358974358975,4762.051282051282,4401.025641025642,4311.282051282052,4174.871794871796,4581.025641025642
735.65564,0.09930969,0.48109818,0.2991808,0.81563663,0,0.0,0.0,0.0,0.0,0.0,0,0,0.0,0.0,0,0,24.0,0.0,0.0,4706.153846153847,3946.666666666667,4556.923076923077,4510.256410256411,4227.179487179487,4551.794871794872,4552.820512820514,4503.076923076924,4450.256410256411,4760.000000000001,4403.076923076924,4320.000000000001,4175.8974358974365,4586.666666666667
735.65564,0.09930969,0.48109818,0.2991808,0.81563663,0,0.0,0.0,0.0,0.0,0.0,0,0,0.0,0.0,0,0,24.0,0.0,0.0,4706.153846153847,3946.666666666667,4556.923076923077,4510.256410256411,4227.179487179487,4551.794871794872,4552.820512820514,4503.076923076924,4450.256410256411,4760.000000000001,4403.076923076924,4320.000000000001,4175.8974358974365,4586.666666666667
736.15607,0.1844079,0.49822953,0.29913506,0.80726326,0,0.0,0.0,0.0,0.0,0.0,0,0,0.0,0.0,0,0,88.0,0.0,550.0,4687.179487179488,3932.307692307693,4549.2307692307695,4494.358974358975,4225.641025641026,4549.2307692307695,4539.48717948718,4512.820512820514,4445.641025641026,4735.384615384616,4383.076923076924,4310.769230769231,4169.74358974359,4607.179487179488
736.15607,0.1844079,0.49822953,0.29913506,0.80726326,0,0.0,0.0,0.0,0.0,0.0,0,0,0.0,0.0,0,0,88.0,0.0,550.0,4687.179487179488,3932.307692307693,4549.2307692307695,4494.358974358975,4225.641025641026,4549.2307692307695,4539.48717948718,4512.820512820514,4445.641025641026,4735.384615384616,4383.076923076924,4310.769230769231,4169.74358974359,4607.179487179488
736.6565,0.2977048,0.4872621,0.29645565,0.8051778,0,0.0,0.0,0.0,0.0,0.0,0,0,0.0,0.0,0,0,23.0,0.0,0.0,4675.384615384616,3923.589743589744,4543.589743589744,4482.564102564103,4213.846153846154,4532.307692307693,4516.923076923077,4505.641025641026,4435.384615384616,4712.307692307693,4370.769230769231,4284.615384615385,4152.820512820514,4596.410256410257
736.6565,0.2977048,0.4872621,0.29645565,0.8051778,0,0.0,0.0,0.0,0.0,0.0,0,0,0.0,0.0,0,0,23.0,0.0,0.0,4675.384615384616,3923.589743589744,4543.589743589744,4482.564102564103,4213.846153846154,4532.307692307693,4516.923076923077,4505.641025641026,4435.384615384616,4712.307692307693,4370.769230769231,4284.615384615385,4152.820512820514,4596.410256410257
737.1569,0.3032388,0.4494414,0.29094547,0.8057939,0,0.0,0.0,0.0,0.0,0.0,0,0,0.0,0.0,0,0,87.0,0.0,445.0,4643.076923076924,3923.076923076924,4541.025641025642,4466.666666666667,4230.769230769231,4544.102564102564,4515.384615384616,4466.153846153847,4427.179487179487,4689.2307692307695,4360.000000000001,4272.307692307693,4142.051282051282,4565.128205128206
737.1569,0.3032388,0.4494414,0.29094547,0.8057939,0,0.0,0.0,0.0,0.0,0.0,0,0,0.0,0.0,0,0,87.0,0.0,445.0,4643.076923076924,3923.076923076924,4541.025641025642,4466.666666666667,4230.769230769231,4544.102564102564,4515.384615384616,4466.153846153847,4427.179487179487,4689.2307692307695,4360.000000000001,4272.307692307693,4142.051282051282,4565.128205128206
737.65735,0.25341845,0.4051376,0.2846396,0.80852437,0,0.0,0.0,0.0,0.0,0.0,0,0,0.0,0.0,0,0,22.0,0.0,0.0,4621.538461538462,3929.2307692307695,4526.153846153847,4449.743589743591,4231.282051282052,4542.051282051282,4467.179487179487,4430.769230769231,4391.794871794872,4677.435897435898,4346.153846153847,4245.128205128206,4129.2307692307695,4542.564102564103
738.0327,0.25341845,0.4051376,0.2846396,0.80852437,1,0.0,0.0,0.0,0.0,0.0,0,0,0.0,0.0,0,0,70.0,0.0,537.0,4634.358974358975,3933.8461538461543,4534.358974358975,4440.512820512821,4228.717948717949,4538.974358974359,4451.282051282052,4408.717948717949,4390.769230769231,4691.794871794872,4359.48717948718,4238.461538461539,4127.6923076923085,4540.512820512821
738.1891,0.2244936,0.38345188,0.27556908,0.8131119,0,0.0,0.0,0.0,0.0,0.0,0,0,0.0,0.0,0,0,90.0,0.0,532.0,4590.256410256411,3894.8717948717954,4510.769230769231,4411.794871794872,4222.564102564103,4532.307692307693,4456.923076923077,4425.128205128206,4392.820512820514,4685.128205128206,4337.435897435898,4218.974358974359,4106.666666666667,4503.076923076924
738.1891,0.2244936,0.38345188,0.27556908,0.8131119,0,0.0,0.0,0.0,0.0,0.0,0,0,0.0,0.0,0,0,90.0,0.0,532.0,4590.256410256411,3894.8717948717954,4510.769230769231,4411.794871794872,4222.564102564103,4532.307692307693,4456.923076923077,4425.128205128206,4392.820512820514,4685.128205128206,4337.435897435898,4218.974358974359,4106.666666666667,4503.076923076924
738.6582,0.19568206,0.3664916,0.26637197,0.8171896,0,0.0,0.0,0.0,0.0,0.0,0,0,0.0,0.0,0,0,21.0,0.0,0.0,4600.512820512821,3911.2820512820517,4526.153846153847,4428.205128205129,4241.538461538462,4550.769230769231,4451.282051282052,4416.410256410257,4391.794871794872,4670.769230769231,4346.153846153847,4231.282051282052,4162.564102564103,4512.820512820514
738.6582,0.19568206,0.3664916,0.26637197,0.8171896,0,0.0,0.0,0.0,0.0,0.0,0,0,0.0,0.0,0,0,21.0,0.0,0.0,4600.512820512821,3911.2820512820517,4526.153846153847,4428.205128205129,4241.538461538462,4550.769230769231,4451.282051282052,4416.410256410257,4391.794871794872,4670.769230769231,4346.153846153847,4231.282051282052,4162.564102564103,4512.820512820514
739.3463,0.1969973,0.3673116,0.25809795,0.8208084,1,0.0,0.0,0.0,0.0,0.0,0,0,0.0,0.0,0,0,109.0,0.0,651.0,4651.794871794872,3946.1538461538466,4513.333333333334,4428.205128205129,4255.384615384616,4546.153846153847,4397.948717948719,4371.794871794872,4359.48717948718,4652.307692307693,4350.256410256411,4232.307692307693,4197.948717948719,4518.461538461539
739.534,0.1969973,0.3673116,0.25809795,0.8208084,0,0.0,0.0,0.013536195,0.0,0.0,0,0,0.0,0.0,0,0,4.0,0.0,550.0,4651.282051282052,3948.205128205129,4508.717948717949,4420.512820512821,4263.589743589744,4555.8974358974365,4402.051282051282,4383.589743589744,4366.153846153847,4663.589743589744,4348.205128205129,4234.358974358975,4198.974358974359,4510.256410256411
739.7842,0.23588823,0.39902776,0.25065514,0.8161198,0,0.0,0.0,0.05458044,0.0,0.0,0,0,0.0,0.0,0,0,36.0,0.0,0.0,4598.974358974359,3916.410256410257,4495.384615384616,4403.076923076924,4262.564102564103,4557.948717948719,4427.179487179487,4415.384615384616,4377.435897435898,4695.384615384616,4342.051282051282,4223.589743589744,4169.74358974359,4482.564102564103
740.0344,0.23588823,0.39902776,0.25065514,0.8161198,0,0.0,0.0,0.04856235,0.0,0.0,0,0,0.0,0.0,0,0,68.0,0.0,550.0,4600.000000000001,3910.7692307692314,4494.871794871796,4382.564102564103,4253.846153846154,4558.974358974359,4436.923076923077,4405.641025641026,4376.410256410257,4660.512820512821,4330.769230769231,4215.8974358974365,4145.641025641026,4478.461538461539
740.2846,0.2042362,0.42023262,0.24850042,0.80452347,0,0.0,0.0,0.18130687,0.0,0.0,0,0,0.0,0.0,0,0,100.0,0.0,552.0,4619.48717948718,3918.9743589743593,4507.179487179488,4400.000000000001,4251.794871794872,4562.564102564103,4458.461538461539,4423.589743589744,4398.461538461539,4680.512820512821,4377.435897435898,4246.153846153847,4183.076923076924,4503.076923076924
740.53485,0.2042362,0.42023262,0.24850042,0.80452347,0,0.0,0.0,0.0,0.0,0.0,0,0,0.0,0.0,0,0,3.0,0.0,532.0,4631.794871794872,3930.2564102564106,4509.2307692307695,4404.102564102564,4257.435897435898,4560.512820512821,4440.512820512821,4422.564102564103,4402.564102564103,4709.743589743591,4372.820512820514,4253.846153846154,4180.000000000001,4495.384615384616
740.66,0.21769679,0.43657392,0.2504808,0.79278535,0,0.0,0.0,0.0,0.0,0.0,0,0,0.0,0.0,0,0,19.0,0.0,0.0,4614.358974358975,3922.0512820512827,4491.282051282052,4398.461538461539,4246.666666666667,4556.923076923077,4437.435897435898,4411.282051282052,4385.641025641026,4669.743589743591,4352.307692307693,4237.435897435898,4154.358974358975,4470.256410256411
740.66,0.21769679,0.43657392,0.2504808,0.79278535,0,0.0,0.0,0.0,0.0,0.0,0,0,0.0,0.0,0,0,19.0,0.0,0.0,4614.358974358975,3922.0512820512827,4491.282051282052,4398.461538461539,4246.666666666667,4556.923076923077,4437.435897435898,4411.282051282052,4385.641025641026,4669.743589743591,4352.307692307693,4237.435897435898,4154.358974358975,4470.256410256411
741.1604,0.21802759,0.4476245,0.2577803,0.77877337,0,0.0,0.0,0.0,0.0,0.0,0,0,0.0,0.0,0,0,83.0,0.0,445.0,4635.384615384616,3923.589743589744,4492.307692307693,4405.641025641026,4232.820512820514,4538.974358974359,4425.641025641026,4395.8974358974365,4381.538461538462,4662.564102564103,4346.666666666667,4227.179487179487,4145.641025641026,4471.794871794872
741.1604,0.21802759,0.4476245,0.2577803,0.77877337,0,0.0,0.0,0.0,0.0,0.0,0,0,0.0,0.0,0,0,83.0,0.0,445.0,4635.384615384616,3923.589743589744,4492.307692307693,4405.641025641026,4232.820512820514,4538.974358974359,4425.641025641026,4395.8974358974365,4381.538461538462,4662.564102564103,4346.666666666667,4227.179487179487,4145.641025641026,4471.794871794872
741.6608,0.21373369,0.44742686,0.26435253,0.7609971,0,0.0,0.0,0.0,0.0,0.0,0,0,0.0,0.0,0,0,18.0,0.0,0.0,4643.076923076924,3872.820512820513,4476.923076923077,4372.820512820514,4229.74358974359,4535.384615384616,4438.461538461539,4412.307692307693,4382.051282051282,4681.025641025642,4341.025641025642,4229.74358974359,4193.846153846154,4476.923076923077
742.03613,0.21373369,0.44742686,0.26435253,0.7609971,0,0.0,0.0,0.1293973,0.0,0.0,0,0,0.0,0.0,0,0,66.0,0.0,447.0,4668.717948717949,3931.7948717948725,4504.102564102564,4404.102564102564,4251.282051282052,4551.282051282052,4431.794871794872,4407.6923076923085,4380.000000000001,4680.512820512821,4346.666666666667,4238.974358974359,4164.102564102564,4463.076923076924
742.2863,0.17596109,0.45430064,0.27216205,0.74501693,0,0.0,0.0,0.18789195,0.0,0.0,0,0,0.0,0.0,0,0,98.0,0.0,532.0,4681.025641025642,3940.0000000000005,4530.769230769231,4429.2307692307695,4256.923076923077,4555.8974358974365,4454.871794871796,4425.128205128206,4394.871794871796,4700.512820512821,4374.871794871796,4260.000000000001,4181.025641025642,4485.128205128206
742.53656,0.17596109,0.45430064,0.27216205,0.74501693,0,0.0,0.0,0.16094619,0.0,0.0,0,0,0.0,0.0,0,0,1.0,0.0,482.0,4650.769230769231,3920.0000000000005,4493.846153846154,4398.974358974359,4254.358974358975,4553.846153846154,4408.717948717949,4371.794871794872,4366.153846153847,4644.615384615385,4316.923076923077,4214.871794871796,4132.820512820514,4455.384615384616
742.78674,0.24376118,0.47766393,0.28214824,0.7306476,0,0.0,0.0,0.11628248,0.0,0.0,0,0,0.0,0.0,0,0,33.0,0.0,0.0,4634.871794871796,3860.0000000000005,4491.794871794872,4367.179487179487,4242.051282051282,4549.743589743591,4432.820512820514,4435.8974358974365,4381.538461538462,4674.871794871796,4351.282051282052,4231.282051282052,4191.282051282052,4476.410256410257
743.037,0.24376118,0.47766393,0.28214824,0.7306476,0,0.0,0.0,0.119454205,0.0,0.0,0,0,0.0,0.0,0,0,65.0,0.0,482.0,4615.384615384616,3889.2307692307695,4485.641025641026,4380.512820512821,4242.051282051282,4552.820512820514,4428.717948717949,4419.48717948718,4365.641025641026,4620.512820512821,4312.307692307693,4206.666666666667,4133.333333333334,4450.769230769231
743.28723,0.1978202,0.47968102,0.29211074,0.72970814,0,0.0,0.0,0.09330159,0.0,0.0,0,0,0.0,0.0,0,0,97.0,0.0,659.0,4624.615384615385,3886.1538461538466,4491.794871794872,4384.102564102564,4241.025641025642,4547.6923076923085,4433.333333333334,4427.179487179487,4368.205128205129,4659.48717948718,4340.000000000001,4222.051282051282,4166.153846153847,4461.538461538462
743.5374,0.1978202,0.47968102,0.29211074,0.72970814,0,0.0,0.0,0.037512455,0.0,0.0,0,0,0.0,0.0,0,0,0.0,0.0,489.0,4606.666666666667,3899.48717948718,4486.153846153847,4381.025641025642,4226.666666666667,4531.282051282052,4418.461538461539,4385.641025641026,4351.794871794872,4639.48717948718,4300.000000000001,4199.48717948718,4119.48717948718,4434.871794871796
743.78766,0.23152874,0.4681995,0.3010785,0.7425461,0,0.0,0.0,0.056386106,0.0,0.0,0,0,0.0,0.0,0,0,32.0,0.0,0.0,4559.48717948718,3900.0000000000005,4480.512820512821,4383.589743589744,4225.128205128206,4531.282051282052,4409.2307692307695,4384.615384615385,4362.564102564103,4656.410256410257,4294.871794871796,4202.564102564103,4125.128205128206,4432.307692307693
744.03784,0.23152874,0.4681995,0.3010785,0.7425461,0,0.0,0.0,0.0,0.0,0.12237932,0,0,0.0,0.0,0,0,64.0,0.0,489.0,4584.615384615385,3907.692307692308,4502.051282051282,4393.846153846154,4235.384615384616,4535.8974358974365,4416.923076923077,4380.000000000001,4362.051282051282,4655.8974358974365,4313.846153846154,4220.512820512821,4158.974358974359,4441.538461538462
744.16296,0.264111,0.4465371,0.3110428,0.75405866,0,0.0,0.0,0.0,0.0,0.0,0,0,0.0,0.0,0,0,80.0,0.0,552.0,4584.615384615385,3896.9230769230776,4495.8974358974365,4388.205128205129,4223.589743589744,4528.205128205129,4415.384615384616,4389.743589743591,4360.000000000001,4661.025641025642,4310.769230769231,4217.948717948719,4152.820512820514,4435.8974358974365
744.53827,0.264111,0.4465371,0.3110428,0.75405866,0,0.0,0.0,0.0,0.0,0.0,0,0,0.0,0.21965216,0,0,128.0,0.0,552.0,4612.820512820514,3876.9230769230776,4483.076923076924,4366.153846153847,4222.051282051282,4524.615384615385,4405.128205128206,4369.2307692307695,4357.948717948719,4634.871794871796,4295.384615384616,4207.179487179487,4138.461538461539,4423.589743589744
744.6634,0.30160457,0.42686015,0.32001153,0.76437604,0,0.0,0.0,0.0,0.0,0.0,0,0,0.0,0.0,0,0,15.0,0.0,445.0,4628.205128205129,3899.48717948718,4499.48717948718,4386.666666666667,4233.846153846154,4533.333333333334,4410.769230769231,4369.2307692307695,4360.000000000001,4664.102564102564,4307.179487179487,4222.564102564103,4154.358974358975,4438.974358974359
744.6634,0.30160457,0.42686015,0.32001153,0.76437604,0,0.0,0.0,0.0,0.0,0.0,0,0,0.0,0.0,0,0,15.0,0.0,445.0,4628.205128205129,3899.48717948718,4499.48717948718,4386.666666666667,4233.846153846154,4533.333333333334,4410.769230769231,4369.2307692307695,4360.000000000001,4664.102564102564,4307.179487179487,4222.564102564103,4154.358974358975,4438.974358974359
745.1638,0.24944985,0.410606,0.3280839,0.76878226,0,0.0,0.0,0.0,0.0,0.0,0,0,0.0,0.0,0,0,79.0,0.0,445.0,4637.948717948719,3891.2820512820517,4496.923076923077,4386.666666666667,4216.410256410257,4523.076923076924,4418.461538461539,4393.333333333334,4367.179487179487,4670.256410256411,4317.948717948719,4231.282051282052,4155.384615384616,4459.48717948718
745.5391,0.24944985,0.410606,0.3280839,0.76878226,0,0.0,0.0,0.19149755,0.0,0.0,0,0,0.0,0.0,0,0,127.0,0.0,445.0,4607.179487179488,3883.076923076924,4480.512820512821,4350.256410256411,4236.410256410257,4541.025641025642,4415.384615384616,4398.461538461539,4358.461538461539,4663.076923076924,4305.641025641026,4218.461538461539,4139.48717948718,4447.179487179487
745.78937,0.23198707,0.38886818,0.3292463,0.7667936,0,0.0,0.0,0.0,0.0,0.0,0,0,0.0,0.0,0,0,30.0,0.0,0.0,4673.846153846154,3952.307692307693,4510.256410256411,4400.512820512821,4228.205128205129,4530.769230769231,4393.846153846154,4384.615384615385,4353.333333333334,4674.871794871796,4360.000000000001,4253.333333333334,4192.820512820514,4505.128205128206
746.07086,0.23198707,0.38886818,0.3292463,0.7667936,0,0.0,0.0,0.0,0.0,0.0,0,0,0.0,0.0,0,0,66.0,0.0,447.0,4609.2307692307695,3904.1025641025644,4491.794871794872,4382.564102564103,4238.461538461539,4538.461538461539,4423.589743589744,4424.102564102564,4371.282051282052,4686.153846153847,4343.076923076924,4242.564102564103,4164.102564102564,4464.615384615385
746.1647,0.19167134,0.38397995,0.32106602,0.7629991,0,0.0,0.0,0.0,0.0,0.0,0,0,0.0,0.0,0,0,78.0,0.0,532.0,4602.564102564103,3892.820512820513,4478.461538461539,4379.48717948718,4243.589743589744,4543.589743589744,4418.461538461539,4404.615384615385,4361.025641025642,4684.102564102564,4341.538461538462,4232.307692307693,4159.48717948718,4460.512820512821
746.54,0.19167134,0.38397995,0.32106602,0.7629991,0,0.0,0.0,0.0,0.0,0.0672462,0,0,0.0,0.0,0,0,126.0,0.0,532.0,4600.000000000001,3898.9743589743593,4484.102564102564,4382.051282051282,4254.358974358975,4555.384615384616,4424.102564102564,4422.564102564103,4378.461538461539,4715.384615384616,4372.307692307693,4244.102564102564,4179.48717948718,4455.8974358974365
746.7902,0.16286144,0.38391805,0.3097714,0.75957245,0,0.0,0.0,0.0,0.0,0.0,0,0,0.0,0.34808615,0,0,29.0,0.0,0.0,4611.794871794872,3889.7435897435903,4479.48717948718,4381.025641025642,4244.102564102564,4551.282051282052,4411.794871794872,4396.410256410257,4362.564102564103,4697.435897435898,4347.179487179487,4234.871794871796,4164.102564102564,4452.307692307693
746.91534,0.16286144,0.38391805,0.3097714,0.75957245,0,0.0,0.0,0.0,0.0,0.0,0,0,0.0,0.0,0,0,45.0,0.0,0.0,4615.384615384616,3873.8461538461543,4481.538461538462,4365.641025641026,4242.051282051282,4549.2307692307695,4415.8974358974365,4399.48717948718,4363.589743589744,4707.179487179488,4349.2307692307695,4235.384615384616,4157.435897435898,4451.794871794872
747.1655,0.14874329,0.3936881,0.29960725,0.7564766,0,0.0,0.0,0.0,0.0,0.0,0,0,0.0,0.0,0,0,77.0,0.0,655.0,4638.974358974359,3882.0512820512827,4476.923076923077,4373.846153846154,4236.410256410257,4546.666666666667,4411.794871794872,4381.025641025642,4353.333333333334,4688.205128205129,4326.153846153847,4227.179487179487,4143.589743589744,4437.948717948719
747.1655,0.14874329,0.3936881,0.29960725,0.7564766,0,0.0,0.0,0.0,0.0,0.0,0,0,0.0,0.0,0,0,77.0,0.0,655.0,4638.974358974359,3882.0512820512827,4476.923076923077,4373.846153846154,4236.410256410257,4546.666666666667,4411.794871794872,4381.025641025642,4353.333333333334,4688.205128205129,4326.153846153847,4227.179487179487,4143.589743589744,4437.948717948719
747.66595,0.114479624,0.4059692,0.29046106,0.7641153,0,0.0,0.0,0.0,0.0,0.0,0,0,0.0,0.0,0,0,12.0,0.0,553.0,4655.8974358974365,3883.076923076924,4458.974358974359,4369.743589743591,4228.717948717949,4541.025641025642,4411.794871794872,4394.358974358975,4357.948717948719,4682.564102564103,4310.769230769231,4227.6923076923085,4124.615384615385,4429.743589743591
747.66595,0.114479624,0.4059692,0.29046106,0.7641153,0,0.0,0.0,0.0,0.0,0.0,0,0,0.0,0.0,0,0,12.0,0.0,553.0,4655.8974358974365,3883.076923076924,4458.974358974359,4369.743589743591,4228.717948717949,4541.025641025642,4411.794871794872,4394.358974358975,4357.948717948719,4682.564102564103,4310.769230769231,4227.6923076923085,4124.615384615385,4429.743589743591
748.1664,0.08513255,0.39202422,0.28107217,0.7811724,0,0.0,0.0,0.0,0.0,0.0,0,0,0.0,0.0,0,0,76.0,0.0,553.0,4651.282051282052,3869.2307692307695,4467.179487179487,4380.512820512821,4211.794871794872,4528.205128205129,4412.820512820514,4416.410256410257,4368.205128205129,4693.846153846154,4334.358974358975,4239.48717948718,4165.128205128206,4457.435897435898
748.1664,0.08513255,0.39202422,0.28107217,0.7811724,0,0.0,0.0,0.0,0.0,0.0,0,0,0.0,0.0,0,0,76.0,0.0,553.0,4651.282051282052,3869.2307692307695,4467.179487179487,4380.512820512821,4211.794871794872,4528.205128205129,4412.820512820514,4416.410256410257,4368.205128205129,4693.846153846154,4334.358974358975,4239.48717948718,4165.128205128206,4457.435897435898
748.7841,0.036293577,0.3894234,0.27279934,0.7964502,0,0.0,0.0,0.0,0.0,0.08846449,0,0,0.0,0.0,0,0,27.0,0.0,0.0,4684.102564102564,3897.9487179487182,4486.666666666667,4426.666666666667,4213.333333333334,4526.153846153847,4422.051282051282,4424.615384615385,4373.333333333334,4681.538461538462,4351.794871794872,4258.461538461539,4165.128205128206,4477.435897435898
748.90924,0.036293577,0.3894234,0.27279934,0.7964502,0,0.0,0.0,0.0,0.0,0.0,0,0,0.0,0.0,0,0,43.0,0.0,0.0,4684.102564102564,3900.5128205128212,4486.153846153847,4429.2307692307695,4214.358974358975,4522.564102564103,4410.256410256411,4396.923076923077,4363.589743589744,4687.6923076923085,4342.564102564103,4252.820512820514,4153.846153846154,4470.769230769231
749.1594,0.05009448,0.3940182,0.26794726,0.810122,0,0.0,0.0,0.0,0.0,0.0,0,0,0.0,0.0,0,0,75.0,0.0,447.0,4676.923076923077,3908.717948717949,4480.512820512821,4442.051282051282,4222.564102564103,4532.307692307693,4416.410256410257,4406.666666666667,4380.512820512821,4703.589743589744,4352.307692307693,4267.179487179487,4171.282051282052,4481.538461538462
749.1594,0.05009448,0.3940182,0.26794726,0.810122,0,0.0,0.0,0.0,0.0,0.0,0,0,0.0,0.0,0,0,75.0,0.0,447.0,4676.923076923077,3908.717948717949,4480.512820512821,4442.051282051282,4222.564102564103,4532.307692307693,4416.410256410257,4406.666666666667,4380.512820512821,4703.589743589744,4352.307692307693,4267.179487179487,4171.282051282052,4481.538461538462
749.65985,0.04028158,0.41740587,0.26589984,0.8211931,0,0.0,0.0,0.0,0.0,0.0,0,0,0.0,0.0,0,0,10.0,0.0,532.0,4657.435897435898,3916.9230769230776,4485.128205128206,4457.948717948719,4238.974358974359,4548.205128205129,4440.512820512821,4417.435897435898,4376.923076923077,4690.769230769231,4318.974358974359,4258.461538461539,4109.2307692307695,4454.871794871796
749.65985,0.04028158,0.41740587,0.26589984,0.8211931,0,0.0,0.0,0.0,0.0,0.0,0,0,0.0,0.0,0,0,10.0,0.0,532.0,4657.435897435898,3916.9230769230776,4485.128205128206,4457.948717948719,4238.974358974359,4548.205128205129,4440.512820512821,4417.435897435898,4376.923076923077,4690.769230769231,4318.974358974359,4258.461538461539,4109.2307692307695,4454.871794871796
750.1603,0.07865233,0.43759426,0.26562235,0.8278473,0,0.0,0.0,0.0,0.0,0.0,0,0,0.0,0.0,0,0,74.0,0.0,532.0,4670.256410256411,3936.9230769230776,4495.384615384616,4465.128205128206,4251.794871794872,4554.871794871796,4447.6923076923085,4431.794871794872,4390.769230769231,4691.794871794872,4333.846153846154,4280.512820512821,4150.769230769231,4481.025641025642
750.1603,0.07865233,0.43759426,0.26562235,0.8278473,0,0.0,0.0,0.0,0.0,0.0,0,0,0.0,0.0,0,0,74.0,0.0,532.0,4670.256410256411,3936.9230769230776,4495.384615384616,4465.128205128206,4251.794871794872,4554.871794871796,4447.6923076923085,4431.794871794872,4390.769230769231,4691.794871794872,4333.846153846154,4280.512820512821,4150.769230769231,4481.025641025642
750.6607,0.12757857,0.43466783,0.26537538,0.82056344,0,0.0,0.0,0.0,0.0,0.0,0,0,0.0,0.0,0,0,9.0,0.0,472.0,4675.384615384616,3937.9487179487182,4505.128205128206,4477.435897435898,4259.48717948718,4562.564102564103,4443.076923076924,4436.923076923077,4398.461538461539,4709.2307692307695,4356.923076923077,4296.923076923077,4166.153846153847,4498.974358974359
750.6607,0.12757857,0.43466783,0.26537538,0.82056344,0,0.0,0.0,0.0,0.0,0.0,0,0,0.0,0.0,0,0,9.0,0.0,472.0,4675.384615384616,3937.9487179487182,4505.128205128206,4477.435897435898,4259.48717948718,4562.564102564103,4443.076923076924,4436.923076923077,4398.461538461539,4709.2307692307695,4356.923076923077,4296.923076923077,4166.153846153847,4498.974358974359
751.16113,0.21379155,0.41601998,0.26515588,0.8139983,0,0.0,0.0,0.0,0.0,0.0,0,0,0.0,0.0,0,0,73.0,0.0,472.0,4647.179487179488,3930.2564102564106,4502.564102564103,4470.769230769231,4253.846153846154,4552.307692307693,4441.025641025642,4434.871794871796,4406.153846153847,4722.051282051282,4376.923076923077,4296.923076923077,4175.8974358974365,4509.2307692307695
751.56775,0.21379155,0.41601998,0.26515588,0.8139983,0,0.0,0.0,0.0,0.0,0.0,0,0,0.0,0.0,0,0,125.0,0.0,672.0,4647.179487179488,3933.8461538461543,4508.717948717949,4470.256410256411,4256.410256410257,4554.871794871796,4445.641025641026,4463.076923076924,4404.615384615385,4728.205128205129,4376.923076923077,4307.179487179487,4176.410256410257,4523.589743589744
751.66156,0.23157625,0.39470047,0.26496115,0.80807835,0,0.0,0.0,0.0,0.0,0.0,0,0,0.0,0.0,0,0,8.0,0.0,429.0,4634.358974358975,3932.820512820513,4495.384615384616,4465.641025641026,4258.974358974359,4562.051282051282,4438.974358974359,4449.743589743591,4395.8974358974365,4709.743589743591,4348.205128205129,4294.358974358975,4145.641025641026,4503.589743589744
751.66156,0.23157625,0.39470047,0.26496115,0.80807835,0,0.0,0.0,0.0,0.0,0.0,0,0,0.0,0.0,0,0,8.0,0.0,429.0,4634.358974358975,3932.820512820513,4495.384615384616,4465.641025641026,4258.974358974359,4562.051282051282,4438.974358974359,4449.743589743591,4395.8974358974365,4709.743589743591,4348.205128205129,4294.358974358975,4145.641025641026,4503.589743589744
752.2871,0.24562179,0.4138918,0.2631992,0.790619,0,0.0,0.0,0.0,0.0,0.088533536,0,0,0.0,0.0,0,0,88.0,0.0,553.0,4638.461538461539,3910.7692307692314,4504.102564102564,4449.2307692307695,4261.025641025642,4569.2307692307695,4475.384615384616,4471.282051282052,4411.794871794872,4761.538461538462,4428.717948717949,4315.384615384616,4194.871794871796,4530.769230769231
752.53735,0.24562179,0.4138918,0.2631992,0.790619,0,0.0,0.0,0.0,0.0,0.074900165,0,0,0.0,0.0,0,0,120.0,0.0,553.0,4664.102564102564,3929.7435897435903,4517.948717948719,4461.025641025642,4258.974358974359,4572.307692307693,4472.820512820514,4479.48717948718,4417.948717948719,4771.794871794872,4437.948717948719,4330.769230769231,4215.384615384616,4549.2307692307695
752.78754,0.28740704,0.43164533,0.2647994,0.78023005,0,0.0,0.0,0.0,0.0,0.0,0,0,0.0,0.0,0,0,23.0,0.0,0.0,4656.410256410257,3922.564102564103,4503.076923076924,4462.564102564103,4242.564102564103,4560.000000000001,4454.871794871796,4446.666666666667,4407.6923076923085,4753.333333333334,4404.615384615385,4304.102564102564,4202.051282051282,4525.641025641026
752.78754,0.28740704,0.43164533,0.2647994,0.78023005,0,0.0,0.0,0.0,0.0,0.0,0,0,0.0,0.0,0,0,23.0,0.0,0.0,4656.410256410257,3922.564102564103,4503.076923076924,4462.564102564103,4242.564102564103,4560.000000000001,4454.871794871796,4446.666666666667,4407.6923076923085,4753.333333333334,4404.615384615385,4304.102564102564,4202.051282051282,4525.641025641026
753.1629,0.30389863,0.445233,0.26920122,0.78751785,0,0.0,0.0,0.0,0.0,0.0,0,0,0.0,0.0,0,0,71.0,0.0,474.0,4663.589743589744,3930.7692307692314,4509.2307692307695,4474.871794871796,4251.282051282052,4562.051282051282,4467.179487179487,4441.538461538462,4409.743589743591,4770.769230769231,4398.461538461539,4311.794871794872,4199.48717948718,4528.205128205129
753.1629,0.30389863,0.445233,0.26920122,0.78751785,0,0.0,0.0,0.0,0.0,0.0,0,0,0.0,0.0,0,0,71.0,0.0,474.0,4663.589743589744,3930.7692307692314,4509.2307692307695,4474.871794871796,4251.282051282052,4562.051282051282,4467.179487179487,4441.538461538462,4409.743589743591,4770.769230769231,4398.461538461539,4311.794871794872,4199.48717948718,4528.205128205129
753.6633,0.3210277,0.41866285,0.26678,0.80771905,0,0.0,0.0,0.0,0.0,0.0,0,0,0.0,0.0,0,0,6.0,0.0,539.0,4623.589743589744,3899.48717948718,4481.538461538462,4429.2307692307695,4239.48717948718,4545.641025641026,4426.153846153847,4408.205128205129,4388.205128205129,4683.076923076924,4333.333333333334,4263.589743589744,4162.564102564103,4494.358974358975
753.6633,0.3210277,0.41866285,0.26678,0.80771905,0,0.0,0.0,0.0,0.0,0.0,0,0,0.0,0.0,0,0,6.0,0.0,539.0,4623.589743589744,3899.48717948718,4481.538461538462,4429.2307692307695,4239.48717948718,4545.641025641026,4426.153846153847,4408.205128205129,4388.205128205129,4683.076923076924,4333.333333333334,4263.589743589744,4162.564102564103,4494.358974358975
754.16376,0.30754918,0.3852197,0.26259893,0.82566476,0,0.0,0.0,0.0,0.0,0.0,0,0,0.0,0.0,0,0,70.0,0.0,539.0,4636.923076923077,3931.7948717948725,4495.8974358974365,4443.589743589744,4238.974358974359,4548.717948717949,4430.256410256411,4423.076923076924,4397.435897435898,4721.538461538462,4369.743589743591,4284.102564102564,4191.794871794872,4509.743589743591
754.16376,0.30754918,0.3852197,0.26259893,0.82566476,0,0.0,0.0,0.0,0.0,0.0,0,0,0.0,0.0,0,0,70.0,0.0,539.0,4636.923076923077,3931.7948717948725,4495.8974358974365,4443.589743589744,4238.974358974359,4548.717948717949,4430.256410256411,4423.076923076924,4397.435897435898,4721.538461538462,4369.743589743591,4284.102564102564,4191.794871794872,4509.743589743591
754.6642,0.25057557,0.3589781,0.25883913,0.8348048,0,0.0,0.0,0.0,0.0,0.0,0,0,0.0,0.0,0,0,5.0,0.0,546.0,4640.000000000001,3921.0256410256416,4492.820512820514,4435.384615384616,4255.384615384616,4565.641025641026,4424.102564102564,4416.410256410257,4394.358974358975,4730.256410256411,4349.2307692307695,4276.923076923077,4179.48717948718,4491.794871794872
754.6642,0.25057557,0.3589781,0.25883913,0.8348048,0,0.0,0.0,0.0,0.0,0.0,0,0,0.0,0.0,0,0,5.0,0.0,546.0,4640.000000000001,3921.0256410256416,4492.820512820514,4435.384615384616,4255.384615384616,4565.641025641026,4424.102564102564,4416.410256410257,4394.358974358975,4730.256410256411,4349.2307692307695,4276.923076923077,4179.48717948718,4491.794871794872
755.1646,0.17859711,0.34250635,0.25523868,0.842951,0,0.0,0.0,0.0,0.0,0.0,0,0,0.0,0.0,0,0,69.0,0.0,546.0,4603.589743589744,3920.0000000000005,4459.48717948718,4406.666666666667,4261.538461538462,4558.974358974359,4402.051282051282,4382.564102564103,4373.846153846154,4727.6923076923085,4325.641025641026,4252.307692307693,4165.641025641026,4464.615384615385
755.1646,0.17859711,0.34250635,0.25523868,0.842951,0,0.0,0.0,0.0,0.0,0.0,0,0,0.0,0.0,0,0,69.0,0.0,546.0,4603.589743589744,3920.0000000000005,4459.48717948718,4406.666666666667,4261.538461538462,4558.974358974359,4402.051282051282,4382.564102564103,4373.846153846154,4727.6923076923085,4325.641025641026,4252.307692307693,4165.641025641026,4464.615384615385
755.66504,0.12381634,0.3270882,0.2514815,0.8502019,0,0.0,0.0,0.0,0.0,0.0,0,0,0.0,0.0,0,0,4.0,0.0,550.0,4578.974358974359,3935.3846153846157,4455.384615384616,4380.512820512821,4276.923076923077,4560.512820512821,4384.615384615385,4355.384615384616,4360.000000000001,4735.8974358974365,4332.820512820514,4244.102564102564,4180.000000000001,4441.538461538462
755.66504,0.12381634,0.3270882,0.2514815,0.8502019,0,0.0,0.0,0.0,0.0,0.0,0,0,0.0,0.0,0,0,4.0,0.0,550.0,4578.974358974359,3935.3846153846157,4455.384615384616,4380.512820512821,4276.923076923077,4560.512820512821,4384.615384615385,4355.384615384616,4360.000000000001,4735.8974358974365,4332.820512820514,4244.102564102564,4180.000000000001,4441.538461538462
756.2906,0.06849465,0.3162861,0.24412395,0.85293734,1,0.0,0.0,0.3498778,0.0,0.0,0,0,0.0,0.0,0,0,84.0,0.0,553.0,4605.128205128206,3904.615384615385,4456.410256410257,4356.923076923077,4271.282051282052,4555.384615384616,4356.410256410257,4348.205128205129,4347.179487179487,4700.512820512821,4336.410256410257,4230.256410256411,4212.307692307693,4450.256410256411
756.5408,0.06849465,0.3162861,0.24412395,0.85293734,0,0.0,0.0,0.6314332,0.0,0.0,0,0,0.0,0.0,0,0,116.0,0.0,553.0,4544.102564102564,3855.8974358974365,4430.256410256411,4372.820512820514,4268.717948717949,4564.102564102564,4316.923076923077,4306.153846153847,4325.128205128206,4673.333333333334,4275.8974358974365,4182.564102564103,4131.794871794872,4397.435897435898
756.791,0.19572118,0.30646497,0.23572618,0.8518115,0,0.0,0.0,0.35413483,0.0,0.0,0,0,0.0,0.0,0,0,19.0,0.0,0.0,4539.48717948718,3848.205128205129,4433.333333333334,4412.307692307693,4267.6923076923085,4573.333333333334,4323.076923076924,4308.205128205129,4334.358974358975,4637.435897435898,4268.205128205129,4175.8974358974365,4106.666666666667,4404.102564102564
757.0412,0.19572118,0.30646497,0.23572618,0.8518115,0,0.0,0.0,0.0,0.0,0.0,0,0,0.0,0.0,0,0,51.0,0.0,0.0,4556.923076923077,3858.461538461539,4449.743589743591,4474.871794871796,4244.102564102564,4563.589743589744,4325.128205128206,4330.256410256411,4349.2307692307695,4643.076923076924,4290.256410256411,4196.410256410257,4094.358974358975,4428.205128205129
757.1663,0.24202895,0.29762596,0.23035848,0.85075545,0,0.0,0.0,0.0,0.0,0.0,0,0,0.0,0.0,0,0,67.0,0.0,532.0,4533.333333333334,3813.8461538461543,4414.871794871796,4434.358974358975,4256.410256410257,4577.435897435898,4314.871794871796,4300.512820512821,4314.358974358975,4581.025641025642,4228.205128205129,4153.333333333334,4031.7948717948725,4396.410256410257
757.5416,0.24202895,0.29762596,0.23035848,0.85075545,0,0.0,0.0,0.118173346,0.0,0.0,0,0,0.0,0.0,0,0,115.0,0.0,447.0,4567.6923076923085,3844.1025641025644,4453.846153846154,4455.384615384616,4248.717948717949,4575.8974358974365,4347.6923076923085,4331.794871794872,4345.128205128206,4619.48717948718,4265.641025641026,4195.384615384616,4056.9230769230776,4445.128205128206
757.7919,0.30558205,0.28967085,0.2281576,0.849764,0,0.0,0.0,0.19488302,0.0,0.0,0,0,0.0,0.0,0,0,18.0,0.0,0.0,4634.358974358975,3908.717948717949,4486.666666666667,4475.384615384616,4229.74358974359,4559.48717948718,4358.461538461539,4332.820512820514,4344.102564102564,4584.615384615385,4316.923076923077,4220.512820512821,4096.923076923077,4511.282051282052
758.0108,0.30558205,0.28967085,0.2281576,0.849764,0,0.0,0.0,0.0,0.0,0.0,0,0,0.0,0.0,0,0,46.0,0.0,0.0,4581.538461538462,3854.8717948717954,4465.128205128206,4443.589743589744,4240.000000000001,4569.2307692307695,4372.820512820514,4364.615384615385,4351.282051282052,4627.6923076923085,4294.871794871796,4199.48717948718,4062.0512820512827,4473.846153846154
758.1672,0.3362598,0.28251126,0.22798038,0.85714173,0,0.0,0.0,0.0,0.0,0.0,0,0,0.0,0.0,0,0,66.0,0.0,447.0,4601.025641025642,3870.2564102564106,4484.102564102564,4464.615384615385,4255.8974358974365,4581.025641025642,4399.48717948718,4391.794871794872,4360.512820512821,4645.128205128206,4309.743589743591,4224.102564102564,4088.717948717949,4492.307692307693
758.1672,0.3362598,0.28251126,0.22798038,0.85714173,0,0.0,0.0,0.0,0.0,0.0,0,0,0.0,0.0,0,0,66.0,0.0,447.0,4601.025641025642,3870.2564102564106,4484.102564102564,4464.615384615385,4255.8974358974365,4581.025641025642,4399.48717948718,4391.794871794872,4360.512820512821,4645.128205128206,4309.743589743591,4224.102564102564,4088.717948717949,4492.307692307693
758.6676,0.36944,0.34251508,0.22965261,0.8688393,0,0.0,0.0,0.0,0.0,0.0,0,0,0.0,0.0,0,0,1.0,0.0,482.0,4603.076923076924,3871.7948717948725,4466.666666666667,4432.820512820514,4238.974358974359,4559.48717948718,4396.410256410257,4402.051282051282,4356.923076923077,4635.8974358974365,4308.717948717949,4206.153846153847,4091.7948717948725,4492.820512820514
758.6676,0.36944,0.34251508,0.22965261,0.8688393,0,0.0,0.0,0.0,0.0,0.0,0,0,0.0,0.0,0,0,1.0,0.0,482.0,4603.076923076924,3871.7948717948725,4466.666666666667,4432.820512820514,4238.974358974359,4559.48717948718,4396.410256410257,4402.051282051282,4356.923076923077,4635.8974358974365,4308.717948717949,4206.153846153847,4091.7948717948725,4492.820512820514
759.168,0.41948074,0.37382743,0.23574728,0.87925,0,0.0,0.0,0.0,0.0,0.0,0,0,0.0,0.0,0,0,65.0,0.0,482.0,4636.410256410257,3905.6410256410263,4485.641025641026,4470.769230769231,4239.48717948718,4558.461538461539,4424.102564102564,4405.641025641026,4368.717948717949,4685.641025641026,4346.666666666667,4244.102564102564,4132.820512820514,4519.48717948718
759.168,0.41948074,0.37382743,0.23574728,0.87925,0,0.0,0.0,0.0,0.0,0.0,0,0,0.0,0.0,0,0,65.0,0.0,482.0,4636.410256410257,3905.6410256410263,4485.641025641026,4470.769230769231,4239.48717948718,4558.461538461539,4424.102564102564,4405.641025641026,4368.717948717949,4685.641025641026,4346.666666666667,4244.102564102564,4132.820512820514,4519.48717948718
759.66846,0.45907533,0.40220082,0.24123588,0.8885009,0,0.0,0.0,0.0,0.0,0.0,0,0,0.0,0.0,0,0,0.0,0.0,489.0,4654.871794871796,3926.1538461538466,4504.615384615385,4481.025641025642,4234.358974358975,4551.282051282052,4440.000000000001,4444.615384615385,4392.820512820514,4729.743589743591,4397.948717948719,4284.615384615385,4176.923076923077,4555.384615384616
759.66846,0.45907533,0.40220082,0.24123588,0.8885009,0,0.0,0.0,0.0,0.0,0.0,0,0,0.0,0.0,0,0,0.0,0.0,489.0,4654.871794871796,3926.1538461538466,4504.615384615385,4481.025641025642,4234.358974358975,4551.282051282052,4440.000000000001,4444.615384615385,4392.820512820514,4729.743589743591,4397.948717948719,4284.615384615385,4176.923076923077,4555.384615384616
760.23145,0.501568,0.40547675,0.24706607,0.8883684,1,0.0,0.0,0.0,0.0,0.0,0,0,0.0,0.0,0,0,72.0,0.0,429.0,4681.025641025642,3941.538461538462,4528.717948717949,4514.871794871796,4222.564102564103,4543.589743589744,4442.564102564103,4442.564102564103,4391.282051282052,4727.179487179488,4404.615384615385,4289.74358974359,4187.179487179487,4577.948717948719
760.54425,0.501568,0.40547675,0.24706607,0.8883684,0,0.0,0.0,0.0,0.0,0.055253666,0,0,0.0,0.0,0,0,112.0,0.0,553.0,4649.2307692307695,3924.615384615385,4511.282051282052,4496.923076923077,4228.717948717949,4545.128205128206,4453.846153846154,4445.641025641026,4391.282051282052,4712.307692307693,4376.410256410257,4277.435897435898,4161.538461538462,4544.102564102564
760.79443,0.5359039,0.42016324,0.2523163,0.8871254,0,0.0,0.0,0.0,0.0,0.039378144,0,0,0.0,0.0,0,0,15.0,0.0,446.0,4659.48717948718,3944.615384615385,4522.051282051282,4505.641025641026,4236.923076923077,4548.717948717949,4474.358974358975,4470.256410256411,4407.179487179487,4737.435897435898,4402.564102564103,4301.538461538462,4186.153846153847,4565.641025641026
760.91956,0.5359039,0.42016324,0.2523163,0.8871254,0,0.0,0.0,0.0,0.0,0.0,0,0,0.0,0.0,0,0,31.0,0.0,0.0,4667.6923076923085,3940.5128205128212,4531.794871794872,4493.333333333334,4234.871794871796,4545.641025641026,4475.384615384616,4459.48717948718,4404.615384615385,4720.000000000001,4382.051282051282,4296.923076923077,4179.48717948718,4557.435897435898
761.16974,0.49694082,0.42375222,0.2550887,0.8784434,0,0.0,0.0,0.0,0.0,0.0,0,0,0.0,0.0,0,0,63.0,0.0,0.0,4658.461538461539,3930.7692307692314,4509.2307692307695,4469.2307692307695,4239.48717948718,4548.717948717949,4485.128205128206,4469.2307692307695,4414.358974358975,4745.128205128206,4372.820512820514,4293.846153846154,4184.615384615385,4549.743589743591
761.16974,0.49694082,0.42375222,0.2550887,0.8784434,0,0.0,0.0,0.0,0.0,0.0,0,0,0.0,0.0,0,0,63.0,0.0,0.0,4658.461538461539,3930.7692307692314,4509.2307692307695,4469.2307692307695,4239.48717948718,4548.717948717949,4485.128205128206,4469.2307692307695,4414.358974358975,4745.128205128206,4372.820512820514,4293.846153846154,4184.615384615385,4549.743589743591
761.67017,0.5094262,0.40422824,0.25504497,0.8706162,0,0.0,0.0,0.0,0.0,0.0,0,0,0.0,0.0,0,0,127.0,0.0,446.0,4670.769230769231,3936.9230769230776,4522.564102564103,4458.974358974359,4262.051282051282,4527.6923076923085,4469.743589743591,4457.435897435898,4409.743589743591,4752.820512820514,4374.871794871796,4298.974358974359,4196.410256410257,4543.589743589744
761.67017,0.5094262,0.40422824,0.25504497,0.8706162,0,0.0,0.0,0.0,0.0,0.0,0,0,0.0,0.0,0,0,127.0,0.0,446.0,4670.769230769231,3936.9230769230776,4522.564102564103,4458.974358974359,4262.051282051282,4527.6923076923085,4469.743589743591,4457.435897435898,4409.743589743591,4752.820512820514,4374.871794871796,4298.974358974359,4196.410256410257,4543.589743589744
762.2957,0.5216803,0.4033673,0.25297958,0.86129975,0,0.0,0.0,0.0,0.0,0.0,0,0,0.32198256,0.0,0,0,78.0,0.0,532.0,4667.6923076923085,3935.8974358974365,4518.974358974359,4455.8974358974365,4245.641025641026,4543.589743589744,4458.461538461539,4463.589743589744,4415.8974358974365,4735.384615384616,4356.923076923077,4292.820512820514,4193.333333333334,4536.410256410257
762.54596,0.5216803,0.4033673,0.25297958,0.86129975,0,0.0,0.0,0.0,0.0,0.0,0,0,0.3564575,0.0,0,0,110.0,0.0,532.0,4672.307692307693,3942.564102564103,4529.2307692307695,4464.615384615385,4243.076923076924,4545.128205128206,4466.153846153847,4464.615384615385,4418.974358974359,4753.846153846154,4365.641025641026,4300.512820512821,4203.076923076924,4556.410256410257
762.671,0.5048747,0.39499456,0.25315416,0.8529077,0,0.0,0.0,0.0,0.0,0.0,0,0,0.0,0.0,0,0,126.0,0.0,532.0,4676.410256410257,3947.1794871794878,4529.743589743591,4467.6923076923085,4244.615384615385,4551.794871794872,4472.307692307693,4464.615384615385,4420.512820512821,4735.8974358974365,4370.256410256411,4301.538461538462,4198.974358974359,4564.615384615385
762.671,0.5048747,0.39499456,0.25315416,0.8529077,0,0.0,0.0,0.0,0.0,0.0,0,0,0.0,0.0,0,0,126.0,0.0,532.0,4676.410256410257,3947.1794871794878,4529.743589743591,4467.6923076923085,4244.615384615385,4551.794871794872,4472.307692307693,4464.615384615385,4420.512820512821,4735.8974358974365,4370.256410256411,4301.538461538462,4198.974358974359,4564.615384615385
763.2966,0.5003851,0.38928849,0.25331452,0.8447009,1,0.0,0.0,0.0,0.0,0.0,0,0,0.0,0.0,0,0,77.0,0.0,675.0,4648.717948717949,3957.9487179487182,4509.743589743591,4395.8974358974365,4258.461538461539,4556.923076923077,4456.923076923077,4462.051282051282,4408.717948717949,4735.384615384616,4335.8974358974365,4275.384615384616,4202.564102564103,4561.025641025642
763.5468,0.5003851,0.38928849,0.25331452,0.8447009,0,0.0,0.0,0.2121493,0.0,0.0,0,0,0.0,0.0,0,0,109.0,0.0,675.0,4611.794871794872,3949.2307692307695,4497.948717948719,4404.102564102564,4274.871794871796,4566.666666666667,4451.282051282052,4468.717948717949,4411.794871794872,4768.205128205129,4295.384615384616,4268.717948717949,4187.6923076923085,4539.48717948718
763.797,0.4217037,0.3933958,0.2551913,0.8328072,0,0.0,0.0,0.25113052,0.0,0.0,0,0,0.0,0.0,0,0,12.0,0.0,553.0,4602.564102564103,3974.8717948717954,4490.769230769231,4411.282051282052,4286.153846153847,4575.8974358974365,4441.025641025642,4455.384615384616,4397.948717948719,4798.974358974359,4289.2307692307695,4273.846153846154,4227.179487179487,4544.102564102564
764.04724,0.4217037,0.3933958,0.2551913,0.8328072,0,0.0,0.0,0.07008671,0.0,0.0,0,0,0.0,0.0,0,0,44.0,0.0,0.0,4617.435897435898,3986.666666666667,4487.179487179488,4452.820512820514,4291.794871794872,4576.923076923077,4433.333333333334,4441.025641025642,4402.051282051282,4807.6923076923085,4293.333333333334,4280.512820512821,4242.564102564103,4539.48717948718
764.2974,0.3885389,0.38064945,0.25592023,0.8221091,0,0.0,0.0,0.12011261,0.0,0.0,0,0,0.0,0.0,0,0,76.0,0.0,553.0,4637.948717948719,4008.717948717949,4502.051282051282,4471.282051282052,4285.128205128206,4564.102564102564,4440.512820512821,4424.615384615385,4391.794871794872,4773.846153846154,4280.512820512821,4271.794871794872,4209.2307692307695,4538.974358974359
764.54767,0.3885389,0.38064945,0.25592023,0.8221091,0,0.0,0.0,0.0,0.0,0.0,0,0,0.0,0.5678445,0,0,108.0,0.0,553.0,4654.358974358975,3992.307692307693,4508.205128205129,4452.820512820514,4255.8974358974365,4546.153846153847,4445.641025641026,4419.48717948718,4393.846153846154,4767.179487179488,4295.8974358974365,4271.794871794872,4217.435897435898,4536.923076923077
764.79785,0.38794622,0.36895195,0.2574466,0.8124832,0,0.0,0.0,0.0,0.0,0.0,0,0,0.0,0.0,0,0,11.0,0.0,446.0,4649.2307692307695,3975.3846153846157,4506.153846153847,4438.974358974359,4249.2307692307695,4547.179487179488,4476.410256410257,4449.2307692307695,4409.2307692307695,4755.384615384616,4291.282051282052,4273.846153846154,4204.615384615385,4544.102564102564
764.79785,0.38794622,0.36895195,0.2574466,0.8124832,0,0.0,0.0,0.0,0.0,0.0,0,0,0.0,0.0,0,0,11.0,0.0,446.0,4649.2307692307695,3975.3846153846157,4506.153846153847,4438.974358974359,4249.2307692307695,4547.179487179488,4476.410256410257,4449.2307692307695,4409.2307692307695,4755.384615384616,4291.282051282052,4273.846153846154,4204.615384615385,4544.102564102564
765.2983,0.29844093,0.3601091,0.25927675,0.813341,0,0.0,0.0,0.0,0.0,0.04339091,0,0,0.0,0.0,0,0,75.0,0.0,446.0,4691.282051282052,3976.410256410257,4516.410256410257,4469.2307692307695,4237.948717948719,4540.512820512821,4472.820512820514,4452.820512820514,4425.641025641026,4766.666666666667,4329.2307692307695,4287.179487179487,4210.256410256411,4572.307692307693
765.5485,0.29844093,0.3601091,0.25927675,0.813341,0,0.0,0.0,0.60677963,0.0,0.0,0,0,0.0,0.0,0,0,107.0,0.0,446.0,4732.820512820514,3989.7435897435903,4552.820512820514,4528.205128205129,4204.102564102564,4530.256410256411,4498.461538461539,4496.410256410257,4433.333333333334,4785.128205128206,4384.615384615385,4323.076923076924,4240.512820512821,4620.000000000001
765.79877,0.35701197,0.35432905,0.26060537,0.8240235,0,0.0,0.0,0.0,0.0,0.0,0,0,0.0,0.0,0,0,10.0,0.0,532.0,4701.025641025642,3952.307692307693,4527.179487179488,4491.282051282052,4215.384615384616,4540.512820512821,4500.512820512821,4514.871794871796,4436.410256410257,4780.512820512821,4339.48717948718,4306.153846153847,4202.051282051282,4593.333333333334
765.79877,0.35701197,0.35432905,0.26060537,0.8240235,0,0.0,0.0,0.0,0.0,0.0,0,0,0.0,0.0,0,0,10.0,0.0,532.0,4701.025641025642,3952.307692307693,4527.179487179488,4491.282051282052,4215.384615384616,4540.512820512821,4500.512820512821,4514.871794871796,4436.410256410257,4780.512820512821,4339.48717948718,4306.153846153847,4202.051282051282,4593.333333333334
766.1741,0.40958598,0.35398948,0.26048192,0.8335596,0,0.0,0.0,0.0,0.0,0.0,0,0,0.0,0.0,0,0,58.0,0.0,0.0,4673.333333333334,3922.0512820512827,4506.153846153847,4443.076923076924,4241.538461538462,4545.641025641026,4474.871794871796,4470.769230769231,4420.512820512821,4713.846153846154,4295.384615384616,4264.102564102564,4169.2307692307695,4580.000000000001
766.1741,0.40958598,0.35398948,0.26048192,0.8335596,0,0.0,0.0,0.0,0.0,0.0,0,0,0.0,0.0,0,0,58.0,0.0,0.0,4673.333333333334,3922.0512820512827,4506.153846153847,4443.076923076924,4241.538461538462,4545.641025641026,4474.871794871796,4470.769230769231,4420.512820512821,4713.846153846154,4295.384615384616,4264.102564102564,4169.2307692307695,4580.000000000001
766.7996,0.3718193,0.3647947,0.2592698,0.8420624,0,0.0,0.0,0.2290079,0.0,0.0,0,0,0.0,0.0,0,0,9.0,0.0,466.0,4645.641025641026,3904.1025641025644,4495.8974358974365,4417.948717948719,4243.076923076924,4550.256410256411,4483.589743589744,4471.794871794872,4403.589743589744,4745.641025641026,4268.205128205129,4263.076923076924,4176.410256410257,4551.794871794872
767.0498,0.3718193,0.3647947,0.2592698,0.8420624,0,0.0,0.0,0.35694093,0.0,0.0,0,0,0.0,0.0,0,0,41.0,0.0,0.0,4638.974358974359,3941.0256410256416,4497.435897435898,4445.641025641026,4245.641025641026,4551.794871794872,4458.974358974359,4444.615384615385,4387.179487179487,4765.641025641026,4263.589743589744,4257.435897435898,4190.769230769231,4560.512820512821
767.30005,0.2889346,0.37322286,0.25905076,0.8437053,0,0.0,0.0,0.0,0.0,0.0,0,0,0.0,0.0,0,0,73.0,0.0,467.0,4601.025641025642,3943.076923076924,4463.076923076924,4437.435897435898,4257.435897435898,4541.025641025642,4445.641025641026,4422.051282051282,4364.102564102564,4765.128205128206,4229.2307692307695,4220.512820512821,4172.820512820514,4483.589743589744
767.55023,0.2889346,0.37322286,0.25905076,0.8437053,0,0.0,0.0,0.0,0.0,0.19413584,0,0,0.0,0.0,0,0,105.0,0.0,685.0,4605.128205128206,3960.5128205128212,4460.512820512821,4413.333333333334,4295.384615384616,4531.282051282052,4406.666666666667,4407.179487179487,4360.512820512821,4774.871794871796,4242.564102564103,4219.48717948718,4198.974358974359,4456.410256410257
767.8005,0.29657128,0.3654023,0.2590481,0.8386685,0,0.0,0.0,0.0,0.0,0.0,0,0,0.0,0.0,0,0,8.0,0.0,427.0,4631.282051282052,3990.7692307692314,4480.000000000001,4437.435897435898,4268.205128205129,4530.256410256411,4437.948717948719,4412.307692307693,4356.923076923077,4781.025641025642,4251.794871794872,4230.769230769231,4229.74358974359,4460.512820512821
767.8005,0.29657128,0.3654023,0.2590481,0.8386685,0,0.0,0.0,0.0,0.0,0.0,0,0,0.0,0.0,0,0,8.0,0.0,427.0,4631.282051282052,3990.7692307692314,4480.000000000001,4437.435897435898,4268.205128205129,4530.256410256411,4437.948717948719,4412.307692307693,4356.923076923077,4781.025641025642,4251.794871794872,4230.769230769231,4229.74358974359,4460.512820512821
768.1758,0.30661964,0.36751536,0.25902537,0.8324912,0,0.0,0.0,0.0,0.0,0.0,0,0,0.0,0.0,0,0,56.0,0.0,0.0,4671.794871794872,3983.076923076924,4489.2307692307695,4439.48717948718,4269.2307692307695,4527.179487179488,4452.307692307693,4411.794871794872,4367.179487179487,4744.102564102564,4283.589743589744,4244.102564102564,4238.461538461539,4489.743589743591
768.1758,0.30661964,0.36751536,0.25902537,0.8324912,0,0.0,0.0,0.0,0.0,0.0,0,0,0.0,0.0,0,0,56.0,0.0,0.0,4671.794871794872,3983.076923076924,4489.2307692307695,4439.48717948718,4269.2307692307695,4527.179487179488,4452.307692307693,4411.794871794872,4367.179487179487,4744.102564102564,4283.589743589744,4244.102564102564,4238.461538461539,4489.743589743591
768.80133,0.34101364,0.37344196,0.25961238,0.82358986,0,0.0,0.0,0.29436398,0.0,0.0,0,0,0.0,0.0,0,0,7.0,0.0,473.0,4727.6923076923085,3969.2307692307695,4537.948717948719,4505.641025641026,4236.410256410257,4544.615384615385,4510.256410256411,4457.948717948719,4417.435897435898,4748.717948717949,4349.743589743591,4300.000000000001,4244.102564102564,4563.589743589744
769.0515,0.34101364,0.37344196,0.25961238,0.82358986,0,0.0,0.0,0.2025394,0.0,0.0,0,0,0.0,0.0,0,0,39.0,0.0,0.0,4730.769230769231,3942.0512820512827,4530.256410256411,4508.717948717949,4211.282051282052,4530.256410256411,4502.051282051282,4440.512820512821,4418.461538461539,4724.615384615386,4347.179487179487,4276.923076923077,4196.410256410257,4561.025641025642
769.30176,0.36028832,0.37922817,0.2608366,0.807563,0,0.0,0.0,0.077935435,0.0,0.0,0,0,0.0,0.0,0,0,71.0,0.0,473.0,4722.051282051282,3927.1794871794878,4522.564102564103,4499.48717948718,4219.48717948718,4545.128205128206,4505.641025641026,4450.769230769231,4423.589743589744,4711.282051282052,4342.564102564103,4271.282051282052,4173.846153846154,4569.743589743591
769.55194,0.36028832,0.37922817,0.2608366,0.807563,0,0.0,0.0,0.12166491,0.0,0.0,0,0,0.0,0.0,0,0,103.0,0.0,448.0,4725.128205128206,3957.9487179487182,4534.358974358975,4515.8974358974365,4222.564102564103,4551.794871794872,4506.153846153847,4462.051282051282,4436.410256410257,4707.179487179488,4345.641025641026,4284.102564102564,4146.153846153847,4569.2307692307695
769.67706,0.3434252,0.3904099,0.2619412,0.8011673,0,0.0,0.0,0.0,0.0,0.0,0,0,0.0,0.0,0,0,119.0,0.0,448.0,4735.384615384616,3957.435897435898,4531.794871794872,4519.48717948718,4217.435897435898,4549.2307692307695,4505.641025641026,4463.589743589744,4434.358974358975,4690.769230769231,4331.794871794872,4281.538461538462,4142.051282051282,4580.000000000001
770.05237,0.3434252,0.3904099,0.2619412,0.8011673,0,0.0,0.0,0.0,0.0,0.13999197,0,0,0.0,0.0,0,0,38.0,0.0,0.0,4718.974358974359,3930.7692307692314,4554.871794871796,4495.384615384616,4241.538461538462,4576.923076923077,4514.358974358975,4485.641025641026,4442.051282051282,4749.2307692307695,4398.974358974359,4312.307692307693,4181.538461538462,4599.48717948718
770.3026,0.32857707,0.40330446,0.2625903,0.7919489,0,0.0,0.0,0.0,0.0,0.08927116,0,0,0.0,0.0,0,0,70.0,0.0,540.0,4691.282051282052,3890.2564102564106,4529.2307692307695,4466.153846153847,4209.2307692307695,4541.538461538462,4483.589743589744,4457.435897435898,4432.307692307693,4723.076923076924,4365.128205128206,4270.769230769231,4147.6923076923085,4589.743589743591
770.5528,0.32857707,0.40330446,0.2625903,0.7919489,0,0.0,0.0,0.0,0.0,0.0,0,0,0.0,0.0,0,0,102.0,0.0,532.0,4667.6923076923085,3880.512820512821,4514.871794871796,4456.410256410257,4209.74358974359,4543.589743589744,4482.051282051282,4465.641025641026,4425.128205128206,4723.589743589744,4359.48717948718,4267.6923076923085,4141.025641025642,4572.820512820514
770.6779,0.40198097,0.39984328,0.26317728,0.7756482,0,0.0,0.0,0.0,0.0,0.0,0,0,0.0,0.0,0,0,118.0,0.0,532.0,4666.153846153847,3887.692307692308,4513.333333333334,4468.717948717949,4211.794871794872,4544.615384615385,4472.307692307693,4442.564102564103,4421.025641025642,4719.48717948718,4362.051282051282,4264.102564102564,4156.410256410257,4577.948717948719
770.6779,0.40198097,0.39984328,0.26317728,0.7756482,0,0.0,0.0,0.0,0.0,0.0,0,0,0.0,0.0,0,0,118.0,0.0,532.0,4666.153846153847,3887.692307692308,4513.333333333334,4468.717948717949,4211.794871794872,4544.615384615385,4472.307692307693,4442.564102564103,4421.025641025642,4719.48717948718,4362.051282051282,4264.102564102564,4156.410256410257,4577.948717948719
771.17834,0.3765326,0.3890366,0.26434943,0.7583773,0,0.0,0.0,0.0,0.0,0.0,0,0,0.0,0.0,0,0,53.0,0.0,0.0,4667.6923076923085,3906.1538461538466,4527.179487179488,4430.256410256411,4225.641025641026,4548.717948717949,4511.794871794872,4433.846153846154,4423.076923076924,4700.000000000001,4353.846153846154,4269.74358974359,4162.051282051282,4593.333333333334
771.17834,0.3765326,0.3890366,0.26434943,0.7583773,0,0.0,0.0,0.0,0.0,0.0,0,0,0.0,0.0,0,0,53.0,0.0,0.0,4667.6923076923085,3906.1538461538466,4527.179487179488,4430.256410256411,4225.641025641026,4548.717948717949,4511.794871794872,4433.846153846154,4423.076923076924,4700.000000000001,4353.846153846154,4269.74358974359,4162.051282051282,4593.333333333334
771.6788,0.37772346,0.36786726,0.26540703,0.744108,0,0.0,0.0,0.0,0.0,0.0,0,0,0.0,0.0,0,0,117.0,0.0,675.0,4633.846153846154,3925.6410256410263,4501.025641025642,4435.8974358974365,4235.384615384616,4549.743589743591,4488.205128205129,4426.666666666667,4416.410256410257,4703.589743589744,4322.564102564103,4251.282051282052,4141.538461538462,4568.717948717949
771.6788,0.37772346,0.36786726,0.26540703,0.744108,0,0.0,0.0,0.0,0.0,0.0,0,0,0.0,0.0,0,0,117.0,0.0,675.0,4633.846153846154,3925.6410256410263,4501.025641025642,4435.8974358974365,4235.384615384616,4549.743589743591,4488.205128205129,4426.666666666667,4416.410256410257,4703.589743589744,4322.564102564103,4251.282051282052,4141.538461538462,4568.717948717949
772.1792,0.33767533,0.3413103,0.26426885,0.7411658,0,0.0,0.0,0.0,0.0,0.0,0,0,0.0,0.0,0,0,52.0,0.0,0.0,4618.974358974359,3908.717948717949,4507.6923076923085,4423.589743589744,4236.410256410257,4542.564102564103,4484.102564102564,4442.051282051282,4413.846153846154,4698.461538461539,4320.512820512821,4254.871794871796,4166.666666666667,4578.974358974359
772.1792,0.33767533,0.3413103,0.26426885,0.7411658,0,0.0,0.0,0.0,0.0,0.0,0,0,0.0,0.0,0,0,52.0,0.0,0.0,4618.974358974359,3908.717948717949,4507.6923076923085,4423.589743589744,4236.410256410257,4542.564102564103,4484.102564102564,4442.051282051282,4413.846153846154,4698.461538461539,4320.512820512821,4254.871794871796,4166.666666666667,4578.974358974359
772.80475,0.2758936,0.32645598,0.26077116,0.7430031,0,0.0,0.0,1.0,0.0,0.0,0,0,0.0,0.0,0,0,3.0,0.0,533.0,4607.6923076923085,3917.9487179487182,4482.564102564103,4371.794871794872,4281.538461538462,4549.2307692307695,4428.717948717949,4414.871794871796,4396.923076923077,4932.307692307693,4349.2307692307695,4270.769230769231,4155.384615384616,4562.564102564103
772.80475,0.2758936,0.32645598,0.26077116,0.7430031,0,0.0,0.0,1.0,0.0,0.0,0,0,0.0,0.0,0,0,3.0,0.0,533.0,4607.6923076923085,3917.9487179487182,4482.564102564103,4371.794871794872,4281.538461538462,4549.2307692307695,4428.717948717949,4414.871794871796,4396.923076923077,4932.307692307693,4349.2307692307695,4270.769230769231,4155.384615384616,4562.564102564103
773.3052,0.24725027,0.34523037,0.2557162,0.7541809,0,0.0,0.0,0.36412266,0.0,0.0,0,0,0.0,0.0,0,0,67.0,0.0,533.0,4587.179487179488,3984.1025641025644,4492.307692307693,4419.48717948718,4272.307692307693,4547.6923076923085,4458.461538461539,4439.48717948718,4381.538461538462,4976.410256410257,4357.948717948719,4295.384615384616,4262.564102564103,4498.974358974359
773.5554,0.24725027,0.34523037,0.2557162,0.7541809,0,0.0,0.0,1.0,0.0,0.0,0,0,0.0,0.0,0,0,99.0,0.0,445.0,4607.6923076923085,3994.8717948717954,4504.615384615385,4418.461538461539,4271.794871794872,4546.153846153847,4453.846153846154,4420.000000000001,4369.2307692307695,4885.641025641026,4358.974358974359,4280.512820512821,4270.256410256411,4506.153846153847
773.6805,0.34342304,0.3871658,0.25117025,0.7652093,0,0.0,0.0,1.0,0.0,0.0,0,0,0.0,0.0,0,0,115.0,0.0,445.0,4636.923076923077,4011.2820512820517,4513.333333333334,4438.461538461539,4271.794871794872,4548.717948717949,4474.358974358975,4436.923076923077,4388.205128205129,4862.564102564103,4391.794871794872,4298.974358974359,4303.589743589744,4537.435897435898
773.6805,0.34342304,0.3871658,0.25117025,0.7652093,0,0.0,0.0,1.0,0.0,0.0,0,0,0.0,0.0,0,0,115.0,0.0,445.0,4636.923076923077,4011.2820512820517,4513.333333333334,4438.461538461539,4271.794871794872,4548.717948717949,4474.358974358975,4436.923076923077,4388.205128205129,4862.564102564103,4391.794871794872,4298.974358974359,4303.589743589744,4537.435897435898
774.306,0.37925568,0.42479467,0.24708259,0.77508867,0,0.0,0.0,0.0,0.0,0.0,0,0,0.0,0.0,0,0,66.0,0.0,446.0,4650.769230769231,3983.076923076924,4516.923076923077,4473.846153846154,4256.410256410257,4547.179487179488,4493.846153846154,4442.051282051282,4392.820512820514,4697.948717948719,4362.564102564103,4272.820512820514,4235.8974358974365,4550.256410256411
774.306,0.37925568,0.42479467,0.24708259,0.77508867,0,0.0,0.0,0.0,0.0,0.0,0,0,0.0,0.0,0,0,66.0,0.0,446.0,4650.769230769231,3983.076923076924,4516.923076923077,4473.846153846154,4256.410256410257,4547.179487179488,4493.846153846154,4442.051282051282,4392.820512820514,4697.948717948719,4362.564102564103,4272.820512820514,4235.8974358974365,4550.256410256411
774.6814,0.3660435,0.44814807,0.24687125,0.7817155,0,0.0,0.0,0.0,0.0,0.0,0,0,0.0,0.0,0,0,114.0,0.0,532.0,4658.461538461539,3951.2820512820517,4525.641025641026,4478.974358974359,4208.717948717949,4516.923076923077,4473.333333333334,4439.48717948718,4389.2307692307695,4638.974358974359,4360.000000000001,4255.8974358974365,4190.256410256411,4562.564102564103
774.6814,0.3660435,0.44814807,0.24687125,0.7817155,0,0.0,0.0,0.0,0.0,0.0,0,0,0.0,0.0,0,0,114.0,0.0,532.0,4658.461538461539,3951.2820512820517,4525.641025641026,4478.974358974359,4208.717948717949,4516.923076923077,4473.333333333334,4439.48717948718,4389.2307692307695,4638.974358974359,4360.000000000001,4255.8974358974365,4190.256410256411,4562.564102564103
775.3069,0.43778154,0.4514194,0.25010234,0.78763777,0,0.0,0.0,0.0,0.0,0.0,0,0,0.527811,0.0,0,0,65.0,0.0,482.0,4700.512820512821,3964.1025641025644,4562.051282051282,4545.641025641026,4227.6923076923085,4555.384615384616,4499.48717948718,4458.974358974359,4407.6923076923085,4636.410256410257,4406.666666666667,4304.615384615385,4249.2307692307695,4613.846153846154
775.5571,0.43778154,0.4514194,0.25010234,0.78763777,1,0.0,0.0,0.0,0.0,0.0,0,0,0.0,0.0,0,0,97.0,0.0,668.0,4721.025641025642,3979.48717948718,4582.051282051282,4567.179487179488,4194.871794871796,4549.2307692307695,4529.2307692307695,4504.615384615385,4443.076923076924,4716.410256410257,4465.641025641026,4333.846153846154,4198.974358974359,4664.102564102564
775.8073,0.45834047,0.4635526,0.2530134,0.7873285,0,0.0,0.0,0.0,0.0,0.0,0,0,0.0,0.89917225,0,0,0.0,0.0,488.0,4670.256410256411,3936.9230769230776,4556.410256410257,4543.076923076924,4229.74358974359,4515.384615384616,4501.025641025642,4485.128205128206,4429.2307692307695,4687.179487179488,4429.2307692307695,4299.48717948718,4154.358974358975,4621.025641025642
776.05756,0.45834047,0.4635526,0.2530134,0.7873285,0,0.0,0.0,0.0,0.0,0.0,0,0,0.0,0.0,0,0,32.0,0.0,0.0,4633.333333333334,3921.0256410256416,4537.435897435898,4478.461538461539,4253.333333333334,4547.179487179488,4485.128205128206,4460.512820512821,4421.025641025642,4648.717948717949,4415.384615384616,4273.333333333334,4118.974358974359,4603.076923076924
776.1827,0.50080013,0.47368902,0.2582251,0.7835988,0,0.0,0.0,0.0,0.0,0.0,0,0,0.0,0.0,0,0,48.0,0.0,0.0,4661.538461538462,3937.9487179487182,4542.564102564103,4513.333333333334,4269.2307692307695,4554.358974358975,4439.48717948718,4405.641025641026,4403.076923076924,4822.564102564103,4392.307692307693,4282.051282051282,4090.7692307692314,4624.615384615385
776.1827,0.50080013,0.47368902,0.2582251,0.7835988,0,0.0,0.0,0.0,0.0,0.0,0,0,0.0,0.0,0,0,48.0,0.0,0.0,4661.538461538462,3937.9487179487182,4542.564102564103,4513.333333333334,4269.2307692307695,4554.358974358975,4439.48717948718,4405.641025641026,4403.076923076924,4822.564102564103,4392.307692307693,4282.051282051282,4090.7692307692314,4624.615384615385
776.6831,0.40243128,0.49666595,0.2640866,0.7799633,0,0.0,0.0,0.0,0.0,0.0,0,0,0.0,0.0,0,0,112.0,0.0,553.0,4619.48717948718,3906.1538461538466,4522.564102564103,4460.512820512821,4266.153846153847,4574.871794871796,4467.179487179487,4452.820512820514,4425.641025641026,4757.948717948719,4378.461538461539,4272.820512820514,4161.538461538462,4585.641025641026
776.6831,0.40243128,0.49666595,0.2640866,0.7799633,0,0.0,0.0,0.0,0.0,0.0,0,0,0.0,0.0,0,0,112.0,0.0,553.0,4619.48717948718,3906.1538461538466,4522.564102564103,4460.512820512821,4266.153846153847,4574.871794871796,4467.179487179487,4452.820512820514,4425.641025641026,4757.948717948719,4378.461538461539,4272.820512820514,4161.538461538462,4585.641025641026
777.18353,0.372935,0.5164884,0.2670512,0.775746,0,0.0,0.0,0.0,0.0,0.0,0,0,0.0,0.0,0,0,47.0,0.0,0.0,4620.512820512821,3896.9230769230776,4514.358974358975,4450.769230769231,4231.282051282052,4546.153846153847,4456.923076923077,4434.358974358975,4411.794871794872,4654.871794871796,4354.871794871796,4247.6923076923085,4175.384615384616,4591.282051282052
777.18353,0.372935,0.5164884,0.2670512,0.775746,0,0.0,0.0,0.0,0.0,0.0,0,0,0.0,0.0,0,0,47.0,0.0,0.0,4620.512820512821,3896.9230769230776,4514.358974358975,4450.769230769231,4231.282051282052,4546.153846153847,4456.923076923077,4434.358974358975,4411.794871794872,4654.871794871796,4354.871794871796,4247.6923076923085,4175.384615384616,4591.282051282052
777.68396,0.4458106,0.4919572,0.26972175,0.77166176,0,0.0,0.0,0.0,0.0,0.0,0,0,0.0,0.0,0,0,111.0,0.0,445.0,4607.179487179488,3892.307692307693,4503.076923076924,4434.358974358975,4262.564102564103,4498.974358974359,4433.333333333334,4425.128205128206,4399.48717948718,4629.2307692307695,4325.641025641026,4225.641025641026,4163.076923076924,4572.307692307693
777.68396,0.4458106,0.4919572,0.26972175,0.77166176,0,0.0,0.0,0.0,0.0,0.0,0,0,0.0,0.0,0,0,111.0,0.0,445.0,4607.179487179488,3892.307692307693,4503.076923076924,4434.358974358975,4262.564102564103,4498.974358974359,4433.333333333334,4425.128205128206,4399.48717948718,4629.2307692307695,4325.641025641026,4225.641025641026,4163.076923076924,4572.307692307693
778.1844,0.48334303,0.48989794,0.26959163,0.7635323,0,0.0,0.0,0.0,0.0,0.0,0,0,0.0,0.0,0,0,46.0,0.0,0.0,4644.615384615385,3913.8461538461543,4538.461538461539,4459.48717948718,4207.179487179487,4544.102564102564,4468.205128205129,4477.948717948719,4421.538461538462,4675.384615384616,4375.384615384616,4273.333333333334,4213.846153846154,4605.641025641026
778.1844,0.48334303,0.48989794,0.26959163,0.7635323,0,0.0,0.0,0.0,0.0,0.0,0,0,0.0,0.0,0,0,46.0,0.0,0.0,4644.615384615385,3913.8461538461543,4538.461538461539,4459.48717948718,4207.179487179487,4544.102564102564,4468.205128205129,4477.948717948719,4421.538461538462,4675.384615384616,4375.384615384616,4273.333333333334,4213.846153846154,4605.641025641026
778.6848,0.46622065,0.4880737,0.272501,0.75025696,0,0.0,0.0,0.0,0.0,0.0,0,0,0.0,0.0,0,0,110.0,0.0,532.0,4648.205128205129,3943.076923076924,4531.282051282052,4473.333333333334,4207.179487179487,4543.589743589744,4477.948717948719,4476.923076923077,4412.307692307693,4666.666666666667,4368.717948717949,4259.48717948718,4178.974358974359,4614.871794871796
778.6848,0.46622065,0.4880737,0.272501,0.75025696,0,0.0,0.0,0.0,0.0,0.0,0,0,0.0,0.0,0,0,110.0,0.0,532.0,4648.205128205129,3943.076923076924,4531.282051282052,4473.333333333334,4207.179487179487,4543.589743589744,4477.948717948719,4476.923076923077,4412.307692307693,4666.666666666667,4368.717948717949,4259.48717948718,4178.974358974359,4614.871794871796
779.18524,0.37121275,0.4862052,0.27778095,0.7346106,0,0.0,0.0,0.0,0.0,0.0,0,0,0.0,0.0,0,0,49.0,0.0,0.0,4634.871794871796,3935.8974358974365,4514.871794871796,4449.743589743591,4223.589743589744,4556.410256410257,4496.410256410257,4463.589743589744,4425.641025641026,4689.2307692307695,4374.871794871796,4258.974358974359,4187.6923076923085,4587.6923076923085
779.5293,0.37121275,0.4862052,0.27778095,0.7346106,1,0.0,0.0,0.0,0.0,0.0,0,0,0.0,0.0,0,0,89.0,0.0,672.0,4649.2307692307695,3956.9230769230776,4516.923076923077,4451.794871794872,4243.589743589744,4557.948717948719,4482.564102564103,4431.282051282052,4405.641025641026,4693.333333333334,4394.871794871796,4259.48717948718,4176.923076923077,4599.48717948718
779.8108,0.31147102,0.5115232,0.2825349,0.71919835,0,0.0,0.0,0.0,0.0,0.17089705,0,0,0.0,0.0,0,0,125.0,0.0,672.0,4599.48717948718,3925.1282051282055,4481.025641025642,4417.435897435898,4249.74358974359,4558.974358974359,4481.025641025642,4434.358974358975,4411.282051282052,4675.384615384616,4356.410256410257,4239.48717948718,4149.2307692307695,4550.256410256411
779.9359,0.31147102,0.5115232,0.2825349,0.71919835,0,0.0,0.0,0.0,0.0,0.0,0,0,0.0,0.0,0,0,12.0,0.0,553.0,4598.461538461539,3912.820512820513,4489.743589743591,4413.846153846154,4244.615384615385,4557.948717948719,4496.923076923077,4445.641025641026,4407.6923076923085,4657.948717948719,4352.307692307693,4237.435897435898,4139.48717948718,4557.435897435898
780.1861,0.30080226,0.5139137,0.28889528,0.70326895,0,0.0,0.0,0.0,0.0,0.0,0,0,0.0,0.0,0,0,44.0,0.0,0.0,4604.102564102564,3931.2820512820517,4483.589743589744,4422.051282051282,4237.435897435898,4547.6923076923085,4464.102564102564,4421.025641025642,4398.974358974359,4649.2307692307695,4340.512820512821,4232.307692307693,4147.179487179487,4556.923076923077
780.1861,0.30080226,0.5139137,0.28889528,0.70326895,0,0.0,0.0,0.0,0.0,0.0,0,0,0.0,0.0,0,0,44.0,0.0,0.0,4604.102564102564,3931.2820512820517,4483.589743589744,4422.051282051282,4237.435897435898,4547.6923076923085,4464.102564102564,4421.025641025642,4398.974358974359,4649.2307692307695,4340.512820512821,4232.307692307693,4147.179487179487,4556.923076923077
780.6865,0.25338814,0.49239647,0.29512432,0.688123,0,0.0,0.0,0.0,0.0,0.0,0,0,0.0,0.0,0,0,108.0,0.0,553.0,4636.410256410257,3939.48717948718,4512.820512820514,4437.948717948719,4242.051282051282,4543.589743589744,4450.256410256411,4432.307692307693,4414.871794871796,4676.410256410257,4363.589743589744,4251.794871794872,4176.410256410257,4580.512820512821
780.6865,0.25338814,0.49239647,0.29512432,0.688123,0,0.0,0.0,0.0,0.0,0.0,0,0,0.0,0.0,0,0,108.0,0.0,553.0,4636.410256410257,3939.48717948718,4512.820512820514,4437.948717948719,4242.051282051282,4543.589743589744,4450.256410256411,4432.307692307693,4414.871794871796,4676.410256410257,4363.589743589744,4251.794871794872,4176.410256410257,4580.512820512821
781.18695,0.22919205,0.4708157,0.3007318,0.674497,0,0.0,0.0,0.0,0.0,0.0,0,0,0.0,0.0,0,0,43.0,0.0,0.0,4613.333333333334,3905.6410256410263,4497.435897435898,4408.717948717949,4236.923076923077,4545.128205128206,4445.128205128206,4446.153846153847,4405.128205128206,4688.205128205129,4350.256410256411,4239.48717948718,4168.717948717949,4565.641025641026
781.56226,0.22919205,0.4708157,0.3007318,0.674497,0,0.0,0.0,0.0,0.0,0.0,0,0,0.0,0.0,0,0,91.0,0.0,445.0,4653.846153846154,3933.8461538461543,4509.2307692307695,4409.2307692307695,4241.538461538462,4545.128205128206,4437.948717948719,4436.923076923077,4402.051282051282,4700.512820512821,4369.2307692307695,4247.179487179487,4176.410256410257,4606.153846153847
781.8125,0.13676265,0.44967583,0.30261892,0.66223675,0,0.0,0.0,0.0,0.0,0.1762126,0,0,0.0,0.0,0,0,123.0,0.0,445.0,4610.769230769231,3907.1794871794878,4491.794871794872,4394.358974358975,4253.846153846154,4558.974358974359,4438.974358974359,4454.871794871796,4409.2307692307695,4696.923076923077,4353.846153846154,4238.461538461539,4145.128205128206,4564.102564102564
782.06274,0.13676265,0.44967583,0.30261892,0.66223675,0,0.0,0.0,0.0,0.0,0.13636711,0,0,0.0,0.0,0,0,26.0,0.0,0.0,4621.025641025642,3908.205128205129,4503.076923076924,4413.333333333334,4254.871794871796,4562.051282051282,4447.6923076923085,4453.846153846154,4403.076923076924,4697.948717948719,4353.333333333334,4238.461538461539,4148.205128205129,4573.846153846154
782.3129,0.06519362,0.4901343,0.30300292,0.6512042,0,0.0,0.0,0.08505992,0.0,0.0,0,0,0.0,0.0,0,0,58.0,0.0,0.0,4623.076923076924,3914.358974358975,4500.000000000001,4408.717948717949,4235.384615384616,4546.666666666667,4438.974358974359,4459.48717948718,4417.435897435898,4711.794871794872,4365.128205128206,4248.717948717949,4174.358974358975,4583.076923076924
782.5632,0.06519362,0.4901343,0.30300292,0.6512042,0,0.0,0.0,0.15672056,0.0,0.0,0,0,0.0,0.0,0,0,90.0,0.0,532.0,4615.384615384616,3902.0512820512827,4488.717948717949,4398.974358974359,4232.820512820514,4547.179487179488,4426.666666666667,4450.769230769231,4418.974358974359,4700.512820512821,4361.025641025642,4240.512820512821,4182.564102564103,4575.8974358974365
782.68823,0.005175136,0.52916366,0.30270892,0.6412755,0,0.0,0.0,0.0,0.0,0.0,0,0,0.0,0.0,0,0,106.0,0.0,532.0,4617.435897435898,3901.0256410256416,4483.589743589744,4394.358974358975,4221.538461538462,4535.384615384616,4422.051282051282,4432.307692307693,4410.256410256411,4698.461538461539,4349.2307692307695,4232.820512820514,4173.846153846154,4573.846153846154
782.68823,0.005175136,0.52916366,0.30270892,0.6412755,0,0.0,0.0,0.0,0.0,0.0,0,0,0.0,0.0,0,0,106.0,0.0,532.0,4617.435897435898,3901.0256410256416,4483.589743589744,4394.358974358975,4221.538461538462,4535.384615384616,4422.051282051282,4432.307692307693,4410.256410256411,4698.461538461539,4349.2307692307695,4232.820512820514,4173.846153846154,4573.846153846154
783.18866,0.010789177,0.5741989,0.3024455,0.6353627,0,0.0,0.0,0.0,0.0,0.0,0,0,0.0,0.0,0,0,41.0,0.0,0.0,4621.538461538462,3894.358974358975,4497.948717948719,4415.8974358974365,4227.179487179487,4542.051282051282,4421.025641025642,4444.615384615385,4404.615384615385,4705.128205128206,4384.615384615385,4251.794871794872,4221.025641025642,4604.102564102564
783.18866,0.010789177,0.5741989,0.3024455,0.6353627,0,0.0,0.0,0.0,0.0,0.0,0,0,0.0,0.0,0,0,41.0,0.0,0.0,4621.538461538462,3894.358974358975,4497.948717948719,4415.8974358974365,4227.179487179487,4542.051282051282,4421.025641025642,4444.615384615385,4404.615384615385,4705.128205128206,4384.615384615385,4251.794871794872,4221.025641025642,4604.102564102564
783.6891,0.029535634,0.5618738,0.30049047,0.6342983,0,0.0,0.0,0.0,0.0,0.0,0,0,0.0,0.0,0,0,105.0,0.0,666.0,4624.615384615385,3936.410256410257,4474.358974358975,4434.358974358975,4222.564102564103,4538.974358974359,4407.179487179487,4414.871794871796,4400.000000000001,4686.153846153847,4345.128205128206,4234.358974358975,4155.8974358974365,4574.358974358975
784.06445,0.029535634,0.5618738,0.30049047,0.6342983,1,0.0,0.0,0.0,0.0,0.0,0,0,0.0,0.0,0,0,24.0,0.0,0.0,4615.8974358974365,3931.7948717948725,4467.179487179487,4429.2307692307695,4228.205128205129,4546.153846153847,4404.615384615385,4397.948717948719,4401.538461538462,4665.641025641026,4353.846153846154,4223.589743589744,4144.102564102564,4568.717948717949
784.2208,0.0024915575,0.5821205,0.2970579,0.6416238,0,0.0,0.0,0.0,0.0,0.0,0,0,0.0,0.0,0,0,44.0,0.0,0.0,4623.589743589744,3919.48717948718,4477.948717948719,4414.871794871796,4232.820512820514,4544.615384615385,4410.769230769231,4410.256410256411,4402.051282051282,4685.128205128206,4363.076923076924,4234.358974358975,4147.6923076923085,4573.333333333334
784.5649,0.0024915575,0.5821205,0.2970579,0.6416238,0,0.0,0.0,0.0,0.0,0.07959192,0,0,0.0,0.0,0,0,88.0,0.0,553.0,4666.666666666667,3984.1025641025644,4486.666666666667,4452.307692307693,4238.974358974359,4548.717948717949,4429.743589743591,4431.794871794872,4392.820512820514,4710.769230769231,4366.153846153847,4260.512820512821,4151.282051282052,4589.743589743591
784.81506,0.0070683863,0.6677091,0.29452047,0.6482099,0,0.0,0.0,0.0,0.0,0.062036745,0,0,0.0,0.0,0,0,120.0,0.0,553.0,4610.769230769231,3904.615384615385,4480.000000000001,4428.717948717949,4250.769230769231,4564.615384615385,4438.461538461539,4452.307692307693,4398.974358974359,4705.641025641026,4366.666666666667,4244.102564102564,4136.410256410257,4561.025641025642
785.0653,0.0070683863,0.6677091,0.29452047,0.6482099,0,0.0,0.0,0.0,0.0,0.0,0,0,0.0,0.0,0,0,23.0,0.0,0.0,4649.2307692307695,3922.0512820512827,4505.641025641026,4451.282051282052,4250.769230769231,4561.025641025642,4449.2307692307695,4467.179487179487,4405.641025641026,4712.307692307693,4368.717948717949,4262.051282051282,4161.025641025642,4575.8974358974365
785.1904,0.013006812,0.7356269,0.2939593,0.6541301,0,0.0,0.0,0.0,0.0,0.0,0,0,0.0,0.0,0,0,39.0,0.0,0.0,4666.153846153847,3932.820512820513,4518.461538461539,4454.358974358975,4234.358974358975,4548.717948717949,4440.512820512821,4469.743589743591,4410.769230769231,4740.512820512821,4379.48717948718,4270.769230769231,4175.384615384616,4583.589743589744
785.1904,0.013006812,0.7356269,0.2939593,0.6541301,0,0.0,0.0,0.0,0.0,0.0,0,0,0.0,0.0,0,0,39.0,0.0,0.0,4666.153846153847,3932.820512820513,4518.461538461539,4454.358974358975,4234.358974358975,4548.717948717949,4440.512820512821,4469.743589743591,4410.769230769231,4740.512820512821,4379.48717948718,4270.769230769231,4175.384615384616,4583.589743589744
785.69086,0.0,0.80059737,0.29441965,0.6593225,0,0.0,0.0,0.0,0.0,0.0,0,0,0.0,0.0,0,0,103.0,0.0,445.0,4657.948717948719,3935.8974358974365,4515.384615384616,4438.974358974359,4241.538461538462,4561.025641025642,4452.820512820514,4469.743589743591,4420.000000000001,4701.538461538462,4384.102564102564,4261.025641025642,4178.974358974359,4600.512820512821
785.69086,0.0,0.80059737,0.29441965,0.6593225,0,0.0,0.0,0.0,0.0,0.0,0,0,0.0,0.0,0,0,103.0,0.0,445.0,4657.948717948719,3935.8974358974365,4515.384615384616,4438.974358974359,4241.538461538462,4561.025641025642,4452.820512820514,4469.743589743591,4420.000000000001,4701.538461538462,4384.102564102564,4261.025641025642,4178.974358974359,4600.512820512821
786.1913,0.03384931,0.80406433,0.29896384,0.6605796,0,0.0,0.0,0.0,0.0,0.0,0,0,0.0,0.0,0,0,38.0,0.0,0.0,4641.025641025642,3930.7692307692314,4508.717948717949,4447.179487179487,4237.435897435898,4557.948717948719,4450.256410256411,4442.564102564103,4408.717948717949,4712.820512820514,4358.461538461539,4247.6923076923085,4180.512820512821,4600.512820512821
786.5666,0.03384931,0.80406433,0.29896384,0.6605796,0,0.0,0.0,0.11178748,0.0,0.0,0,0,0.0,0.0,0,0,86.0,0.0,532.0,4629.743589743591,3953.8461538461543,4504.102564102564,4457.435897435898,4226.666666666667,4539.48717948718,4429.743589743591,4406.153846153847,4397.948717948719,4708.205128205129,4342.564102564103,4224.615384615385,4147.179487179487,4590.769230769231
786.8168,0.06673042,0.74959916,0.3030549,0.6617052,0,0.0,0.0,0.0,0.0,0.05025818,0,0,0.0,0.0,0,0,118.0,0.0,532.0,4628.205128205129,3922.0512820512827,4499.48717948718,4426.153846153847,4212.820512820514,4528.717948717949,4432.307692307693,4426.153846153847,4401.538461538462,4697.948717948719,4369.2307692307695,4227.6923076923085,4174.871794871796,4576.923076923077
787.067,0.06673042,0.74959916,0.3030549,0.6617052,0,0.0,0.0,0.0,0.0,0.02715877,0,0,0.0,0.0,0,0,21.0,0.0,0.0,4644.102564102564,3912.307692307693,4503.589743589744,4412.307692307693,4225.128205128206,4539.48717948718,4456.410256410257,4463.076923076924,4414.358974358975,4707.179487179488,4408.205128205129,4248.717948717949,4209.2307692307695,4591.794871794872
787.3172,0.061359722,0.68510777,0.30717367,0.66088915,0,0.0,0.0,0.0,0.0,0.19687302,0,0,0.0,0.0,0,0,53.0,0.0,0.0,4663.589743589744,3948.717948717949,4512.820512820514,4432.820512820514,4224.102564102564,4531.282051282052,4446.153846153847,4437.948717948719,4416.410256410257,4708.205128205129,4378.974358974359,4249.74358974359,4161.538461538462,4585.641025641026
787.56744,0.061359722,0.68510777,0.30717367,0.66088915,0,0.0,0.0,0.0,0.0,0.1445547,0,0,0.0,0.0,0,0,85.0,0.0,674.0,4688.717948717949,3977.435897435898,4516.923076923077,4419.48717948718,4232.307692307693,4539.48717948718,4430.769230769231,4375.8974358974365,4393.846153846154,4658.461538461539,4370.256410256411,4244.102564102564,4156.923076923077,4581.538461538462
787.8177,0.056987647,0.6631456,0.31508502,0.6621518,0,0.0,0.0,0.0,0.0,0.07783181,0,0,0.0,0.0,0,0,117.0,0.0,674.0,4631.794871794872,3914.358974358975,4483.589743589744,4378.461538461539,4246.153846153847,4547.6923076923085,4442.051282051282,4396.410256410257,4397.948717948719,4685.128205128206,4341.538461538462,4216.923076923077,4108.205128205129,4521.538461538462
788.0679,0.056987647,0.6631456,0.31508502,0.6621518,0,0.0,0.0,0.0,0.0,0.06803483,0,0,0.0,0.0,0,0,20.0,0.0,0.0,4633.333333333334,3923.589743589744,4482.564102564103,4392.307692307693,4240.512820512821,4546.666666666667,4431.794871794872,4415.8974358974365,4405.128205128206,4695.384615384616,4353.846153846154,4231.794871794872,4157.435897435898,4525.641025641026
788.3181,0.031244645,0.64443433,0.3216432,0.66510606,0,0.0,0.0,0.0,0.0,0.0,0,0,0.0,0.0,0,0,52.0,0.0,0.0,4652.820512820514,3935.3846153846157,4488.205128205129,4408.717948717949,4234.358974358975,4548.205128205129,4429.743589743591,4418.461538461539,4412.820512820514,4712.820512820514,4361.025641025642,4240.000000000001,4180.000000000001,4541.538461538462
788.3181,0.031244645,0.64443433,0.3216432,0.66510606,0,0.0,0.0,0.0,0.0,0.0,0,0,0.0,0.0,0,0,52.0,0.0,0.0,4652.820512820514,3935.3846153846157,4488.205128205129,4408.717948717949,4234.358974358975,4548.205128205129,4429.743589743591,4418.461538461539,4412.820512820514,4712.820512820514,4361.025641025642,4240.000000000001,4180.000000000001,4541.538461538462
788.6934,0.05130428,0.6287615,0.32471064,0.66775763,0,0.0,0.0,0.0,0.0,0.0,0,0,0.0,0.0,0,0,100.0,0.0,553.0,4672.820512820514,3948.717948717949,4511.794871794872,4430.256410256411,4233.846153846154,4553.333333333334,4460.512820512821,4440.512820512821,4414.871794871796,4704.102564102564,4385.641025641026,4267.6923076923085,4193.333333333334,4550.256410256411
788.6934,0.05130428,0.6287615,0.32471064,0.66775763,0,0.0,0.0,0.0,0.0,0.0,0,0,0.0,0.0,0,0,100.0,0.0,553.0,4672.820512820514,3948.717948717949,4511.794871794872,4430.256410256411,4233.846153846154,4553.333333333334,4460.512820512821,4440.512820512821,4414.871794871796,4704.102564102564,4385.641025641026,4267.6923076923085,4193.333333333334,4550.256410256411
789.19385,0.01686586,0.6533569,0.3232634,0.66831243,0,0.0,0.0,0.0,0.0,0.0,0,0,0.0,0.0,0,0,35.0,0.0,0.0,4674.358974358975,3957.435897435898,4524.102564102564,4438.461538461539,4228.717948717949,4549.2307692307695,4463.589743589744,4466.153846153847,4413.846153846154,4710.769230769231,4378.461538461539,4285.128205128206,4193.846153846154,4562.564102564103
789.19385,0.01686586,0.6533569,0.3232634,0.66831243,0,0.0,0.0,0.0,0.0,0.0,0,0,0.0,0.0,0,0,35.0,0.0,0.0,4674.358974358975,3957.435897435898,4524.102564102564,4438.461538461539,4228.717948717949,4549.2307692307695,4463.589743589744,4466.153846153847,4413.846153846154,4710.769230769231,4378.461538461539,4285.128205128206,4193.846153846154,4562.564102564103
789.6943,0.0383631,0.6288564,0.32196128,0.6644495,0,0.0,0.0,0.0,0.0,0.0,0,0,0.0,0.0,0,0,99.0,0.0,445.0,4641.538461538462,3937.9487179487182,4518.974358974359,4410.256410256411,4237.435897435898,4545.128205128206,4443.076923076924,4434.358974358975,4405.641025641026,4694.871794871796,4363.076923076924,4259.48717948718,4152.307692307693,4551.794871794872
789.6943,0.0383631,0.6288564,0.32196128,0.6644495,0,0.0,0.0,0.0,0.0,0.0,0,0,0.0,0.0,0,0,99.0,0.0,445.0,4641.538461538462,3937.9487179487182,4518.974358974359,4410.256410256411,4237.435897435898,4545.128205128206,4443.076923076924,4434.358974358975,4405.641025641026,4694.871794871796,4363.076923076924,4259.48717948718,4152.307692307693,4551.794871794872
790.1947,0.10141242,0.6166351,0.3250012,0.6549907,0,0.0,0.0,0.0,0.0,0.0,0,0,0.0,0.0,0,0,34.0,0.0,0.0,4612.307692307693,3920.5128205128212,4490.256410256411,4389.743589743591,4247.6923076923085,4522.051282051282,4420.512820512821,4406.666666666667,4406.153846153847,4676.410256410257,4334.871794871796,4231.794871794872,4140.512820512821,4527.6923076923085
790.1947,0.10141242,0.6166351,0.3250012,0.6549907,0,0.0,0.0,0.0,0.0,0.0,0,0,0.0,0.0,0,0,34.0,0.0,0.0,4612.307692307693,3920.5128205128212,4490.256410256411,4389.743589743591,4247.6923076923085,4522.051282051282,4420.512820512821,4406.666666666667,4406.153846153847,4676.410256410257,4334.871794871796,4231.794871794872,4140.512820512821,4527.6923076923085
790.6951,0.13178302,0.59718055,0.328738,0.64647776,0,0.0,0.0,0.0,0.0,0.0,0,0,0.0,0.0,0,0,98.0,0.0,532.0,4620.000000000001,3936.9230769230776,4520.000000000001,4411.282051282052,4243.589743589744,4544.615384615385,4448.205128205129,4422.564102564103,4413.846153846154,4706.666666666667,4370.256410256411,4268.717948717949,4186.153846153847,4555.8974358974365
790.6951,0.13178302,0.59718055,0.328738,0.64647776,0,0.0,0.0,0.0,0.0,0.0,0,0,0.0,0.0,0,0,98.0,0.0,532.0,4620.000000000001,3936.9230769230776,4520.000000000001,4411.282051282052,4243.589743589744,4544.615384615385,4448.205128205129,4422.564102564103,4413.846153846154,4706.666666666667,4370.256410256411,4268.717948717949,4186.153846153847,4555.8974358974365
791.19556,0.16892342,0.5664093,0.3267808,0.63881564,0,0.0,0.0,0.0,0.0,0.0,0,0,0.0,0.0,0,0,33.0,0.0,0.0,4622.564102564103,3936.9230769230776,4530.256410256411,4426.666666666667,4244.102564102564,4548.717948717949,4467.6923076923085,4454.358974358975,4413.333333333334,4691.282051282052,4360.512820512821,4271.794871794872,4181.025641025642,4571.794871794872
791.19556,0.16892342,0.5664093,0.3267808,0.63881564,0,0.0,0.0,0.0,0.0,0.0,0,0,0.0,0.0,0,0,33.0,0.0,0.0,4622.564102564103,3936.9230769230776,4530.256410256411,4426.666666666667,4244.102564102564,4548.717948717949,4467.6923076923085,4454.358974358975,4413.333333333334,4691.282051282052,4360.512820512821,4271.794871794872,4181.025641025642,4571.794871794872
791.696,0.13126922,0.52424055,0.32099172,0.63537604,0,0.0,0.0,0.0,0.0,0.0,0,0,0.0,0.0,0,0,97.0,0.0,674.0,4647.6923076923085,3934.358974358975,4542.051282051282,4431.282051282052,4246.153846153847,4547.179487179488,4449.2307692307695,4436.923076923077,4414.871794871796,4716.410256410257,4391.282051282052,4272.307692307693,4204.615384615385,4597.948717948719
791.696,0.13126922,0.52424055,0.32099172,0.63537604,0,0.0,0.0,0.0,0.0,0.0,0,0,0.0,0.0,0,0,97.0,0.0,674.0,4647.6923076923085,3934.358974358975,4542.051282051282,4431.282051282052,4246.153846153847,4547.179487179488,4449.2307692307695,4436.923076923077,4414.871794871796,4716.410256410257,4391.282051282052,4272.307692307693,4204.615384615385,4597.948717948719
792.1964,0.13287887,0.5091433,0.31578198,0.6294384,0,0.0,0.0,0.0,0.0,0.0,0,0,0.0,0.0,0,0,32.0,0.0,0.0,4623.076923076924,3933.8461538461543,4525.641025641026,4414.871794871796,4233.846153846154,4541.538461538462,4450.256410256411,4419.48717948718,4404.615384615385,4704.102564102564,4372.307692307693,4263.589743589744,4185.641025641026,4579.48717948718
792.1964,0.13287887,0.5091433,0.31578198,0.6294384,0,0.0,0.0,0.0,0.0,0.0,0,0,0.0,0.0,0,0,32.0,0.0,0.0,4623.076923076924,3933.8461538461543,4525.641025641026,4414.871794871796,4233.846153846154,4541.538461538462,4450.256410256411,4419.48717948718,4404.615384615385,4704.102564102564,4372.307692307693,4263.589743589744,4185.641025641026,4579.48717948718
792.69684,0.10588801,0.5091802,0.31110302,0.6240932,0,0.0,0.0,0.0,0.0,0.0,0,0,0.0,0.0,0,0,96.0,0.0,553.0,4618.974358974359,3920.5128205128212,4525.128205128206,4417.435897435898,4229.2307692307695,4546.666666666667,4458.974358974359,4433.333333333334,4419.48717948718,4736.410256410257,4399.48717948718,4278.461538461539,4205.128205128206,4588.205128205129
792.69684,0.10588801,0.5091802,0.31110302,0.6240932,0,0.0,0.0,0.0,0.0,0.0,0,0,0.0,0.0,0,0,96.0,0.0,553.0,4618.974358974359,3920.5128205128212,4525.128205128206,4417.435897435898,4229.2307692307695,4546.666666666667,4458.974358974359,4433.333333333334,4419.48717948718,4736.410256410257,4399.48717948718,4278.461538461539,4205.128205128206,4588.205128205129
793.3224,0.063134834,0.52781695,0.30689278,0.6310587,0,0.0,0.0,0.0,0.0,0.13787502,0,0,0.0,0.0,0,0,47.0,0.0,0.0,4622.051282051282,3948.717948717949,4516.923076923077,4421.538461538462,4231.282051282052,4546.666666666667,4451.282051282052,4423.589743589744,4406.666666666667,4729.2307692307695,4368.205128205129,4266.666666666667,4153.333333333334,4567.179487179488
793.57263,0.063134834,0.52781695,0.30689278,0.6310587,0,0.0,0.0,0.0,0.0,0.09533732,0,0,0.0,0.0,0,0,79.0,0.0,445.0,4616.923076923077,3931.2820512820517,4509.2307692307695,4421.025641025642,4228.205128205129,4546.153846153847,4457.435897435898,4433.846153846154,4413.846153846154,4735.8974358974365,4382.564102564103,4277.948717948719,4178.974358974359,4569.2307692307695
793.8228,0.020040771,0.530746,0.30300716,0.6373223,0,0.0,0.0,0.0,0.0,0.03533169,0,0,0.0,0.0,0,0,111.0,0.0,445.0,4620.000000000001,3927.1794871794878,4512.307692307693,4414.871794871796,4231.282051282052,4545.128205128206,4443.589743589744,4428.717948717949,4412.307692307693,4734.358974358975,4366.153846153847,4270.769230769231,4169.2307692307695,4561.025641025642
794.07306,0.020040771,0.530746,0.30300716,0.6373223,0,0.0,0.0,0.0,0.0,0.0,0,0,0.0,0.0,0,0,14.0,0.0,532.0,4628.205128205129,3930.7692307692314,4511.794871794872,4407.6923076923085,4229.74358974359,4539.48717948718,4440.000000000001,4433.333333333334,4400.000000000001,4707.179487179488,4370.769230769231,4262.051282051282,4155.384615384616,4556.410256410257
794.1981,0.0,0.52905184,0.300872,0.6386825,0,0.0,0.0,0.0,0.0,0.0,0,0,0.0,0.0,0,0,30.0,0.0,0.0,4644.102564102564,3945.6410256410263,4529.2307692307695,4421.025641025642,4240.512820512821,4546.666666666667,4459.48717948718,4466.666666666667,4417.435897435898,4728.205128205129,4387.179487179487,4286.153846153847,4166.153846153847,4567.179487179488
794.1981,0.0,0.52905184,0.300872,0.6386825,0,0.0,0.0,0.0,0.0,0.0,0,0,0.0,0.0,0,0,30.0,0.0,0.0,4644.102564102564,3945.6410256410263,4529.2307692307695,4421.025641025642,4240.512820512821,4546.666666666667,4459.48717948718,4466.666666666667,4417.435897435898,4728.205128205129,4387.179487179487,4286.153846153847,4166.153846153847,4567.179487179488
794.69855,0.0,0.55513257,0.3001351,0.6437103,0,0.0,0.0,0.0,0.0,0.0,0,0,0.0,0.0,0,0,94.0,0.0,532.0,4622.564102564103,3912.820512820513,4507.6923076923085,4393.846153846154,4236.923076923077,4545.641025641026,4456.410256410257,4454.871794871796,4411.282051282052,4698.974358974359,4353.333333333334,4262.051282051282,4146.153846153847,4540.000000000001
794.69855,0.0,0.55513257,0.3001351,0.6437103,0,0.0,0.0,0.0,0.0,0.0,0,0,0.0,0.0,0,0,94.0,0.0,532.0,4622.564102564103,3912.820512820513,4507.6923076923085,4393.846153846154,4236.923076923077,4545.641025641026,4456.410256410257,4454.871794871796,4411.282051282052,4698.974358974359,4353.333333333334,4262.051282051282,4146.153846153847,4540.000000000001
795.199,8.7175827E-4,0.548748,0.29947317,0.6571625,0,0.0,0.0,0.0,0.0,0.0,0,0,0.0,0.0,0,0,29.0,0.0,0.0,4633.846153846154,3935.8974358974365,4513.846153846154,4409.2307692307695,4235.8974358974365,4547.179487179488,4468.717948717949,4474.871794871796,4421.538461538462,4707.179487179488,4370.769230769231,4276.410256410257,4160.512820512821,4549.743589743591
795.199,8.7175827E-4,0.548748,0.29947317,0.6571625,0,0.0,0.0,0.0,0.0,0.0,0,0,0.0,0.0,0,0,29.0,0.0,0.0,4633.846153846154,3935.8974358974365,4513.846153846154,4409.2307692307695,4235.8974358974365,4547.179487179488,4468.717948717949,4474.871794871796,4421.538461538462,4707.179487179488,4370.769230769231,4276.410256410257,4160.512820512821,4549.743589743591
795.69946,0.0,0.54550904,0.30003476,0.6692568,0,0.0,0.0,0.0,0.0,0.0,0,0,0.0,0.0,0,0,93.0,0.0,675.0,4621.025641025642,3928.717948717949,4510.256410256411,4405.128205128206,4226.666666666667,4536.923076923077,4458.461538461539,4445.641025641026,4413.846153846154,4702.051282051282,4369.2307692307695,4263.589743589744,4157.435897435898,4533.846153846154
796.04346,0.0,0.54550904,0.30003476,0.6692568,0,0.0,0.0,0.0,0.0,0.0,0,0,0.0,0.0,0,0,8.0,0.0,427.0,4616.923076923077,3927.692307692308,4501.025641025642,4399.48717948718,4237.948717948719,4544.615384615385,4458.461538461539,4456.410256410257,4412.820512820514,4709.743589743591,4356.410256410257,4257.948717948719,4149.74358974359,4523.076923076924
796.32495,0.0,0.5471641,0.29935652,0.6758545,0,0.0,0.0,0.0,0.0,0.07107681,0,0,0.0,0.0,0,0,44.0,0.0,0.0,4614.358974358975,3911.7948717948725,4496.923076923077,4391.282051282052,4230.256410256411,4540.000000000001,4436.923076923077,4441.538461538462,4410.769230769231,4705.128205128206,4352.820512820514,4251.282051282052,4145.128205128206,4527.6923076923085
796.5752,0.0,0.5471641,0.29935652,0.6758545,1,0.0,0.0,0.0,0.0,0.0,0,0,0.0,0.0,0,0,76.0,0.0,553.0,4659.48717948718,3942.564102564103,4517.435897435898,4410.256410256411,4231.282051282052,4538.974358974359,4442.564102564103,4437.435897435898,4417.435897435898,4703.589743589744,4398.974358974359,4278.461538461539,4202.051282051282,4573.846153846154
796.73157,0.0,0.5639971,0.2975756,0.6716129,0,0.0,0.0,0.0,0.0,0.0,0,0,0.0,0.0,0,0,96.0,0.0,553.0,4618.974358974359,3910.7692307692314,4495.384615384616,4385.641025641026,4236.923076923077,4543.076923076924,4458.461538461539,4452.307692307693,4409.743589743591,4707.179487179488,4360.512820512821,4261.025641025642,4162.051282051282,4538.461538461539
797.0756,0.0,0.5639971,0.2975756,0.6716129,0,0.0,0.0,0.0,0.0,0.0,0,0,0.0,0.0,0,0,11.0,0.0,445.0,4628.205128205129,3923.589743589744,4497.435897435898,4390.256410256411,4247.179487179487,4548.717948717949,4437.435897435898,4439.48717948718,4410.256410256411,4691.794871794872,4366.153846153847,4261.025641025642,4162.051282051282,4563.076923076924
797.20074,0.0,0.5598126,0.29193684,0.66686857,0,0.0,0.0,0.0,0.0,0.0,0,0,0.0,0.0,0,0,27.0,0.0,0.0,4627.179487179488,3921.538461538462,4497.948717948719,4392.307692307693,4234.871794871796,4543.076923076924,4433.846153846154,4449.743589743591,4411.282051282052,4697.435897435898,4370.769230769231,4261.025641025642,4169.2307692307695,4567.179487179488
797.20074,0.0,0.5598126,0.29193684,0.66686857,0,0.0,0.0,0.0,0.0,0.0,0,0,0.0,0.0,0,0,27.0,0.0,0.0,4627.179487179488,3921.538461538462,4497.948717948719,4392.307692307693,4234.871794871796,4543.076923076924,4433.846153846154,4449.743589743591,4411.282051282052,4697.435897435898,4370.769230769231,4261.025641025642,4169.2307692307695,4567.179487179488
797.7012,0.030317552,0.5630519,0.2850193,0.66096205,0,0.0,0.0,0.0,0.0,0.0,0,0,0.0,0.0,0,0,91.0,0.0,445.0,4615.384615384616,3902.564102564103,4487.179487179488,4380.512820512821,4223.076923076924,4530.256410256411,4423.589743589744,4436.410256410257,4402.051282051282,4708.717948717949,4351.282051282052,4238.461538461539,4137.948717948719,4552.307692307693
797.7012,0.030317552,0.5630519,0.2850193,0.66096205,0,0.0,0.0,0.0,0.0,0.0,0,0,0.0,0.0,0,0,91.0,0.0,445.0,4615.384615384616,3902.564102564103,4487.179487179488,4380.512820512821,4223.076923076924,4530.256410256411,4423.589743589744,4436.410256410257,4402.051282051282,4708.717948717949,4351.282051282052,4238.461538461539,4137.948717948719,4552.307692307693
