timestamp,excitement,frustration,meditation,engagementBoredom,blink,clench,laugh,smile,eyebrow,furrowBrow,lookLeft,lookRight,smirkLeft,smirkRight,winkLeft,winkRight,eeg0,eeg1,eeg2,eeg3,eeg4,eeg5,eeg6,eeg7,eeg8,eeg9,eeg10,eeg11,eeg12,eeg13,eeg14,eeg15,eeg16
3371.1392,0.8993794,0.83420885,0.5159221,0.6207616,0,0.0,0.0,0.3177681,0.0,0.0,0,0,0.0,0.0,0,0,54.0,0.0,0.0,4814.871794871796,4151.282051282052,4630.769230769231,4489.2307692307695,4285.128205128206,4622.051282051282,4621.538461538462,4770.769230769231,4704.102564102564,5038.974358974359,4664.102564102564,4639.48717948718,4491.282051282052,4634.871794871796
3371.3894,0.8993794,0.83420885,0.5159221,0.6207616,0,0.0,0.0,0.23444293,0.0,0.0,0,0,0.0,0.0,0,0,86.0,0.0,526.0,4759.48717948718,4136.410256410257,4502.564102564103,4501.025641025642,4323.589743589744,4575.8974358974365,4476.923076923077,4541.025641025642,4498.974358974359,4843.076923076924,4497.435897435898,4436.923076923077,4343.076923076924,4588.717948717949
3371.6396,1.0,0.86569935,0.51143485,0.62164736,0,0.0,0.0,0.0,0.0,0.039537374,0,0,0.0,0.0,0,0,118.0,0.0,526.0,4542.051282051282,4032.820512820513,4430.769230769231,4456.410256410257,4307.6923076923085,4538.461538461539,4404.615384615385,4378.974358974359,4341.538461538462,4704.102564102564,4337.435897435898,4264.102564102564,4137.948717948719,4459.48717948718
3371.89,1.0,0.86569935,0.51143485,0.62164736,0,0.0,0.0,0.0,0.0,0.020980272,0,0,0.0,0.0,0,0,21.0,0.0,0.0,4624.102564102564,3848.205128205129,4612.307692307693,4332.307692307693,4126.153846153847,4549.2307692307695,4631.282051282052,4624.615384615385,4434.358974358975,4768.717948717949,4443.076923076924,4500.512820512821,4214.871794871796,4553.333333333334
3372.1401,0.9913717,0.8940408,0.5073937,0.62244374,0,0.0,0.0,0.0,0.0,0.004860604,0,0,0.0,0.0,0,0,53.0,0.0,0.0,4984.102564102564,3961.538461538462,4946.666666666667,4330.769230769231,4060.5128205128212,4621.538461538462,5016.923076923077,5022.564102564103,4562.564102564103,4955.384615384616,4661.538461538462,4940.512820512821,4585.128205128206,4843.589743589744
3372.3904,0.9913717,0.8940408,0.5073937,0.62244374,0,0.0,0.0,0.0,0.0,0.0,0,0,0.69920826,0.0,0,0,85.0,0.0,454.0,5068.205128205129,4184.102564102564,4974.871794871796,4338.974358974359,4090.2564102564106,4619.48717948718,5015.8974358974365,4982.564102564103,4479.48717948718,4953.333333333334,4617.435897435898,4891.794871794872,4624.615384615385,4841.025641025642
3372.6406,1.0,0.91954815,0.49912792,0.6217763,0,0.0,0.0,0.0,0.0,0.0,0,0,0.0946321,0.0,0,0,117.0,0.0,454.0,5069.2307692307695,4343.076923076924,4856.923076923077,4486.666666666667,4198.974358974359,4620.000000000001,4834.871794871796,4780.000000000001,4454.871794871796,4905.641025641026,4629.743589743591,4553.333333333334,4589.743589743591,4835.8974358974365
3372.8909,1.0,0.91954815,0.49912792,0.6217763,0,0.0,0.0,0.0,0.0,0.0,0,0,0.3426696,0.0,0,0,20.0,0.0,0.0,4898.461538461539,4293.333333333334,4640.512820512821,4552.307692307693,4247.179487179487,4556.923076923077,4574.358974358975,4515.8974358974365,4354.871794871796,4737.435897435898,4445.128205128206,4109.74358974359,4403.076923076924,4745.641025641026
3373.141,1.0,0.9425047,0.49168685,0.62117493,0,0.0,0.0,0.0,0.0,0.0,0,0,0.5920215,0.0,0,0,52.0,0.0,0.0,4737.948717948719,4320.512820512821,4429.2307692307695,4633.846153846154,4315.384615384616,4500.512820512821,4341.538461538462,4209.74358974359,4180.512820512821,4514.871794871796,4150.769230769231,3776.9230769230776,4061.0256410256416,4573.333333333334
3373.391,1.0,0.9425047,0.49168685,0.62117493,0,0.0,0.0,0.15995805,0.0,0.0,0,1,0.0,0.0,0,0,84.0,0.0,504.0,4505.641025641026,4142.051282051282,4252.307692307693,4634.358974358975,4352.307692307693,4450.256410256411,4142.564102564103,3977.9487179487182,4121.538461538462,4415.8974358974365,4110.256410256411,3646.666666666667,3992.820512820513,4503.589743589744
3373.6414,1.0,0.96316564,0.48717952,0.620633,0,0.0,0.0,0.0,0.0,0.0,0,1,0.71240395,0.0,0,0,116.0,0.0,504.0,4386.666666666667,3957.9487179487182,4136.410256410257,4562.564102564103,4324.102564102564,4404.102564102564,4035.8974358974365,3862.564102564103,4068.717948717949,4357.435897435898,4015.8974358974365,3574.8717948717954,3853.8461538461543,4413.846153846154
3373.7666,1.0,0.96316564,0.48717952,0.620633,0,0.0,0.0,0.0,0.0,0.0,0,1,1.0,0.0,0,0,3.0,0.0,541.0,4337.435897435898,3922.0512820512827,4124.615384615385,4536.410256410257,4300.512820512821,4404.615384615385,4023.589743589744,3849.7435897435903,4082.0512820512827,4340.512820512821,3989.23076923077,3592.307692307693,3820.512820512821,4365.641025641026
3374.1418,1.0,0.9817605,0.4869965,0.6271264,0,0.0,0.0,0.0,0.0,0.29371536,0,1,0.0,0.0,0,0,51.0,0.0,0.0,4208.717948717949,3817.435897435898,4132.307692307693,4452.307692307693,4298.974358974359,4427.6923076923085,4078.9743589743593,3907.1794871794878,4115.384615384616,4366.153846153847,3972.820512820513,3698.9743589743593,3815.3846153846157,4281.538461538462
3374.392,1.0,0.9817605,0.4869965,0.6271264,0,0.0,0.0,0.0,0.0,0.113841824,0,1,0.0,0.0,0,0,83.0,0.0,399.0,4232.307692307693,3776.410256410257,4202.564102564103,4417.948717948719,4288.717948717949,4447.6923076923085,4137.435897435898,4012.307692307693,4200.000000000001,4458.974358974359,4027.1794871794878,3820.0000000000005,3882.0512820512827,4283.589743589744
3374.6423,1.0,0.9984958,0.50489056,0.63854,0,0.0,0.0,0.0,0.0,0.07973727,0,1,0.0,0.0,0,0,115.0,0.0,399.0,4222.051282051282,3781.538461538462,4260.512820512821,4394.358974358975,4281.538461538462,4489.2307692307695,4217.435897435898,4113.333333333334,4275.384615384616,4541.025641025642,4093.8461538461543,3923.589743589744,3940.0000000000005,4265.641025641026
3374.8926,1.0,0.9984958,0.50489056,0.63854,0,0.0,0.0,0.0,0.0,0.09637358,0,1,0.0,0.0,0,0,18.0,0.0,0.0,4229.74358974359,3789.7435897435903,4329.743589743591,4378.461538461539,4282.051282051282,4508.205128205129,4295.384615384616,4171.794871794872,4294.358974358975,4584.615384615385,4134.871794871796,4004.615384615385,3978.9743589743593,4266.666666666667
3375.1428,1.0,1.0,0.5209896,0.6488101,0,0.0,0.0,0.0,0.0,0.0,0,1,0.0,0.0,0,0,50.0,0.0,0.0,4268.717948717949,3780.0000000000005,4376.410256410257,4378.461538461539,4265.128205128206,4537.948717948719,4344.102564102564,4248.717948717949,4351.282051282052,4642.051282051282,4195.384615384616,4077.9487179487187,4017.9487179487182,4262.051282051282
3375.299,1.0,1.0,0.5209896,0.6488101,0,0.0,0.0,0.0,0.0,0.0,0,0,0.0,0.0,0,0,70.0,0.0,536.0,4296.410256410257,3802.0512820512827,4403.076923076924,4382.051282051282,4260.512820512821,4539.48717948718,4351.282051282052,4261.025641025642,4358.461538461539,4668.717948717949,4215.384615384616,4104.615384615385,4042.564102564103,4268.205128205129
3375.518,1.0,1.0,0.53547263,0.66010624,0,0.0,0.0,0.0,0.0,0.0,0,0,0.0,0.0,0,0,98.0,0.0,529.0,4289.74358974359,3816.410256410257,4434.871794871796,4403.589743589744,4264.102564102564,4553.846153846154,4386.666666666667,4316.410256410257,4383.076923076924,4696.923076923077,4249.74358974359,4153.846153846154,4067.1794871794878,4282.564102564103
3375.518,1.0,1.0,0.53547263,0.66010624,0,0.0,0.0,0.0,0.0,0.0,0,0,0.0,0.0,0,0,98.0,0.0,529.0,4289.74358974359,3816.410256410257,4434.871794871796,4403.589743589744,4264.102564102564,4553.846153846154,4386.666666666667,4316.410256410257,4383.076923076924,4696.923076923077,4249.74358974359,4153.846153846154,4067.1794871794878,4282.564102564103
3376.0186,1.0,1.0,0.53695077,0.6815108,0,0.0,0.0,0.0,0.0,0.0,0,0,0.0,0.0,0,0,33.0,0.0,0.0,4348.717948717949,3798.461538461539,4474.358974358975,4394.871794871796,4223.076923076924,4570.769230769231,4426.666666666667,4386.666666666667,4398.461538461539,4695.384615384616,4311.282051282052,4227.6923076923085,4092.820512820513,4308.205128205129
3376.3938,1.0,1.0,0.53695077,0.6815108,0,0.0,0.0,0.0,0.0,0.05991271,0,0,0.0,0.0,1,0,81.0,0.0,467.0,4397.435897435898,3794.358974358975,4635.8974358974365,4353.846153846154,4094.8717948717954,4597.435897435898,4610.256410256411,4597.948717948719,4470.256410256411,4729.743589743591,4361.025641025642,4441.538461538462,4077.9487179487187,4290.769230769231
3376.644,0.95021313,1.0,0.5139782,0.7039766,0,0.0,0.0,0.0,0.0,0.07411308,0,0,0.0,0.0,0,0,113.0,0.0,467.0,4563.589743589744,3860.512820512821,4736.410256410257,4409.743589743591,4104.615384615385,4614.358974358975,4704.102564102564,4698.461538461539,4520.000000000001,4781.538461538462,4446.153846153847,4556.410256410257,4217.435897435898,4354.358974358975
3376.8943,0.95021313,1.0,0.5139782,0.7039766,0,0.0,0.0,0.0,0.0,0.7037859,0,0,0.0,0.0,0,0,16.0,0.0,0.0,4656.410256410257,3964.615384615385,4732.307692307693,4470.769230769231,4169.2307692307695,4587.6923076923085,4671.282051282052,4658.974358974359,4478.974358974359,4776.923076923077,4456.410256410257,4523.589743589744,4263.589743589744,4404.102564102564
3377.1445,1.0,1.0,0.49330273,0.71418357,0,0.0,0.0,0.0,0.0,0.02191098,0,0,0.0,0.0,0,0,48.0,0.0,0.0,4657.435897435898,4018.9743589743593,4666.666666666667,4505.128205128206,4233.846153846154,4569.743589743591,4590.256410256411,4580.000000000001,4410.256410256411,4743.589743589744,4382.564102564103,4474.871794871796,4258.461538461539,4406.666666666667
3377.3945,1.0,1.0,0.49330273,0.71418357,0,0.0,0.0,0.0,0.0,0.00819998,0,0,0.0,0.0,0,0,80.0,0.0,504.0,4662.564102564103,4005.1282051282055,4584.102564102564,4522.564102564103,4263.076923076924,4556.410256410257,4524.615384615385,4513.333333333334,4408.717948717949,4768.205128205129,4366.153846153847,4390.769230769231,4264.615384615385,4400.512820512821
3377.6448,1.0,1.0,0.47469428,0.7152044,0,0.0,0.0,0.42130786,0.0,0.0,0,0,0.0,0.0,0,0,112.0,0.0,504.0,4668.717948717949,3940.5128205128212,4569.743589743591,4508.205128205129,4207.179487179487,4607.179487179488,4535.8974358974365,4551.794871794872,4540.000000000001,4901.025641025642,4497.948717948719,4404.102564102564,4377.435897435898,4443.076923076924
3377.8325,1.0,1.0,0.47469428,0.7152044,0,0.0,0.0,1.0,0.0,0.0,0,0,0.0,0.0,0,1,7.0,0.0,475.0,4685.641025641026,3907.1794871794878,4564.102564102564,4504.615384615385,4200.000000000001,4640.000000000001,4570.769230769231,4634.358974358975,4674.871794871796,5060.512820512821,4664.615384615386,4486.153846153847,4570.769230769231,4511.794871794872
3378.1453,1.0,1.0,0.45380977,0.70595276,0,0.0,0.0,0.43938267,0.0,0.0,0,0,0.0,0.0,0,0,47.0,0.0,0.0,4732.307692307693,3967.692307692308,4553.846153846154,4536.410256410257,4235.384615384616,4661.538461538462,4568.205128205129,4643.589743589744,4705.128205128206,5071.282051282052,4667.6923076923085,4489.2307692307695,4544.615384615385,4509.2307692307695
3378.3955,1.0,1.0,0.45380977,0.70595276,0,0.0,0.0,0.0,0.0,0.120255925,0,0,0.0,0.0,0,0,79.0,0.0,399.0,4673.846153846154,3957.9487179487182,4489.2307692307695,4506.666666666667,4241.025641025642,4626.153846153847,4490.769230769231,4584.615384615385,4632.307692307693,4970.769230769231,4566.153846153847,4411.794871794872,4411.282051282052,4472.307692307693
3378.6458,1.0,1.0,0.4384992,0.68006647,0,0.0,0.0,0.0,0.0,0.14903319,0,0,0.0,0.0,0,0,111.0,0.0,399.0,4669.2307692307695,4002.0512820512827,4462.564102564103,4491.282051282052,4262.051282051282,4592.820512820514,4434.358974358975,4490.256410256411,4530.256410256411,4874.358974358975,4463.589743589744,4322.564102564103,4289.74358974359,4454.871794871796
3378.896,1.0,1.0,0.4384992,0.68006647,0,0.0,0.0,0.0,0.0,0.32257727,0,0,0.0,0.0,0,0,14.0,0.0,533.0,4721.538461538462,3957.435897435898,4443.589743589744,4440.000000000001,4263.076923076924,4541.025641025642,4383.076923076924,4401.025641025642,4397.948717948719,4725.641025641026,4363.076923076924,4261.538461538462,4155.384615384616,4441.025641025642
3379.1462,0.97069854,1.0,0.43787068,0.6539896,0,0.0,0.0,0.0,0.0,0.007757949,0,0,0.0,0.0,0,0,46.0,0.0,0.0,4781.538461538462,3767.692307692308,4589.2307692307695,4277.435897435898,4127.6923076923085,4573.333333333334,4566.666666666667,4572.307692307693,4428.205128205129,4730.769230769231,4371.794871794872,4425.128205128206,4105.128205128206,4447.179487179487
3379.3965,0.97069854,1.0,0.43787068,0.6539896,0,0.0,0.0,0.0,0.0,0.0031346604,0,0,0.0,0.0,0,0,78.0,0.0,533.0,5084.102564102564,3920.0000000000005,5020.000000000001,4269.2307692307695,4032.307692307693,4699.48717948718,5019.48717948718,5062.564102564103,4630.769230769231,4996.410256410257,4592.307692307693,4909.2307692307695,4385.641025641026,4626.153846153847
3379.6465,1.0,1.0,0.44660607,0.63052225,0,0.0,0.0,0.15206924,0.0,0.0,0,0,0.0,0.0,0,0,110.0,0.0,533.0,5285.641025641026,4248.205128205129,5144.102564102564,4319.48717948718,4090.2564102564106,4678.461538461539,5098.461538461539,5206.153846153847,4624.615384615385,5133.846153846154,4752.307692307693,5087.179487179488,4682.564102564103,4765.128205128206
3379.8967,1.0,1.0,0.44660607,0.63052225,0,0.0,0.0,0.0,0.0,0.0,0,0,0.0,0.0,0,0,13.0,0.0,452.0,5213.846153846154,4398.461538461539,4989.743589743591,4475.8974358974365,4186.153846153847,4632.307692307693,4855.384615384616,4994.871794871796,4538.461538461539,5035.8974358974365,4714.358974358975,4628.205128205129,4693.846153846154,4751.282051282052
3380.147,1.0,1.0,0.45446566,0.6121851,0,0.0,0.0,0.0,0.0,0.0,0,0,0.30996445,0.0,0,0,45.0,0.0,0.0,5151.794871794872,4411.282051282052,4797.948717948719,4572.820512820514,4247.179487179487,4570.256410256411,4634.358974358975,4738.461538461539,4473.333333333334,4881.538461538462,4588.717948717949,4329.2307692307695,4551.282051282052,4721.025641025642
3380.3972,1.0,1.0,0.45446566,0.6121851,0,0.0,0.0,0.0,0.0,0.0,0,0,0.41907853,0.0,0,0,77.0,0.0,467.0,5078.461538461539,4416.410256410257,4604.615384615385,4674.871794871796,4335.384615384616,4491.282051282052,4442.564102564103,4415.8974358974365,4334.358974358975,4657.948717948719,4398.974358974359,4004.615384615385,4330.769230769231,4669.2307692307695
3380.6475,1.0,1.0,0.4490521,0.60164076,0,0.0,0.0,0.0,0.0,0.0,0,0,0.7291587,0.0,0,0,109.0,0.0,467.0,4684.102564102564,4294.358974358975,4365.641025641026,4714.358974358975,4440.512820512821,4486.666666666667,4277.948717948719,4150.769230769231,4213.333333333334,4474.871794871796,4180.512820512821,3752.820512820513,4069.7435897435903,4483.589743589744
3380.7725,1.0,1.0,0.4490521,0.60164076,0,0.0,0.0,0.0,0.0,0.0,0,0,1.0,0.0,0,0,125.0,0.0,467.0,4570.769230769231,4227.179487179487,4278.461538461539,4733.846153846154,4484.102564102564,4472.307692307693,4196.923076923077,4055.3846153846157,4174.358974358975,4407.6923076923085,4088.205128205129,3686.1538461538466,3984.1025641025644,4439.48717948718
3381.148,1.0,1.0,0.44676653,0.5979901,0,0.0,0.0,0.0,0.0,0.0,0,0,0.0,0.0,0,0,44.0,0.0,0.0,4362.564102564103,4018.9743589743593,4169.74358974359,4676.410256410257,4510.769230769231,4474.358974358975,4092.820512820513,3920.0000000000005,4136.410256410257,4350.256410256411,3983.589743589744,3669.2307692307695,3874.8717948717954,4324.615384615385
3381.3982,1.0,1.0,0.44676653,0.5979901,0,0.0,0.0,0.0,0.0,0.18055499,0,0,0.0,0.0,0,0,76.0,0.0,503.0,4277.948717948719,3916.410256410257,4167.6923076923085,4585.641025641026,4468.717948717949,4492.820512820514,4137.948717948719,3954.8717948717954,4177.948717948719,4381.538461538462,3960.5128205128212,3727.1794871794878,3849.7435897435903,4271.794871794872
3381.6482,1.0,1.0,0.44079444,0.5947042,0,0.0,0.0,0.0,0.0,0.21076588,0,0,0.0,0.0,0,0,108.0,0.0,503.0,4390.256410256411,3904.615384615385,4248.205128205129,4556.923076923077,4407.6923076923085,4471.794871794872,4155.8974358974365,3996.9230769230776,4202.051282051282,4424.615384615385,3995.8974358974365,3843.076923076924,3895.3846153846157,4281.025641025642
3381.8984,1.0,1.0,0.44079444,0.5947042,0,0.0,0.0,0.0,0.0,0.1407651,0,0,0.0,0.0,0,0,11.0,0.0,398.0,4290.769230769231,3776.410256410257,4263.589743589744,4476.923076923077,4372.307692307693,4496.410256410257,4216.923076923077,4092.307692307693,4263.589743589744,4476.923076923077,4005.1282051282055,3903.589743589744,3895.3846153846157,4231.282051282052
3382.1487,1.0,1.0,0.4313513,0.59174657,0,0.0,0.0,0.0,0.0,0.045681853,0,0,0.0,0.0,0,0,43.0,0.0,0.0,4330.769230769231,3771.794871794872,4392.820512820514,4447.179487179487,4366.666666666667,4525.128205128206,4302.564102564103,4182.564102564103,4320.512820512821,4575.384615384616,4116.923076923077,4030.2564102564106,4000.5128205128212,4251.282051282052
3382.399,1.0,1.0,0.4313513,0.59174657,0,0.0,0.0,0.0,0.0,0.14574106,0,0,0.0,0.0,0,0,75.0,0.0,400.0,4337.948717948719,3830.7692307692314,4393.846153846154,4424.615384615385,4338.974358974359,4558.974358974359,4366.153846153847,4234.871794871796,4351.282051282052,4617.435897435898,4138.974358974359,4057.9487179487182,3974.8717948717954,4183.076923076924
3382.6492,1.0,1.0,0.4177575,0.5839746,0,0.0,0.0,0.0,0.0,0.18534479,0,0,0.0,0.0,0,0,107.0,0.0,400.0,4413.846153846154,3800.0000000000005,4465.128205128206,4449.2307692307695,4369.2307692307695,4595.384615384616,4427.6923076923085,4344.615384615385,4413.333333333334,4702.564102564103,4245.641025641026,4152.820512820514,4066.1538461538466,4233.333333333334
3382.8994,1.0,1.0,0.4177575,0.5839746,1,0.0,0.0,0.0,0.0,1.0,0,0,0.0,0.0,0,0,10.0,0.0,530.0,4552.307692307693,3845.6410256410263,4452.307692307693,4425.641025641026,4344.102564102564,4594.871794871796,4454.871794871796,4354.871794871796,4414.871794871796,4695.8974358974365,4306.153846153847,4249.74358974359,4122.564102564103,4293.846153846154
3383.1497,1.0,1.0,0.41061682,0.57697964,0,0.0,0.0,0.0,0.0,0.0,0,0,0.0,0.0,0,0,42.0,0.0,0.0,4753.846153846154,3953.8461538461543,4520.000000000001,4357.435897435898,4389.743589743591,4648.205128205129,4507.6923076923085,4417.948717948719,4474.358974358975,4727.6923076923085,4371.794871794872,4336.410256410257,4171.282051282052,4386.666666666667
3383.2747,1.0,1.0,0.41061682,0.57697964,0,0.0,0.0,0.0,0.0,1.0,0,0,0.0,0.0,1,0,58.0,0.0,0.0,4818.461538461539,3931.2820512820517,4494.871794871796,4378.974358974359,4375.8974358974365,4605.641025641026,4457.948717948719,4371.794871794872,4404.615384615385,4680.000000000001,4253.846153846154,4276.410256410257,4070.7692307692314,4345.128205128206
3383.6501,0.9568211,1.0,0.41024587,0.57068396,0,0.0,0.0,0.0,0.0,0.73288643,0,0,0.0,0.0,0,0,106.0,0.0,530.0,4608.717948717949,3861.538461538462,4495.8974358974365,4343.076923076924,4311.794871794872,4608.205128205129,4493.846153846154,4447.6923076923085,4507.179487179488,4779.48717948718,4333.846153846154,4378.974358974359,4171.282051282052,4372.307692307693
3383.9001,0.9568211,1.0,0.41024587,0.57068396,0,0.0,0.0,0.0,0.0,0.4714752,0,0,0.0,0.0,0,0,9.0,0.0,482.0,4676.923076923077,3924.1025641025644,4524.615384615385,4366.666666666667,4314.358974358975,4600.000000000001,4471.794871794872,4425.641025641026,4474.871794871796,4776.923076923077,4380.512820512821,4396.410256410257,4204.102564102564,4434.358974358975
3384.1504,0.9276781,1.0,0.41397998,0.56139296,0,0.0,0.0,0.0,0.0,0.33092734,0,0,0.0,0.0,1,0,41.0,0.0,0.0,4628.717948717949,3886.666666666667,4550.769230769231,4398.461538461539,4323.589743589744,4594.358974358975,4463.076923076924,4456.923076923077,4458.461538461539,4780.000000000001,4382.051282051282,4415.384615384616,4172.820512820514,4413.846153846154
3384.4006,0.9276781,1.0,0.41397998,0.56139296,0,0.0,0.0,0.0,0.0,0.32897395,0,0,0.0,0.0,0,0,73.0,0.0,482.0,4525.128205128206,3850.7692307692314,4509.2307692307695,4396.923076923077,4301.538461538462,4568.205128205129,4435.384615384616,4411.794871794872,4373.846153846154,4666.153846153847,4289.74358974359,4342.051282051282,4050.2564102564106,4369.743589743591
3384.651,0.95030355,1.0,0.42444885,0.55353975,0,0.0,0.0,0.0,0.0,0.26446995,0,0,0.0,0.0,0,0,105.0,0.0,467.0,4615.8974358974365,3864.615384615385,4528.205128205129,4381.025641025642,4194.871794871796,4564.102564102564,4444.102564102564,4391.282051282052,4313.846153846154,4574.358974358975,4220.512820512821,4297.948717948719,3938.461538461539,4331.282051282052
3384.776,0.95030355,1.0,0.42444885,0.55353975,0,0.0,0.0,0.0,0.0,0.0,0,0,0.0,0.0,0,0,121.0,0.0,467.0,4697.948717948719,3879.48717948718,4569.743589743591,4381.538461538462,4182.051282051282,4586.666666666667,4475.8974358974365,4429.743589743591,4319.48717948718,4590.256410256411,4248.205128205129,4317.948717948719,3972.307692307693,4347.179487179487
3385.0261,0.9205019,1.0,0.4439467,0.5580143,0,0.0,0.0,0.0,0.0,0.0,0,0,0.0,0.0,0,0,24.0,0.0,0.0,4747.6923076923085,3937.9487179487182,4616.410256410257,4401.025641025642,4169.2307692307695,4611.794871794872,4509.2307692307695,4410.769230769231,4298.974358974359,4607.179487179488,4277.948717948719,4315.384615384616,4025.6410256410263,4330.769230769231
3385.4016,0.9205019,1.0,0.4439467,0.5580143,0,0.0,0.0,0.0,0.0,0.344372,0,0,0.0,0.0,0,0,72.0,0.0,504.0,4711.282051282052,3892.307692307693,4645.641025641026,4382.564102564103,4182.564102564103,4606.153846153847,4541.538461538462,4487.179487179488,4392.307692307693,4713.846153846154,4384.615384615385,4384.615384615385,4200.512820512821,4391.794871794872
3385.6519,0.9108919,1.0,0.46149185,0.56372416,0,0.0,0.0,0.0,0.0,0.13414447,0,0,0.0,0.0,0,0,104.0,0.0,503.0,4993.333333333334,3865.1282051282055,4869.2307692307695,4372.820512820514,4088.205128205129,4604.615384615385,4732.307692307693,4733.846153846154,4505.128205128206,4835.384615384616,4449.743589743591,4663.076923076924,4316.923076923077,4502.564102564103
3385.9019,0.9108919,1.0,0.46149185,0.56372416,0,0.0,0.0,0.0,0.0,0.0,0,0,0.0,0.0,0,1,7.0,0.0,463.0,5303.589743589744,4008.717948717949,5198.974358974359,4491.282051282052,4139.48717948718,4728.717948717949,5092.307692307693,5161.538461538462,4723.076923076924,5105.128205128206,4690.769230769231,5042.564102564103,4675.384615384616,4655.384615384616
3386.0583,1.0,1.0,0.47779232,0.5606215,0,0.0,0.0,0.0,0.0,0.0,0,0,0.0,0.0,0,0,27.0,0.0,0.0,5470.256410256411,4173.846153846154,5266.666666666667,4552.820512820514,4187.179487179487,4762.051282051282,5134.871794871796,5228.205128205129,4776.410256410257,5233.846153846154,4723.076923076924,5148.717948717949,4915.8974358974365,4779.48717948718
3386.0583,1.0,1.0,0.47779232,0.5606215,0,0.0,0.0,0.0,0.0,0.0,0,0,0.0,0.0,0,0,27.0,0.0,0.0,5470.256410256411,4173.846153846154,5266.666666666667,4552.820512820514,4187.179487179487,4762.051282051282,5134.871794871796,5228.205128205129,4776.410256410257,5233.846153846154,4723.076923076924,5148.717948717949,4915.8974358974365,4779.48717948718
3386.6526,1.0,1.0,0.49380434,0.5528428,0,0.0,0.0,0.0,0.0,0.025942633,0,0,0.0,0.0,0,0,103.0,0.0,394.0,5149.2307692307695,4299.48717948718,4797.948717948719,4566.666666666667,4298.461538461539,4614.871794871796,4650.769230769231,4729.743589743591,4504.102564102564,4980.512820512821,4508.205128205129,4348.717948717949,4609.743589743591,4632.820512820514
3386.7778,1.0,1.0,0.49380434,0.5528428,0,0.0,0.0,0.0,0.0,0.0,0,0,0.0,0.0,0,0,119.0,0.0,394.0,5017.435897435898,4280.000000000001,4724.102564102564,4539.48717948718,4287.6923076923085,4601.538461538462,4593.846153846154,4639.48717948718,4446.153846153847,4873.846153846154,4466.153846153847,4246.153846153847,4513.846153846154,4585.128205128206
3387.0278,1.0,1.0,0.51488817,0.5273302,0,0.0,0.0,0.0,0.0,0.0,0,0,0.0,0.0,0,0,22.0,0.0,0.0,4829.2307692307695,4269.2307692307695,4569.2307692307695,4496.410256410257,4262.051282051282,4530.769230769231,4474.871794871796,4432.820512820514,4322.564102564103,4677.435897435898,4328.205128205129,4041.538461538462,4300.000000000001,4456.923076923077
3387.0278,1.0,1.0,0.51488817,0.5273302,0,0.0,0.0,0.0,0.0,0.0,0,0,0.0,0.0,0,0,22.0,0.0,0.0,4829.2307692307695,4269.2307692307695,4569.2307692307695,4496.410256410257,4262.051282051282,4530.769230769231,4474.871794871796,4432.820512820514,4322.564102564103,4677.435897435898,4328.205128205129,4041.538461538462,4300.000000000001,4456.923076923077
3387.5283,1.0,1.0,0.533857,0.50935656,0,0.0,0.0,0.0,0.0,0.0,0,0,0.0,0.0,0,0,86.0,0.0,533.0,4647.179487179488,4090.7692307692314,4304.615384615385,4480.000000000001,4272.307692307693,4471.282051282052,4252.307692307693,4122.564102564103,4200.512820512821,4492.820512820514,4173.846153846154,3849.2307692307695,4024.615384615385,4339.48717948718
3387.5283,1.0,1.0,0.533857,0.50935656,0,0.0,0.0,0.0,0.0,0.0,0,0,0.0,0.0,0,0,86.0,0.0,533.0,4647.179487179488,4090.7692307692314,4304.615384615385,4480.000000000001,4272.307692307693,4471.282051282052,4252.307692307693,4122.564102564103,4200.512820512821,4492.820512820514,4173.846153846154,3849.2307692307695,4024.615384615385,4339.48717948718
3388.1538,0.99617827,1.0,0.547638,0.49318117,0,0.0,0.0,0.0,0.0,0.6117502,0,0,0.0,0.0,0,0,37.0,0.0,0.0,4503.589743589744,3862.564102564103,4232.307692307693,4473.333333333334,4306.153846153847,4492.307692307693,4231.794871794872,4127.6923076923085,4263.589743589744,4584.615384615385,4134.358974358975,3940.0000000000005,4003.076923076924,4359.48717948718
3388.404,0.99617827,1.0,0.547638,0.49318117,0,0.0,0.0,0.0,0.0,0.3548133,0,0,0.0,0.0,0,0,69.0,0.0,558.0,4447.6923076923085,3866.666666666667,4285.128205128206,4473.846153846154,4318.974358974359,4512.820512820514,4263.076923076924,4181.538461538462,4305.641025641026,4615.384615384616,4136.923076923077,4006.666666666667,3992.307692307693,4331.282051282052
3388.6543,1.0,1.0,0.5600337,0.48257807,0,0.0,0.0,0.0,0.0,0.21813694,0,0,0.0,0.0,0,0,101.0,0.0,467.0,4386.153846153847,3837.435897435898,4318.461538461539,4439.48717948718,4294.358974358975,4507.6923076923085,4292.307692307693,4203.076923076924,4294.358974358975,4602.051282051282,4123.076923076924,4041.538461538462,3935.3846153846157,4277.948717948719
3388.9045,1.0,1.0,0.5600337,0.48257807,0,0.0,0.0,0.0,0.0,0.026156414,0,0,0.0,0.0,0,0,4.0,0.0,554.0,4443.589743589744,3743.076923076924,4436.923076923077,4400.000000000001,4230.769230769231,4536.410256410257,4405.641025641026,4308.205128205129,4288.717948717949,4572.307692307693,4112.307692307693,4159.48717948718,3895.3846153846157,4262.564102564103
3389.1548,1.0,1.0,0.55913025,0.49802536,0,0.0,0.0,0.0,0.0,0.015662322,0,0,0.0,0.0,0,0,36.0,0.0,0.0,4571.282051282052,3728.717948717949,4627.179487179488,4366.153846153847,4123.589743589744,4569.743589743591,4618.974358974359,4462.051282051282,4250.256410256411,4541.025641025642,4097.948717948719,4348.205128205129,3962.0512820512827,4322.564102564103
3389.405,1.0,1.0,0.55913025,0.49802536,0,0.0,0.0,0.0,0.0,0.0,0,0,0.0,0.0,0,0,68.0,0.0,554.0,4693.846153846154,3854.8717948717954,4724.102564102564,4386.666666666667,4106.153846153847,4571.282051282052,4717.948717948719,4504.615384615385,4204.615384615385,4574.358974358975,4167.6923076923085,4420.512820512821,4078.9743589743593,4391.282051282052
3389.53,1.0,1.0,0.5381856,0.5119279,0,0.0,0.0,0.0,0.0,0.0,0,0,0.0,0.0,0,0,84.0,0.0,503.0,4708.205128205129,3909.2307692307695,4715.384615384616,4402.051282051282,4136.410256410257,4580.000000000001,4720.512820512821,4509.2307692307695,4230.769230769231,4611.282051282052,4238.974358974359,4413.846153846154,4138.974358974359,4412.307692307693
3389.53,1.0,1.0,0.5381856,0.5119279,0,0.0,0.0,0.0,0.0,0.0,0,0,0.0,0.0,0,0,84.0,0.0,503.0,4708.205128205129,3909.2307692307695,4715.384615384616,4402.051282051282,4136.410256410257,4580.000000000001,4720.512820512821,4509.2307692307695,4230.769230769231,4611.282051282052,4238.974358974359,4413.846153846154,4138.974358974359,4412.307692307693
3390.0305,0.986585,1.0,0.51735485,0.52444035,0,0.0,0.0,0.0,0.0,0.0,0,0,0.0,0.0,0,0,19.0,0.0,0.0,4645.641025641026,3982.564102564103,4535.8974358974365,4458.461538461539,4224.102564102564,4554.358974358975,4536.410256410257,4394.871794871796,4332.307692307693,4686.666666666667,4323.076923076924,4233.846153846154,4218.974358974359,4418.461538461539
3390.0305,0.986585,1.0,0.51735485,0.52444035,0,0.0,0.0,0.0,0.0,0.0,0,0,0.0,0.0,0,0,19.0,0.0,0.0,4645.641025641026,3982.564102564103,4535.8974358974365,4458.461538461539,4224.102564102564,4554.358974358975,4536.410256410257,4394.871794871796,4332.307692307693,4686.666666666667,4323.076923076924,4233.846153846154,4218.974358974359,4418.461538461539
3390.531,0.95926493,1.0,0.4949944,0.53653747,0,0.0,0.0,0.0,0.0,0.0,0,0,0.0,0.0,0,0,83.0,0.0,399.0,4440.512820512821,3896.9230769230776,4393.333333333334,4442.051282051282,4291.794871794872,4535.8974358974365,4365.128205128206,4320.512820512821,4422.564102564103,4748.717948717949,4298.461538461539,4140.000000000001,4191.282051282052,4349.743589743591
3390.531,0.95926493,1.0,0.4949944,0.53653747,0,0.0,0.0,0.0,0.0,0.0,0,0,0.0,0.0,0,0,83.0,0.0,399.0,4440.512820512821,3896.9230769230776,4393.333333333334,4442.051282051282,4291.794871794872,4535.8974358974365,4365.128205128206,4320.512820512821,4422.564102564103,4748.717948717949,4298.461538461539,4140.000000000001,4191.282051282052,4349.743589743591
3391.0312,1.0,1.0,0.47486958,0.53471434,0,0.0,0.0,0.0,0.0,0.0,0,0,0.0,0.0,0,0,18.0,0.0,0.0,4376.923076923077,3863.589743589744,4410.256410256411,4410.769230769231,4277.948717948719,4522.051282051282,4333.333333333334,4326.666666666667,4448.205128205129,4764.615384615386,4271.794871794872,4183.076923076924,4137.435897435898,4313.846153846154
3391.4067,1.0,1.0,0.47486958,0.53471434,0,0.0,0.0,0.0,0.0,0.1481299,0,0,0.0,0.0,0,0,66.0,0.0,459.0,4434.871794871796,3837.435897435898,4466.153846153847,4399.48717948718,4250.769230769231,4541.538461538462,4383.589743589744,4382.051282051282,4489.2307692307695,4781.538461538462,4303.589743589744,4252.307692307693,4138.461538461539,4321.025641025642
3391.657,0.97885674,1.0,0.46036994,0.51883894,0,0.0,0.0,0.0,0.0,0.0,0,0,0.0,0.0,0,0,98.0,0.0,533.0,4417.948717948719,3817.435897435898,4470.256410256411,4371.794871794872,4221.538461538462,4543.076923076924,4411.794871794872,4408.717948717949,4475.8974358974365,4776.923076923077,4292.820512820514,4254.358974358975,4126.666666666667,4327.6923076923085
3391.657,0.97885674,1.0,0.46036994,0.51883894,0,0.0,0.0,0.0,0.0,0.0,0,0,0.0,0.0,0,0,98.0,0.0,533.0,4417.948717948719,3817.435897435898,4470.256410256411,4371.794871794872,4221.538461538462,4543.076923076924,4411.794871794872,4408.717948717949,4475.8974358974365,4776.923076923077,4292.820512820514,4254.358974358975,4126.666666666667,4327.6923076923085
3392.0322,0.92352915,1.0,0.44370538,0.49862763,0,0.0,0.0,0.0,0.0,0.0,0,0,0.0,0.0,0,0,17.0,0.0,0.0,4474.358974358975,3803.589743589744,4506.153846153847,4373.333333333334,4216.410256410257,4548.717948717949,4428.717948717949,4420.512820512821,4464.102564102564,4777.948717948719,4320.512820512821,4293.333333333334,4140.512820512821,4316.923076923077
3392.4075,0.92352915,1.0,0.44370538,0.49862763,0,0.0,0.0,0.0,0.0,0.5538269,0,0,0.0,0.0,0,0,65.0,0.0,487.0,4487.6923076923085,3841.538461538462,4507.6923076923085,4376.923076923077,4215.384615384616,4540.512820512821,4428.205128205129,4414.358974358975,4426.153846153847,4750.769230769231,4333.333333333334,4294.358974358975,4137.948717948719,4327.179487179487
3392.6577,0.87230265,1.0,0.42565116,0.4819626,0,0.0,0.0,0.0,0.0,0.19728597,0,0,0.0,0.0,0,0,97.0,0.0,470.0,4515.384615384616,3894.358974358975,4522.051282051282,4393.333333333334,4218.974358974359,4541.025641025642,4428.717948717949,4402.564102564103,4406.666666666667,4747.179487179488,4321.025641025642,4301.538461538462,4113.333333333334,4328.205128205129
3392.908,0.87230265,1.0,0.42565116,0.4819626,0,0.0,0.0,0.0,0.0,0.13722937,0,0,0.0,0.0,0,0,0.0,0.0,483.0,4528.717948717949,3872.307692307693,4513.333333333334,4383.589743589744,4231.282051282052,4554.871794871796,4443.589743589744,4428.205128205129,4416.923076923077,4753.333333333334,4334.358974358975,4295.384615384616,4124.615384615385,4340.512820512821
3393.0332,0.7716878,1.0,0.41318426,0.46944973,0,0.0,0.0,0.0,0.0,0.0,0,0,0.0,0.0,0,0,16.0,0.0,0.0,4539.48717948718,3861.538461538462,4516.923076923077,4377.948717948719,4216.410256410257,4536.410256410257,4419.48717948718,4392.820512820514,4391.282051282052,4729.2307692307695,4327.179487179487,4297.435897435898,4108.717948717949,4341.025641025642
3393.0332,0.7716878,1.0,0.41318426,0.46944973,0,0.0,0.0,0.0,0.0,0.0,0,0,0.0,0.0,0,0,16.0,0.0,0.0,4539.48717948718,3861.538461538462,4516.923076923077,4377.948717948719,4216.410256410257,4536.410256410257,4419.48717948718,4392.820512820514,4391.282051282052,4729.2307692307695,4327.179487179487,4297.435897435898,4108.717948717949,4341.025641025642
3393.6587,0.64405227,0.9891077,0.40196317,0.45819032,1,0.0,0.0,0.0,0.0,0.0,0,0,0.0,0.0,0,0,96.0,0.0,503.0,4645.641025641026,3875.3846153846157,4528.717948717949,4390.256410256411,4203.076923076924,4526.153846153847,4410.256410256411,4373.846153846154,4373.333333333334,4706.666666666667,4362.051282051282,4336.410256410257,4123.589743589744,4374.871794871796
3393.815,0.64405227,0.9891077,0.40196317,0.45819032,0,0.0,0.0,0.0,0.0,0.0,0,0,0.0,0.0,0,0,116.0,0.0,503.0,4579.48717948718,3854.358974358975,4517.435897435898,4378.974358974359,4202.051282051282,4534.871794871796,4441.025641025642,4400.000000000001,4385.128205128206,4708.205128205129,4353.333333333334,4310.769230769231,4106.153846153847,4351.794871794872
3394.1592,0.5874276,0.96876484,0.3879788,0.46689427,0,0.0,0.0,0.0,0.0,0.0,0,0,0.0,0.0,0,0,31.0,0.0,0.0,4542.564102564103,3849.7435897435903,4522.564102564103,4365.128205128206,4173.846153846154,4510.256410256411,4447.179487179487,4391.794871794872,4364.615384615385,4676.923076923077,4363.076923076924,4309.743589743591,4093.333333333334,4326.666666666667
3394.1592,0.5874276,0.96876484,0.3879788,0.46689427,0,0.0,0.0,0.0,0.0,0.0,0,0,0.0,0.0,0,0,31.0,0.0,0.0,4542.564102564103,3849.7435897435903,4522.564102564103,4365.128205128206,4173.846153846154,4510.256410256411,4447.179487179487,4391.794871794872,4364.615384615385,4676.923076923077,4363.076923076924,4309.743589743591,4093.333333333334,4326.666666666667
3394.6594,0.5373868,0.9432627,0.3743961,0.47472796,0,0.0,0.0,0.0,0.0,0.024608737,0,0,0.0,0.0,0,0,95.0,0.0,399.0,4696.410256410257,3868.717948717949,4661.025641025642,4335.8974358974365,4108.717948717949,4572.820512820514,4588.717948717949,4606.666666666667,4476.410256410257,4736.410256410257,4425.128205128206,4486.666666666667,4178.974358974359,4366.153846153847
3394.9097,0.5373868,0.9432627,0.3743961,0.47472796,0,0.0,0.0,0.0,0.0,0.20698154,0,0,0.0,0.0,0,0,127.0,0.0,399.0,4784.615384615386,3944.1025641025644,4691.282051282052,4380.512820512821,4153.846153846154,4593.846153846154,4618.461538461539,4640.000000000001,4503.076923076924,4778.974358974359,4488.205128205129,4520.000000000001,4270.256410256411,4416.410256410257
3395.16,0.68290037,0.92051727,0.36217117,0.48829845,0,0.0,0.0,0.0,0.0,0.10430328,0,0,0.0,0.0,0,0,30.0,0.0,0.0,4859.48717948718,4035.8974358974365,4668.717948717949,4426.666666666667,4201.538461538462,4583.076923076924,4552.820512820514,4585.641025641026,4461.025641025642,4768.205128205129,4457.435897435898,4478.461538461539,4278.461538461539,4426.666666666667
3395.4102,0.68290037,0.92051727,0.36217117,0.48829845,0,0.0,0.0,0.0,0.0,0.02867427,0,0,0.0,0.0,0,0,62.0,0.0,0.0,4807.179487179488,4040.5128205128212,4598.461538461539,4441.538461538462,4263.589743589744,4570.256410256411,4498.974358974359,4493.846153846154,4408.717948717949,4747.179487179488,4404.615384615385,4386.153846153847,4246.666666666667,4407.179487179487
3395.6604,0.7494809,0.90004635,0.35116833,0.5045641,0,0.0,0.0,0.0,0.0,0.06140076,0,0,0.0,0.0,0,0,94.0,0.0,533.0,4766.666666666667,4028.205128205129,4527.6923076923085,4456.923076923077,4315.8974358974365,4547.6923076923085,4420.000000000001,4411.794871794872,4373.333333333334,4743.589743589744,4363.076923076924,4307.6923076923085,4232.307692307693,4441.538461538462
3395.9106,0.7494809,0.90004635,0.35116833,0.5045641,0,0.0,0.0,0.0,0.0,0.08607477,0,0,0.0,0.0,0,0,126.0,0.0,533.0,4651.794871794872,3976.9230769230776,4462.051282051282,4441.025641025642,4317.948717948719,4523.076923076924,4364.615384615385,4340.000000000001,4330.256410256411,4721.025641025642,4310.256410256411,4226.666666666667,4167.6923076923085,4402.564102564103
3396.161,0.8084382,0.8816225,0.3412656,0.51529497,0,0.0,0.0,0.0,0.0,0.6320056,0,0,0.0,0.0,0,0,29.0,0.0,0.0,4598.461538461539,3941.0256410256416,4427.6923076923085,4427.6923076923085,4295.8974358974365,4506.153846153847,4351.282051282052,4296.923076923077,4312.820512820514,4675.384615384616,4284.102564102564,4178.461538461539,4118.974358974359,4401.025641025642
3396.286,0.8084382,0.8816225,0.3412656,0.51529497,0,0.0,0.0,0.0,0.0,0.0,0,0,0.0,0.0,0,0,45.0,0.0,0.0,4566.666666666667,3920.5128205128212,4406.153846153847,4404.102564102564,4286.153846153847,4493.846153846154,4342.564102564103,4272.307692307693,4294.871794871796,4653.333333333334,4264.615384615385,4151.794871794872,4105.128205128206,4403.076923076924
3396.5361,0.88193154,0.8650411,0.33812907,0.5163052,0,0.0,0.0,0.0,0.0,0.0,0,0,0.0,0.0,0,0,77.0,0.0,468.0,4600.512820512821,3909.7435897435903,4401.538461538462,4393.333333333334,4251.282051282052,4493.333333333334,4340.000000000001,4263.589743589744,4288.205128205129,4643.589743589744,4255.8974358974365,4147.6923076923085,4090.2564102564106,4412.820512820514
3396.5361,0.88193154,0.8650411,0.33812907,0.5163052,0,0.0,0.0,0.0,0.0,0.0,0,0,0.0,0.0,0,0,77.0,0.0,468.0,4600.512820512821,3909.7435897435903,4401.538461538462,4393.333333333334,4251.282051282052,4493.333333333334,4340.000000000001,4263.589743589744,4288.205128205129,4643.589743589744,4255.8974358974365,4147.6923076923085,4090.2564102564106,4412.820512820514
3397.0366,0.8121053,0.8258865,0.33438262,0.51721466,0,0.0,0.0,0.0,0.0,0.0,0,0,0.0,0.0,0,0,12.0,0.0,503.0,4615.8974358974365,3923.589743589744,4334.358974358975,4382.051282051282,4216.923076923077,4493.333333333334,4366.666666666667,4278.974358974359,4280.000000000001,4615.8974358974365,4234.871794871796,4131.282051282052,4021.0256410256416,4365.641025641026
3397.4119,0.8121053,0.8258865,0.33438262,0.51721466,0,0.0,0.0,0.0,0.0,0.2628819,0,0,0.0,0.0,0,0,60.0,0.0,0.0,4584.102564102564,3875.3846153846157,4382.564102564103,4390.769230769231,4202.051282051282,4504.615384615385,4381.538461538462,4300.000000000001,4308.205128205129,4628.205128205129,4280.000000000001,4152.307692307693,4070.7692307692314,4360.000000000001
3397.662,0.7680114,0.7722945,0.34002015,0.52668256,0,0.0,0.0,0.0,0.0,0.41041553,0,0,0.0,0.0,0,0,92.0,0.0,503.0,4676.410256410257,3867.692307692308,4423.076923076924,4382.051282051282,4183.589743589744,4494.871794871796,4400.000000000001,4336.410256410257,4352.820512820514,4698.974358974359,4395.8974358974365,4235.8974358974365,4216.410256410257,4475.8974358974365
3397.9124,0.7680114,0.7722945,0.34002015,0.52668256,0,0.0,0.0,0.0,0.0,0.4839779,0,0,0.0,0.0,0,0,124.0,0.0,503.0,4523.589743589744,3794.358974358975,4401.025641025642,4356.923076923077,4202.051282051282,4522.564102564103,4428.717948717949,4353.333333333334,4347.179487179487,4671.794871794872,4341.538461538462,4181.025641025642,4133.333333333334,4390.256410256411
3398.1626,0.72409415,0.75963694,0.3495768,0.54073006,0,0.0,0.0,0.0,0.0,0.24073647,0,0,0.0,0.0,0,0,27.0,0.0,0.0,4529.2307692307695,3835.3846153846157,4415.384615384616,4365.128205128206,4211.794871794872,4525.641025641026,4414.358974358975,4364.615384615385,4373.846153846154,4692.307692307693,4364.615384615385,4198.974358974359,4158.974358974359,4413.846153846154
3398.4126,0.72409415,0.75963694,0.3495768,0.54073006,0,0.0,0.0,0.0,0.0,0.0,0,0,0.0,0.0,0,0,59.0,0.0,0.0,4540.512820512821,3864.1025641025644,4440.512820512821,4381.538461538462,4205.128205128206,4522.564102564103,4415.384615384616,4354.871794871796,4360.512820512821,4698.461538461539,4381.025641025642,4202.051282051282,4152.820512820514,4414.358974358975
3398.5378,0.6800704,0.7756876,0.36113182,0.5447223,0,0.0,0.0,0.0,0.0,0.0,0,0,0.0,0.0,0,0,75.0,0.0,399.0,4564.615384615385,3876.9230769230776,4444.102564102564,4393.846153846154,4211.282051282052,4525.128205128206,4412.307692307693,4352.820512820514,4350.256410256411,4683.076923076924,4391.282051282052,4211.794871794872,4155.384615384616,4427.179487179487
3398.5378,0.6800704,0.7756876,0.36113182,0.5447223,0,0.0,0.0,0.0,0.0,0.0,0,0,0.0,0.0,0,0,75.0,0.0,399.0,4564.615384615385,3876.9230769230776,4444.102564102564,4393.846153846154,4211.282051282052,4525.128205128206,4412.307692307693,4352.820512820514,4350.256410256411,4683.076923076924,4391.282051282052,4211.794871794872,4155.384615384616,4427.179487179487
3399.0383,0.60384494,0.78292924,0.37693396,0.54831547,0,0.0,0.0,0.0,0.0,0.0,0,0,0.0,0.0,0,0,10.0,0.0,535.0,4553.333333333334,3864.1025641025644,4519.48717948718,4393.333333333334,4193.333333333334,4524.102564102564,4407.179487179487,4347.6923076923085,4358.974358974359,4683.076923076924,4368.717948717949,4200.000000000001,4136.410256410257,4445.641025641026
3399.0383,0.60384494,0.78292924,0.37693396,0.54831547,0,0.0,0.0,0.0,0.0,0.0,0,0,0.0,0.0,0,0,10.0,0.0,535.0,4553.333333333334,3864.1025641025644,4519.48717948718,4393.333333333334,4193.333333333334,4524.102564102564,4407.179487179487,4347.6923076923085,4358.974358974359,4683.076923076924,4368.717948717949,4200.000000000001,4136.410256410257,4445.641025641026
3399.6638,0.55496436,0.7746378,0.39283985,0.54821324,0,0.0,0.0,0.0,0.0,0.03422074,0,0,0.0,0.0,0,0,90.0,0.0,535.0,4764.615384615386,3758.9743589743593,4698.461538461539,4295.8974358974365,4032.307692307693,4571.794871794872,4680.000000000001,4663.076923076924,4485.128205128206,4750.256410256411,4472.820512820514,4484.615384615385,4226.666666666667,4606.153846153847
3399.914,0.55496436,0.7746378,0.39283985,0.54821324,0,0.0,0.0,0.0,0.0,0.07298915,0,0,0.0,0.0,0,0,122.0,0.0,535.0,5076.410256410257,3964.615384615385,4923.589743589744,4367.179487179487,4016.410256410257,4613.846153846154,4929.2307692307695,4888.205128205129,4523.589743589744,4836.923076923077,4512.820512820514,4729.743589743591,4389.2307692307695,4783.589743589744
3400.1643,0.6983686,0.76724184,0.4173613,0.5425604,0,0.0,0.0,0.0,0.0,0.0,0,0,0.0,0.0,0,0,25.0,0.0,0.0,5231.794871794872,4235.8974358974365,4983.076923076924,4480.512820512821,4173.846153846154,4628.717948717949,4999.48717948718,4946.666666666667,4523.589743589744,4916.410256410257,4455.384615384616,4766.666666666667,4543.076923076924,4877.435897435898
3400.4146,0.6983686,0.76724184,0.4173613,0.5425604,0,0.0,0.0,0.0,0.0,0.018178992,0,0,0.0,0.0,0,0,57.0,0.0,0.0,5200.000000000001,4287.6923076923085,4784.102564102564,4524.615384615385,4282.564102564103,4596.923076923077,4843.589743589744,4819.48717948718,4445.641025641026,4921.538461538462,4444.615384615385,4631.794871794872,4564.615384615385,4869.2307692307695
3400.6646,0.8245644,0.7605854,0.4394284,0.53747296,0,0.0,0.0,0.0,0.0,0.0070026554,0,0,0.0,0.0,0,0,89.0,0.0,459.0,5012.307692307693,4275.8974358974365,4623.076923076924,4537.435897435898,4353.333333333334,4524.615384615385,4650.256410256411,4603.076923076924,4339.48717948718,4843.589743589744,4313.333333333334,4384.615384615385,4404.615384615385,4792.307692307693
3400.9148,0.8245644,0.7605854,0.4394284,0.53747296,0,0.0,0.0,0.0,0.0,0.029872628,0,0,0.0,0.0,0,0,121.0,0.0,459.0,4819.48717948718,4246.666666666667,4444.615384615385,4521.025641025642,4383.589743589744,4491.282051282052,4456.923076923077,4372.820512820514,4284.102564102564,4774.871794871796,4280.512820512821,4155.384615384616,4315.384615384616,4694.871794871796
3401.165,0.93561673,0.7545946,0.4542961,0.5328944,0,0.0,0.0,0.0,0.0,0.030470552,0,0,0.0,0.0,0,0,24.0,0.0,0.0,4661.025641025642,4120.000000000001,4327.6923076923085,4493.333333333334,4372.820512820514,4455.384615384616,4262.051282051282,4186.153846153847,4219.48717948718,4677.435897435898,4234.358974358975,4017.435897435898,4188.205128205129,4615.384615384616
3401.2903,0.93561673,0.7545946,0.4542961,0.5328944,0,0.0,0.0,0.0,0.0,0.0,0,0,0.0,0.0,0,0,40.0,0.0,0.0,4607.179487179488,4097.948717948719,4295.384615384616,4475.8974358974365,4361.538461538462,4442.564102564103,4216.410256410257,4125.128205128206,4195.384615384616,4626.153846153847,4205.128205128206,3971.2820512820517,4124.102564102564,4598.974358974359
3401.6655,1.0,0.74920297,0.4662506,0.5329605,0,0.0,0.0,0.0,0.0,0.6030097,0,0,0.0,0.0,0,0,88.0,0.0,503.0,4428.717948717949,3969.2307692307695,4256.410256410257,4429.743589743591,4309.2307692307695,4455.8974358974365,4188.205128205129,4113.846153846154,4174.358974358975,4576.923076923077,4168.717948717949,3954.358974358975,4006.666666666667,4567.179487179488
3401.9158,1.0,0.74920297,0.4662506,0.5329605,0,0.0,0.0,0.0,0.0,0.47292408,0,0,0.0,0.0,0,0,120.0,0.0,503.0,4389.2307692307695,3889.2307692307695,4275.8974358974365,4408.205128205129,4278.461538461539,4464.615384615385,4196.410256410257,4128.205128205129,4222.051282051282,4592.307692307693,4185.641025641026,3988.205128205129,4007.1794871794878,4571.282051282052
3402.166,1.0,0.74435043,0.47248113,0.5330201,0,0.0,0.0,0.0,0.0,0.10399809,0,0,0.0,0.0,0,0,23.0,0.0,0.0,4361.538461538462,3875.3846153846157,4296.923076923077,4394.358974358975,4250.769230769231,4472.307692307693,4233.846153846154,4170.256410256411,4255.384615384616,4582.564102564103,4182.051282051282,4004.615384615385,3974.8717948717954,4521.025641025642
3402.4163,1.0,0.74435043,0.47248113,0.5330201,0,0.0,0.0,0.0,0.0,0.1075101,0,0,0.0,0.0,0,0,55.0,0.0,0.0,4353.333333333334,3881.538461538462,4353.333333333334,4401.025641025642,4234.871794871796,4478.974358974359,4262.051282051282,4203.589743589744,4293.846153846154,4610.769230769231,4217.435897435898,4075.8974358974365,4001.0256410256416,4518.461538461539
3402.6663,0.9177716,0.73998314,0.48261163,0.53307396,0,0.0,0.0,0.0,0.0,0.55643445,0,1,0.0,0.0,0,0,87.0,0.0,391.0,4300.000000000001,3781.0256410256416,4359.48717948718,4367.6923076923085,4216.410256410257,4504.615384615385,4325.128205128206,4278.974358974359,4368.205128205129,4689.2307692307695,4314.871794871796,4137.948717948719,4151.794871794872,4555.8974358974365
3402.9165,0.9177716,0.73998314,0.48261163,0.53307396,0,0.0,0.0,0.0,0.0,0.119802535,0,1,0.0,0.0,0,0,119.0,0.0,391.0,4327.179487179487,3800.0000000000005,4386.153846153847,4365.128205128206,4217.948717948719,4517.948717948719,4350.256410256411,4310.256410256411,4389.2307692307695,4708.717948717949,4336.410256410257,4155.384615384616,4140.512820512821,4553.846153846154
3403.1667,0.9145682,0.73605263,0.49172553,0.5215981,0,0.0,0.0,0.0,0.0,0.4284839,0,0,0.0,0.0,0,0,22.0,0.0,0.0,4413.846153846154,3846.666666666667,4438.461538461539,4384.102564102564,4202.051282051282,4508.717948717949,4373.333333333334,4344.615384615385,4411.282051282052,4723.076923076924,4372.307692307693,4203.589743589744,4167.6923076923085,4570.256410256411
3403.417,0.9145682,0.73605263,0.49172553,0.5215981,0,0.0,0.0,0.0,0.0,0.0,0,0,0.0,0.0,0,0,54.0,0.0,0.0,4444.102564102564,3863.589743589744,4453.846153846154,4392.307692307693,4200.512820512821,4522.051282051282,4395.8974358974365,4351.794871794872,4394.358974358975,4705.641025641026,4367.6923076923085,4205.128205128206,4138.974358974359,4550.769230769231
3403.5422,0.7860311,0.73251516,0.51042193,0.51127034,0,0.0,0.0,0.0,0.0,0.0,0,0,0.0,0.0,0,0,70.0,0.0,535.0,4500.512820512821,3845.6410256410263,4455.8974358974365,4388.717948717949,4202.051282051282,4526.153846153847,4380.000000000001,4344.615384615385,4382.564102564103,4701.025641025642,4364.102564102564,4203.076923076924,4135.384615384616,4547.179487179488
3403.9175,0.7860311,0.73251516,0.51042193,0.51127034,0,0.0,0.0,0.0,0.0,0.2448937,0,0,0.0,0.0,0,0,118.0,0.0,534.0,4504.615384615385,3860.0000000000005,4456.923076923077,4395.384615384616,4190.769230769231,4521.025641025642,4390.256410256411,4353.333333333334,4371.794871794872,4695.384615384616,4383.076923076924,4210.256410256411,4124.102564102564,4531.282051282052
3404.0425,0.70186234,0.7293314,0.5272427,0.50197595,0,0.0,0.0,0.0,0.0,0.0,0,0,0.0,0.0,0,0,5.0,0.0,558.0,4491.794871794872,3854.358974358975,4468.205128205129,4389.2307692307695,4183.589743589744,4510.256410256411,4389.743589743591,4347.6923076923085,4367.179487179487,4676.410256410257,4384.615384615385,4218.461538461539,4119.48717948718,4523.589743589744
3404.0425,0.70186234,0.7293314,0.5272427,0.50197595,0,0.0,0.0,0.0,0.0,0.0,0,0,0.0,0.0,0,0,5.0,0.0,558.0,4491.794871794872,3854.358974358975,4468.205128205129,4389.2307692307695,4183.589743589744,4510.256410256411,4389.743589743591,4347.6923076923085,4367.179487179487,4676.410256410257,4384.615384615385,4218.461538461539,4119.48717948718,4523.589743589744
3404.668,0.6939319,0.72783893,0.54198796,0.50573075,0,0.0,0.0,0.0,0.0,0.05964226,0,0,0.0,0.0,0,0,85.0,0.0,469.0,4730.769230769231,3847.1794871794878,4647.179487179488,4357.435897435898,4172.820512820514,4603.076923076924,4570.256410256411,4626.666666666667,4580.512820512821,4880.000000000001,4524.615384615385,4429.743589743591,4275.384615384616,4617.948717948719
3404.7932,0.6939319,0.72783893,0.54198796,0.50573075,0,0.0,0.0,0.0,0.0,0.0,0,0,0.0,0.0,0,0,101.0,0.0,469.0,4770.256410256411,3886.666666666667,4665.641025641026,4375.384615384616,4183.589743589744,4603.589743589744,4588.205128205129,4657.948717948719,4600.512820512821,4898.461538461539,4540.000000000001,4447.6923076923085,4310.256410256411,4633.333333333334
3405.0435,0.8206601,0.72654116,0.5552516,0.5207631,0,0.0,0.0,0.0,0.0,0.0,0,0,0.0,0.0,0,0,4.0,0.0,555.0,4862.051282051283,3977.9487179487182,4678.974358974359,4427.6923076923085,4222.051282051282,4608.205128205129,4582.051282051282,4671.282051282052,4610.256410256411,4923.076923076924,4544.102564102564,4444.102564102564,4359.48717948718,4676.923076923077
3405.0435,0.8206601,0.72654116,0.5552516,0.5207631,0,0.0,0.0,0.0,0.0,0.0,0,0,0.0,0.0,0,0,4.0,0.0,555.0,4862.051282051283,3977.9487179487182,4678.974358974359,4427.6923076923085,4222.051282051282,4608.205128205129,4582.051282051282,4671.282051282052,4610.256410256411,4923.076923076924,4544.102564102564,4444.102564102564,4359.48717948718,4676.923076923077
3405.669,0.90604734,0.7253732,0.54800564,0.5357319,0,0.0,0.0,0.0,0.0,0.0129265515,0,0,0.0,0.0,0,0,84.0,0.0,498.0,4765.128205128206,4030.2564102564106,4489.2307692307695,4475.384615384616,4281.025641025642,4538.974358974359,4435.8974358974365,4456.410256410257,4432.820512820514,4764.615384615386,4414.871794871796,4277.948717948719,4253.333333333334,4615.8974358974365
3405.9192,0.90604734,0.7253732,0.54800564,0.5357319,0,0.0,0.0,0.0,0.0,0.0221174,0,0,0.0,0.0,0,0,116.0,0.0,498.0,4716.923076923077,4027.692307692308,4472.820512820514,4476.410256410257,4275.384615384616,4507.179487179488,4341.025641025642,4325.128205128206,4316.923076923077,4658.974358974359,4308.205128205129,4151.794871794872,4119.48717948718,4568.205128205129
3406.1694,0.97346854,0.72432196,0.53422445,0.549204,0,0.0,0.0,0.0,0.0,0.040438354,0,0,0.0,0.0,0,0,19.0,0.0,0.0,4658.974358974359,4036.9230769230776,4441.025641025642,4449.2307692307695,4270.769230769231,4501.538461538462,4312.307692307693,4262.051282051282,4265.641025641026,4593.333333333334,4247.179487179487,4099.48717948718,4052.820512820513,4547.179487179488
3406.4197,0.97346854,0.72432196,0.53422445,0.549204,0,0.0,0.0,0.0,0.0,0.42441696,0,0,0.0,0.0,0,0,51.0,0.0,0.0,4575.8974358974365,4001.538461538462,4427.179487179487,4427.6923076923085,4241.025641025642,4487.179487179488,4308.717948717949,4246.153846153847,4260.512820512821,4585.128205128206,4246.666666666667,4092.820512820513,4041.538461538462,4540.000000000001
3406.67,1.0,0.7233759,0.52181995,0.5537851,0,0.0,0.0,0.0,0.0,0.532621,0,0,0.0,0.0,0,0,83.0,0.0,391.0,4571.282051282052,3958.461538461539,4443.076923076924,4429.743589743591,4234.358974358975,4506.666666666667,4314.358974358975,4263.589743589744,4291.794871794872,4600.512820512821,4280.512820512821,4113.846153846154,4071.7948717948725,4550.256410256411
3406.92,1.0,0.7233759,0.52181995,0.5537851,0,0.0,0.0,0.0,0.0,0.39471757,0,1,0.0,0.0,0,0,115.0,0.0,391.0,4522.051282051282,3870.2564102564106,4442.564102564103,4405.641025641026,4214.871794871796,4510.256410256411,4372.307692307693,4309.743589743591,4313.333333333334,4641.025641025642,4353.846153846154,4158.974358974359,4157.948717948719,4580.512820512821
3407.1702,0.9491543,0.7225244,0.50926924,0.55790806,0,0.0,0.0,0.0,0.0,0.25638252,0,1,0.0,0.0,0,0,18.0,0.0,0.0,4506.153846153847,3875.8974358974365,4447.179487179487,4406.153846153847,4218.461538461539,4524.615384615385,4368.717948717949,4302.051282051282,4326.666666666667,4641.025641025642,4364.102564102564,4171.282051282052,4151.794871794872,4601.025641025642
3407.4204,0.9491543,0.7225244,0.50926924,0.55790806,0,0.0,0.0,0.0,0.0,0.36217296,0,0,0.0,0.0,0,0,50.0,0.0,0.0,4551.794871794872,3877.9487179487182,4460.512820512821,4413.846153846154,4203.076923076924,4517.948717948719,4361.538461538462,4314.358974358975,4325.641025641026,4646.153846153847,4374.358974358975,4184.102564102564,4137.435897435898,4599.48717948718
3407.6707,0.88681114,0.7217581,0.5002913,0.5616187,0,0.0,0.0,0.0,0.0,0.73452073,0,0,0.0,0.0,0,0,82.0,0.0,534.0,4574.358974358975,3943.076923076924,4473.846153846154,4437.435897435898,4217.435897435898,4524.615384615385,4372.820512820514,4312.820512820514,4327.179487179487,4632.820512820514,4352.307692307693,4162.564102564103,4093.333333333334,4568.205128205129
3407.921,0.88681114,0.7217581,0.5002913,0.5616187,0,0.0,0.0,0.0,0.0,0.31209254,0,0,0.0,0.0,0,0,114.0,0.0,534.0,4535.8974358974365,3923.589743589744,4463.076923076924,4418.461538461539,4207.179487179487,4530.256410256411,4385.128205128206,4319.48717948718,4341.538461538462,4635.8974358974365,4354.358974358975,4172.820512820514,4093.333333333334,4571.282051282052
3408.1711,0.77423835,0.72106844,0.49452344,0.56665945,0,0.0,0.0,0.0,0.0,0.40909845,0,0,0.0,0.0,0,0,17.0,0.0,0.0,4589.2307692307695,3885.6410256410263,4474.871794871796,4411.282051282052,4195.384615384616,4536.410256410257,4390.769230769231,4352.820512820514,4369.743589743591,4651.282051282052,4370.256410256411,4196.410256410257,4128.205128205129,4583.589743589744
3408.4214,0.77423835,0.72106844,0.49452344,0.56665945,0,0.0,0.0,0.0,0.0,0.291445,0,0,0.0,0.0,0,0,49.0,0.0,0.0,4626.666666666667,3895.3846153846157,4478.461538461539,4410.769230769231,4200.512820512821,4522.564102564103,4388.717948717949,4349.2307692307695,4370.769230769231,4674.871794871796,4367.6923076923085,4200.000000000001,4135.384615384616,4567.6923076923085
3408.6716,0.7055625,0.70873374,0.48933026,0.57360363,0,0.0,0.0,0.0,0.0,0.34410644,0,0,0.0,0.0,0,0,81.0,0.0,469.0,4624.102564102564,3907.692307692308,4488.717948717949,4411.794871794872,4207.6923076923085,4552.820512820514,4420.000000000001,4369.743589743591,4383.589743589744,4681.538461538462,4377.435897435898,4208.717948717949,4136.923076923077,4564.615384615385
3408.9216,0.7055625,0.70873374,0.48933026,0.57360363,1,0.0,0.0,0.0,0.0,0.41475356,0,0,0.0,0.0,0,0,113.0,0.0,469.0,4651.282051282052,3903.076923076924,4491.794871794872,4420.000000000001,4214.871794871796,4562.051282051282,4422.051282051282,4372.307692307693,4380.000000000001,4686.666666666667,4382.051282051282,4216.923076923077,4157.948717948719,4562.564102564103
3409.1719,0.6854479,0.7165873,0.48353192,0.5798532,0,0.0,0.0,0.0,0.0,0.32938614,0,0,0.0,0.0,0,0,16.0,0.0,0.0,4642.564102564103,3924.615384615385,4488.717948717949,4427.6923076923085,4218.461538461539,4556.410256410257,4405.641025641026,4366.153846153847,4389.743589743591,4703.589743589744,4383.076923076924,4216.410256410257,4172.820512820514,4570.769230769231
3409.422,0.6854479,0.7165873,0.48353192,0.5798532,0,0.0,0.0,0.0,0.0,0.4441708,0,0,0.0,0.0,0,0,48.0,0.0,0.0,4612.820512820514,3928.205128205129,4492.307692307693,4427.179487179487,4219.48717948718,4556.410256410257,4421.538461538462,4373.846153846154,4389.2307692307695,4700.000000000001,4387.6923076923085,4228.717948717949,4170.256410256411,4570.256410256411
3409.6724,0.5856628,0.70949674,0.47599658,0.58785987,0,0.0,0.0,0.0,0.0,0.2915657,0,0,0.0,0.0,0,0,80.0,0.0,501.0,4592.307692307693,3941.0256410256416,4491.282051282052,4427.179487179487,4220.512820512821,4553.846153846154,4428.717948717949,4373.846153846154,4382.051282051282,4707.179487179488,4376.410256410257,4216.923076923077,4162.051282051282,4572.820512820514
3409.9226,0.5856628,0.70949674,0.47599658,0.58785987,0,0.0,0.0,0.0,0.0,0.1402368,0,0,0.0,0.0,0,0,112.0,0.0,501.0,4607.179487179488,3929.2307692307695,4493.846153846154,4429.743589743591,4219.48717948718,4568.717948717949,4428.205128205129,4394.358974358975,4404.615384615385,4722.051282051282,4400.000000000001,4227.6923076923085,4217.948717948719,4600.512820512821
3410.1729,0.5158309,0.6864036,0.4611833,0.596159,0,0.0,0.0,0.0,0.0,0.21085541,0,0,0.0,0.0,0,0,15.0,0.0,391.0,4567.179487179488,3882.0512820512827,4476.410256410257,4410.769230769231,4205.128205128206,4556.923076923077,4435.8974358974365,4400.512820512821,4426.153846153847,4721.538461538462,4401.025641025642,4233.846153846154,4188.717948717949,4580.512820512821
3410.423,0.5158309,0.6864036,0.4611833,0.596159,0,0.0,0.0,0.0,0.0,0.0,0,0,0.0,0.0,0,0,47.0,0.0,0.0,4573.333333333334,3910.7692307692314,4498.974358974359,4415.8974358974365,4216.923076923077,4566.153846153847,4447.179487179487,4407.179487179487,4412.820512820514,4716.923076923077,4413.846153846154,4250.256410256411,4197.948717948719,4583.076923076924
3410.548,0.4885773,0.6609124,0.43232962,0.60253394,0,0.0,0.0,0.0,0.0,0.0,0,0,0.0,0.0,0,0,63.0,0.0,0.0,4603.076923076924,3896.410256410257,4492.820512820514,4420.512820512821,4221.538461538462,4571.794871794872,4426.153846153847,4398.974358974359,4408.717948717949,4700.512820512821,4380.000000000001,4230.769230769231,4168.717948717949,4569.743589743591
3410.548,0.4885773,0.6609124,0.43232962,0.60253394,0,0.0,0.0,0.0,0.0,0.0,0,0,0.0,0.0,0,0,63.0,0.0,0.0,4603.076923076924,3896.410256410257,4492.820512820514,4420.512820512821,4221.538461538462,4571.794871794872,4426.153846153847,4398.974358974359,4408.717948717949,4700.512820512821,4380.000000000001,4230.769230769231,4168.717948717949,4569.743589743591
3411.0486,0.4260526,0.6407259,0.40636083,0.60839313,0,0.0,0.0,0.0,0.0,0.0,0,0,0.0,0.0,0,0,127.0,0.0,391.0,4575.384615384616,3909.2307692307695,4509.2307692307695,4460.000000000001,4245.128205128206,4551.794871794872,4443.076923076924,4403.076923076924,4392.307692307693,4704.102564102564,4392.307692307693,4251.282051282052,4171.282051282052,4556.923076923077
3411.0486,0.4260526,0.6407259,0.40636083,0.60839313,0,0.0,0.0,0.0,0.0,0.0,0,0,0.0,0.0,0,0,127.0,0.0,391.0,4575.384615384616,3909.2307692307695,4509.2307692307695,4460.000000000001,4245.128205128206,4551.794871794872,4443.076923076924,4403.076923076924,4392.307692307693,4704.102564102564,4392.307692307693,4251.282051282052,4171.282051282052,4556.923076923077
3411.549,0.441371,0.62690324,0.38298836,0.6182866,0,0.0,0.0,0.0,0.0,0.0,0,0,0.0,0.0,0,0,62.0,0.0,0.0,4540.512820512821,3881.0256410256416,4441.538461538462,4460.000000000001,4208.717948717949,4507.6923076923085,4378.974358974359,4327.6923076923085,4294.871794871796,4620.000000000001,4310.769230769231,4166.153846153847,4095.3846153846157,4495.384615384616
3411.549,0.441371,0.62690324,0.38298836,0.6182866,0,0.0,0.0,0.0,0.0,0.0,0,0,0.0,0.0,0,0,62.0,0.0,0.0,4540.512820512821,3881.0256410256416,4441.538461538462,4460.000000000001,4208.717948717949,4507.6923076923085,4378.974358974359,4327.6923076923085,4294.871794871796,4620.000000000001,4310.769230769231,4166.153846153847,4095.3846153846157,4495.384615384616
3412.1746,0.50455654,0.61447906,0.3552663,0.6271895,0,0.0,0.0,0.0,0.0,0.022090187,0,0,0.0,0.0,0,0,8.0,0.0,501.0,5204.615384615386,3902.564102564103,5084.615384615386,4280.512820512821,3994.8717948717954,4733.333333333334,5138.974358974359,5244.615384615386,4620.512820512821,5066.666666666667,4656.923076923077,5006.153846153847,4560.512820512821,4833.333333333334
3412.4248,0.50455654,0.61447906,0.3552663,0.6271895,0,0.0,0.0,0.0,0.0,0.0,0,0,0.30163965,0.0,0,0,44.0,0.0,0.0,5604.102564102564,4352.820512820514,5320.000000000001,4366.666666666667,4122.564102564103,4731.794871794872,5395.8974358974365,5567.179487179488,4702.564102564103,5325.641025641026,4731.794871794872,5332.820512820514,4943.076923076924,5070.256410256411
3412.675,0.6540099,0.6032973,0.3303162,0.6311983,0,0.0,0.0,0.0,0.0,0.0,0,0,0.07148982,0.0,0,0,76.0,0.0,494.0,5550.256410256411,4537.435897435898,5187.6923076923085,4519.48717948718,4168.717948717949,4554.358974358975,5191.794871794872,5353.333333333334,4505.128205128206,5244.102564102564,4691.282051282052,5060.000000000001,4872.820512820514,5025.641025641026
3412.8,0.6540099,0.6032973,0.3303162,0.6311983,0,0.0,0.0,0.0,0.0,0.0,0,0,0.12341488,0.0,0,0,93.0,0.0,446.0,5402.051282051283,4514.358974358975,5029.2307692307695,4553.846153846154,4201.538461538462,4510.256410256411,4959.48717948718,5176.410256410257,4456.410256410257,5180.000000000001,4648.205128205129,4796.410256410257,4778.974358974359,4985.128205128206
3413.0503,0.78552866,0.5932337,0.31719178,0.6335929,0,0.0,0.0,0.0,0.0,0.0,0,0,0.2941365,0.0,0,0,125.0,0.0,446.0,5244.102564102564,4490.256410256411,4829.743589743591,4644.615384615385,4280.512820512821,4490.256410256411,4711.282051282052,4837.948717948719,4383.076923076924,5016.410256410257,4521.538461538462,4101.538461538462,4618.461538461539,4923.589743589744
3413.3005,0.78552866,0.5932337,0.31719178,0.6335929,0,0.0,0.0,0.0,0.0,0.0,0,0,0.0,0.0,0,0,28.0,0.0,0.0,5017.948717948719,4445.641025641026,4622.051282051282,4720.512820512821,4366.666666666667,4469.743589743591,4468.205128205129,4511.282051282052,4276.410256410257,4846.666666666667,4381.538461538462,3758.9743589743593,4410.769230769231,4824.615384615386
3413.6758,0.9012652,0.5841765,0.3144249,0.637201,0,0.0,0.0,0.0,0.0,0.0,0,0,0.0,0.0,0,0,75.0,0.0,386.0,4670.256410256411,4227.6923076923085,4261.538461538462,4710.256410256411,4404.615384615385,4386.153846153847,4126.153846153847,4067.1794871794878,4103.589743589744,4584.615384615385,4125.641025641026,3477.435897435898,4082.564102564103,4658.974358974359
3413.6758,0.9012652,0.5841765,0.3144249,0.637201,0,0.0,0.0,0.0,0.0,0.0,0,0,0.0,0.0,0,0,76.0,0.0,505.0,4658.974358974359,4225.641025641026,4264.102564102564,4714.358974358975,4410.769230769231,4385.641025641026,4122.564102564103,4062.0512820512827,4104.102564102564,4587.6923076923085,4126.153846153847,3478.9743589743593,4077.9487179487187,4657.948717948719
3414.0513,1.0,0.576025,0.33679226,0.634599,0,0.0,0.0,0.0,0.0,0.0,0,0,0.0,0.0,0,0,124.0,0.0,505.0,4420.000000000001,4091.2820512820517,4155.384615384616,4660.512820512821,4399.48717948718,4340.512820512821,4013.8461538461543,3908.205128205129,4067.1794871794878,4474.358974358975,4028.717948717949,3528.205128205129,3943.589743589744,4555.384615384616
3414.0513,1.0,0.576025,0.33679226,0.634599,0,0.0,0.0,0.0,0.0,0.0,0,0,0.0,0.0,0,0,124.0,0.0,505.0,4420.000000000001,4091.2820512820517,4155.384615384616,4660.512820512821,4399.48717948718,4340.512820512821,4013.8461538461543,3908.205128205129,4067.1794871794878,4474.358974358975,4028.717948717949,3528.205128205129,3943.589743589744,4555.384615384616
3414.5515,0.930295,0.56868863,0.37327296,0.6232838,0,0.0,0.0,0.0,0.0,0.10750157,0,0,0.0,0.0,0,0,59.0,0.0,0.0,4354.358974358975,3927.692307692308,4189.74358974359,4555.8974358974365,4368.205128205129,4392.307692307693,4061.538461538462,3943.589743589744,4107.6923076923085,4467.179487179487,4022.0512820512827,3738.9743589743593,3913.333333333334,4507.6923076923085
3414.8018,0.930295,0.56868863,0.37327296,0.6232838,0,0.0,0.0,0.0,0.0,0.13430518,0,0,0.0,0.0,0,0,91.0,0.0,386.0,4311.282051282052,3885.1282051282055,4216.410256410257,4492.307692307693,4334.871794871796,4402.564102564103,4120.512820512821,4028.205128205129,4168.717948717949,4525.128205128206,4082.0512820512827,3849.2307692307695,3942.0512820512827,4475.384615384616
3415.052,0.86652696,0.5620859,0.40610453,0.6073063,0,0.0,0.0,0.0,0.0,0.12568158,0,0,0.0,0.0,0,0,123.0,0.0,386.0,4274.871794871796,3850.7692307692314,4277.948717948719,4465.128205128206,4329.2307692307695,4441.025641025642,4184.102564102564,4066.666666666667,4183.076923076924,4538.461538461539,4105.641025641026,3941.0256410256416,3955.3846153846157,4445.128205128206
3415.3022,0.86652696,0.5620859,0.40610453,0.6073063,0,0.0,0.0,0.0,0.0,0.1284767,0,0,0.0,0.0,0,0,26.0,0.0,0.0,4301.025641025642,3858.461538461539,4336.923076923077,4444.615384615385,4333.333333333334,4471.282051282052,4234.358974358975,4156.923076923077,4246.666666666667,4601.538461538462,4162.564102564103,4036.9230769230776,4018.461538461539,4446.153846153847
3415.5525,0.9725438,0.55614346,0.43565083,0.5919519,0,0.0,0.0,0.0,0.0,0.088624805,0,0,0.0,0.0,0,0,58.0,0.0,0.0,4296.923076923077,3819.48717948718,4371.282051282052,4413.846153846154,4314.358974358975,4490.769230769231,4293.333333333334,4227.6923076923085,4309.743589743591,4669.743589743591,4250.769230769231,4117.948717948719,4128.717948717949,4482.564102564103
3415.8027,0.9725438,0.55614346,0.43565083,0.5919519,0,0.0,0.0,0.0,0.0,0.08967061,0,0,0.0,0.0,0,0,90.0,0.0,531.0,4372.307692307693,3810.7692307692314,4388.205128205129,4400.512820512821,4293.846153846154,4508.205128205129,4321.025641025642,4271.282051282052,4342.051282051282,4676.923076923077,4257.435897435898,4162.564102564103,4121.025641025642,4461.538461538462
3416.053,0.9580667,0.55079526,0.43622628,0.58008575,0,0.0,0.0,0.0,0.0,1.0,0,0,0.0,0.0,0,0,122.0,0.0,531.0,4447.6923076923085,3848.205128205129,4424.615384615385,4409.743589743591,4280.512820512821,4508.205128205129,4335.8974358974365,4297.435897435898,4356.410256410257,4661.025641025642,4262.051282051282,4197.948717948719,4090.2564102564106,4445.128205128206
3416.303,0.9580667,0.55079526,0.43622628,0.58008575,0,0.0,0.0,0.0,0.0,0.2148559,0,0,0.0,0.0,0,0,25.0,0.0,0.0,4474.871794871796,3869.2307692307695,4443.076923076924,4396.410256410257,4269.2307692307695,4509.2307692307695,4344.615384615385,4312.307692307693,4362.051282051282,4660.000000000001,4299.48717948718,4236.410256410257,4105.641025641026,4444.102564102564
3416.5532,0.98535806,0.5459819,0.43126777,0.5694061,0,0.0,0.0,0.0,0.0,0.0,0,0,0.0,0.0,0,0,57.0,0.0,0.0,4446.666666666667,3832.307692307693,4424.615384615385,4383.589743589744,4268.717948717949,4524.102564102564,4334.871794871796,4308.717948717949,4381.538461538462,4671.282051282052,4316.410256410257,4221.538461538462,4105.128205128206,4401.025641025642
3416.5532,0.98535806,0.5459819,0.43126777,0.5694061,0,0.0,0.0,0.0,0.0,0.0,0,0,0.0,0.0,0,0,57.0,0.0,0.0,4446.666666666667,3832.307692307693,4424.615384615385,4383.589743589744,4268.717948717949,4524.102564102564,4334.871794871796,4308.717948717949,4381.538461538462,4671.282051282052,4316.410256410257,4221.538461538462,4105.128205128206,4401.025641025642
3417.0537,0.99354094,0.5416498,0.42680383,0.55784106,0,0.0,0.0,0.0,0.0,0.46899492,0,0,0.0,0.0,0,0,121.0,0.0,467.0,4536.410256410257,3836.410256410257,4458.974358974359,4375.384615384616,4256.923076923077,4542.564102564103,4391.282051282052,4362.051282051282,4438.974358974359,4707.6923076923085,4395.8974358974365,4305.128205128206,4166.666666666667,4415.384615384616
3417.304,0.99354094,0.5416498,0.42680383,0.55784106,0,0.0,0.0,0.0,0.0,0.0,0,0,0.0,0.0,0,0,24.0,0.0,0.0,4581.025641025642,3837.9487179487182,4473.846153846154,4385.128205128206,4249.74358974359,4551.794871794872,4412.820512820514,4382.564102564103,4449.2307692307695,4712.307692307693,4413.846153846154,4328.717948717949,4167.6923076923085,4425.641025641026
3417.5542,0.90437233,0.6268917,0.4190728,0.55249137,0,0.0,0.0,0.0,0.0,0.0,0,0,0.0,0.0,0,0,56.0,0.0,0.0,4614.358974358975,3878.9743589743593,4491.794871794872,4387.6923076923085,4234.871794871796,4537.435897435898,4404.615384615385,4378.974358974359,4420.512820512821,4685.128205128206,4412.820512820514,4323.589743589744,4124.615384615385,4418.461538461539
3417.8044,0.90437233,0.6268917,0.4190728,0.55249137,0,0.0,0.0,0.0,0.0,0.7655422,0,0,0.0,0.0,0,0,88.0,0.0,505.0,4568.717948717949,3890.2564102564106,4489.743589743591,4386.666666666667,4245.641025641026,4550.256410256411,4409.2307692307695,4380.512820512821,4428.205128205129,4691.794871794872,4408.205128205129,4298.461538461539,4129.74358974359,4412.820512820514
3418.0547,0.85229397,0.6539912,0.41211385,0.55236715,0,0.0,0.0,0.0,0.0,0.91269463,0,0,0.0,0.0,0,0,120.0,0.0,505.0,4493.333333333334,3897.9487179487182,4478.974358974359,4389.2307692307695,4232.307692307693,4552.820512820514,4409.743589743591,4375.384615384616,4416.410256410257,4682.051282051282,4381.538461538462,4276.923076923077,4114.358974358975,4381.025641025642
3418.3047,0.85229397,0.6539912,0.41211385,0.55236715,0,0.0,0.0,0.0,0.0,0.24393219,0,0,0.0,0.0,0,0,23.0,0.0,0.0,4474.871794871796,3864.1025641025644,4473.333333333334,4387.179487179487,4217.435897435898,4549.2307692307695,4396.923076923077,4378.974358974359,4415.384615384616,4687.6923076923085,4385.641025641026,4268.717948717949,4126.153846153847,4376.410256410257
3418.555,0.77107054,0.67121315,0.40694553,0.55770165,0,0.0,0.0,0.0,0.0,0.0,0,0,0.0,0.0,0,0,55.0,0.0,0.0,4482.564102564103,3893.333333333334,4492.307692307693,4405.641025641026,4232.820512820514,4559.48717948718,4410.256410256411,4388.205128205129,4423.589743589744,4694.871794871796,4398.461538461539,4282.564102564103,4150.256410256411,4377.435897435898
3418.555,0.77107054,0.67121315,0.40694553,0.55770165,0,0.0,0.0,0.0,0.0,0.0,0,0,0.0,0.0,0,0,55.0,0.0,0.0,4482.564102564103,3893.333333333334,4492.307692307693,4405.641025641026,4232.820512820514,4559.48717948718,4410.256410256411,4388.205128205129,4423.589743589744,4694.871794871796,4398.461538461539,4282.564102564103,4150.256410256411,4377.435897435898
3419.0554,0.70581853,0.71279323,0.4022931,0.5570559,0,0.0,0.0,0.0,0.0,0.0,0,0,0.0,0.0,0,0,119.0,0.0,397.0,4598.974358974359,3881.538461538462,4487.179487179488,4408.205128205129,4209.74358974359,4555.384615384616,4410.256410256411,4396.410256410257,4419.48717948718,4689.2307692307695,4406.153846153847,4269.74358974359,4154.358974358975,4383.076923076924
3419.0554,0.70581853,0.71279323,0.4022931,0.5570559,0,0.0,0.0,0.0,0.0,0.0,0,0,0.0,0.0,0,0,119.0,0.0,397.0,4598.974358974359,3881.538461538462,4487.179487179488,4408.205128205129,4209.74358974359,4555.384615384616,4410.256410256411,4396.410256410257,4419.48717948718,4689.2307692307695,4406.153846153847,4269.74358974359,4154.358974358975,4383.076923076924
3419.556,0.6572125,0.71600175,0.39363778,0.5472075,0,0.0,0.0,0.0,0.0,0.0,0,0,0.0,0.0,0,0,54.0,0.0,0.0,4561.025641025642,3867.692307692308,4489.743589743591,4408.717948717949,4216.410256410257,4572.307692307693,4447.179487179487,4423.076923076924,4443.589743589744,4730.256410256411,4461.025641025642,4275.8974358974365,4258.461538461539,4410.769230769231
3419.556,0.6572125,0.71600175,0.39363778,0.5472075,0,0.0,0.0,0.0,0.0,0.0,0,0,0.0,0.0,0,0,54.0,0.0,0.0,4561.025641025642,3867.692307692308,4489.743589743591,4408.717948717949,4216.410256410257,4572.307692307693,4447.179487179487,4423.076923076924,4443.589743589744,4730.256410256411,4461.025641025642,4275.8974358974365,4258.461538461539,4410.769230769231
3420.0564,0.6420173,0.73129493,0.38197896,0.52641416,0,0.0,0.0,0.0,0.0,0.0,0,0,0.0,0.0,0,0,118.0,0.0,533.0,4598.974358974359,3922.564102564103,4502.051282051282,4448.717948717949,4255.384615384616,4582.564102564103,4435.384615384616,4427.6923076923085,4434.358974358975,4733.846153846154,4422.564102564103,4268.717948717949,4206.666666666667,4413.846153846154
3420.0564,0.6420173,0.73129493,0.38197896,0.52641416,0,0.0,0.0,0.0,0.0,0.0,0,0,0.0,0.0,0,0,118.0,0.0,533.0,4598.974358974359,3922.564102564103,4502.051282051282,4448.717948717949,4255.384615384616,4582.564102564103,4435.384615384616,4427.6923076923085,4434.358974358975,4733.846153846154,4422.564102564103,4268.717948717949,4206.666666666667,4413.846153846154
3420.5566,0.5932987,0.74231136,0.37148544,0.48814294,0,0.0,0.0,0.0,0.0,0.0,0,0,0.0,0.0,0,0,53.0,0.0,0.0,4543.589743589744,3924.1025641025644,4487.179487179488,4429.2307692307695,4289.74358974359,4587.6923076923085,4450.256410256411,4411.282051282052,4427.6923076923085,4732.820512820514,4429.743589743591,4262.564102564103,4202.564102564103,4408.717948717949
3420.5566,0.5932987,0.74231136,0.37148544,0.48814294,0,0.0,0.0,0.0,0.0,0.0,0,0,0.0,0.0,0,0,53.0,0.0,0.0,4543.589743589744,3924.1025641025644,4487.179487179488,4429.2307692307695,4289.74358974359,4587.6923076923085,4450.256410256411,4411.282051282052,4427.6923076923085,4732.820512820514,4429.743589743591,4262.564102564103,4202.564102564103,4408.717948717949
3421.0571,0.57555825,0.7124565,0.36591017,0.45370254,0,0.0,0.0,0.0,0.0,0.0,0,0,0.0,0.0,0,0,117.0,0.0,468.0,4489.2307692307695,3898.461538461539,4454.871794871796,4409.743589743591,4264.102564102564,4540.512820512821,4441.025641025642,4364.615384615385,4360.000000000001,4665.641025641026,4393.333333333334,4212.820512820514,4155.384615384616,4447.179487179487
3421.0571,0.57555825,0.7124565,0.36591017,0.45370254,0,0.0,0.0,0.0,0.0,0.0,0,0,0.0,0.0,0,0,117.0,0.0,468.0,4489.2307692307695,3898.461538461539,4454.871794871796,4409.743589743591,4264.102564102564,4540.512820512821,4441.025641025642,4364.615384615385,4360.000000000001,4665.641025641026,4393.333333333334,4212.820512820514,4155.384615384616,4447.179487179487
3421.5576,0.557998,0.67108417,0.36003983,0.4227129,0,0.0,0.0,0.0,0.0,0.0,0,0,0.0,0.0,0,0,52.0,0.0,0.0,4503.589743589744,3849.2307692307695,4437.948717948719,4411.282051282052,4293.846153846154,4498.974358974359,4393.846153846154,4311.282051282052,4324.102564102564,4641.025641025642,4377.948717948719,4186.666666666667,4139.48717948718,4460.000000000001
3421.5576,0.557998,0.67108417,0.36003983,0.4227129,0,0.0,0.0,0.0,0.0,0.0,0,0,0.0,0.0,0,0,52.0,0.0,0.0,4503.589743589744,3849.2307692307695,4437.948717948719,4411.282051282052,4293.846153846154,4498.974358974359,4393.846153846154,4311.282051282052,4324.102564102564,4641.025641025642,4377.948717948719,4186.666666666667,4139.48717948718,4460.000000000001
3422.058,0.62445617,0.62948525,0.35385856,0.40603787,0,0.0,0.0,0.0,0.0,0.0,0,0,0.0,0.0,0,0,116.0,0.0,505.0,4407.6923076923085,3804.1025641025644,4369.743589743591,4357.435897435898,4299.48717948718,4460.512820512821,4360.000000000001,4249.74358974359,4266.153846153847,4573.846153846154,4328.205128205129,4112.820512820514,4080.0000000000005,4407.6923076923085
3422.058,0.62445617,0.62948525,0.35385856,0.40603787,0,0.0,0.0,0.0,0.0,0.0,0,0,0.0,0.0,0,0,116.0,0.0,505.0,4407.6923076923085,3804.1025641025644,4369.743589743591,4357.435897435898,4299.48717948718,4460.512820512821,4360.000000000001,4249.74358974359,4266.153846153847,4573.846153846154,4328.205128205129,4112.820512820514,4080.0000000000005,4407.6923076923085
3422.5583,0.7595215,0.5920607,0.33949822,0.40955266,0,0.0,0.0,0.0,0.0,0.0,0,0,0.0,0.0,0,0,51.0,0.0,0.0,4384.102564102564,3771.2820512820517,4314.358974358975,4322.051282051282,4267.179487179487,4408.717948717949,4300.000000000001,4155.8974358974365,4170.769230769231,4492.820512820514,4242.051282051282,4011.7948717948725,4003.589743589744,4388.205128205129
3422.5583,0.7595215,0.5920607,0.33949822,0.40955266,0,0.0,0.0,0.0,0.0,0.0,0,0,0.0,0.0,0,0,51.0,0.0,0.0,4384.102564102564,3771.2820512820517,4314.358974358975,4322.051282051282,4267.179487179487,4408.717948717949,4300.000000000001,4155.8974358974365,4170.769230769231,4492.820512820514,4242.051282051282,4011.7948717948725,4003.589743589744,4388.205128205129
3423.0588,0.7647675,0.55837864,0.3240997,0.42237562,0,0.0,0.0,0.0,0.0,0.0,0,0,0.0,0.0,0,0,115.0,0.0,398.0,4392.820512820514,3746.666666666667,4403.076923076924,4312.307692307693,4224.615384615385,4442.051282051282,4343.589743589744,4252.820512820514,4250.256410256411,4548.205128205129,4280.000000000001,4102.564102564103,4038.461538461539,4413.846153846154
3423.0588,0.7647675,0.55837864,0.3240997,0.42237562,0,0.0,0.0,0.0,0.0,0.0,0,0,0.0,0.0,0,0,115.0,0.0,398.0,4392.820512820514,3746.666666666667,4403.076923076924,4312.307692307693,4224.615384615385,4442.051282051282,4343.589743589744,4252.820512820514,4250.256410256411,4548.205128205129,4280.000000000001,4102.564102564103,4038.461538461539,4413.846153846154
3423.5593,0.87567794,0.5280647,0.30590472,0.43391547,0,0.0,0.0,0.0,0.0,0.0,0,0,0.0,0.0,0,0,50.0,0.0,0.0,4870.769230769231,3897.435897435898,4796.923076923077,4295.8974358974365,4124.102564102564,4647.179487179488,4795.8974358974365,4874.871794871796,4765.641025641026,4993.846153846154,4682.051282051282,4656.923076923077,4441.025641025642,4695.8974358974365
3423.5593,0.87567794,0.5280647,0.30590472,0.43391547,0,0.0,0.0,0.0,0.0,0.0,0,0,0.0,0.0,0,0,50.0,0.0,0.0,4870.769230769231,3897.435897435898,4796.923076923077,4295.8974358974365,4124.102564102564,4647.179487179488,4795.8974358974365,4874.871794871796,4765.641025641026,4993.846153846154,4682.051282051282,4656.923076923077,4441.025641025642,4695.8974358974365
3424.0598,0.98059666,0.50078225,0.28443462,0.44717604,0,0.0,0.0,0.0,0.0,0.0,0,0,0.0,0.0,0,0,114.0,0.0,532.0,5150.769230769231,4223.076923076924,4891.282051282052,4512.307692307693,4346.666666666667,4672.307692307693,4845.128205128206,4992.307692307693,4877.435897435898,5170.256410256411,4816.923076923077,4814.358974358975,4670.256410256411,4845.641025641026
3424.0598,0.98059666,0.50078225,0.28443462,0.44717604,0,0.0,0.0,0.0,0.0,0.0,0,0,0.0,0.0,0,0,114.0,0.0,532.0,5150.769230769231,4223.076923076924,4891.282051282052,4512.307692307693,4346.666666666667,4672.307692307693,4845.128205128206,4992.307692307693,4877.435897435898,5170.256410256411,4816.923076923077,4814.358974358975,4670.256410256411,4845.641025641026
3424.5603,1.0,0.47622803,0.2634249,0.45996872,0,0.0,0.0,0.0,0.0,0.11100699,0,0,0.0,0.0,0,0,49.0,0.0,0.0,5077.948717948719,3994.358974358975,4815.8974358974365,4415.8974358974365,4280.000000000001,4605.128205128206,4744.615384615386,4869.2307692307695,4660.512820512821,4976.410256410257,4611.282051282052,4732.307692307693,4445.128205128206,4811.794871794872
3424.8103,1.0,0.47622803,0.2634249,0.45996872,0,0.0,0.0,0.0,0.0,0.0071498915,0,0,0.0,0.0,0,0,81.0,0.0,451.0,5321.538461538462,4087.1794871794878,5021.538461538462,4343.076923076924,4167.179487179487,4674.871794871796,5023.076923076924,5167.6923076923085,4703.589743589744,5056.410256410257,4635.8974358974365,5032.307692307693,4541.025641025642,4967.179487179488
3425.0605,1.0,0.45412922,0.2418848,0.47529548,0,0.0,0.0,0.0,0.0,0.10291734,0,0,0.0,0.0,1,0,113.0,0.0,451.0,5317.435897435898,4251.794871794872,5052.307692307693,4444.102564102564,4166.153846153847,4619.48717948718,5020.512820512821,5194.358974358975,4570.256410256411,5057.435897435898,4376.923076923077,5004.102564102564,4615.384615384616,4997.948717948719
3425.3108,1.0,0.45412922,0.2418848,0.47529548,0,0.0,0.0,0.0,0.0,0.1489177,0,0,0.0,0.0,0,0,16.0,0.0,0.0,5172.307692307693,4312.307692307693,4867.179487179488,4569.743589743591,4166.153846153847,4590.256410256411,4811.794871794872,4977.435897435898,4405.641025641026,4969.743589743591,4367.6923076923085,4747.6923076923085,4543.589743589744,4944.102564102564
3425.561,1.0,0.43424028,0.222501,0.48908934,0,0.0,0.0,0.0,0.0,0.0012051703,0,0,0.0,0.0,0,0,48.0,0.0,0.0,5024.102564102564,4353.333333333334,4698.461538461539,4678.461538461539,4227.6923076923085,4575.8974358974365,4602.051282051282,4725.641025641026,4311.794871794872,4884.102564102564,4325.641025641026,4427.6923076923085,4419.48717948718,4858.461538461539
3425.8113,1.0,0.43424028,0.222501,0.48908934,0,0.0,0.0,0.0,0.0,0.01776107,0,0,0.0,0.0,0,0,80.0,0.0,501.0,4793.846153846154,4329.743589743591,4460.000000000001,4749.743589743591,4291.282051282052,4537.948717948719,4398.974358974359,4415.8974358974365,4201.025641025642,4720.000000000001,4230.256410256411,3877.435897435898,4247.179487179487,4752.820512820514
3426.0615,1.0,0.41634023,0.20505849,0.4962293,0,0.0,0.0,0.0,0.0,0.006327426,0,0,0.0,0.0,0,0,112.0,0.0,501.0,4641.538461538462,4230.256410256411,4263.589743589744,4795.384615384616,4342.051282051282,4458.974358974359,4185.641025641026,4118.461538461539,4087.692307692308,4569.743589743591,4113.333333333334,3657.435897435898,4074.8717948717954,4635.8974358974365
3426.1865,1.0,0.41634023,0.20505849,0.4962293,0,0.0,0.0,0.0,0.0,0.0,0,0,0.0,0.0,0,0,128.0,0.0,501.0,4540.000000000001,4200.512820512821,4216.923076923077,4801.538461538462,4367.179487179487,4431.282051282052,4108.717948717949,4004.1025641025644,4058.461538461539,4536.923076923077,4076.9230769230776,3589.2307692307695,4020.0000000000005,4573.333333333334
3426.562,1.0,0.4002302,0.19328836,0.49712545,0,0.0,0.0,0.0,0.0,0.0,0,0,0.0,0.0,0,0,47.0,0.0,0.0,4358.461538461539,4072.307692307693,4137.435897435898,4702.564102564103,4366.666666666667,4386.666666666667,4019.48717948718,3847.1794871794878,4037.435897435898,4442.564102564103,4030.2564102564106,3623.589743589744,3912.307692307693,4476.410256410257
3426.812,1.0,0.4002302,0.19328836,0.49712545,0,0.0,0.0,0.0,0.0,0.4289947,0,0,0.0,0.0,0,0,79.0,0.0,388.0,4335.8974358974365,3960.0000000000005,4166.666666666667,4639.48717948718,4378.974358974359,4416.410256410257,4052.820512820513,3894.358974358975,4106.153846153847,4461.025641025642,4037.9487179487182,3722.564102564103,3912.307692307693,4480.000000000001
3427.0623,1.0,0.3857312,0.18865433,0.5020422,0,0.0,0.0,0.0,0.0,0.10296554,0,0,0.0,0.0,0,0,111.0,0.0,388.0,4293.333333333334,3922.564102564103,4213.333333333334,4570.769230769231,4398.974358974359,4447.179487179487,4124.615384615385,3973.8461538461543,4174.358974358975,4513.846153846154,4080.0000000000005,3830.2564102564106,3941.0256410256416,4444.102564102564
3427.3125,1.0,0.3857312,0.18865433,0.5020422,0,0.0,0.0,0.0,0.0,0.12242256,0,0,0.0,0.0,0,0,14.0,0.0,530.0,4312.820512820514,3897.9487179487182,4266.153846153847,4520.000000000001,4397.948717948719,4458.974358974359,4175.8974358974365,4031.7948717948725,4231.282051282052,4564.615384615385,4123.076923076924,3915.8974358974365,3958.9743589743593,4411.794871794872
3427.5627,1.0,0.37268203,0.18641156,0.5064676,0,0.0,0.0,0.0,0.0,0.05581197,0,0,0.0,0.0,0,0,46.0,0.0,0.0,4360.000000000001,3860.0000000000005,4361.025641025642,4465.641025641026,4426.666666666667,4522.051282051282,4277.435897435898,4161.025641025642,4309.2307692307695,4634.358974358975,4178.974358974359,4053.333333333334,4020.0000000000005,4427.179487179487
3427.813,1.0,0.37268203,0.18641156,0.5064676,0,0.0,0.0,0.0,0.0,0.0054006567,0,0,0.0,0.0,0,0,78.0,0.0,530.0,4410.769230769231,3860.512820512821,4437.435897435898,4392.820512820514,4412.820512820514,4568.717948717949,4390.769230769231,4278.974358974359,4368.717948717949,4676.410256410257,4186.153846153847,4163.076923076924,4018.9743589743593,4460.000000000001
3428.0632,0.9989135,0.36093783,0.18439572,0.51254433,0,0.0,0.0,0.0,0.0,0.008767895,0,0,0.0,0.0,0,0,110.0,0.0,530.0,4477.948717948719,3908.717948717949,4502.051282051282,4390.769230769231,4430.256410256411,4575.8974358974365,4437.948717948719,4332.820512820514,4379.48717948718,4697.435897435898,4207.6923076923085,4229.74358974359,4057.9487179487182,4469.743589743591
3428.3135,0.9989135,0.36093783,0.18439572,0.51254433,0,0.0,0.0,0.0,0.0,0.13867919,0,0,0.0,0.0,0,0,13.0,0.0,466.0,4472.820512820514,3866.1538461538466,4487.179487179488,4385.641025641026,4426.666666666667,4574.358974358975,4428.717948717949,4343.076923076924,4382.564102564103,4712.820512820514,4222.564102564103,4229.74358974359,4089.23076923077,4438.974358974359
3428.5637,0.9447628,0.35036805,0.18258414,0.541517,0,0.0,0.0,0.0,0.0,0.0,0,0,0.0,0.0,0,0,45.0,0.0,0.0,4474.358974358975,3891.7948717948725,4491.282051282052,4413.333333333334,4428.205128205129,4570.769230769231,4414.358974358975,4328.717948717949,4370.769230769231,4687.179487179488,4258.974358974359,4232.820512820514,4108.717948717949,4459.48717948718
3428.5637,0.9447628,0.35036805,0.18258414,0.541517,0,0.0,0.0,0.0,0.0,0.0,0,0,0.0,0.0,0,0,45.0,0.0,0.0,4474.358974358975,3891.7948717948725,4491.282051282052,4413.333333333334,4428.205128205129,4570.769230769231,4414.358974358975,4328.717948717949,4370.769230769231,4687.179487179488,4258.974358974359,4232.820512820514,4108.717948717949,4459.48717948718
3429.064,0.87972283,0.3408552,0.18095642,0.5681181,0,0.0,0.0,0.0,0.0,0.0,0,0,0.0,0.0,0,0,109.0,0.0,466.0,4425.128205128206,3826.1538461538466,4472.307692307693,4414.871794871796,4411.794871794872,4550.256410256411,4386.153846153847,4342.564102564103,4382.051282051282,4697.948717948719,4342.564102564103,4249.2307692307695,4151.282051282052,4443.076923076924
3429.3142,0.87972283,0.3408552,0.18095642,0.5681181,0,0.0,0.0,0.0,0.0,0.0026820325,0,0,0.0,0.0,0,0,12.0,0.0,505.0,4561.538461538462,3747.692307692308,4636.410256410257,4357.948717948719,4285.641025641026,4573.333333333334,4570.256410256411,4581.025641025642,4527.6923076923085,4813.333333333334,4535.384615384616,4507.6923076923085,4268.717948717949,4520.512820512821
3429.5645,0.928175,0.3322937,0.1794942,0.59205866,0,0.0,0.0,0.0,0.0,0.01825369,0,0,0.0,0.0,0,0,44.0,0.0,0.0,4897.948717948719,3882.0512820512827,4932.820512820514,4356.923076923077,4233.846153846154,4646.153846153847,4865.128205128206,4970.769230769231,4750.769230769231,5030.769230769231,4782.564102564103,4866.153846153847,4565.641025641026,4697.948717948719
3429.8147,0.928175,0.3322937,0.1794942,0.59205866,0,0.0,0.0,0.0,0.0,0.0,0,0,0.0,0.0,0,0,76.0,0.0,488.0,5183.076923076924,4122.051282051282,5010.769230769231,4449.2307692307695,4365.641025641026,4686.666666666667,4961.025641025642,5122.051282051283,4828.717948717949,5167.6923076923085,4921.025641025642,5023.589743589744,4798.974358974359,4833.333333333334
3430.065,1.0,0.3245883,0.16952819,0.6136041,0,0.0,0.0,0.0,0.0,0.0,0,0,0.0,0.0,0,0,108.0,0.0,488.0,5167.6923076923085,4201.538461538462,4875.8974358974365,4535.384615384616,4440.512820512821,4656.410256410257,4819.48717948718,4967.6923076923085,4706.153846153847,5123.076923076924,4848.205128205129,4862.564102564103,4765.128205128206,4810.769230769231
3430.065,1.0,0.3245883,0.16952819,0.6136041,0,0.0,0.0,0.0,0.0,0.0,0,0,0.0,0.0,0,0,108.0,0.0,488.0,5167.6923076923085,4201.538461538462,4875.8974358974365,4535.384615384616,4440.512820512821,4656.410256410257,4819.48717948718,4967.6923076923085,4706.153846153847,5123.076923076924,4848.205128205129,4862.564102564103,4765.128205128206,4810.769230769231
3430.5654,1.0,0.31765348,0.16536018,0.6260551,0,0.0,0.0,0.0,0.0,0.0,0,0,0.36105824,0.0,0,0,43.0,0.0,0.0,4840.000000000001,4154.871794871796,4475.384615384616,4586.153846153847,4442.051282051282,4475.384615384616,4375.384615384616,4369.2307692307695,4314.871794871796,4746.666666666667,4447.6923076923085,4157.435897435898,4302.564102564103,4595.384615384616
3430.8157,1.0,0.31765348,0.16536018,0.6260551,0,0.0,0.0,0.0,0.0,0.022125207,0,0,0.0,0.0,0,0,75.0,0.0,392.0,4705.128205128206,4068.205128205129,4326.666666666667,4560.000000000001,4429.743589743591,4415.384615384616,4185.641025641026,4144.615384615385,4203.076923076924,4618.974358974359,4281.025641025642,4004.615384615385,4157.948717948719,4535.8974358974365
3431.0657,1.0,0.3114121,0.17716569,0.6372593,0,0.0,0.0,0.0,0.0,0.10403993,0,0,0.0,0.0,0,0,107.0,0.0,392.0,4474.358974358975,3938.461538461539,4224.615384615385,4497.435897435898,4424.615384615385,4384.615384615385,4101.538461538462,4017.435897435898,4122.051282051282,4512.307692307693,4140.512820512821,3895.8974358974365,3975.8974358974365,4404.102564102564
3431.316,1.0,0.3114121,0.17716569,0.6372593,0,0.0,0.0,0.0,0.0,0.81265324,0,0,0.0,0.0,0,0,10.0,0.0,530.0,4316.923076923077,3837.435897435898,4187.6923076923085,4427.179487179487,4416.410256410257,4373.333333333334,4093.333333333334,3979.48717948718,4108.717948717949,4462.564102564103,4075.8974358974365,3847.692307692308,3911.7948717948725,4365.641025641026
3431.5662,1.0,0.3057949,0.19616103,0.64463437,0,0.0,0.0,0.0,0.0,0.23072782,0,0,0.0,0.0,0,0,42.0,0.0,0.0,4204.102564102564,3717.9487179487182,4162.564102564103,4347.179487179487,4382.051282051282,4334.358974358975,4102.564102564103,3942.0512820512827,4056.410256410257,4397.948717948719,4013.8461538461543,3801.538461538462,3826.666666666667,4318.974358974359
3431.8164,1.0,0.3057949,0.19616103,0.64463437,0,0.0,0.0,0.0,0.0,0.27869296,0,0,0.0,0.0,0,0,74.0,0.0,530.0,4154.358974358975,3703.589743589744,4203.589743589744,4380.512820512821,4464.615384615385,4367.6923076923085,4138.974358974359,3970.7692307692314,4078.9743589743593,4421.025641025642,4044.1025641025644,3829.7435897435903,3834.358974358975,4305.128205128206
3432.0667,1.0,0.30073938,0.21678326,0.64889187,0,0.0,0.0,0.0,0.0,0.020550657,0,0,0.0,0.0,0,0,106.0,0.0,530.0,4156.410256410257,3534.8717948717954,4351.794871794872,4294.871794871796,4377.435897435898,4399.48717948718,4335.384615384616,4184.102564102564,4148.205128205129,4454.358974358975,4077.435897435898,4000.0000000000005,3815.3846153846157,4310.256410256411
3432.317,1.0,0.30073938,0.21678326,0.64889187,0,0.0,0.0,0.0,0.0,0.0043136873,0,0,0.0,0.0,0,0,9.0,0.0,483.0,4540.512820512821,3481.0256410256416,4719.48717948718,4168.717948717949,4235.384615384616,4508.205128205129,4753.333333333334,4698.461538461539,4330.769230769231,4648.717948717949,4230.769230769231,4449.2307692307695,4043.076923076924,4484.102564102564
3432.5671,1.0,0.29618943,0.23710589,0.65094763,0,0.0,0.0,0.0,0.0,0.03336416,0,0,0.0,0.0,0,0,41.0,0.0,0.0,4887.6923076923085,3828.205128205129,5015.8974358974365,4302.051282051282,4281.025641025642,4634.358974358975,5116.410256410257,5071.282051282052,4460.000000000001,4870.769230769231,4373.333333333334,4813.333333333334,4446.666666666667,4656.410256410257
3432.8174,1.0,0.29618943,0.23710589,0.65094763,0,0.0,0.0,0.0,0.0,0.103563435,0,0,0.0,0.0,0,0,73.0,0.0,483.0,4985.128205128206,4112.307692307693,4944.615384615386,4469.2307692307695,4310.256410256411,4666.666666666667,5054.358974358975,5014.358974358975,4488.717948717949,4885.128205128206,4361.025641025642,4618.461538461539,4524.615384615385,4672.820512820514
3433.0674,1.0,0.29209447,0.255397,0.6377225,0,0.0,0.0,0.0,0.0,0.008387855,0,0,0.0,0.0,0,0,105.0,0.0,459.0,4911.282051282052,4241.538461538462,4717.948717948719,4555.8974358974365,4307.179487179487,4617.948717948719,4830.256410256411,4756.410256410257,4440.000000000001,4765.128205128206,4257.435897435898,4225.641025641026,4453.846153846154,4634.871794871796
3433.3176,1.0,0.29209447,0.255397,0.6377225,0,0.0,0.0,0.0,0.0,0.006964905,0,0,0.0,0.0,0,0,8.0,0.0,503.0,4826.153846153847,4224.615384615385,4550.256410256411,4670.256410256411,4336.923076923077,4558.461538461539,4610.769230769231,4538.974358974359,4383.589743589744,4682.564102564103,4212.820512820514,3958.9743589743593,4324.615384615385,4586.153846153847
3433.5679,1.0,0.28840902,0.27185968,0.62595785,0,0.0,0.0,0.0,0.0,0.003578554,0,0,0.0,0.0,0,0,40.0,0.0,0.0,4655.384615384616,4168.205128205129,4408.717948717949,4727.179487179488,4382.051282051282,4492.307692307693,4412.307692307693,4277.948717948719,4278.461538461539,4570.769230769231,4106.153846153847,3736.9230769230776,4167.179487179487,4493.333333333334
3433.818,1.0,0.28840902,0.27185968,0.62595785,0,0.0,0.0,0.0,0.0,0.0,0,0,0.0,0.0,0,0,72.0,0.0,503.0,4433.846153846154,4030.2564102564106,4260.000000000001,4721.025641025642,4368.717948717949,4430.769230769231,4268.717948717949,4128.717948717949,4263.589743589744,4537.948717948719,4082.0512820512827,3647.692307692308,4106.153846153847,4441.538461538462
3434.0684,1.0,0.28509212,0.28667673,0.61536974,0,0.0,0.0,0.0,0.0,0.0,0,0,0.0,0.0,0,0,104.0,0.0,503.0,4324.102564102564,3932.820512820513,4154.358974358975,4675.8974358974365,4358.461538461539,4361.538461538462,4089.7435897435903,4016.410256410257,4216.923076923077,4495.8974358974365,4050.7692307692314,3648.717948717949,4017.435897435898,4391.282051282052
3434.0684,1.0,0.28509212,0.28667673,0.61536974,0,0.0,0.0,0.0,0.0,0.0,0,0,0.0,0.0,0,0,104.0,0.0,503.0,4324.102564102564,3932.820512820513,4154.358974358975,4675.8974358974365,4358.461538461539,4361.538461538462,4089.7435897435903,4016.410256410257,4216.923076923077,4495.8974358974365,4050.7692307692314,3648.717948717949,4017.435897435898,4391.282051282052
3434.5688,1.0,0.28210688,0.30379218,0.60584027,0,0.0,0.0,0.0,0.0,0.0,0,0,0.0,0.0,0,0,39.0,0.0,0.0,4102.051282051282,3737.9487179487182,4089.23076923077,4472.307692307693,4343.076923076924,4291.282051282052,4003.589743589744,3925.1282051282055,4153.846153846154,4389.2307692307695,3974.358974358975,3681.538461538462,3836.9230769230776,4308.205128205129
3434.819,1.0,0.28210688,0.30379218,0.60584027,0,0.0,0.0,0.0,0.0,0.6651718,0,0,0.0,0.0,0,0,71.0,0.0,480.0,4153.846153846154,3730.7692307692314,4132.820512820514,4416.410256410257,4337.435897435898,4281.538461538462,3989.7435897435903,3909.2307692307695,4093.333333333334,4340.000000000001,3910.2564102564106,3712.307692307693,3733.333333333334,4285.641025641026
3435.0693,0.93600696,0.2794202,0.32186002,0.6194458,0,0.0,0.0,0.0,0.0,0.31692517,0,0,0.0,0.0,0,0,103.0,0.0,401.0,4108.205128205129,3691.794871794872,4155.384615384616,4381.025641025642,4349.743589743591,4291.794871794872,4015.8974358974365,3915.8974358974365,4090.2564102564106,4347.179487179487,3901.0256410256416,3759.48717948718,3710.2564102564106,4249.2307692307695
3435.382,0.93600696,0.2794202,0.32186002,0.6194458,1,0.0,0.0,0.0,0.0,0.0,0,0,0.0,0.0,0,0,14.0,0.0,532.0,4240.000000000001,3708.205128205129,4266.666666666667,4357.948717948719,4375.8974358974365,4374.358974358975,4105.128205128206,4020.0000000000005,4153.846153846154,4426.666666666667,4003.589743589744,3928.205128205129,3805.6410256410263,4311.794871794872
3435.5696,1.0,0.27700216,0.33987713,0.6397006,0,0.0,0.0,0.0,0.0,0.0,0,0,0.0,0.0,0,0,38.0,0.0,0.0,4185.641025641026,3696.410256410257,4323.076923076924,4323.589743589744,4385.641025641026,4428.717948717949,4186.153846153847,4106.666666666667,4234.358974358975,4526.666666666667,4059.48717948718,4008.717948717949,3862.0512820512827,4293.333333333334
3435.8198,1.0,0.27700216,0.33987713,0.6397006,0,0.0,0.0,0.0,0.0,0.24328858,0,0,0.0,0.0,0,0,70.0,0.0,536.0,4179.48717948718,3715.3846153846157,4370.769230769231,4313.333333333334,4388.717948717949,4467.179487179487,4239.48717948718,4160.512820512821,4267.6923076923085,4574.358974358975,4108.205128205129,4073.333333333334,3906.666666666667,4284.102564102564
3436.07,1.0,0.27482593,0.3652275,0.65792656,0,0.0,0.0,0.0,0.0,0.31875372,0,0,0.0,0.0,0,0,102.0,0.0,532.0,4243.589743589744,3787.692307692308,4466.666666666667,4350.256410256411,4425.128205128206,4538.974358974359,4342.051282051282,4264.102564102564,4355.8974358974365,4670.769230769231,4233.846153846154,4197.948717948719,4012.307692307693,4329.743589743591
3436.3203,1.0,0.27482593,0.3652275,0.65792656,0,0.0,0.0,0.0,0.0,0.0,0,0,0.0,0.0,0,0,5.0,0.0,561.0,4364.615384615385,3831.7948717948725,4542.051282051282,4386.666666666667,4420.512820512821,4619.48717948718,4416.923076923077,4385.128205128206,4464.615384615385,4790.256410256411,4355.8974358974365,4307.179487179487,4124.615384615385,4350.769230769231
3436.5706,1.0,0.27286732,0.38804218,0.67432564,0,0.0,0.0,0.0,0.0,0.0,0,0,0.0,0.0,0,0,37.0,0.0,0.0,4429.2307692307695,3876.9230769230776,4585.641025641026,4410.256410256411,4377.948717948719,4649.743589743591,4473.846153846154,4454.871794871796,4526.153846153847,4858.461538461539,4438.461538461539,4416.923076923077,4212.820512820514,4379.48717948718
3436.5706,1.0,0.27286732,0.38804218,0.67432564,0,0.0,0.0,0.0,0.0,0.0,0,0,0.0,0.0,0,0,37.0,0.0,0.0,4429.2307692307695,3876.9230769230776,4585.641025641026,4410.256410256411,4377.948717948719,4649.743589743591,4473.846153846154,4454.871794871796,4526.153846153847,4858.461538461539,4438.461538461539,4416.923076923077,4212.820512820514,4379.48717948718
3437.071,1.0,0.27110457,0.4085742,0.6828832,0,0.0,0.0,0.0,0.0,0.0,0,0,0.0,0.0,0,0,101.0,0.0,466.0,4749.743589743591,3894.358974358975,4782.051282051282,4384.102564102564,4270.769230769231,4698.461538461539,4683.076923076924,4741.025641025642,4701.538461538462,5028.205128205129,4676.923076923077,4707.6923076923085,4366.666666666667,4450.256410256411
3437.321,1.0,0.27110457,0.4085742,0.6828832,0,0.0,0.0,0.0,0.0,0.12665822,0,0,0.0,0.0,0,0,4.0,0.0,555.0,5013.846153846154,4038.461538461539,4913.846153846154,4400.512820512821,4246.666666666667,4718.974358974359,4841.538461538462,4922.564102564103,4782.051282051282,5113.333333333334,4792.307692307693,4875.8974358974365,4482.051282051282,4538.461538461539
3437.5713,1.0,0.2695181,0.40838638,0.6719319,0,0.0,0.0,0.0,0.0,1.0,0,0,0.0,0.0,0,0,36.0,0.0,0.0,5214.358974358975,4189.2307692307695,4936.923076923077,4458.461538461539,4276.923076923077,4630.769230769231,4825.641025641026,4931.794871794872,4767.6923076923085,5131.282051282052,4818.461538461539,4907.6923076923085,4579.48717948718,4612.307692307693
3437.8215,1.0,0.2695181,0.40838638,0.6719319,0,0.0,0.0,0.0,0.0,0.15668537,0,0,0.0,0.0,0,0,68.0,0.0,555.0,5080.512820512821,4185.641025641026,4811.282051282052,4460.512820512821,4351.282051282052,4615.384615384616,4712.820512820514,4811.282051282052,4666.666666666667,5062.051282051283,4736.410256410257,4736.923076923077,4527.179487179488,4561.538461538462
3438.0718,1.0,0.26809028,0.39137575,0.6532289,0,0.0,0.0,0.0,0.0,0.0,0,0,0.0,0.0,0,0,100.0,0.0,491.0,4892.307692307693,4136.410256410257,4663.589743589744,4487.6923076923085,4376.410256410257,4563.589743589744,4572.820512820514,4621.025641025642,4522.051282051282,4933.846153846154,4609.2307692307695,4542.564102564103,4415.8974358974365,4521.025641025642
3438.0718,1.0,0.26809028,0.39137575,0.6532289,0,0.0,0.0,0.0,0.0,0.0,0,0,0.0,0.0,0,0,100.0,0.0,491.0,4892.307692307693,4136.410256410257,4663.589743589744,4487.6923076923085,4376.410256410257,4563.589743589744,4572.820512820514,4621.025641025642,4522.051282051282,4933.846153846154,4609.2307692307695,4542.564102564103,4415.8974358974365,4521.025641025642
3438.5723,1.0,0.26680526,0.37606555,0.6276519,0,0.0,0.0,0.0,0.0,0.0,0,0,0.0,0.0,0,0,35.0,0.0,0.0,4546.153846153847,3927.692307692308,4432.307692307693,4441.025641025642,4322.051282051282,4492.820512820514,4308.717948717949,4282.051282051282,4313.333333333334,4676.923076923077,4310.256410256411,4184.615384615385,4141.538461538462,4397.948717948719
3438.5723,1.0,0.26680526,0.37606555,0.6276519,0,0.0,0.0,0.0,0.0,0.0,0,0,0.0,0.0,0,0,35.0,0.0,0.0,4546.153846153847,3927.692307692308,4432.307692307693,4441.025641025642,4322.051282051282,4492.820512820514,4308.717948717949,4282.051282051282,4313.333333333334,4676.923076923077,4310.256410256411,4184.615384615385,4141.538461538462,4397.948717948719
3439.0728,1.0,0.26564872,0.36228588,0.5977544,0,0.0,0.0,0.0,0.0,0.0,0,0,0.0,0.0,0,0,99.0,0.0,399.0,4306.666666666667,3814.8717948717954,4390.769230769231,4378.974358974359,4251.282051282052,4473.333333333334,4264.102564102564,4192.307692307693,4273.846153846154,4597.948717948719,4224.615384615385,4106.153846153847,4013.333333333334,4343.076923076924
3439.2603,1.0,0.26564872,0.36228588,0.5977544,0,0.0,0.0,0.0,0.0,0.0,0,0,0.0,0.0,1,0,123.0,0.0,399.0,4297.435897435898,3801.0256410256416,4380.000000000001,4366.666666666667,4248.717948717949,4507.6923076923085,4264.615384615385,4182.564102564103,4280.000000000001,4586.666666666667,4166.153846153847,4061.0256410256416,3925.6410256410263,4271.282051282052
3439.6042,0.92654544,0.26460785,0.35099438,0.5679426,0,0.0,0.0,0.0,0.0,0.3634117,0,0,0.0,0.0,0,0,38.0,0.0,0.0,4283.589743589744,3797.9487179487182,4403.589743589744,4361.538461538462,4233.333333333334,4524.615384615385,4314.871794871796,4237.435897435898,4326.153846153847,4625.128205128206,4217.435897435898,4094.8717948717954,3990.2564102564106,4289.2307692307695
3439.8232,0.92654544,0.26460785,0.35099438,0.5679426,0,0.0,0.0,0.0,0.0,0.07356293,0,0,0.0,0.0,0,0,66.0,0.0,457.0,4320.000000000001,3844.615384615385,4461.025641025642,4386.153846153847,4244.615384615385,4581.025641025642,4380.512820512821,4312.307692307693,4400.000000000001,4696.410256410257,4292.307692307693,4169.2307692307695,4066.1538461538466,4344.102564102564
3440.0735,1.0,0.26367104,0.3503581,0.5286873,0,0.0,0.0,0.0,0.0,0.0,0,0,0.0,0.0,0,0,98.0,0.0,533.0,4454.358974358975,3834.358974358975,4469.743589743591,4382.564102564103,4175.8974358974365,4573.333333333334,4367.6923076923085,4304.102564102564,4386.153846153847,4676.410256410257,4302.051282051282,4183.076923076924,4080.5128205128212,4392.307692307693
3440.0735,1.0,0.26367104,0.3503581,0.5286873,0,0.0,0.0,0.0,0.0,0.0,0,0,0.0,0.0,0,0,98.0,0.0,533.0,4454.358974358975,3834.358974358975,4469.743589743591,4382.564102564103,4175.8974358974365,4573.333333333334,4367.6923076923085,4304.102564102564,4386.153846153847,4676.410256410257,4302.051282051282,4183.076923076924,4080.5128205128212,4392.307692307693
3440.574,0.9703212,0.26282793,0.3497852,0.4826631,0,0.0,0.0,0.0,0.0,0.4596525,0,0,0.0,0.0,0,0,33.0,0.0,0.0,4509.2307692307695,3826.666666666667,4519.48717948718,4381.538461538462,4133.333333333334,4560.512820512821,4409.2307692307695,4365.641025641026,4435.8974358974365,4723.589743589744,4396.923076923077,4286.153846153847,4167.6923076923085,4506.666666666667
3440.8242,0.9703212,0.26282793,0.3497852,0.4826631,0,0.0,0.0,0.0,0.0,0.17307772,0,0,0.0,0.0,0,0,65.0,0.0,487.0,4494.871794871796,3772.820512820513,4497.435897435898,4364.102564102564,4095.8974358974365,4561.025641025642,4423.589743589744,4385.128205128206,4430.256410256411,4717.435897435898,4424.102564102564,4280.000000000001,4169.74358974359,4476.923076923077
3441.0745,0.8599943,0.26206914,0.34926936,0.4412465,0,0.0,0.0,0.0,0.0,0.0,0,0,0.0,0.0,0,0,97.0,0.0,467.0,4532.307692307693,3833.333333333334,4509.2307692307695,4382.051282051282,4101.538461538462,4566.153846153847,4427.179487179487,4398.974358974359,4432.307692307693,4724.102564102564,4428.205128205129,4280.512820512821,4168.205128205129,4472.307692307693
3441.0745,0.8599943,0.26206914,0.34926936,0.4412465,0,0.0,0.0,0.0,0.0,0.0,0,0,0.0,0.0,0,0,97.0,0.0,467.0,4532.307692307693,3833.333333333334,4509.2307692307695,4382.051282051282,4101.538461538462,4566.153846153847,4427.179487179487,4398.974358974359,4432.307692307693,4724.102564102564,4428.205128205129,4280.512820512821,4168.205128205129,4472.307692307693
3441.6687,0.81803095,0.3483467,0.35021955,0.40398157,0,0.0,0.0,0.0,0.0,0.0,0,0,0.0,0.0,1,0,44.0,0.0,0.0,4635.384615384616,3864.615384615385,4521.538461538462,4403.589743589744,4083.589743589744,4552.820512820514,4413.846153846154,4397.435897435898,4429.2307692307695,4723.076923076924,4448.717948717949,4286.666666666667,4188.717948717949,4478.461538461539
3441.6687,0.81803095,0.3483467,0.35021955,0.40398157,0,0.0,0.0,0.0,0.0,0.0,0,0,0.0,0.0,1,0,44.0,0.0,0.0,4635.384615384616,3864.615384615385,4521.538461538462,4403.589743589744,4083.589743589744,4552.820512820514,4413.846153846154,4397.435897435898,4429.2307692307695,4723.076923076924,4448.717948717949,4286.666666666667,4188.717948717949,4478.461538461539
3442.0752,0.72605056,0.6827593,0.35107446,0.37228584,0,0.0,0.0,0.0,0.0,0.22255605,0,0,0.0,0.0,0,0,96.0,0.0,501.0,4548.205128205129,3880.512820512821,4516.410256410257,4410.256410256411,4082.564102564103,4553.333333333334,4437.435897435898,4411.282051282052,4408.717948717949,4718.461538461539,4443.076923076924,4284.102564102564,4167.179487179487,4463.076923076924
3442.3254,0.72605056,0.6827593,0.35107446,0.37228584,0,0.0,0.0,0.0,0.0,0.15206562,0,0,0.0,0.0,0,0,128.0,0.0,501.0,4584.102564102564,3860.512820512821,4507.6923076923085,4400.000000000001,4067.692307692308,4553.333333333334,4433.846153846154,4403.076923076924,4404.102564102564,4708.717948717949,4427.179487179487,4264.102564102564,4164.615384615385,4468.205128205129
3442.5757,0.6476916,0.7019793,0.35374138,0.35328802,0,0.0,0.0,0.0,0.0,0.0,0,0,0.0,0.0,0,0,31.0,0.0,0.0,4620.000000000001,3895.8974358974365,4524.102564102564,4413.333333333334,4070.2564102564106,4555.384615384616,4441.025641025642,4413.846153846154,4403.589743589744,4731.794871794872,4451.794871794872,4292.820512820514,4206.153846153847,4480.000000000001
3442.5757,0.6476916,0.7019793,0.35374138,0.35328802,0,0.0,0.0,0.0,0.0,0.0,0,0,0.0,0.0,0,0,31.0,0.0,0.0,4620.000000000001,3895.8974358974365,4524.102564102564,4413.333333333334,4070.2564102564106,4555.384615384616,4441.025641025642,4413.846153846154,4403.589743589744,4731.794871794872,4451.794871794872,4292.820512820514,4206.153846153847,4480.000000000001
3443.0762,0.615722,0.73903525,0.35579893,0.3423186,0,0.0,0.0,0.0,0.0,0.0,0,0,0.0,0.0,0,0,95.0,0.0,400.0,4589.2307692307695,3897.9487179487182,4504.615384615385,4388.205128205129,4060.0000000000005,4553.333333333334,4427.6923076923085,4381.025641025642,4375.8974358974365,4705.128205128206,4409.743589743591,4250.256410256411,4170.256410256411,4490.769230769231
3443.0762,0.615722,0.73903525,0.35579893,0.3423186,0,0.0,0.0,0.0,0.0,0.0,0,0,0.0,0.0,0,0,95.0,0.0,400.0,4589.2307692307695,3897.9487179487182,4504.615384615385,4388.205128205129,4060.0000000000005,4553.333333333334,4427.6923076923085,4381.025641025642,4375.8974358974365,4705.128205128206,4409.743589743591,4250.256410256411,4170.256410256411,4490.769230769231
3443.5764,0.5872543,0.77434576,0.35765043,0.33245778,0,0.0,0.0,0.0,0.0,0.0021418447,0,0,0.0,0.0,0,0,30.0,0.0,0.0,4583.589743589744,3911.7948717948725,4491.794871794872,4374.871794871796,4066.1538461538466,4542.051282051282,4445.641025641026,4493.333333333334,4394.871794871796,4705.641025641026,4421.025641025642,4261.025641025642,4167.179487179487,4502.564102564103
3443.8267,0.5872543,0.77434576,0.35765043,0.33245778,0,0.0,0.0,0.0,0.0,0.16748497,0,0,0.0,0.0,0,0,62.0,0.0,0.0,4612.820512820514,3871.2820512820517,4504.615384615385,4380.512820512821,4079.48717948718,4542.051282051282,4446.153846153847,4493.333333333334,4408.205128205129,4728.205128205129,4435.384615384616,4282.564102564103,4189.2307692307695,4523.076923076924
3444.077,0.56542176,0.78139704,0.36317182,0.31748316,1,0.0,0.0,0.0,0.0,0.26734757,0,0,0.0,0.0,0,0,94.0,0.0,534.0,4679.48717948718,3924.615384615385,4505.128205128206,4394.358974358975,4092.307692307693,4524.615384615385,4427.179487179487,4448.205128205129,4401.538461538462,4713.333333333334,4428.717948717949,4273.333333333334,4187.6923076923085,4536.923076923077
3444.3271,0.56542176,0.78139704,0.36317182,0.31748316,0,0.0,0.0,0.0,0.0,0.43645826,0,0,0.0,0.0,0,0,126.0,0.0,534.0,4608.205128205129,3913.333333333334,4496.923076923077,4400.512820512821,4132.820512820514,4555.8974358974365,4450.769230769231,4446.666666666667,4424.102564102564,4721.025641025642,4417.948717948719,4255.8974358974365,4181.025641025642,4515.8974358974365
3444.5774,0.53050596,0.7962549,0.36814064,0.29345775,0,0.0,0.0,0.0,0.0,0.10694555,0,0,0.0,0.0,0,0,29.0,0.0,0.0,4638.974358974359,3893.8461538461543,4491.282051282052,4408.717948717949,4136.923076923077,4541.025641025642,4428.717948717949,4442.051282051282,4442.564102564103,4736.923076923077,4415.384615384616,4261.025641025642,4188.717948717949,4521.025641025642
3444.7024,0.53050596,0.7962549,0.36814064,0.29345775,0,0.0,0.0,0.0,0.0,0.0,0,0,0.0,0.0,0,0,45.0,0.0,0.0,4654.871794871796,3909.7435897435903,4494.358974358975,4410.769230769231,4133.846153846154,4538.461538461539,4429.743589743591,4426.666666666667,4429.2307692307695,4723.076923076924,4414.871794871796,4267.6923076923085,4186.153846153847,4524.615384615385
3445.078,0.49630415,0.8066887,0.37408268,0.2765384,0,0.0,0.0,0.0,0.0,0.0,0,0,0.0,0.0,0,0,93.0,0.0,467.0,4610.256410256411,3835.8974358974365,4534.871794871796,4349.743589743591,4063.076923076924,4553.333333333334,4504.102564102564,4486.666666666667,4438.974358974359,4717.435897435898,4403.076923076924,4329.2307692307695,4149.74358974359,4492.307692307693
3445.3281,0.49630415,0.8066887,0.37408268,0.2765384,0,0.0,0.0,0.0,0.0,0.030646907,0,0,0.0,0.0,0,0,125.0,0.0,467.0,4933.846153846154,3784.1025641025644,4779.48717948718,4278.461538461539,3893.8461538461543,4616.923076923077,4751.794871794872,4812.307692307693,4601.025641025642,4853.333333333334,4494.358974358975,4637.435897435898,4261.538461538462,4597.435897435898
3445.5784,0.64674765,0.8161618,0.3794299,0.26468873,0,0.0,0.0,0.0,0.0,0.11372478,0,0,0.0,0.0,0,0,28.0,0.0,0.0,5433.846153846154,4098.461538461539,5193.333333333334,4363.589743589744,3898.9743589743593,4721.538461538462,5165.641025641026,5282.051282051283,4781.538461538462,5131.282051282052,4646.666666666667,5103.076923076924,4622.051282051282,4858.974358974359
3445.8284,0.64674765,0.8161618,0.3794299,0.26468873,0,0.0,0.0,0.0,0.0,0.0,0,0,0.0,0.0,0,0,60.0,0.0,0.0,5648.717948717949,4509.743589743591,5261.025641025642,4414.358974358975,4079.48717948718,4768.717948717949,5314.358974358975,5474.871794871796,4859.48717948718,5337.948717948719,4706.666666666667,5245.641025641026,4903.076923076924,5025.128205128206
3446.0786,0.7791379,0.82468766,0.3803209,0.25404826,0,0.0,0.0,0.0,0.0,0.0278536,0,0,0.0,0.0,0,0,92.0,0.0,495.0,5608.205128205129,4589.743589743591,5079.487179487181,4553.846153846154,4149.2307692307695,4661.025641025642,5167.179487179488,5241.538461538462,4705.128205128206,5285.128205128206,4550.256410256411,5030.769230769231,4870.256410256411,5000.000000000001
3446.3289,0.7791379,0.82468766,0.3803209,0.25404826,0,0.0,0.0,0.0,0.0,0.0021224401,0,0,0.0,0.0,0,0,124.0,0.0,495.0,5359.487179487181,4566.153846153847,4863.076923076924,4658.461538461539,4245.128205128206,4555.384615384616,4849.2307692307695,4908.205128205129,4548.717948717949,5114.358974358975,4476.410256410257,4476.923076923077,4686.666666666667,4879.48717948718
3446.579,0.8956414,0.83236086,0.3798302,0.255336,0,0.0,0.0,0.0,0.0,0.0,0,0,0.41491967,0.0,0,0,27.0,0.0,0.0,4983.589743589744,4428.205128205129,4591.282051282052,4691.794871794872,4286.666666666667,4476.410256410257,4530.256410256411,4533.846153846154,4351.794871794872,4895.384615384616,4314.358974358975,4124.615384615385,4440.512820512821,4777.948717948719
3446.8293,0.8956414,0.83236086,0.3798302,0.255336,0,0.0,0.0,0.0,0.0,0.0,0,0,0.38235146,0.0,0,0,59.0,0.0,0.0,4779.48717948718,4288.205128205129,4385.641025641026,4716.923076923077,4310.256410256411,4410.769230769231,4280.512820512821,4225.128205128206,4233.333333333334,4729.2307692307695,4199.48717948718,3895.3846153846157,4231.282051282052,4681.538461538462
3447.0796,0.9981644,0.8392668,0.37938792,0.25936,0,0.0,0.0,0.0,0.0,0.0,0,0,0.0,0.0,0,0,91.0,0.0,383.0,4555.8974358974365,4165.641025641026,4235.384615384616,4659.48717948718,4293.846153846154,4369.743589743591,4126.666666666667,4020.0000000000005,4136.410256410257,4575.8974358974365,4084.1025641025644,3742.564102564103,4047.1794871794878,4557.435897435898
3447.0796,0.9981644,0.8392668,0.37938792,0.25936,0,0.0,0.0,0.0,0.0,0.0,0,0,0.0,0.0,0,0,91.0,0.0,383.0,4555.8974358974365,4165.641025641026,4235.384615384616,4659.48717948718,4293.846153846154,4369.743589743591,4126.666666666667,4020.0000000000005,4136.410256410257,4575.8974358974365,4084.1025641025644,3742.564102564103,4047.1794871794878,4557.435897435898
3447.58,1.0,0.84548205,0.37898922,0.26981622,0,0.0,0.0,0.0,0.0,0.82489294,0,0,0.0,0.0,0,0,26.0,0.0,0.0,4385.128205128206,3925.6410256410263,4183.589743589744,4518.461538461539,4253.333333333334,4376.923076923077,4079.48717948718,3943.076923076924,4136.410256410257,4505.128205128206,4057.9487179487182,3799.48717948718,3939.48717948718,4474.358974358975
3447.83,1.0,0.84548205,0.37898922,0.26981622,0,0.0,0.0,0.0,0.0,0.19373068,0,0,0.0,0.0,0,0,58.0,0.0,0.0,4310.769230769231,3867.692307692308,4201.025641025642,4454.871794871796,4233.333333333334,4410.769230769231,4116.923076923077,3995.3846153846157,4181.538461538462,4525.128205128206,4085.6410256410263,3861.538461538462,3927.692307692308,4447.6923076923085
3448.0803,0.86081594,0.8510758,0.37522227,0.28809676,0,0.0,0.0,0.0,0.0,0.083107404,0,0,0.0,0.0,0,0,90.0,0.0,531.0,4295.8974358974365,3833.333333333334,4265.128205128206,4420.512820512821,4151.794871794872,4418.974358974359,4185.641025641026,4061.538461538462,4208.717948717949,4512.307692307693,4087.1794871794878,3922.0512820512827,3911.2820512820517,4429.2307692307695
3448.3306,0.86081594,0.8510758,0.37522227,0.28809676,0,0.0,0.0,0.0,0.0,0.026330674,0,0,0.0,0.0,0,0,122.0,0.0,531.0,4280.000000000001,3818.9743589743593,4310.256410256411,4398.974358974359,4135.384615384616,4457.948717948719,4247.6923076923085,4136.410256410257,4262.051282051282,4571.794871794872,4138.974358974359,3980.0000000000005,3950.2564102564106,4413.846153846154
3448.5808,0.96751803,0.8561102,0.37899756,0.31275883,0,0.0,0.0,0.0,0.0,0.0,0,0,0.0,0.0,0,0,25.0,0.0,0.0,4281.538461538462,3821.0256410256416,4353.846153846154,4384.102564102564,4142.564102564103,4470.769230769231,4279.48717948718,4182.564102564103,4269.74358974359,4590.256410256411,4182.051282051282,4046.1538461538466,3976.9230769230776,4425.641025641026
3448.5808,0.96751803,0.8561102,0.37899756,0.31275883,0,0.0,0.0,0.0,0.0,0.0,0,0,0.0,0.0,0,0,25.0,0.0,0.0,4281.538461538462,3821.0256410256416,4353.846153846154,4384.102564102564,4142.564102564103,4470.769230769231,4279.48717948718,4182.564102564103,4269.74358974359,4590.256410256411,4182.051282051282,4046.1538461538466,3976.9230769230776,4425.641025641026
3449.0813,1.0,0.8606412,0.3913864,0.34706175,0,0.0,0.0,0.0,0.0,0.79175156,0,0,0.0,0.0,0,0,89.0,0.0,467.0,4434.871794871796,3796.410256410257,4426.666666666667,4378.974358974359,4147.179487179487,4510.256410256411,4349.743589743591,4264.102564102564,4347.179487179487,4645.641025641026,4264.615384615385,4158.974358974359,4067.692307692308,4439.48717948718
3449.3315,1.0,0.8606412,0.3913864,0.34706175,0,0.0,0.0,0.0,0.0,0.0,0,0,0.0,0.0,0,0,121.0,0.0,467.0,4440.000000000001,3832.820512820513,4463.589743589744,4391.282051282052,4167.179487179487,4527.6923076923085,4373.846153846154,4295.8974358974365,4371.282051282052,4664.615384615386,4305.641025641026,4230.769230769231,4092.820512820513,4465.641025641026
3449.5818,1.0,0.8647191,0.40253532,0.37792227,0,0.0,0.0,0.0,0.0,0.0,0,0,0.0,0.0,0,0,24.0,0.0,0.0,4400.512820512821,3785.1282051282055,4457.948717948719,4375.384615384616,4163.589743589744,4535.384615384616,4380.512820512821,4322.051282051282,4388.717948717949,4670.256410256411,4326.666666666667,4230.256410256411,4088.205128205129,4445.641025641026
3449.5818,1.0,0.8647191,0.40253532,0.37792227,0,0.0,0.0,0.0,0.0,0.0,0,0,0.0,0.0,0,0,24.0,0.0,0.0,4400.512820512821,3785.1282051282055,4457.948717948719,4375.384615384616,4163.589743589744,4535.384615384616,4380.512820512821,4322.051282051282,4388.717948717949,4670.256410256411,4326.666666666667,4230.256410256411,4088.205128205129,4445.641025641026
3450.082,1.0,0.8683891,0.403574,0.40568915,0,0.0,0.0,0.0,0.0,0.0,0,0,0.0,0.0,0,0,88.0,0.0,502.0,4441.025641025642,3822.0512820512827,4488.717948717949,4380.000000000001,4166.153846153847,4538.461538461539,4424.615384615385,4353.846153846154,4409.2307692307695,4690.769230769231,4352.820512820514,4280.000000000001,4107.179487179487,4452.820512820514
3450.082,1.0,0.8683891,0.403574,0.40568915,0,0.0,0.0,0.0,0.0,0.0,0,0,0.0,0.0,0,0,88.0,0.0,502.0,4441.025641025642,3822.0512820512827,4488.717948717949,4380.000000000001,4166.153846153847,4538.461538461539,4424.615384615385,4353.846153846154,4409.2307692307695,4690.769230769231,4352.820512820514,4280.000000000001,4107.179487179487,4452.820512820514
3450.5825,0.96215624,0.8481449,0.39793587,0.42880002,0,0.0,0.0,0.0,0.0,0.0,0,0,0.0,0.0,0,0,23.0,0.0,0.0,4498.461538461539,3848.205128205129,4505.641025641026,4375.384615384616,4170.256410256411,4541.025641025642,4443.589743589744,4382.564102564103,4428.205128205129,4694.871794871796,4372.307692307693,4318.974358974359,4132.307692307693,4462.564102564103
3450.8328,0.96215624,0.8481449,0.39793587,0.42880002,0,0.0,0.0,0.0,0.0,0.034624185,0,0,0.0,0.0,0,0,55.0,0.0,0.0,4518.461538461539,3864.615384615385,4521.025641025642,4374.871794871796,4175.8974358974365,4552.820512820514,4472.820512820514,4413.846153846154,4457.435897435898,4735.8974358974365,4404.615384615385,4334.871794871796,4157.948717948719,4485.128205128206
3451.083,0.97444665,0.810203,0.37890163,0.45285547,0,0.0,0.0,0.0,0.0,0.0,0,0,0.0,0.0,0,0,87.0,0.0,394.0,4554.358974358975,3856.9230769230776,4522.564102564103,4376.923076923077,4181.025641025642,4540.512820512821,4461.538461538462,4413.333333333334,4441.025641025642,4720.512820512821,4394.358974358975,4325.128205128206,4138.461538461539,4473.333333333334
3451.083,0.97444665,0.810203,0.37890163,0.45285547,0,0.0,0.0,0.0,0.0,0.0,0,0,0.0,0.0,0,0,87.0,0.0,394.0,4554.358974358975,3856.9230769230776,4522.564102564103,4376.923076923077,4181.025641025642,4540.512820512821,4461.538461538462,4413.333333333334,4441.025641025642,4720.512820512821,4394.358974358975,4325.128205128206,4138.461538461539,4473.333333333334
3451.5835,0.88267183,0.7761429,0.3517718,0.4745039,0,0.0,0.0,0.0,0.0,0.014429792,0,0,0.0,0.0,0,0,22.0,0.0,0.0,4708.717948717949,3794.358974358975,4675.8974358974365,4301.538461538462,4060.0000000000005,4582.051282051282,4646.153846153847,4639.48717948718,4509.743589743591,4761.538461538462,4449.2307692307695,4515.384615384616,4189.2307692307695,4496.410256410257
3451.8337,0.88267183,0.7761429,0.3517718,0.4745039,0,0.0,0.0,0.0,0.0,0.03797409,0,0,0.0,0.0,0,0,54.0,0.0,0.0,5132.307692307693,3893.333333333334,4999.48717948718,4333.846153846154,4008.717948717949,4678.461538461539,4980.512820512821,5082.051282051283,4746.153846153847,5034.871794871796,4647.179487179488,4916.410256410257,4509.2307692307695,4702.564102564103
3452.0837,0.98675114,0.7454887,0.32735473,0.49398687,0,0.0,0.0,0.0,0.0,0.19602387,0,0,0.0,0.0,0,0,86.0,0.0,523.0,5523.589743589744,4300.512820512821,5233.846153846154,4491.282051282052,4153.333333333334,4747.179487179488,5196.410256410257,5336.923076923078,4864.102564102564,5276.923076923078,4779.48717948718,5210.769230769231,4864.102564102564,4904.615384615386
3452.334,0.98675114,0.7454887,0.32735473,0.49398687,0,0.0,0.0,0.0,0.0,0.107968196,0,0,0.0,0.0,0,0,118.0,0.0,523.0,5512.307692307693,4485.128205128206,5054.358974358975,4614.871794871796,4280.000000000001,4724.102564102564,5109.2307692307695,5213.846153846154,4791.282051282052,5279.487179487181,4794.358974358975,5102.051282051283,4876.923076923077,4914.871794871796
3452.5842,1.0,0.7179,0.30537945,0.5169417,0,0.0,0.0,0.0,0.0,0.028555011,0,0,0.0,0.0,0,0,21.0,0.0,0.0,5289.743589743591,4410.769230769231,4843.589743589744,4653.333333333334,4326.153846153847,4676.410256410257,4914.358974358975,4977.948717948719,4686.153846153847,5197.948717948719,4716.410256410257,4788.717948717949,4812.820512820514,4852.307692307693
3452.8345,1.0,0.7179,0.30537945,0.5169417,0,0.0,0.0,0.0,0.0,0.028619757,0,0,0.0,0.0,0,0,53.0,0.0,0.0,4995.384615384616,4341.025641025642,4598.974358974359,4698.461538461539,4356.410256410257,4568.205128205129,4581.025641025642,4646.666666666667,4524.102564102564,5025.128205128206,4569.743589743591,4392.307692307693,4583.076923076924,4750.256410256411
3453.0847,1.0,0.6930701,0.2893632,0.5376012,0,0.0,0.0,0.0,0.0,0.04831912,0,0,0.0,0.0,0,0,85.0,0.0,461.0,4740.512820512821,4261.538461538462,4395.384615384616,4683.589743589744,4364.102564102564,4473.333333333334,4338.974358974359,4324.615384615385,4323.589743589744,4798.461538461539,4375.384615384616,4097.948717948719,4292.307692307693,4638.974358974359
3453.335,1.0,0.6930701,0.2893632,0.5376012,0,0.0,0.0,0.0,0.0,0.040708728,0,0,0.0,0.0,0,0,117.0,0.0,461.0,4571.794871794872,4138.461538461539,4267.179487179487,4622.564102564103,4362.051282051282,4430.256410256411,4198.974358974359,4103.076923076924,4185.128205128206,4605.641025641026,4200.000000000001,3911.2820512820517,4051.7948717948725,4527.6923076923085
3453.5852,1.0,0.67072326,0.27947527,0.5561947,0,0.0,0.0,0.0,0.0,0.08893365,0,0,0.0,0.0,0,0,20.0,0.0,0.0,4463.589743589744,4007.692307692308,4221.025641025642,4552.820512820514,4348.205128205129,4424.615384615385,4157.435897435898,4051.2820512820517,4169.2307692307695,4536.923076923077,4162.564102564103,3880.0000000000005,3975.8974358974365,4488.205128205129
3453.8354,1.0,0.67072326,0.27947527,0.5561947,0,0.0,0.0,0.0,0.0,0.0,0,0,0.0,0.0,0,0,52.0,0.0,0.0,4376.923076923077,3940.5128205128212,4231.282051282052,4504.102564102564,4357.435897435898,4426.666666666667,4155.8974358974365,4049.23076923077,4182.564102564103,4523.589743589744,4144.102564102564,3891.2820512820517,3942.0512820512827,4451.794871794872
3454.0854,1.0,0.65061104,0.272698,0.57475513,0,0.0,0.0,0.0,0.0,0.0,0,0,0.0,0.0,0,0,84.0,0.0,503.0,4312.820512820514,3830.7692307692314,4234.871794871796,4450.769230769231,4384.102564102564,4411.282051282052,4169.2307692307695,4066.666666666667,4183.589743589744,4518.461538461539,4121.538461538462,3913.333333333334,3912.307692307693,4420.000000000001
3454.3357,1.0,0.65061104,0.272698,0.57475513,0,0.0,0.0,0.0,0.0,0.10161826,0,0,0.0,0.0,0,0,116.0,0.0,503.0,4353.846153846154,3844.1025641025644,4301.025641025642,4475.8974358974365,4491.794871794872,4474.358974358975,4238.974358974359,4138.461538461539,4235.8974358974365,4559.48717948718,4153.333333333334,3967.1794871794878,3943.076923076924,4408.205128205129
