timestamp,excitement,frustration,meditation,engagementBoredom,blink,clench,laugh,smile,eyebrow,furrowBrow,lookLeft,lookRight,smirkLeft,smirkRight,winkLeft,winkRight,eeg0,eeg1,eeg2,eeg3,eeg4,eeg5,eeg6,eeg7,eeg8,eeg9,eeg10,eeg11,eeg12,eeg13,eeg14,eeg15,eeg16
3701.9236,0.9814495,0.79497504,0.53340095,0.6177369,0,0.0,0.0,0.0,0.0,0.4585384,0,0,0.0,0.0,0,0,46.0,0.0,0.0,4371.282051282052,3871.7948717948725,4492.820512820514,4410.769230769231,4280.000000000001,4537.435897435898,4424.615384615385,4364.102564102564,4384.102564102564,4692.307692307693,4341.538461538462,4277.948717948719,4134.871794871796,4207.179487179487
3702.1738,0.9814495,0.79497504,0.53340095,0.6177369,0,0.0,0.0,0.0,0.0,0.0,0,0,0.0,0.0,0,0,78.0,0.0,534.0,4423.076923076924,3893.8461538461543,4500.000000000001,4415.8974358974365,4263.589743589744,4524.102564102564,4410.256410256411,4357.948717948719,4380.512820512821,4678.974358974359,4364.615384615385,4284.615384615385,4141.025641025642,4230.256410256411
3702.2988,0.9729569,0.9519262,0.5567716,0.621267,0,0.0,0.0,0.0,0.0,0.0,0,0,0.0,0.0,0,0,94.0,0.0,534.0,4414.358974358975,3897.435897435898,4506.153846153847,4415.8974358974365,4267.6923076923085,4538.461538461539,4425.128205128206,4369.743589743591,4390.256410256411,4670.769230769231,4356.923076923077,4276.410256410257,4138.974358974359,4224.102564102564
3702.2988,0.9729569,0.9519262,0.5567716,0.621267,0,0.0,0.0,0.0,0.0,0.0,0,0,0.0,0.0,0,0,94.0,0.0,534.0,4414.358974358975,3897.435897435898,4506.153846153847,4415.8974358974365,4267.6923076923085,4538.461538461539,4425.128205128206,4369.743589743591,4390.256410256411,4670.769230769231,4356.923076923077,4276.410256410257,4138.974358974359,4224.102564102564
3702.7993,0.9375927,1.0,0.577795,0.62444335,0,0.0,0.0,0.0,0.0,0.0,0,0,0.0,0.0,0,0,29.0,0.0,0.0,4439.48717948718,3901.538461538462,4523.589743589744,4448.205128205129,4270.256410256411,4558.974358974359,4460.512820512821,4420.512820512821,4428.717948717949,4725.128205128206,4387.179487179487,4313.333333333334,4185.128205128206,4282.564102564103
3702.7993,0.9375927,1.0,0.577795,0.62444335,0,0.0,0.0,0.0,0.0,0.0,0,0,0.0,0.0,0,0,29.0,0.0,0.0,4439.48717948718,3901.538461538462,4523.589743589744,4448.205128205129,4270.256410256411,4558.974358974359,4460.512820512821,4420.512820512821,4428.717948717949,4725.128205128206,4387.179487179487,4313.333333333334,4185.128205128206,4282.564102564103
3703.4248,0.9509953,1.0,0.58999485,0.6239526,0,0.0,0.0,0.39369446,0.0,0.0,0,0,0.0,0.0,0,0,109.0,0.0,468.0,4660.512820512821,3767.1794871794878,4784.615384615386,4309.743589743591,4012.307692307693,4634.871794871796,4706.666666666667,4810.769230769231,4692.307692307693,4997.948717948719,4637.948717948719,4686.666666666667,4412.307692307693,4485.128205128206
3703.675,0.9509953,1.0,0.58999485,0.6239526,0,0.0,0.0,0.5157012,0.0,0.0,0,0,0.0,0.0,0,0,12.0,0.0,495.0,4851.282051282052,3958.461538461539,4904.615384615386,4382.051282051282,4044.1025641025644,4672.307692307693,4815.8974358974365,4977.435897435898,4766.153846153847,5152.820512820514,4749.2307692307695,4845.128205128206,4583.076923076924,4606.666666666667
3703.9253,1.0,1.0,0.58539444,0.6235103,0,0.0,0.0,0.0,0.0,0.15383193,0,0,0.0,0.0,0,0,44.0,0.0,0.0,4967.179487179488,4162.051282051282,4923.589743589744,4487.6923076923085,4183.589743589744,4681.025641025642,4798.461538461539,4968.205128205129,4734.358974358975,5174.871794871796,4729.743589743591,4873.846153846154,4644.615384615385,4651.282051282052
3704.1755,1.0,1.0,0.58539444,0.6235103,0,0.0,0.0,0.0,0.0,0.0,0,0,0.42071843,0.0,0,0,76.0,0.0,493.0,4995.384615384616,4299.48717948718,4783.076923076924,4577.435897435898,4308.205128205129,4648.205128205129,4664.615384615386,4815.8974358974365,4613.846153846154,5110.769230769231,4631.794871794872,4765.641025641026,4593.333333333334,4655.384615384616
3704.4258,1.0,1.0,0.5582749,0.6231116,0,0.0,0.0,0.0,0.0,0.0,0,0,0.6512486,0.0,0,0,108.0,0.0,493.0,4841.538461538462,4268.717948717949,4597.948717948719,4606.666666666667,4392.307692307693,4582.564102564103,4476.410256410257,4561.025641025642,4426.153846153847,4938.974358974359,4414.358974358975,4487.6923076923085,4414.871794871796,4586.153846153847
3704.676,1.0,1.0,0.5582749,0.6231116,0,0.0,0.0,0.0,0.0,0.04341458,0,0,0.0,0.0,0,0,11.0,0.0,390.0,4731.794871794872,4218.974358974359,4471.282051282052,4605.641025641026,4441.025641025642,4537.948717948719,4342.564102564103,4371.794871794872,4310.769230769231,4772.307692307693,4305.128205128206,4240.000000000001,4228.717948717949,4519.48717948718
3704.926,1.0,1.0,0.518501,0.6305585,0,0.0,0.0,0.0,0.0,0.015396683,0,0,0.0,0.0,0,0,43.0,0.0,0.0,4617.948717948719,4108.205128205129,4379.48717948718,4554.358974358975,4431.794871794872,4506.666666666667,4248.717948717949,4230.256410256411,4240.512820512821,4644.615384615385,4205.641025641026,4119.48717948718,4117.435897435898,4446.153846153847
3705.0513,1.0,1.0,0.518501,0.6305585,0,0.0,0.0,0.0,0.0,0.0,0,0,0.0,0.0,0,0,59.0,0.0,0.0,4552.307692307693,4057.9487179487182,4356.923076923077,4545.641025641026,4418.461538461539,4489.743589743591,4250.769230769231,4205.128205128206,4232.307692307693,4599.48717948718,4179.48717948718,4081.538461538462,4068.205128205129,4428.717948717949
3705.4265,1.0,1.0,0.48227328,0.6639103,0,0.0,0.0,0.0,0.0,0.2030444,0,0,0.0,0.0,0,0,107.0,0.0,390.0,4458.461538461539,3956.9230769230776,4351.282051282052,4496.410256410257,4397.435897435898,4501.538461538462,4271.282051282052,4187.179487179487,4263.589743589744,4577.435897435898,4200.000000000001,4048.717948717949,4035.3846153846157,4420.000000000001
3705.6768,1.0,1.0,0.48227328,0.6639103,0,0.0,0.0,0.0,0.0,0.08669016,0,0,0.0,0.0,0,0,10.0,0.0,532.0,4412.307692307693,3894.8717948717954,4340.000000000001,4442.564102564103,4346.666666666667,4475.8974358974365,4270.256410256411,4176.410256410257,4248.717948717949,4548.205128205129,4181.025641025642,4032.307692307693,4006.666666666667,4418.461538461539
3705.927,1.0,1.0,0.44966894,0.69391954,0,0.0,0.0,0.0,0.0,0.077666506,0,0,0.0,0.0,0,0,42.0,0.0,0.0,4381.538461538462,3821.538461538462,4363.076923076924,4412.820512820514,4319.48717948718,4489.743589743591,4318.974358974359,4217.435897435898,4296.923076923077,4584.102564102564,4270.256410256411,4082.0512820512827,4101.025641025642,4463.589743589744
3706.1772,1.0,1.0,0.44966894,0.69391954,0,0.0,0.0,0.0,0.0,0.31208494,0,1,0.0,0.0,0,0,74.0,0.0,532.0,4318.461538461539,3786.1538461538466,4380.512820512821,4397.948717948719,4310.769230769231,4509.2307692307695,4380.512820512821,4297.435897435898,4362.564102564103,4638.974358974359,4324.615384615385,4108.717948717949,4135.384615384616,4447.179487179487
3706.4275,0.9815574,1.0,0.4238054,0.72091734,0,0.0,0.0,0.0,0.0,0.087400526,0,1,0.0,0.0,0,0,106.0,0.0,532.0,4367.6923076923085,3803.076923076924,4412.307692307693,4413.846153846154,4308.205128205129,4526.153846153847,4415.384615384616,4344.615384615385,4394.358974358975,4652.820512820514,4344.102564102564,4141.025641025642,4133.333333333334,4445.128205128206
3706.5525,0.9815574,1.0,0.4238054,0.72091734,0,0.0,0.0,0.0,0.0,1.0,0,0,0.0,0.0,0,0,122.0,0.0,532.0,4453.333333333334,3883.076923076924,4415.8974358974365,4430.256410256411,4282.564102564103,4493.333333333334,4368.205128205129,4267.6923076923085,4301.025641025642,4569.2307692307695,4227.179487179487,4075.3846153846157,3983.589743589744,4394.871794871796
3706.8027,0.9821565,1.0,0.40052766,0.73580855,0,0.0,0.0,0.0,0.0,1.0,0,0,0.0,0.0,0,0,25.0,0.0,0.0,4506.153846153847,3877.9487179487182,4442.051282051282,4408.205128205129,4247.6923076923085,4491.282051282052,4395.384615384616,4302.051282051282,4321.538461538462,4592.307692307693,4285.128205128206,4113.846153846154,4032.820512820513,4394.358974358975
3707.178,0.9821565,1.0,0.40052766,0.73580855,0,0.0,0.0,0.0,0.0,0.1892297,0,0,0.0,0.0,0,0,73.0,0.0,478.0,4527.179487179488,3849.7435897435903,4444.615384615385,4380.000000000001,4232.307692307693,4505.128205128206,4406.153846153847,4324.615384615385,4352.307692307693,4654.358974358975,4315.8974358974365,4150.769230769231,4096.923076923077,4382.564102564103
3707.4282,0.9397317,1.0,0.38417134,0.72567356,0,0.0,0.0,0.0,0.0,0.0,0,0,0.0,0.0,0,0,105.0,0.0,469.0,4552.820512820514,3862.0512820512827,4476.923076923077,4385.128205128206,4232.820512820514,4511.282051282052,4427.6923076923085,4360.000000000001,4372.307692307693,4650.769230769231,4355.8974358974365,4185.641025641026,4117.435897435898,4399.48717948718
3707.4282,0.9397317,1.0,0.38417134,0.72567356,0,0.0,0.0,0.0,0.0,0.0,0,0,0.0,0.0,0,0,105.0,0.0,469.0,4552.820512820514,3862.0512820512827,4476.923076923077,4385.128205128206,4232.820512820514,4511.282051282052,4427.6923076923085,4360.000000000001,4372.307692307693,4650.769230769231,4355.8974358974365,4185.641025641026,4117.435897435898,4399.48717948718
3707.8037,0.970728,1.0,0.389012,0.7112085,0,0.0,0.0,0.0,0.0,0.0,0,0,0.0,0.0,0,0,24.0,0.0,0.0,4620.512820512821,3864.615384615385,4490.256410256411,4392.820512820514,4216.923076923077,4520.512820512821,4410.769230769231,4370.256410256411,4379.48717948718,4671.794871794872,4373.333333333334,4200.000000000001,4147.6923076923085,4397.948717948719
3707.8037,0.970728,1.0,0.389012,0.7112085,0,0.0,0.0,0.0,0.0,0.0,0,0,0.0,0.0,0,0,24.0,0.0,0.0,4620.512820512821,3864.615384615385,4490.256410256411,4392.820512820514,4216.923076923077,4520.512820512821,4410.769230769231,4370.256410256411,4379.48717948718,4671.794871794872,4373.333333333334,4200.000000000001,4147.6923076923085,4397.948717948719
3708.4292,0.91465497,1.0,0.40575224,0.69819164,0,0.0,0.0,0.0,0.0,0.057007365,0,0,0.0,0.0,0,0,104.0,0.0,502.0,4609.743589743591,3853.333333333334,4490.769230769231,4382.564102564103,4216.410256410257,4528.205128205129,4436.923076923077,4394.358974358975,4378.974358974359,4681.538461538462,4399.48717948718,4232.307692307693,4168.205128205129,4402.564102564103
3708.6794,0.91465497,1.0,0.40575224,0.69819164,0,0.0,0.0,0.0,0.0,0.0,0,0,0.30588558,0.0,0,0,7.0,0.0,485.0,4647.6923076923085,3912.307692307693,4528.717948717949,4420.000000000001,4236.923076923077,4565.128205128206,4472.820512820514,4445.128205128206,4433.846153846154,4735.384615384616,4418.461538461539,4264.615384615385,4202.564102564103,4413.333333333334
3708.9297,0.9244762,1.0,0.42081696,0.6864775,1,0.0,0.0,0.0,0.0,0.44863617,0,0,0.0,0.0,0,0,39.0,0.0,0.0,4609.743589743591,3854.8717948717954,4521.025641025642,4422.564102564103,4317.435897435898,4597.435897435898,4509.2307692307695,4474.358974358975,4473.846153846154,4752.820512820514,4523.076923076924,4343.076923076924,4271.794871794872,4419.48717948718
3709.1797,0.9244762,1.0,0.42081696,0.6864775,0,0.0,0.0,0.0,0.0,0.65581304,0,0,0.0,0.0,0,0,71.0,0.0,485.0,4689.2307692307695,3850.7692307692314,4538.974358974359,4508.205128205129,4413.846153846154,4635.8974358974365,4489.2307692307695,4469.743589743591,4460.512820512821,4731.282051282052,4500.512820512821,4323.076923076924,4251.282051282052,4462.564102564103
3709.43,0.84597033,1.0,0.43437332,0.67626655,0,0.0,0.0,0.0,0.0,0.46242264,0,0,0.0,0.0,0,0,103.0,0.0,393.0,4879.48717948718,4005.6410256410263,4588.205128205129,4570.256410256411,4524.102564102564,4688.205128205129,4504.102564102564,4473.846153846154,4483.076923076924,4709.743589743591,4472.307692307693,4343.076923076924,4218.974358974359,4469.743589743591
3709.6802,0.84597033,1.0,0.43437332,0.67626655,0,0.0,0.0,0.0,0.0,1.0,0,0,0.0,0.0,0,0,6.0,0.0,534.0,5046.666666666667,4064.1025641025644,4582.051282051282,4632.307692307693,4524.615384615385,4752.820512820514,4567.179487179488,4525.128205128206,4560.000000000001,4763.589743589744,4540.000000000001,4395.384615384616,4285.128205128206,4494.871794871796
3709.9304,0.8948802,1.0,0.4273195,0.6704071,0,0.0,0.0,0.0,0.0,0.721046,0,0,0.0,0.0,0,0,38.0,0.0,0.0,5178.461538461539,4030.7692307692314,4597.948717948719,4630.256410256411,4437.948717948719,4750.256410256411,4564.102564102564,4519.48717948718,4584.615384615385,4795.8974358974365,4601.538461538462,4443.076923076924,4414.358974358975,4552.307692307693
3710.1807,0.8948802,1.0,0.4273195,0.6704071,0,0.0,0.0,0.0,0.0,0.3788024,0,0,0.0,0.0,0,0,70.0,0.0,533.0,5135.384615384616,4063.076923076924,4572.820512820514,4645.641025641026,4437.435897435898,4770.256410256411,4568.205128205129,4513.846153846154,4584.102564102564,4756.923076923077,4544.102564102564,4378.461538461539,4340.512820512821,4510.256410256411
3710.431,0.9974946,1.0,0.42096993,0.6714789,0,0.0,0.0,0.0,0.0,0.18094079,0,0,0.0,0.0,0,0,102.0,0.0,536.0,4966.153846153847,3989.7435897435903,4496.923076923077,4471.282051282052,4249.74358974359,4660.000000000001,4512.820512820514,4440.000000000001,4497.435897435898,4715.8974358974365,4427.179487179487,4279.48717948718,4234.871794871796,4459.48717948718
3710.6812,0.9974946,1.0,0.42096993,0.6714789,0,0.0,0.0,0.0,0.0,0.7254137,0,0,0.0,0.0,0,0,5.0,0.0,554.0,4957.948717948719,3941.538461538462,4490.769230769231,4441.025641025642,4214.358974358975,4627.6923076923085,4507.6923076923085,4427.179487179487,4487.179487179488,4734.358974358975,4428.205128205129,4281.538461538462,4262.564102564103,4507.6923076923085
3710.9314,1.0,1.0,0.4065086,0.6724568,0,0.0,0.0,0.0,0.0,0.34032372,0,0,0.0,0.0,0,0,37.0,0.0,0.0,5024.102564102564,3897.435897435898,4499.48717948718,4429.743589743591,4187.6923076923085,4562.051282051282,4459.48717948718,4382.564102564103,4401.538461538462,4642.564102564103,4390.256410256411,4276.923076923077,4179.48717948718,4541.538461538462
3711.1814,1.0,1.0,0.4065086,0.6724568,0,0.0,0.0,0.0,0.0,0.2465335,0,0,0.0,0.0,0,0,69.0,0.0,554.0,4976.410256410257,3858.9743589743593,4566.153846153847,4435.8974358974365,4064.1025641025644,4612.820512820514,4576.410256410257,4506.666666666667,4454.358974358975,4626.153846153847,4400.000000000001,4373.333333333334,4165.128205128206,4521.538461538462
3711.4316,0.90166664,1.0,0.39348477,0.67332184,0,0.0,0.0,0.3196844,0.0,0.0,0,0,0.0,0.0,0,0,101.0,0.0,469.0,5162.051282051283,3944.1025641025644,4699.48717948718,4480.000000000001,3911.2820512820517,4642.051282051282,4679.48717948718,4616.923076923077,4492.820512820514,4724.615384615386,4465.641025641026,4513.333333333334,4222.564102564103,4624.615384615385
3711.557,0.90166664,1.0,0.39348477,0.67332184,0,0.0,0.0,1.0,0.0,0.0,0,0,0.0,0.0,0,0,117.0,0.0,469.0,5245.128205128206,4005.6410256410263,4745.641025641026,4506.153846153847,3917.9487179487182,4677.435897435898,4732.307692307693,4644.615384615385,4492.307692307693,4768.205128205129,4494.358974358975,4566.666666666667,4274.871794871796,4662.564102564103
3711.9321,1.0,1.0,0.38746023,0.6699868,0,0.0,0.0,0.20780315,0.0,0.0,0,0,0.0,0.0,0,0,36.0,0.0,0.0,5207.179487179488,4058.461538461539,4728.205128205129,4510.769230769231,4017.435897435898,4641.025641025642,4646.153846153847,4584.102564102564,4404.615384615385,4752.820512820514,4424.102564102564,4489.2307692307695,4244.102564102564,4629.2307692307695
3712.1824,1.0,1.0,0.38746023,0.6699868,0,0.0,0.0,0.0,0.0,1.0,0,0,0.0,0.0,0,0,68.0,0.0,554.0,5126.153846153847,4121.538461538462,4687.179487179488,4523.076923076924,4134.358974358975,4611.794871794872,4555.384615384616,4508.717948717949,4369.2307692307695,4713.846153846154,4354.871794871796,4398.974358974359,4288.205128205129,4638.461538461539
3712.4326,1.0,1.0,0.3820383,0.6581992,0,0.0,0.0,0.0,0.0,0.078566335,0,0,0.0,0.0,0,0,100.0,0.0,497.0,4936.923076923077,4389.2307692307695,4566.153846153847,4495.8974358974365,4136.410256410257,4544.102564102564,4451.794871794872,4369.2307692307695,4266.153846153847,4604.615384615385,4218.461538461539,4253.846153846154,4184.102564102564,4577.435897435898
3712.6829,1.0,1.0,0.3820383,0.6581992,0,0.0,0.0,0.0,0.0,0.24497057,1,0,0.0,0.0,0,0,3.0,0.0,529.0,4956.410256410257,4287.179487179487,4466.666666666667,4506.153846153847,4178.461538461539,4472.820512820514,4364.102564102564,4278.461538461539,4233.846153846154,4582.564102564103,4180.000000000001,4170.769230769231,4124.615384615385,4625.128205128206
3712.933,1.0,1.0,0.3771595,0.64759064,0,0.0,0.0,0.0,0.0,0.8668409,0,0,0.0,0.0,0,0,35.0,0.0,0.0,4731.794871794872,4037.435897435898,4393.333333333334,4375.384615384616,4236.923076923077,4490.769230769231,4338.974358974359,4260.000000000001,4276.923076923077,4639.48717948718,4248.717948717949,4137.948717948719,4133.333333333334,4572.307692307693
3713.183,1.0,1.0,0.3771595,0.64759064,0,0.0,0.0,0.0,0.0,0.8865671,0,0,0.0,0.0,0,0,67.0,0.0,539.0,4607.6923076923085,3938.9743589743593,4349.2307692307695,4341.538461538462,4215.384615384616,4478.461538461539,4347.6923076923085,4244.102564102564,4270.769230769231,4598.461538461539,4200.512820512821,4091.7948717948725,4066.666666666667,4529.743589743591
3713.4333,0.942117,1.0,0.372768,0.6380412,0,0.0,0.0,0.0,0.0,0.3964486,0,0,0.0,0.0,0,0,99.0,0.0,388.0,4653.333333333334,3936.9230769230776,4396.923076923077,4343.589743589744,4249.2307692307695,4487.6923076923085,4351.282051282052,4267.6923076923085,4311.794871794872,4620.000000000001,4246.666666666667,4142.051282051282,4121.538461538462,4590.769230769231
3713.6836,0.942117,1.0,0.372768,0.6380412,1,0.0,0.0,0.0,0.0,0.35470876,0,0,0.0,0.0,0,0,2.0,0.0,442.0,4567.6923076923085,3881.538461538462,4390.769230769231,4353.846153846154,4250.769230769231,4492.307692307693,4357.435897435898,4278.461538461539,4327.6923076923085,4628.205128205129,4247.6923076923085,4137.948717948719,4108.717948717949,4542.564102564103
3713.9338,1.0,1.0,0.3726803,0.6294467,0,0.0,0.0,0.0,0.0,0.5785408,0,0,0.0,0.0,0,0,34.0,0.0,0.0,4542.051282051282,3883.589743589744,4401.538461538462,4350.769230769231,4251.282051282052,4499.48717948718,4361.538461538462,4275.384615384616,4340.512820512821,4640.000000000001,4266.153846153847,4140.512820512821,4136.410256410257,4552.820512820514
3714.184,1.0,1.0,0.3726803,0.6294467,0,0.0,0.0,0.0,0.0,0.6193751,0,0,0.0,0.0,0,0,66.0,0.0,445.0,4518.974358974359,3894.8717948717954,4419.48717948718,4320.512820512821,4258.974358974359,4523.076923076924,4402.051282051282,4327.179487179487,4383.589743589744,4692.820512820514,4316.923076923077,4181.025641025642,4177.435897435898,4577.948717948719
3714.4343,0.9688028,1.0,0.38417298,0.61840177,0,0.0,0.0,0.0,0.0,0.0,0,0,0.0,0.0,0,0,98.0,0.0,537.0,4568.717948717949,3910.2564102564106,4443.076923076924,4157.948717948719,4262.051282051282,4540.512820512821,4408.205128205129,4358.461538461539,4410.256410256411,4716.410256410257,4344.615384615385,4204.102564102564,4182.564102564103,4584.102564102564
3714.4343,0.9688028,1.0,0.38417298,0.61840177,0,0.0,0.0,0.0,0.0,0.0,0,0,0.0,0.0,0,0,98.0,0.0,537.0,4568.717948717949,3910.2564102564106,4443.076923076924,4157.948717948719,4262.051282051282,4540.512820512821,4408.205128205129,4358.461538461539,4410.256410256411,4716.410256410257,4344.615384615385,4204.102564102564,4182.564102564103,4584.102564102564
3714.9348,1.0,1.0,0.3977733,0.60311556,0,0.0,0.30146262,0.0,0.0,0.0,0,0,0.0,0.0,0,0,33.0,0.0,0.0,4650.256410256411,3942.0512820512827,4471.794871794872,4100.000000000001,4271.794871794872,4566.666666666667,4455.8974358974365,4395.8974358974365,4430.256410256411,4732.820512820514,4376.410256410257,4255.384615384616,4214.358974358975,4601.025641025642
3715.185,1.0,1.0,0.3977733,0.60311556,0,0.0,0.29058206,0.0,0.0,0.0,0,0,0.0,0.0,0,0,65.0,0.0,496.0,4704.102564102564,3927.692307692308,4480.512820512821,4172.307692307693,4255.384615384616,4563.076923076924,4443.076923076924,4397.435897435898,4428.205128205129,4729.2307692307695,4367.179487179487,4254.358974358975,4203.076923076924,4603.076923076924
3715.435,0.93892086,1.0,0.4100124,0.5893579,0,0.0,0.0,0.0,0.0,0.0,0,0,0.0,0.0,0,0,97.0,0.0,469.0,4843.076923076924,4003.589743589744,4515.8974358974365,4248.717948717949,4233.333333333334,4537.948717948719,4414.358974358975,4368.205128205129,4370.256410256411,4663.589743589744,4334.871794871796,4255.384615384616,4141.538461538462,4638.461538461539
3715.6853,0.93892086,1.0,0.4100124,0.5893579,0,0.0,0.0,0.0,0.0,0.56434256,0,0,0.0,0.0,0,0,0.0,0.0,485.0,4727.179487179488,3946.666666666667,4493.846153846154,4268.717948717949,4232.307692307693,4545.128205128206,4436.410256410257,4389.2307692307695,4386.153846153847,4666.153846153847,4321.025641025642,4243.076923076924,4132.307692307693,4604.615384615385
3715.9355,0.8478754,1.0,0.42102608,0.5744478,0,0.0,0.0,0.0,0.0,0.4245639,0,0,0.0,0.0,0,0,27.0,0.0,0.0,4701.538461538462,3908.717948717949,4488.717948717949,4289.74358974359,4231.282051282052,4550.769230769231,4420.512820512821,4399.48717948718,4414.871794871796,4697.948717948719,4355.8974358974365,4252.820512820514,4172.307692307693,4614.358974358975
3716.0608,0.8478754,1.0,0.42102608,0.5744478,0,0.0,0.0,0.0,0.0,0.58555907,0,0,0.0,0.0,0,0,48.0,0.0,0.0,4688.717948717949,3910.2564102564106,4492.820512820514,4301.025641025642,4235.8974358974365,4556.410256410257,4438.974358974359,4404.102564102564,4413.846153846154,4711.794871794872,4368.205128205129,4243.589743589744,4186.666666666667,4615.8974358974365
3716.436,0.7748788,1.0,0.41537508,0.55897033,0,0.0,0.0,0.0,0.0,0.14511557,0,0,0.0,0.0,0,0,96.0,0.0,505.0,4678.461538461539,3902.0512820512827,4490.769230769231,4331.794871794872,4235.8974358974365,4554.871794871796,4428.717948717949,4401.025641025642,4414.358974358975,4720.000000000001,4382.564102564103,4255.384615384616,4203.589743589744,4643.589743589744
3716.6863,0.7748788,1.0,0.41537508,0.55897033,0,0.0,0.0,0.0,0.0,0.038878504,0,0,0.0,0.0,0,0,127.0,0.0,388.0,4662.051282051282,3882.564102564103,4481.025641025642,4341.025641025642,4230.769230769231,4553.846153846154,4428.717948717949,4393.333333333334,4409.2307692307695,4701.025641025642,4373.333333333334,4249.2307692307695,4181.538461538462,4614.871794871796
3716.9365,0.7212491,1.0,0.39852795,0.53927255,0,0.0,0.0,0.0,0.0,0.30372596,0,0,0.0,0.0,0,0,31.0,0.0,0.0,4632.307692307693,3905.6410256410263,4500.512820512821,4357.948717948719,4227.6923076923085,4554.871794871796,4446.153846153847,4410.769230769231,4426.666666666667,4706.153846153847,4375.384615384616,4265.128205128206,4181.538461538462,4644.102564102564
3717.0615,0.7212491,1.0,0.39852795,0.53927255,0,0.0,0.0,0.0,0.0,0.6147301,0,0,0.0,0.0,0,0,47.0,0.0,0.0,4617.948717948719,3913.333333333334,4508.717948717949,4370.256410256411,4240.512820512821,4567.179487179488,4443.589743589744,4411.794871794872,4439.48717948718,4722.564102564103,4393.846153846154,4267.6923076923085,4189.74358974359,4646.153846153847
3717.3118,0.6893569,0.9490019,0.38336486,0.52389354,0,0.0,0.0,0.0,0.0,0.3166608,0,0,0.0,0.0,0,0,79.0,0.0,388.0,4678.974358974359,3916.410256410257,4520.000000000001,4400.000000000001,4261.538461538462,4585.128205128206,4452.820512820514,4422.564102564103,4439.48717948718,4727.179487179488,4414.871794871796,4281.025641025642,4222.051282051282,4656.410256410257
3717.687,0.6893569,0.9490019,0.38336486,0.52389354,0,0.0,0.0,0.0,0.0,0.0,0,0,0.0,0.0,0,0,124.0,0.0,505.0,4651.282051282052,3929.2307692307695,4507.179487179488,4401.025641025642,4244.102564102564,4566.666666666667,4443.076923076924,4410.769230769231,4413.333333333334,4706.666666666667,4375.8974358974365,4243.589743589744,4176.923076923077,4645.641025641026
3717.8123,0.6334722,0.888771,0.36884633,0.5100529,0,0.0,0.0,0.0,0.0,0.0,0,0,0.0,0.0,0,0,14.0,0.0,537.0,4630.256410256411,3928.205128205129,4505.128205128206,4411.282051282052,4237.435897435898,4569.743589743591,4439.48717948718,4398.461538461539,4403.589743589744,4702.051282051282,4386.666666666667,4247.6923076923085,4165.641025641026,4654.871794871796
3717.8123,0.6334722,0.888771,0.36884633,0.5100529,0,0.0,0.0,0.0,0.0,0.0,0,0,0.0,0.0,0,0,14.0,0.0,537.0,4630.256410256411,3928.205128205129,4505.128205128206,4411.282051282052,4237.435897435898,4569.743589743591,4439.48717948718,4398.461538461539,4403.589743589744,4702.051282051282,4386.666666666667,4247.6923076923085,4165.641025641026,4654.871794871796
3718.3127,0.61335135,0.8351387,0.35577923,0.497597,0,0.0,0.0,0.0,0.0,0.0599244,0,0,0.0,0.0,0,0,78.0,0.0,537.0,4686.666666666667,3940.5128205128212,4553.846153846154,4424.102564102564,4189.74358974359,4584.615384615385,4494.871794871796,4475.384615384616,4465.641025641026,4765.641025641026,4446.153846153847,4328.717948717949,4265.641025641026,4691.794871794872
3718.4377,0.61335135,0.8351387,0.35577923,0.497597,0,0.0,0.0,0.0,0.0,0.0,0,0,0.0,0.0,0,0,94.0,0.0,537.0,4700.000000000001,3957.9487179487182,4570.769230769231,4437.948717948719,4189.74358974359,4591.794871794872,4507.6923076923085,4505.128205128206,4491.282051282052,4780.512820512821,4462.564102564103,4355.8974358974365,4264.615384615385,4706.153846153847
3718.813,0.58360153,0.79624915,0.3451206,0.49599457,0,0.0,0.0,0.0,0.0,0.47135717,0,0,0.0,0.0,0,0,13.0,0.0,469.0,4746.153846153847,3942.564102564103,4569.2307692307695,4442.051282051282,4199.48717948718,4584.615384615385,4494.871794871796,4495.384615384616,4472.820512820514,4778.974358974359,4437.948717948719,4347.179487179487,4263.076923076924,4717.948717948719
3719.0632,0.58360153,0.79624915,0.3451206,0.49599457,0,0.0,0.0,0.0,0.0,0.62477374,0,0,0.0,0.0,1,0,45.0,0.0,0.0,4838.974358974359,4022.0512820512827,4582.564102564103,4475.384615384616,4215.384615384616,4568.717948717949,4473.846153846154,4442.564102564103,4409.743589743591,4721.538461538462,4406.666666666667,4315.8974358974365,4181.538461538462,4701.538461538462
3719.376,0.52649254,0.79393196,0.3355277,0.50925976,0,0.0,0.0,0.0,0.0,0.6635847,0,0,0.0,0.0,0,0,85.0,0.0,469.0,4731.282051282052,4002.564102564103,4538.974358974359,4459.48717948718,4252.307692307693,4569.743589743591,4456.410256410257,4422.051282051282,4395.8974358974365,4712.820512820514,4364.615384615385,4274.871794871796,4168.205128205129,4675.384615384616
3719.5637,0.52649254,0.79393196,0.3355277,0.50925976,0,0.0,0.0,0.0,0.0,0.2360511,0,0,0.0,0.0,0,0,109.0,0.0,469.0,4722.564102564103,3957.9487179487182,4537.435897435898,4460.512820512821,4250.256410256411,4572.307692307693,4450.256410256411,4415.8974358974365,4388.205128205129,4704.615384615386,4349.743589743591,4269.2307692307695,4162.051282051282,4665.641025641026
3719.814,0.5221576,0.79031885,0.3292448,0.5211986,0,0.0,0.0,0.0,0.0,0.12444331,0,0,0.0,0.0,0,0,12.0,0.0,505.0,4708.717948717949,4020.5128205128212,4517.948717948719,4474.358974358975,4262.564102564103,4558.461538461539,4420.000000000001,4361.538461538462,4338.974358974359,4652.307692307693,4277.948717948719,4199.48717948718,4077.9487179487187,4617.435897435898
3720.0642,0.5221576,0.79031885,0.3292448,0.5211986,0,0.0,0.0,0.0,0.0,0.1459843,0,0,0.0,0.0,0,0,44.0,0.0,0.0,4686.666666666667,4006.1538461538466,4509.2307692307695,4461.538461538462,4263.076923076924,4551.794871794872,4404.615384615385,4344.615384615385,4333.846153846154,4654.871794871796,4296.410256410257,4189.74358974359,4087.692307692308,4617.435897435898
3720.3145,0.51578856,0.77628255,0.32644176,0.5319436,0,0.0,0.0,0.0,0.0,0.23557888,0,0,0.0,0.0,0,0,76.0,0.0,505.0,4710.256410256411,3913.8461538461543,4512.307692307693,4442.564102564103,4248.717948717949,4553.846153846154,4413.846153846154,4377.948717948719,4393.846153846154,4712.307692307693,4396.410256410257,4264.615384615385,4223.589743589744,4702.564102564103
3720.5645,0.51578856,0.77628255,0.32644176,0.5319436,0,0.0,0.0,0.0,0.0,0.44369772,0,0,0.0,0.0,0,0,108.0,0.0,505.0,4643.589743589744,3895.8974358974365,4505.641025641026,4436.410256410257,4240.512820512821,4544.615384615385,4416.923076923077,4372.307692307693,4382.564102564103,4705.641025641026,4380.512820512821,4248.205128205129,4208.717948717949,4663.076923076924
3720.8147,0.4866314,0.7650687,0.33004603,0.5359854,0,0.0,0.0,0.0,0.0,0.28468096,0,0,0.0,0.0,0,0,11.0,0.0,388.0,4602.564102564103,3837.435897435898,4527.179487179488,4405.128205128206,4221.025641025642,4554.871794871796,4458.974358974359,4416.410256410257,4412.820512820514,4737.435897435898,4428.205128205129,4297.948717948719,4242.051282051282,4685.641025641026
3721.065,0.4866314,0.7650687,0.33004603,0.5359854,0,0.0,0.0,0.0,0.0,0.0064641354,0,0,0.0,0.0,0,0,43.0,0.0,0.0,4771.794871794872,3739.48717948718,4706.666666666667,4340.512820512821,4094.8717948717954,4627.6923076923085,4658.461538461539,4706.153846153847,4640.000000000001,4941.538461538462,4622.564102564103,4554.871794871796,4396.923076923077,4786.666666666667
3721.4404,0.6084876,0.7550345,0.33480793,0.529879,0,0.0,0.0,0.3667179,0.0,0.0,0,0,0.0,0.0,0,0,90.0,0.0,525.0,5384.615384615386,4093.8461538461543,5229.2307692307695,4491.282051282052,4076.410256410257,4844.102564102564,5136.923076923077,5400.512820512821,5152.307692307693,5504.102564102564,5153.846153846154,5201.025641025642,4933.333333333334,5183.076923076924
3721.6904,0.6084876,0.7550345,0.33480793,0.529879,0,0.0,0.0,0.267752,0.0,0.0,0,0,0.0,0.0,0,0,123.0,0.0,384.0,5600.512820512821,4358.974358974359,5354.871794871796,4601.538461538462,4254.358974358975,4897.435897435898,5232.820512820514,5565.128205128206,5218.974358974359,5688.717948717949,5249.743589743591,5338.461538461539,5123.589743589744,5305.641025641026
3721.9407,0.7454691,0.74600375,0.35210386,0.52438337,0,0.0,0.0,0.0,0.0,0.08922169,0,0,0.0,0.0,0,0,26.0,0.0,0.0,5573.846153846154,4521.025641025642,5133.846153846154,4620.512820512821,4380.512820512821,4807.6923076923085,5130.256410256411,5424.615384615386,5058.461538461539,5584.615384615386,5081.538461538462,5214.358974358975,5020.512820512821,5285.641025641026
3722.066,0.7454691,0.74600375,0.35210386,0.52438337,0,0.0,0.0,0.0,0.0,0.0,0,0,1.0,0.0,0,0,42.0,0.0,0.0,5463.589743589744,4491.794871794872,5027.179487179488,4625.641025641026,4413.333333333334,4768.717948717949,5034.358974358975,5278.974358974359,4937.435897435898,5475.8974358974365,4857.948717948719,5059.487179487181,4897.948717948719,5231.282051282052
3722.4412,0.86601275,0.73787606,0.36766988,0.5194376,0,0.0,0.0,0.27954593,0.0,0.0,0,0,0.0,0.0,0,0,90.0,0.0,512.0,5168.717948717949,4481.025641025642,4710.769230769231,4647.6923076923085,4476.923076923077,4582.564102564103,4603.076923076924,4735.8974358974365,4511.282051282052,5048.205128205129,4506.153846153847,4563.076923076924,4448.717948717949,5009.743589743591
3722.6914,0.86601275,0.73787606,0.36766988,0.5194376,0,0.0,0.0,0.21078743,0.0,0.0,0,0,0.0,0.0,0,0,122.0,0.0,512.0,4861.025641025642,4302.051282051282,4485.128205128206,4605.128205128206,4456.923076923077,4497.948717948719,4365.128205128206,4419.48717948718,4280.512820512821,4760.000000000001,4273.333333333334,4249.2307692307695,4187.179487179487,4858.974358974359
3722.9417,0.97209126,0.73056114,0.3816787,0.51698625,0,0.0,0.0,0.2698568,0.0,0.0,0,0,0.0,0.0,0,0,25.0,0.0,0.0,4631.794871794872,4168.717948717949,4314.871794871796,4553.846153846154,4411.794871794872,4419.48717948718,4176.410256410257,4154.871794871796,4097.948717948719,4537.948717948719,4089.7435897435903,4009.7435897435903,3961.538461538462,4729.743589743591
3723.192,0.97209126,0.73056114,0.3816787,0.51698625,0,0.0,0.0,0.0,0.0,0.18198389,0,1,0.0,0.0,0,0,57.0,0.0,0.0,4497.948717948719,3954.358974358975,4259.48717948718,4477.948717948719,4352.820512820514,4374.871794871796,4124.102564102564,4086.666666666667,4073.333333333334,4489.743589743591,4098.461538461539,3963.589743589744,3982.0512820512827,4697.948717948719
3723.4421,1.0,0.7239777,0.4090642,0.52164567,0,0.0,0.0,0.0,0.0,0.57535183,0,1,0.0,0.0,0,0,89.0,0.0,462.0,4399.48717948718,3885.1282051282055,4235.384615384616,4443.589743589744,4342.564102564103,4385.128205128206,4127.6923076923085,4053.8461538461543,4072.307692307693,4430.256410256411,4070.7692307692314,3911.2820512820517,3924.1025641025644,4658.461538461539
3723.6921,1.0,0.7239777,0.4090642,0.52164567,0,0.0,0.0,0.0,0.0,0.12463958,0,1,0.0,0.0,0,0,121.0,0.0,462.0,4356.410256410257,3843.076923076924,4245.641025641026,4406.666666666667,4312.820512820514,4394.871794871796,4153.846153846154,4045.6410256410263,4091.7948717948725,4423.076923076924,4062.0512820512827,3892.820512820513,3904.615384615385,4612.307692307693
3723.9424,1.0,0.7180526,0.44305056,0.5258393,0,0.0,0.0,0.0,0.0,0.19954193,0,1,0.0,0.0,0,0,24.0,0.0,0.0,4388.205128205129,3843.589743589744,4283.589743589744,4415.384615384616,4304.615384615385,4405.128205128206,4170.256410256411,4062.564102564103,4126.666666666667,4441.538461538462,4090.2564102564106,3908.717948717949,3909.7435897435903,4585.128205128206
3724.1926,1.0,0.7180526,0.44305056,0.5258393,0,0.0,0.0,0.0,0.0,0.2577663,0,1,0.0,0.0,0,0,56.0,0.0,0.0,4402.051282051282,3845.6410256410263,4315.384615384616,4404.102564102564,4298.461538461539,4423.589743589744,4199.48717948718,4081.0256410256416,4153.333333333334,4457.948717948719,4109.74358974359,3927.1794871794878,3942.564102564103,4568.717948717949
3724.4429,1.0,0.71272004,0.47717977,0.52961385,0,0.0,0.0,0.0,0.0,0.124767825,0,1,0.0,0.0,0,0,88.0,0.0,505.0,4374.871794871796,3830.7692307692314,4332.307692307693,4396.410256410257,4277.435897435898,4441.025641025642,4244.615384615385,4118.974358974359,4184.102564102564,4488.717948717949,4132.307692307693,3948.205128205129,3964.1025641025644,4542.564102564103
3724.693,1.0,0.71272004,0.47717977,0.52961385,0,0.0,0.0,0.0,0.0,0.2261763,0,1,0.0,0.0,0,0,120.0,0.0,505.0,4371.794871794872,3810.2564102564106,4349.2307692307695,4390.256410256411,4267.179487179487,4463.589743589744,4282.051282051282,4177.948717948719,4248.205128205129,4545.128205128206,4198.461538461539,4002.564102564103,4032.307692307693,4550.256410256411
3724.9434,1.0,0.70792073,0.4852036,0.53092957,0,0.0,0.0,0.0,0.0,0.093590766,0,1,0.0,0.0,0,0,21.0,0.0,0.0,4384.102564102564,3808.717948717949,4351.794871794872,4389.743589743591,4249.74358974359,4472.307692307693,4297.435897435898,4200.000000000001,4269.2307692307695,4553.846153846154,4205.128205128206,4013.8461538461543,4042.564102564103,4530.769230769231
3725.1936,1.0,0.70792073,0.4852036,0.53092957,0,0.0,0.0,0.0,0.0,0.25825578,0,1,0.0,0.0,0,0,55.0,0.0,0.0,4429.2307692307695,3836.9230769230776,4391.282051282052,4387.6923076923085,4245.128205128206,4489.2307692307695,4338.461538461539,4234.358974358975,4301.025641025642,4587.179487179488,4273.846153846154,4066.1538461538466,4101.538461538462,4547.6923076923085
3725.4438,1.0,0.7036013,0.49242163,0.53248614,0,0.0,0.0,0.0,0.0,0.0,0,1,0.0,0.0,0,0,87.0,0.0,385.0,4460.512820512821,3847.1794871794878,4410.769230769231,4385.641025641026,4232.307692307693,4494.871794871796,4348.205128205129,4255.8974358974365,4306.666666666667,4588.717948717949,4263.589743589744,4075.3846153846157,4070.7692307692314,4526.153846153847
3725.694,1.0,0.7036013,0.49242163,0.53248614,0,0.0,0.0,0.0,0.0,0.3129347,0,1,0.0,0.0,0,0,118.0,0.0,533.0,4475.8974358974365,3877.435897435898,4416.923076923077,4404.102564102564,4248.717948717949,4508.717948717949,4358.461538461539,4266.153846153847,4320.000000000001,4605.128205128206,4267.6923076923085,4077.9487179487187,4065.1282051282055,4506.153846153847
3725.819,1.0,0.6997139,0.49577403,0.5288918,0,0.0,0.0,0.0,0.0,0.3061326,0,1,0.0,0.0,0,0,6.0,0.0,534.0,4495.8974358974365,3899.48717948718,4431.282051282052,4413.333333333334,4248.205128205129,4522.051282051282,4367.6923076923085,4279.48717948718,4325.641025641026,4602.564102564103,4277.435897435898,4094.358974358975,4086.666666666667,4510.769230769231
3726.0693,1.0,0.6997139,0.49577403,0.5288918,0,0.0,0.0,0.0,0.0,0.30583492,0,1,0.0,0.0,0,0,38.0,0.0,0.0,4457.948717948719,3871.2820512820517,4425.128205128206,4398.974358974359,4234.871794871796,4520.512820512821,4360.000000000001,4280.512820512821,4326.666666666667,4627.6923076923085,4289.74358974359,4095.3846153846157,4098.461538461539,4502.051282051282
3726.3196,1.0,0.69621515,0.47084227,0.52565706,0,0.0,0.0,0.0,0.0,0.1058253,0,1,0.0,0.0,0,0,70.0,0.0,534.0,4475.384615384616,3865.6410256410263,4445.641025641026,4407.6923076923085,4231.794871794872,4521.025641025642,4374.871794871796,4309.743589743591,4341.025641025642,4631.282051282052,4306.666666666667,4132.820512820514,4115.384615384616,4494.871794871796
3726.6948,1.0,0.69621515,0.47084227,0.52565706,0,0.0,0.0,0.0,0.0,0.015065472,0,1,0.0,0.0,0,0,116.0,0.0,505.0,4521.538461538462,3766.666666666667,4488.717948717949,4336.923076923077,4167.179487179487,4535.384615384616,4458.461538461539,4403.076923076924,4397.435897435898,4699.48717948718,4381.025641025642,4216.410256410257,4168.717948717949,4517.435897435898
3726.945,0.9968841,0.6930663,0.44840333,0.5271783,0,0.0,0.0,0.0,0.0,0.027229963,0,1,0.0,0.0,0,0,21.0,0.0,0.0,4753.333333333334,3745.6410256410263,4679.48717948718,4302.564102564103,4060.5128205128212,4589.2307692307695,4667.6923076923085,4705.128205128206,4605.641025641026,4909.2307692307695,4569.743589743591,4513.333333333334,4328.717948717949,4632.307692307693
3727.07,0.9968841,0.6930663,0.44840333,0.5271783,0,0.0,0.0,0.0,0.0,0.023470188,0,1,0.0,0.0,0,0,37.0,0.0,0.0,4879.48717948718,3835.3846153846157,4789.743589743591,4336.923076923077,4063.076923076924,4637.435897435898,4783.076923076924,4845.128205128206,4682.564102564103,4989.743589743591,4629.743589743591,4642.051282051282,4389.743589743591,4700.000000000001
3727.3203,1.0,0.6902324,0.42820767,0.5285475,0,0.0,0.0,0.24318966,0.0,0.0,0,0,0.0,0.0,0,0,69.0,0.0,558.0,5036.923076923077,4018.461538461539,4895.8974358974365,4442.564102564103,4121.538461538462,4685.641025641026,4860.000000000001,4960.000000000001,4731.794871794872,5104.615384615386,4720.000000000001,4760.512820512821,4518.974358974359,4791.794871794872
3727.4456,1.0,0.6902324,0.42820767,0.5285475,0,0.0,0.0,0.0,0.0,0.0,0,0,0.0,0.0,0,0,85.0,0.0,455.0,5044.102564102564,4070.2564102564106,4878.461538461539,4477.435897435898,4152.307692307693,4669.743589743591,4827.6923076923085,4927.6923076923085,4687.6923076923085,5090.256410256411,4685.641025641026,4746.153846153847,4524.615384615385,4813.333333333334
3727.8208,1.0,0.6876818,0.4090349,0.53070617,0,0.0,0.0,0.0,0.0,0.046716537,0,0,0.0,0.0,1,0,4.0,0.0,556.0,5033.846153846154,4167.6923076923085,4742.564102564103,4541.025641025642,4247.6923076923085,4605.128205128206,4644.615384615385,4692.820512820514,4506.153846153847,4936.410256410257,4535.8974358974365,4570.769230769231,4420.512820512821,4781.025641025642
3728.1648,1.0,0.6876818,0.4090349,0.53070617,0,0.0,0.0,0.0,0.0,0.11193287,0,0,0.0,0.0,0,0,48.0,0.0,0.0,4717.435897435898,4104.615384615385,4486.153846153847,4505.128205128206,4322.564102564103,4534.358974358975,4441.025641025642,4413.333333333334,4309.2307692307695,4717.948717948719,4300.000000000001,4275.8974358974365,4195.384615384616,4649.743589743591
3728.3213,0.99753106,0.6853863,0.39177874,0.5280252,0,0.0,0.0,0.0,0.0,0.047711138,0,0,0.0,0.0,0,0,68.0,0.0,556.0,4650.256410256411,4089.23076923077,4416.410256410257,4504.615384615385,4343.589743589744,4505.128205128206,4361.538461538462,4302.564102564103,4243.589743589744,4627.6923076923085,4261.538461538462,4198.461538461539,4129.2307692307695,4625.641025641026
3728.5715,0.99753106,0.6853863,0.39177874,0.5280252,0,0.0,0.0,0.0,0.0,0.019620191,0,0,0.0,0.0,0,0,100.0,0.0,498.0,4568.717948717949,4037.435897435898,4350.769230769231,4490.256410256411,4349.2307692307695,4466.153846153847,4262.051282051282,4174.871794871796,4182.564102564103,4546.153846153847,4188.717948717949,4065.1282051282055,4061.0256410256416,4584.102564102564
3728.8218,1.0,0.68332034,0.36990172,0.5302368,0,0.0,0.0,0.0,0.0,0.07507996,0,0,0.0,0.0,0,0,3.0,0.0,541.0,4496.410256410257,3869.7435897435903,4364.615384615385,4413.333333333334,4286.666666666667,4461.538461538462,4302.564102564103,4214.358974358975,4196.923076923077,4535.384615384616,4199.48717948718,4074.8717948717954,4018.461538461539,4549.743589743591
3729.0718,1.0,0.68332034,0.36990172,0.5302368,0,0.0,0.0,0.0,0.0,0.0,0,0,0.0,0.0,0,0,35.0,0.0,0.0,4784.102564102564,3748.205128205129,4701.538461538462,4332.820512820514,4121.025641025642,4577.948717948719,4698.974358974359,4740.512820512821,4543.589743589744,4888.205128205129,4519.48717948718,4521.538461538462,4310.769230769231,4717.948717948719
3729.322,1.0,0.68146104,0.3424836,0.53222734,0,0.0,0.0,0.0,0.0,0.012208031,0,0,0.0,0.0,0,0,67.0,0.0,540.0,5270.769230769231,4062.0512820512827,5133.846153846154,4390.769230769231,4105.128205128206,4776.923076923077,5135.8974358974365,5317.948717948719,4829.2307692307695,5329.2307692307695,4912.820512820514,5112.820512820514,4750.256410256411,4969.743589743591
3729.5723,1.0,0.68146104,0.3424836,0.53222734,0,0.0,0.0,0.3089144,0.0,0.0,0,0,0.0,0.0,0,0,99.0,0.0,385.0,5424.615384615386,4404.615384615385,5204.102564102564,4408.717948717949,4197.435897435898,4812.820512820514,5132.307692307693,5384.102564102564,4832.820512820514,5437.435897435898,4891.282051282052,5206.666666666667,4888.717948717949,5066.666666666667
3729.8225,1.0,0.6797876,0.31733713,0.53563976,0,0.0,0.0,0.08958281,0.0,0.0,0,0,0.0,0.0,0,0,2.0,0.0,431.0,5276.410256410257,4487.6923076923085,5015.384615384616,4510.769230769231,4204.615384615385,4638.974358974359,4919.48717948718,5109.2307692307695,4599.48717948718,5244.615384615386,4698.974358974359,4769.743589743591,4670.256410256411,4944.102564102564
3730.0728,1.0,0.6797876,0.31733713,0.53563976,0,0.0,0.0,0.18197744,0.0,0.0,0,0,0.0,0.0,0,0,34.0,0.0,0.0,5198.461538461539,4438.461538461539,4830.256410256411,4600.000000000001,4248.717948717949,4569.743589743591,4715.384615384616,4791.282051282052,4433.846153846154,4990.256410256411,4572.307692307693,4265.641025641026,4474.358974358975,4941.538461538462
3730.3542,1.0,0.6782815,0.29470015,0.53972965,0,0.0,0.0,0.0,0.0,0.0,0,0,0.8529828,0.0,0,0,70.0,0.0,521.0,4769.743589743591,4349.2307692307695,4588.205128205129,4715.384615384616,4329.2307692307695,4503.589743589744,4484.102564102564,4450.256410256411,4285.641025641026,4759.48717948718,4358.461538461539,3900.5128205128212,4183.076923076924,4743.589743589744
3730.5732,1.0,0.6782815,0.29470015,0.53972965,0,0.0,0.0,0.0,0.0,0.0,0,0,0.7574869,0.0,0,0,98.0,0.0,528.0,4541.538461538462,4220.000000000001,4380.000000000001,4726.666666666667,4351.282051282052,4423.076923076924,4275.384615384616,4156.923076923077,4119.48717948718,4561.538461538462,4169.2307692307695,3707.1794871794878,4024.1025641025644,4614.871794871796
3730.8235,1.0,0.676926,0.27480546,0.5434112,0,0.0,0.0,0.0,0.0,0.044817556,0,0,0.0,0.0,0,0,1.0,0.0,492.0,4326.153846153847,4050.2564102564106,4222.051282051282,4673.333333333334,4324.615384615385,4351.282051282052,4116.923076923077,3956.9230769230776,4019.48717948718,4383.589743589744,3999.48717948718,3600.512820512821,3833.8461538461543,4473.846153846154
3731.0735,1.0,0.676926,0.27480546,0.5434112,0,0.0,0.0,0.0,0.0,0.0,0,0,0.0,0.0,0,0,33.0,0.0,0.0,4186.666666666667,3945.6410256410263,4149.74358974359,4608.717948717949,4310.769230769231,4324.615384615385,4034.358974358975,3846.1538461538466,3942.0512820512827,4264.615384615385,3892.307692307693,3503.589743589744,3727.692307692308,4360.000000000001
3731.3237,1.0,0.6757061,0.26891345,0.5467247,0,0.0,0.0,0.0,0.0,1.0,0,0,0.0,0.0,0,0,65.0,0.0,492.0,4120.512820512821,3884.615384615385,4136.410256410257,4551.794871794872,4309.2307692307695,4324.615384615385,4027.1794871794878,3847.1794871794878,3985.1282051282055,4278.461538461539,3896.410256410257,3543.0769230769233,3740.0000000000005,4326.153846153847
3731.574,1.0,0.6757061,0.26891345,0.5467247,0,0.0,0.0,0.0,0.0,0.30045244,0,0,0.0,0.0,0,0,97.0,0.0,465.0,4149.2307692307695,3832.820512820513,4172.307692307693,4521.025641025642,4317.435897435898,4361.538461538462,4063.076923076924,3897.9487179487182,4045.6410256410263,4325.641025641026,3942.0512820512827,3643.0769230769233,3785.1282051282055,4319.48717948718
3731.8242,1.0,0.6746082,0.27536464,0.5472767,0,0.0,0.0,0.0,0.0,0.13518576,0,0,0.0,0.0,0,0,0.0,0.0,488.0,4160.512820512821,3809.7435897435903,4222.051282051282,4491.794871794872,4318.974358974359,4397.948717948719,4129.74358974359,3977.9487179487182,4142.564102564103,4385.641025641026,4014.358974358975,3732.820512820513,3845.1282051282055,4301.025641025642
3732.0745,1.0,0.6746082,0.27536464,0.5472767,0,0.0,0.0,0.0,0.0,0.1580371,0,0,0.0,0.0,0,0,32.0,0.0,0.0,4252.307692307693,3815.3846153846157,4277.948717948719,4471.794871794872,4315.384615384616,4428.717948717949,4186.153846153847,4029.23076923077,4180.512820512821,4427.179487179487,4069.23076923077,3846.666666666667,3921.0256410256416,4335.384615384616
3732.3247,1.0,0.67362005,0.28117144,0.5477734,0,0.0,0.0,0.0,0.0,0.18677458,0,0,0.0,0.0,0,0,64.0,0.0,488.0,4213.333333333334,3786.666666666667,4305.641025641026,4448.205128205129,4311.794871794872,4459.48717948718,4247.179487179487,4108.205128205129,4245.641025641026,4483.589743589744,4086.666666666667,3883.589743589744,3928.717948717949,4256.923076923077
3732.575,1.0,0.67362005,0.28117144,0.5477734,0,0.0,0.0,0.0,0.0,0.14981471,0,0,0.0,0.0,0,0,96.0,0.0,506.0,4223.589743589744,3759.48717948718,4352.820512820514,4423.589743589744,4306.666666666667,4485.128205128206,4287.179487179487,4181.538461538462,4311.282051282052,4555.8974358974365,4188.717948717949,3995.8974358974365,4042.564102564103,4298.461538461539
3732.8252,1.0,0.67273074,0.28639823,0.54822046,0,0.0,0.0,0.0,0.0,0.14111212,0,0,0.0,0.0,0,0,128.0,0.0,506.0,4246.666666666667,3784.1025641025644,4386.666666666667,4417.435897435898,4297.948717948719,4495.8974358974365,4319.48717948718,4221.025641025642,4340.000000000001,4596.410256410257,4212.820512820514,4058.9743589743593,4085.1282051282055,4311.794871794872
3733.0752,1.0,0.67273074,0.28639823,0.54822046,0,0.0,0.0,0.0,0.0,0.0,0,0,0.0,0.0,0,0,31.0,0.0,0.0,4288.717948717949,3800.0000000000005,4408.717948717949,4430.256410256411,4280.000000000001,4509.743589743591,4329.743589743591,4251.794871794872,4353.333333333334,4613.333333333334,4266.666666666667,4097.435897435898,4096.410256410257,4312.820512820514
3733.3254,1.0,0.6719303,0.29110295,0.5486228,0,0.0,0.0,0.0,0.0,0.0,0,0,0.0,0.0,0,0,63.0,0.0,0.0,4284.615384615385,3786.1538461538466,4403.589743589744,4409.2307692307695,4265.128205128206,4510.256410256411,4346.666666666667,4286.153846153847,4372.307692307693,4633.846153846154,4309.743589743591,4124.615384615385,4125.641025641026,4318.974358974359
3733.3254,1.0,0.6719303,0.29110295,0.5486228,0,0.0,0.0,0.0,0.0,0.0,0,0,0.0,0.0,0,0,63.0,0.0,0.0,4284.615384615385,3786.1538461538466,4403.589743589744,4409.2307692307695,4265.128205128206,4510.256410256411,4346.666666666667,4286.153846153847,4372.307692307693,4633.846153846154,4309.743589743591,4124.615384615385,4125.641025641026,4318.974358974359
3733.826,1.0,0.67121,0.29415858,0.54898494,0,0.0,0.0,0.0,0.0,0.0,0,0,0.0,0.0,0,0,127.0,0.0,399.0,4352.307692307693,3801.0256410256416,4442.051282051282,4427.179487179487,4250.769230769231,4524.615384615385,4341.025641025642,4291.282051282052,4373.846153846154,4650.256410256411,4357.948717948719,4188.205128205129,4185.128205128206,4351.794871794872
3733.826,1.0,0.67121,0.29415858,0.54898494,0,0.0,0.0,0.0,0.0,0.0,0,0,0.0,0.0,0,0,127.0,0.0,399.0,4352.307692307693,3801.0256410256416,4442.051282051282,4427.179487179487,4250.769230769231,4524.615384615385,4341.025641025642,4291.282051282052,4373.846153846154,4650.256410256411,4357.948717948719,4188.205128205129,4185.128205128206,4351.794871794872
3734.3264,1.0,0.6705617,0.29690915,0.55883443,0,0.0,0.0,0.0,0.0,0.0,0,0,0.0,0.0,0,0,62.0,0.0,0.0,4444.102564102564,3805.6410256410263,4525.641025641026,4411.794871794872,4184.102564102564,4556.410256410257,4445.128205128206,4420.000000000001,4480.512820512821,4769.2307692307695,4478.461538461539,4338.974358974359,4280.512820512821,4410.256410256411
3734.5767,1.0,0.6705617,0.29690915,0.55883443,0,0.0,0.0,0.0,0.0,0.0,0,0,1.0,0.0,0,0,94.0,0.0,534.0,4544.615384615385,3860.0000000000005,4571.794871794872,4426.153846153847,4150.769230769231,4571.282051282052,4514.358974358975,4530.256410256411,4566.153846153847,4840.512820512821,4537.948717948719,4411.282051282052,4328.717948717949,4429.743589743591
3734.827,1.0,0.6699782,0.29787183,0.57342196,0,0.0,0.0,0.0,0.0,0.0,0,0,0.0,0.0,0,0,126.0,0.0,534.0,4613.846153846154,3902.564102564103,4602.051282051282,4442.051282051282,4162.051282051282,4569.743589743591,4545.128205128206,4568.717948717949,4603.589743589744,4874.871794871796,4571.282051282052,4445.641025641026,4373.333333333334,4457.948717948719
3734.827,1.0,0.6699782,0.29787183,0.57342196,0,0.0,0.0,0.0,0.0,0.0,0,0,0.0,0.0,0,0,126.0,0.0,534.0,4613.846153846154,3902.564102564103,4602.051282051282,4442.051282051282,4162.051282051282,4569.743589743591,4545.128205128206,4568.717948717949,4603.589743589744,4874.871794871796,4571.282051282052,4445.641025641026,4373.333333333334,4457.948717948719
3735.3271,0.8928758,0.669453,0.29873872,0.5891439,0,0.0,0.0,0.0,0.0,0.0,0,0,0.0,0.49752128,0,0,61.0,0.0,0.0,4626.153846153847,3945.6410256410263,4535.384615384616,4475.384615384616,4248.205128205129,4557.435897435898,4472.820512820514,4465.641025641026,4508.717948717949,4774.358974358975,4457.948717948719,4363.589743589744,4284.102564102564,4470.256410256411
3735.5774,0.8928758,0.669453,0.29873872,0.5891439,0,0.0,0.0,0.0,0.0,0.0,0,0,0.0,1.0,0,0,93.0,0.0,467.0,4620.000000000001,3961.0256410256416,4503.076923076924,4468.205128205129,4275.384615384616,4536.410256410257,4410.256410256411,4378.461538461539,4425.641025641026,4716.923076923077,4408.205128205129,4295.384615384616,4216.923076923077,4462.051282051282
3735.8276,0.86079305,0.6689804,0.29915142,0.60329294,0,0.0,0.0,0.0,0.0,0.3084089,0,0,0.0,0.0,0,0,125.0,0.0,467.0,4596.410256410257,3958.461538461539,4455.384615384616,4455.384615384616,4273.333333333334,4512.307692307693,4364.615384615385,4310.769230769231,4329.2307692307695,4625.128205128206,4306.153846153847,4210.769230769231,4107.6923076923085,4422.051282051282
3736.078,0.86079305,0.6689804,0.29915142,0.60329294,0,0.0,0.0,0.0,0.0,0.19002964,0,0,0.0,0.0,0,0,28.0,0.0,0.0,4552.820512820514,3900.0000000000005,4411.282051282052,4426.666666666667,4263.589743589744,4517.435897435898,4341.538461538462,4276.923076923077,4296.923076923077,4569.743589743591,4263.589743589744,4152.307692307693,4057.9487179487182,4411.794871794872
3736.3281,0.9118236,0.6685551,0.29952332,0.6135108,0,0.0,0.0,0.0,0.0,0.0,0,0,0.0,0.0,0,0,60.0,0.0,0.0,4524.102564102564,3885.6410256410263,4415.8974358974365,4413.846153846154,4264.615384615385,4523.076923076924,4351.282051282052,4284.102564102564,4314.358974358975,4587.6923076923085,4281.538461538462,4165.641025641026,4092.820512820513,4433.846153846154
3736.5784,0.9118236,0.6685551,0.29952332,0.6135108,0,0.0,0.0,0.0,0.0,0.32095373,0,0,0.0,0.0,0,0,92.0,0.0,504.0,4507.179487179488,3893.8461538461543,4429.2307692307695,4427.179487179487,4266.153846153847,4530.769230769231,4374.358974358975,4295.384615384616,4341.538461538462,4622.564102564103,4302.051282051282,4172.820512820514,4115.8974358974365,4444.102564102564
3736.8286,0.88269037,0.66817224,0.30152014,0.62112266,0,0.0,0.0,0.0,0.0,0.19685376,0,0,0.0,0.0,0,0,124.0,0.0,504.0,4505.641025641026,3878.9743589743593,4424.102564102564,4426.153846153847,4259.48717948718,4540.512820512821,4366.153846153847,4297.948717948719,4331.282051282052,4605.128205128206,4280.000000000001,4167.179487179487,4090.7692307692314,4448.205128205129
3737.0789,0.88269037,0.66817224,0.30152014,0.62112266,0,0.0,0.0,0.0,0.0,0.20978345,0,0,0.0,0.0,0,0,27.0,0.0,0.0,4533.333333333334,3898.461538461539,4446.153846153847,4440.512820512821,4260.512820512821,4537.948717948719,4374.358974358975,4310.769230769231,4347.179487179487,4641.025641025642,4317.435897435898,4196.410256410257,4132.820512820514,4496.923076923077
3737.3289,0.8450916,0.66782767,0.3033177,0.62668556,0,0.0,0.0,0.0,0.0,0.39145112,0,0,0.0,0.0,0,0,59.0,0.0,0.0,4523.589743589744,3898.9743589743593,4455.384615384616,4442.564102564103,4257.948717948719,4546.153846153847,4392.307692307693,4313.846153846154,4336.410256410257,4621.025641025642,4315.384615384616,4190.769230769231,4125.128205128206,4516.923076923077
3737.579,0.8450916,0.66782767,0.3033177,0.62668556,0,0.0,0.0,0.0,0.0,0.159753,0,0,0.0,0.0,0,0,91.0,0.0,399.0,4537.435897435898,3892.307692307693,4446.666666666667,4433.846153846154,4262.051282051282,4546.666666666667,4382.051282051282,4314.871794871796,4349.2307692307695,4648.717948717949,4330.769230769231,4194.358974358975,4137.948717948719,4521.538461538462
3737.8293,0.7522174,0.62642246,0.30399495,0.63297784,0,0.0,0.0,0.0,0.0,0.0,0,0,0.0,0.0,0,0,123.0,0.0,399.0,4530.256410256411,3890.7692307692314,4443.076923076924,4428.205128205129,4248.717948717949,4540.000000000001,4401.538461538462,4341.025641025642,4362.564102564103,4647.6923076923085,4341.025641025642,4184.615384615385,4136.923076923077,4494.871794871796
3737.8293,0.7522174,0.62642246,0.30399495,0.63297784,0,0.0,0.0,0.0,0.0,0.0,0,0,0.0,0.0,0,0,123.0,0.0,399.0,4530.256410256411,3890.7692307692314,4443.076923076924,4428.205128205129,4248.717948717949,4540.000000000001,4401.538461538462,4341.025641025642,4362.564102564103,4647.6923076923085,4341.025641025642,4184.615384615385,4136.923076923077,4494.871794871796
3738.3298,0.7115203,0.58782166,0.29937017,0.6386396,0,0.0,0.0,0.0,0.0,0.0,0,0,0.0,0.0,0,0,58.0,0.0,0.0,4573.846153846154,3900.0000000000005,4466.666666666667,4437.948717948719,4250.256410256411,4554.871794871796,4417.435897435898,4346.666666666667,4370.769230769231,4682.051282051282,4381.025641025642,4220.512820512821,4151.794871794872,4501.538461538462
3738.3298,0.7115203,0.58782166,0.29937017,0.6386396,0,0.0,0.0,0.0,0.0,0.0,0,0,0.0,0.0,0,0,58.0,0.0,0.0,4573.846153846154,3900.0000000000005,4466.666666666667,4437.948717948719,4250.256410256411,4554.871794871796,4417.435897435898,4346.666666666667,4370.769230769231,4682.051282051282,4381.025641025642,4220.512820512821,4151.794871794872,4501.538461538462
3738.8303,0.6732776,0.56369454,0.30506754,0.6408303,0,0.0,0.0,0.0,0.0,0.0,0,0,0.0,0.0,0,0,122.0,0.0,534.0,4608.717948717949,3920.0000000000005,4474.358974358975,4429.743589743591,4254.358974358975,4564.615384615385,4405.128205128206,4350.769230769231,4368.205128205129,4670.769230769231,4378.461538461539,4213.333333333334,4162.564102564103,4506.666666666667
3738.8303,0.6732776,0.56369454,0.30506754,0.6408303,0,0.0,0.0,0.0,0.0,0.0,0,0,0.0,0.0,0,0,122.0,0.0,534.0,4608.717948717949,3920.0000000000005,4474.358974358975,4429.743589743591,4254.358974358975,4564.615384615385,4405.128205128206,4350.769230769231,4368.205128205129,4670.769230769231,4378.461538461539,4213.333333333334,4162.564102564103,4506.666666666667
3739.3308,0.6223333,0.54479164,0.31606022,0.6327209,0,0.0,0.0,0.0,0.0,0.0,0,0,0.660794,0.0,0,0,57.0,0.0,0.0,4638.974358974359,3836.9230769230776,4536.923076923077,4367.6923076923085,4170.769230769231,4580.512820512821,4475.8974358974365,4474.358974358975,4474.871794871796,4783.589743589744,4474.358974358975,4316.410256410257,4244.615384615385,4543.076923076924
3739.5808,0.6223333,0.54479164,0.31606022,0.6327209,0,0.0,0.0,0.5808391,0.0,0.0,0,0,0.0,0.0,0,0,89.0,0.0,471.0,4734.358974358975,3858.9743589743593,4626.153846153847,4371.794871794872,4134.871794871796,4590.256410256411,4568.717948717949,4626.666666666667,4603.589743589744,4923.076923076924,4581.538461538462,4459.48717948718,4365.128205128206,4603.589743589744
3739.831,0.7576533,0.5277819,0.32595384,0.6254223,0,0.0,0.0,0.61952907,0.0,0.0,0,0,0.0,0.0,0,0,121.0,0.0,471.0,4958.461538461539,3989.23076923077,4698.974358974359,4429.2307692307695,4165.641025641026,4589.2307692307695,4598.461538461539,4688.205128205129,4671.282051282052,4991.794871794872,4685.128205128206,4555.384615384616,4487.6923076923085,4716.923076923077
3740.0813,0.7576533,0.5277819,0.32595384,0.6254223,0,0.0,0.0,0.0,0.0,0.56013024,0,0,0.0,0.0,0,0,24.0,0.0,0.0,4827.6923076923085,4015.3846153846157,4644.102564102564,4443.589743589744,4231.282051282052,4605.128205128206,4601.538461538462,4687.6923076923085,4653.846153846154,4957.435897435898,4612.820512820514,4491.282051282052,4404.615384615385,4647.179487179488
3740.3315,0.8767349,0.5124731,0.32732758,0.62613755,0,0.0,0.0,0.0,0.0,0.23921227,0,0,0.0,0.0,0,0,56.0,0.0,0.0,4794.358974358975,4032.820512820513,4593.846153846154,4469.2307692307695,4267.179487179487,4586.666666666667,4535.8974358974365,4601.025641025642,4570.769230769231,4887.179487179488,4531.282051282052,4428.717948717949,4334.358974358975,4622.564102564103
3740.5818,0.8767349,0.5124731,0.32732758,0.62613755,0,0.0,0.0,0.0,0.0,0.03116832,0,0,0.0,0.0,0,0,88.0,0.0,492.0,4792.820512820514,4043.589743589744,4551.794871794872,4491.282051282052,4313.846153846154,4573.846153846154,4476.923076923077,4511.282051282052,4487.6923076923085,4820.000000000001,4482.564102564103,4347.179487179487,4292.307692307693,4619.48717948718
3740.832,0.9701529,0.49869525,0.32856405,0.6267805,0,0.0,0.0,0.0,0.0,0.034602817,0,0,0.0,0.0,0,0,120.0,0.0,492.0,4734.871794871796,4000.5128205128212,4470.769230769231,4475.8974358974365,4324.102564102564,4553.333333333334,4401.025641025642,4394.358974358975,4390.256410256411,4719.48717948718,4386.666666666667,4233.846153846154,4204.102564102564,4587.6923076923085
3741.1135,0.9701529,0.49869525,0.32856405,0.6267805,1,0.0,0.0,0.0,0.0,0.20004725,0,0,0.0,0.0,0,0,27.0,0.0,0.0,4828.205128205129,4035.8974358974365,4474.871794871796,4500.000000000001,4306.153846153847,4520.512820512821,4346.666666666667,4298.974358974359,4302.564102564103,4617.948717948719,4335.384615384616,4203.589743589744,4169.74358974359,4627.179487179488
3741.3325,0.9410851,0.48629513,0.32967693,0.6273585,0,0.0,0.0,0.0,0.0,0.220433,0,0,0.0,0.0,0,0,55.0,0.0,0.0,4722.051282051282,3991.2820512820517,4451.794871794872,4477.948717948719,4307.6923076923085,4509.743589743591,4324.615384615385,4264.615384615385,4278.974358974359,4596.923076923077,4318.461538461539,4171.282051282052,4129.74358974359,4584.102564102564
3741.5825,0.9410851,0.48629513,0.32967693,0.6273585,0,0.0,0.0,0.0,0.0,0.15846314,0,0,0.0,0.0,0,0,87.0,0.0,391.0,4620.512820512821,3832.307692307693,4475.384615384616,4393.846153846154,4206.153846153847,4536.923076923077,4424.102564102564,4408.205128205129,4387.179487179487,4684.102564102564,4341.025641025642,4240.000000000001,4130.769230769231,4569.2307692307695
3741.8328,0.90385425,0.47513506,0.32195115,0.6320106,0,0.0,0.0,0.0,0.0,0.0032161362,0,0,0.0,0.0,0,0,119.0,0.0,391.0,4820.512820512821,3777.9487179487182,4722.051282051282,4351.282051282052,4093.333333333334,4616.923076923077,4680.000000000001,4751.282051282052,4621.025641025642,4914.358974358975,4561.538461538462,4570.256410256411,4308.205128205129,4683.076923076924
3742.083,0.90385425,0.47513506,0.32195115,0.6320106,0,0.0,0.0,0.0,0.0,0.013049699,0,0,0.0,0.0,0,0,22.0,0.0,0.0,5117.435897435898,4015.8974358974365,5001.538461538462,4448.205128205129,4107.6923076923085,4751.282051282052,4956.923076923077,5129.2307692307695,4810.769230769231,5188.205128205129,4767.179487179488,4881.025641025642,4587.179487179488,4846.666666666667
3742.3333,1.0,0.46509096,0.31162706,0.6361964,0,0.0,0.0,0.19902937,0.0,0.0,0,0,0.0,0.0,0,0,54.0,0.0,0.0,5345.641025641026,4287.179487179487,5101.538461538462,4509.743589743591,4247.179487179487,4795.384615384616,5009.743589743591,5229.2307692307695,4813.846153846154,5313.333333333334,4761.538461538462,4975.384615384616,4699.48717948718,4955.384615384616
3742.5835,1.0,0.46509096,0.31162706,0.6361964,0,0.0,0.0,0.0,0.0,0.09970958,0,0,0.0,0.0,0,0,86.0,0.0,529.0,5296.923076923078,4379.48717948718,4949.743589743591,4586.666666666667,4327.6923076923085,4731.282051282052,4901.025641025642,5045.128205128206,4592.820512820514,5197.435897435898,4609.743589743591,4841.538461538462,4608.205128205129,4974.358974358975
3742.8337,1.0,0.4560513,0.30233568,0.6399624,0,0.0,0.0,0.0,0.0,0.018185535,0,0,0.0,0.0,0,0,118.0,0.0,529.0,5155.384615384616,4415.384615384616,4721.025641025642,4632.820512820514,4370.256410256411,4582.051282051282,4601.538461538462,4736.410256410257,4381.538461538462,4986.153846153847,4412.820512820514,4546.153846153847,4355.384615384616,4896.410256410257
3743.084,1.0,0.4560513,0.30233568,0.6399624,0,0.0,0.0,0.0,0.0,0.049619332,0,0,0.0,0.0,0,0,21.0,0.0,0.0,5137.948717948719,4304.102564102564,4554.871794871796,4640.000000000001,4367.6923076923085,4458.461538461539,4353.333333333334,4400.512820512821,4182.051282051282,4745.128205128206,4289.74358974359,4306.666666666667,4214.871794871796,4847.6923076923085
3743.3342,1.0,0.44791558,0.29397395,0.6371392,0,0.0,0.0,0.0,0.0,0.24213967,0,0,0.0,0.0,0,0,53.0,0.0,0.0,4658.974358974359,4148.717948717949,4343.589743589744,4586.153846153847,4364.102564102564,4404.615384615385,4189.2307692307695,4155.8974358974365,4052.820512820513,4545.641025641026,4062.564102564103,3994.8717948717954,3951.2820512820517,4598.461538461539
3743.5842,1.0,0.44791558,0.29397395,0.6371392,0,0.0,0.0,0.0,0.0,0.6886769,0,0,0.0,0.0,0,0,85.0,0.0,466.0,4452.307692307693,3992.820512820513,4247.179487179487,4533.333333333334,4337.435897435898,4367.6923076923085,4126.153846153847,4020.5128205128212,4021.0256410256416,4443.589743589744,4009.7435897435903,3874.8717948717954,3863.076923076924,4507.179487179488
3743.8345,1.0,0.44059345,0.30033198,0.6345977,0,0.0,0.0,0.0,0.0,1.0,0,0,0.0,0.0,0,0,117.0,0.0,466.0,4245.128205128206,3867.1794871794878,4184.615384615385,4464.615384615385,4316.410256410257,4344.102564102564,4074.8717948717954,3974.8717948717954,4025.6410256410263,4391.282051282052,3982.564102564103,3791.7948717948725,3812.307692307693,4409.743589743591
3743.8345,1.0,0.44059345,0.30033198,0.6345977,0,0.0,0.0,0.0,0.0,1.0,0,0,0.0,0.0,0,0,117.0,0.0,466.0,4245.128205128206,3867.1794871794878,4184.615384615385,4464.615384615385,4316.410256410257,4344.102564102564,4074.8717948717954,3974.8717948717954,4025.6410256410263,4391.282051282052,3982.564102564103,3791.7948717948725,3812.307692307693,4409.743589743591
3744.335,1.0,0.43400353,0.31558305,0.6380044,0,0.0,0.0,0.0,0.0,0.20487903,0,0,0.0,0.0,0,0,52.0,0.0,0.0,4187.179487179487,3785.1282051282055,4209.74358974359,4400.000000000001,4341.025641025642,4377.435897435898,4128.717948717949,4010.7692307692314,4117.948717948719,4416.410256410257,4062.0512820512827,3822.0512820512827,3861.538461538462,4347.179487179487
3744.5852,1.0,0.43400353,0.31558305,0.6380044,0,0.0,0.0,0.0,0.0,0.18241143,0,0,0.0,0.0,0,0,84.0,0.0,505.0,4285.128205128206,3840.512820512821,4278.461538461539,4414.358974358975,4268.717948717949,4413.333333333334,4202.051282051282,4096.923076923077,4189.74358974359,4471.282051282052,4120.512820512821,3879.48717948718,3909.7435897435903,4331.794871794872
3744.8354,1.0,0.4280726,0.32930923,0.6283098,0,0.0,0.0,0.0,0.0,0.0,0,0,0.0,0.0,0,0,116.0,0.0,505.0,4323.076923076924,3845.1282051282055,4325.128205128206,4399.48717948718,4249.74358974359,4435.384615384616,4252.307692307693,4137.435897435898,4228.205128205129,4502.051282051282,4164.102564102564,3943.589743589744,3970.7692307692314,4330.769230769231
3745.1794,1.0,0.4280726,0.32930923,0.6283098,0,0.0,0.0,0.60046804,0.0,0.0,0,0,0.0,0.0,0,1,31.0,0.0,0.0,4546.153846153847,3825.6410256410263,4408.717948717949,4397.948717948719,4204.102564102564,4459.48717948718,4314.871794871796,4235.8974358974365,4324.615384615385,4584.102564102564,4309.743589743591,4092.820512820513,4133.846153846154,4445.128205128206
3745.336,1.0,0.42273477,0.34166285,0.6184262,0,0.0,0.0,0.0,0.0,0.7512635,0,0,0.0,0.0,0,1,51.0,0.0,0.0,4460.000000000001,3804.1025641025644,4388.205128205129,4390.769230769231,4213.846153846154,4471.282051282052,4343.076923076924,4262.564102564103,4335.384615384616,4590.256410256411,4278.974358974359,4075.8974358974365,4103.076923076924,4410.256410256411
3745.5862,1.0,0.42273477,0.34166285,0.6184262,0,0.0,0.0,0.0,0.0,0.26732567,0,0,0.0,0.0,0,0,83.0,0.0,394.0,4437.948717948719,3801.538461538462,4393.333333333334,4389.2307692307695,4230.256410256411,4504.615384615385,4367.179487179487,4279.48717948718,4342.564102564103,4609.743589743591,4304.615384615385,4099.48717948718,4122.564102564103,4426.153846153847
3745.8362,1.0,0.4179307,0.36134434,0.6175591,0,0.0,0.0,0.0,0.0,0.23805046,0,0,0.0,0.0,0,0,115.0,0.0,394.0,4459.48717948718,3812.307692307693,4414.358974358975,4396.410256410257,4246.153846153847,4518.461538461539,4382.564102564103,4316.923076923077,4374.871794871796,4656.410256410257,4356.923076923077,4136.410256410257,4186.153846153847,4462.051282051282
3746.0864,1.0,0.4179307,0.36134434,0.6175591,0,0.0,0.0,0.0,0.0,0.0,0,0,0.0,0.0,0,0,18.0,0.0,0.0,4459.48717948718,3802.0512820512827,4437.948717948719,4378.461538461539,4223.589743589744,4503.076923076924,4403.076923076924,4344.615384615385,4395.384615384616,4687.179487179488,4379.48717948718,4167.179487179487,4191.794871794872,4472.307692307693
3746.3367,0.9835185,0.41360706,0.37046778,0.6207706,1,0.0,0.0,0.0,0.0,0.0,0,0,0.0,0.0,0,0,50.0,0.0,0.0,4610.769230769231,3770.7692307692314,4544.615384615385,4354.358974358975,4140.512820512821,4524.102564102564,4493.846153846154,4492.820512820514,4516.410256410257,4800.512820512821,4495.8974358974365,4328.205128205129,4297.948717948719,4550.256410256411
3746.587,0.9835185,0.41360706,0.37046778,0.6207706,0,0.0,0.0,0.38773805,0.0,0.0,0,0,0.0,0.0,0,0,82.0,0.0,534.0,4853.333333333334,3845.1282051282055,4780.512820512821,4387.6923076923085,4029.7435897435903,4655.384615384616,4757.948717948719,4904.102564102564,4897.948717948719,5188.205128205129,4832.820512820514,4683.589743589744,4621.538461538462,4684.102564102564
3746.8372,1.0,0.40971577,0.37867832,0.6203915,0,0.0,0.0,0.4895665,0.0,0.0,0,1,0.0,0.0,0,0,114.0,0.0,534.0,5053.333333333334,4034.358974358975,4922.564102564103,4502.564102564103,4089.23076923077,4710.256410256411,4890.256410256411,5150.769230769231,5071.794871794872,5375.384615384616,5008.205128205129,4935.8974358974365,4808.717948717949,4795.8974358974365
3747.0874,1.0,0.40971577,0.37867832,0.6203915,0,0.0,0.0,0.07942203,0.0,0.0,0,1,0.0,0.0,0,0,17.0,0.0,0.0,5063.076923076924,4162.051282051282,4903.076923076924,4592.820512820514,4192.307692307693,4717.948717948719,4872.820512820514,5148.717948717949,5041.025641025642,5379.487179487181,5007.6923076923085,4948.717948717949,4818.461538461539,4812.820512820514
3747.3376,1.0,0.4062136,0.38301674,0.6174478,0,0.0,0.0,0.0,0.0,0.0,0,1,1.0,0.0,0,0,49.0,0.0,0.0,5061.538461538462,4186.666666666667,4861.025641025642,4600.000000000001,4255.8974358974365,4702.051282051282,4841.025641025642,5089.743589743591,4880.000000000001,5236.923076923078,4859.48717948718,4908.717948717949,4674.871794871796,4796.410256410257
3747.588,1.0,0.4062136,0.38301674,0.6174478,0,0.0,0.0,0.0,0.0,0.0,0,0,1.0,0.0,1,0,81.0,0.0,451.0,5130.769230769231,4307.6923076923085,4859.48717948718,4594.358974358975,4341.025641025642,4688.717948717949,4798.974358974359,4943.589743589744,4631.794871794872,5041.538461538462,4562.564102564103,4840.000000000001,4540.512820512821,4809.743589743591
3747.932,1.0,0.4030617,0.38692054,0.61479795,0,0.0,0.0,0.0,0.0,0.09373379,0,0,0.0,0.0,0,0,125.0,0.0,451.0,4873.846153846154,4296.923076923077,4658.974358974359,4601.538461538462,4320.000000000001,4552.307692307693,4566.666666666667,4505.128205128206,4203.589743589744,4665.641025641026,4183.076923076924,4449.2307692307695,4227.6923076923085,4656.410256410257
3748.0881,1.0,0.4030617,0.38692054,0.61479795,0,0.0,0.0,0.0,0.0,0.012013052,0,0,0.0,0.0,0,0,16.0,0.0,0.0,4776.410256410257,4237.435897435898,4529.2307692307695,4609.743589743591,4329.743589743591,4479.48717948718,4434.358974358975,4332.307692307693,4103.076923076924,4560.000000000001,4120.512820512821,4256.410256410257,4127.179487179487,4591.282051282052
3748.3384,0.9968407,0.40022492,0.3943257,0.61241275,0,0.0,0.0,0.0,0.0,0.0,0,0,0.2862098,0.0,0,0,48.0,0.0,0.0,4614.358974358975,4111.794871794872,4400.512820512821,4547.179487179488,4302.051282051282,4432.820512820514,4287.179487179487,4108.717948717949,3976.410256410257,4423.076923076924,4015.8974358974365,4018.9743589743593,3955.8974358974365,4490.256410256411
3748.5886,0.9968407,0.40022492,0.3943257,0.61241275,0,0.0,0.0,0.0,0.0,0.0,0,0,1.0,0.0,0,0,80.0,0.0,503.0,4506.666666666667,4029.7435897435903,4328.205128205129,4489.743589743591,4409.743589743591,4424.102564102564,4211.282051282052,4015.3846153846157,3957.9487179487182,4395.8974358974365,3959.48717948718,3900.5128205128212,3877.9487179487182,4425.128205128206
3748.8389,1.0,0.39767188,0.40098935,0.60876924,0,0.0,0.0,1.0,0.0,0.0,0,0,0.0,0.0,0,0,112.0,0.0,503.0,4419.48717948718,3974.358974358975,4246.666666666667,4388.717948717949,4423.589743589744,4398.974358974359,4141.025641025642,3927.1794871794878,3931.7948717948725,4320.000000000001,3889.2307692307695,3789.7435897435903,3752.820512820513,4349.2307692307695
3749.089,1.0,0.39767188,0.40098935,0.60876924,0,0.0,0.0,0.6347823,0.0,0.0,0,0,0.0,0.0,0,0,15.0,0.0,388.0,4365.128205128206,3882.564102564103,4233.333333333334,4385.641025641026,4294.871794871796,4386.153846153847,4153.846153846154,3948.717948717949,4000.0000000000005,4353.846153846154,3953.333333333334,3784.615384615385,3786.1538461538466,4335.8974358974365
3749.3394,1.0,0.3953741,0.4074787,0.6008561,0,0.0,0.0,0.0,0.0,0.0,0,0,1.0,0.0,0,0,47.0,0.0,0.0,4383.589743589744,3790.2564102564106,4263.076923076924,4344.102564102564,4236.410256410257,4398.974358974359,4192.307692307693,4029.23076923077,4113.846153846154,4447.6923076923085,4125.128205128206,3889.7435897435903,3957.435897435898,4406.153846153847
3749.5896,1.0,0.3953741,0.4074787,0.6008561,0,0.0,0.0,0.0,0.0,0.0,0,0,0.86646926,0.0,0,0,79.0,0.0,394.0,4325.128205128206,3788.205128205129,4291.282051282052,4325.641025641026,4169.74358974359,4427.179487179487,4263.076923076924,4129.2307692307695,4199.48717948718,4511.282051282052,4155.8974358974365,3941.0256410256416,4029.23076923077,4362.051282051282
3749.8398,1.0,0.3933061,0.41865107,0.59373415,0,0.0,0.0,0.0,0.0,0.0,0,0,1.0,0.0,0,0,111.0,0.0,394.0,4468.205128205129,3728.205128205129,4486.666666666667,4304.102564102564,3974.8717948717954,4460.000000000001,4451.794871794872,4385.641025641026,4409.2307692307695,4701.538461538462,4361.025641025642,4202.051282051282,4241.025641025642,4450.769230769231
3750.0898,1.0,0.3933061,0.41865107,0.59373415,0,0.23626725,0.0,0.0,0.0,0.0,0,0,0.0,0.0,0,0,14.0,0.0,535.0,4796.923076923077,3670.7692307692314,4770.256410256411,4309.2307692307695,3940.5128205128212,4558.974358974359,4764.615384615386,4831.282051282052,4733.846153846154,5069.743589743591,4642.564102564103,4652.307692307693,4497.435897435898,4627.6923076923085
3750.34,1.0,0.39144492,0.4390101,0.5873242,0,0.0,0.0,0.0,0.0,0.0,0,0,0.40750527,0.0,0,0,46.0,0.0,0.0,5083.076923076924,3932.307692307693,4976.923076923077,4322.564102564103,4123.076923076924,4688.205128205129,4987.6923076923085,5120.512820512821,4891.794871794872,5329.743589743591,4843.076923076924,4965.128205128206,4712.307692307693,4768.717948717949
3750.5903,1.0,0.39144492,0.4390101,0.5873242,0,0.0,0.0,0.0,0.0,0.0,0,0,0.26226708,0.0,0,0,78.0,0.0,524.0,5139.487179487181,4166.153846153847,4906.153846153847,4417.948717948719,4252.820512820514,4720.512820512821,4952.820512820514,5026.153846153847,4813.333333333334,5289.743589743591,4816.923076923077,4950.256410256411,4801.538461538462,4814.871794871796
3750.8406,1.0,0.38976985,0.45997217,0.59044886,0,0.0,0.0,0.0,0.0,0.03758671,0,0,0.0,0.0,0,0,110.0,0.0,524.0,4953.846153846154,4325.128205128206,4663.076923076924,4529.2307692307695,4392.820512820514,4640.000000000001,4703.589743589744,4779.48717948718,4614.358974358975,5064.102564102564,4650.769230769231,4630.256410256411,4649.2307692307695,4738.974358974359
3751.0908,1.0,0.38976985,0.45997217,0.59044886,0,0.14362933,0.0,0.0,0.0,0.0,0,0,0.0,0.0,0,0,13.0,0.0,462.0,4775.384615384616,4246.153846153847,4477.435897435898,4610.256410256411,4431.282051282052,4554.358974358975,4491.282051282052,4445.128205128206,4408.717948717949,4883.076923076924,4474.871794871796,4316.410256410257,4283.076923076924,4640.000000000001
3751.3723,1.0,0.3882623,0.47885838,0.5960093,0,0.094547056,0.0,0.0,0.0,0.0,0,0,0.0,0.0,0,0,49.0,0.0,0.0,4573.846153846154,4075.8974358974365,4344.615384615385,4549.2307692307695,4227.179487179487,4422.051282051282,4290.256410256411,4151.794871794872,4181.025641025642,4608.717948717949,4209.74358974359,4012.307692307693,3953.8461538461543,4509.2307692307695
3751.5913,1.0,0.3882623,0.47885838,0.5960093,0,0.0,0.0,0.0,0.0,0.0,0,0,0.34428585,0.0,0,0,77.0,0.0,470.0,4420.512820512821,4061.0256410256416,4257.435897435898,4519.48717948718,4218.974358974359,4414.358974358975,4225.128205128206,4052.820512820513,4138.461538461539,4490.256410256411,4113.846153846154,3884.615384615385,3849.2307692307695,4439.48717948718
3751.8728,1.0,0.3869055,0.4932326,0.60101366,0,0.0,0.0,0.0,0.0,0.0,0,0,1.0,0.0,0,0,113.0,0.0,470.0,4273.846153846154,3976.9230769230776,4231.794871794872,4485.641025641026,4312.307692307693,4411.794871794872,4184.102564102564,4000.0000000000005,4103.076923076924,4419.48717948718,4045.6410256410263,3814.358974358975,3766.666666666667,4360.000000000001
3751.8728,1.0,0.3869055,0.4932326,0.60101366,0,0.0,0.0,0.0,0.0,0.0,0,0,1.0,0.0,0,0,113.0,0.0,470.0,4273.846153846154,3976.9230769230776,4231.794871794872,4485.641025641026,4312.307692307693,4411.794871794872,4184.102564102564,4000.0000000000005,4103.076923076924,4419.48717948718,4045.6410256410263,3814.358974358975,3766.666666666667,4360.000000000001
3752.3418,1.0,0.38568437,0.49300003,0.6055132,0,0.0,0.0,0.0,0.0,0.0,0,0,0.53595334,0.0,0,0,44.0,0.0,0.0,4247.179487179487,3832.820512820513,4279.48717948718,4455.384615384616,4271.282051282052,4442.051282051282,4203.589743589744,4024.615384615385,4136.410256410257,4404.615384615385,4031.7948717948725,3876.9230769230776,3786.666666666667,4318.461538461539
3752.592,1.0,0.38568437,0.49300003,0.6055132,0,0.0,0.0,0.0,0.0,0.0,0,0,0.26049304,0.0,0,0,76.0,0.0,506.0,4249.2307692307695,3803.589743589744,4313.333333333334,4416.410256410257,4272.307692307693,4462.564102564103,4249.74358974359,4094.358974358975,4190.769230769231,4446.153846153847,4106.153846153847,3927.692307692308,3862.0512820512827,4323.076923076924
3752.8423,0.95292854,0.38458535,0.47700748,0.60018146,0,0.0,0.0,0.264264,0.0,0.0,0,0,0.0,0.0,0,0,108.0,0.0,506.0,4332.307692307693,3829.2307692307695,4381.025641025642,4367.6923076923085,4247.6923076923085,4472.307692307693,4282.051282051282,4158.461538461539,4246.666666666667,4487.179487179488,4178.974358974359,3992.307692307693,3923.076923076924,4343.589743589744
3753.0925,0.95292854,0.38458535,0.47700748,0.60018146,0,0.0,0.0,0.0,0.0,0.0,0,0,1.0,0.0,0,0,11.0,0.0,397.0,4323.589743589744,3827.1794871794878,4408.717948717949,4352.820512820514,4239.48717948718,4492.307692307693,4310.256410256411,4181.025641025642,4275.384615384616,4518.974358974359,4267.6923076923085,4044.1025641025644,4016.410256410257,4357.948717948719
3753.374,0.96945804,0.38359624,0.46261322,0.59538263,1,0.0,0.0,0.0,0.0,0.0,0,0,1.0,0.0,0,0,47.0,0.0,0.0,4496.410256410257,3924.615384615385,4466.666666666667,4386.666666666667,4199.48717948718,4503.589743589744,4336.923076923077,4228.205128205129,4312.307692307693,4569.2307692307695,4277.435897435898,4111.794871794872,4128.717948717949,4418.974358974359
3753.593,0.96945804,0.38359624,0.46261322,0.59538263,0,0.0,0.0,0.0,0.0,0.0,0,0,0.6751899,0.0,0,0,75.0,0.0,397.0,4350.769230769231,3787.1794871794878,4440.000000000001,4345.641025641026,4228.717948717949,4532.820512820514,4371.794871794872,4260.000000000001,4337.435897435898,4588.205128205129,4263.589743589744,4083.076923076924,4092.820512820513,4352.307692307693
3753.8433,0.897249,0.38270605,0.44965732,0.591063,0,0.0,0.0,0.0,0.0,0.0,0,0,0.36866587,0.0,0,0,107.0,0.0,397.0,4371.282051282052,3759.48717948718,4473.333333333334,4284.615384615385,4283.076923076924,4544.102564102564,4384.102564102564,4310.769230769231,4369.2307692307695,4616.410256410257,4286.153846153847,4136.923076923077,4109.2307692307695,4369.2307692307695
3754.0933,0.897249,0.38270605,0.44965732,0.591063,0,0.0,0.0,0.0,0.0,0.0,0,0,0.3945709,0.0,0,0,10.0,0.0,534.0,4412.820512820514,3724.615384615385,4520.512820512821,4242.051282051282,4269.2307692307695,4573.846153846154,4442.564102564103,4395.384615384616,4440.000000000001,4699.48717948718,4350.769230769231,4220.000000000001,4163.589743589744,4426.666666666667
3754.3435,0.92448246,0.38190484,0.4379959,0.58717555,0,0.0,0.0,0.0,0.0,0.0,0,0,0.73636436,0.0,0,0,42.0,0.0,0.0,4529.2307692307695,3776.9230769230776,4618.461538461539,4264.615384615385,4245.641025641026,4604.102564102564,4525.641025641026,4538.974358974359,4570.769230769231,4830.256410256411,4478.461538461539,4391.282051282052,4270.769230769231,4508.205128205129
3754.4688,0.92448246,0.38190484,0.4379959,0.58717555,0,0.0,0.0,0.0,0.0,0.0,0,0,1.0,0.0,0,0,58.0,0.0,0.0,4602.051282051282,3829.7435897435903,4654.871794871796,4286.153846153847,4247.6923076923085,4623.589743589744,4560.512820512821,4596.410256410257,4607.179487179488,4851.794871794872,4509.2307692307695,4446.153846153847,4307.179487179487,4520.512820512821
3754.844,1.0,0.3811838,0.4274996,0.58367735,0,0.0,0.0,0.0,0.0,0.0,0,0,0.2499535,0.0,0,0,106.0,0.0,534.0,4700.512820512821,3915.3846153846157,4656.410256410257,4361.025641025642,4278.974358974359,4613.333333333334,4535.384615384616,4594.871794871796,4581.538461538462,4860.512820512821,4541.025641025642,4471.794871794872,4338.461538461539,4580.000000000001
3755.0942,1.0,0.3811838,0.4274996,0.58367735,0,0.0,0.0,0.0,0.0,0.09245236,0,0,0.0,0.0,0,0,9.0,0.0,480.0,4678.461538461539,3942.564102564103,4606.153846153847,4412.307692307693,4288.205128205129,4583.589743589744,4496.923076923077,4536.923076923077,4525.128205128206,4807.179487179488,4473.333333333334,4403.076923076924,4283.076923076924,4582.051282051282
3755.3445,1.0,0.38053483,0.41700077,0.58470094,0,0.0,0.0,0.0,0.0,0.06305102,0,0,0.0,0.0,0,0,41.0,0.0,0.0,4624.102564102564,3942.564102564103,4535.384615384616,4429.2307692307695,4298.974358974359,4561.538461538462,4448.717948717949,4427.6923076923085,4425.128205128206,4718.974358974359,4401.538461538462,4289.74358974359,4216.410256410257,4565.128205128206
3755.5947,1.0,0.38053483,0.41700077,0.58470094,0,0.0,0.0,0.0,0.0,0.018725082,0,0,0.0,0.0,0,0,73.0,0.0,480.0,4581.025641025642,3916.410256410257,4479.48717948718,4426.666666666667,4297.435897435898,4536.410256410257,4412.307692307693,4342.564102564103,4340.000000000001,4647.6923076923085,4324.102564102564,4212.820512820514,4136.410256410257,4535.384615384616
3755.845,1.0,0.37995076,0.3970405,0.5937746,0,0.0,0.0,0.0,0.0,0.018409377,0,0,0.0,0.0,0,0,105.0,0.0,465.0,4553.333333333334,3895.8974358974365,4458.974358974359,4428.717948717949,4297.435897435898,4531.282051282052,4388.205128205129,4286.666666666667,4312.307692307693,4626.666666666667,4308.717948717949,4181.538461538462,4126.666666666667,4516.923076923077
3755.97,1.0,0.37995076,0.3970405,0.5937746,0,0.0,0.0,0.0,0.0,0.0,0,0,0.0,0.0,0,0,121.0,0.0,465.0,4544.102564102564,3895.3846153846157,4455.8974358974365,4433.846153846154,4295.384615384616,4529.2307692307695,4396.410256410257,4280.512820512821,4305.641025641026,4625.641025641026,4314.358974358975,4169.74358974359,4133.846153846154,4519.48717948718
3756.3452,1.0,0.3794251,0.3646107,0.6090196,0,0.0,0.0,0.0,0.0,0.0,0,0,0.0,0.0,0,0,40.0,0.0,0.0,4543.589743589744,3841.538461538462,4461.025641025642,4423.076923076924,4241.025641025642,4529.743589743591,4433.846153846154,4325.641025641026,4366.153846153847,4651.794871794872,4352.307692307693,4203.589743589744,4163.076923076924,4538.974358974359
3756.5955,1.0,0.3794251,0.3646107,0.6090196,0,0.0,0.0,0.0,0.0,0.002045208,0,0,0.0,0.0,0,0,72.0,0.0,501.0,4626.153846153847,3846.666666666667,4562.564102564103,4421.025641025642,4189.74358974359,4580.000000000001,4563.589743589744,4460.512820512821,4427.6923076923085,4683.076923076924,4387.6923076923085,4303.076923076924,4169.74358974359,4560.512820512821
3756.8457,1.0,0.37895203,0.3353388,0.62787235,0,0.0,0.0,0.0,0.0,0.06315534,0,0,0.0,0.0,0,0,104.0,0.0,500.0,4832.820512820514,3952.307692307693,4702.564102564103,4492.307692307693,4198.974358974359,4623.076923076924,4688.205128205129,4609.743589743591,4478.974358974359,4732.307692307693,4417.435897435898,4437.435897435898,4201.538461538462,4618.974358974359
3757.096,1.0,0.37895203,0.3353388,0.62787235,0,0.0,0.0,0.0,0.0,0.47211426,0,0,0.0,0.0,0,0,7.0,0.0,478.0,4880.512820512821,4032.820512820513,4734.358974358975,4532.307692307693,4229.2307692307695,4619.48717948718,4690.256410256411,4604.102564102564,4427.179487179487,4738.974358974359,4401.025641025642,4444.102564102564,4245.128205128206,4655.8974358974365
3757.3462,1.0,0.37852624,0.30899405,0.64607733,0,0.0,0.0,0.0,0.0,0.026023695,0,0,0.0,0.0,0,0,39.0,0.0,0.0,4841.025641025642,4079.48717948718,4692.307692307693,4551.794871794872,4258.974358974359,4595.8974358974365,4631.794871794872,4518.974358974359,4346.666666666667,4672.820512820514,4314.358974358975,4362.051282051282,4201.025641025642,4631.794871794872
3757.5964,1.0,0.37852624,0.30899405,0.64607733,0,0.0,0.0,0.20436148,0.0,0.0,0,0,0.0,0.0,0,0,71.0,0.0,477.0,4796.410256410257,4046.1538461538466,4603.589743589744,4530.769230769231,4293.333333333334,4576.410256410257,4536.410256410257,4425.641025641026,4292.307692307693,4657.948717948719,4274.358974358975,4262.564102564103,4162.051282051282,4600.000000000001
3757.8467,1.0,0.37814304,0.28528428,0.6624586,0,0.0,0.0,0.15888566,0.0,0.0,0,0,0.0,0.0,0,0,103.0,0.0,393.0,4695.384615384616,3996.410256410257,4515.384615384616,4487.6923076923085,4304.102564102564,4536.923076923077,4444.615384615385,4328.205128205129,4263.076923076924,4638.461538461539,4247.6923076923085,4167.179487179487,4125.128205128206,4551.282051282052
3758.097,1.0,0.37814304,0.28528428,0.6624586,0,0.0,0.0,0.0,0.0,0.0,0,0,0.0,0.3300182,0,0,6.0,0.0,532.0,4603.076923076924,3970.7692307692314,4446.666666666667,4463.589743589744,4304.102564102564,4521.538461538462,4361.538461538462,4245.128205128206,4231.282051282052,4610.769230769231,4225.128205128206,4107.179487179487,4093.333333333334,4523.589743589744
3758.347,1.0,0.37779817,0.27272424,0.67622364,0,0.0,0.0,0.0,0.0,0.0,0,0,0.0,0.0,0,0,38.0,0.0,0.0,4541.538461538462,3888.717948717949,4401.538461538462,4418.974358974359,4261.025641025642,4492.307692307693,4313.333333333334,4221.538461538462,4258.974358974359,4613.333333333334,4248.205128205129,4078.461538461539,4082.564102564103,4486.666666666667
3758.5972,1.0,0.37779817,0.27272424,0.67622364,0,0.0,0.0,0.0,0.0,0.16496104,0,0,0.0,0.0,0,0,70.0,0.0,533.0,4533.333333333334,3850.2564102564106,4406.153846153847,4391.794871794872,4218.974358974359,4491.794871794872,4349.2307692307695,4267.6923076923085,4320.000000000001,4660.000000000001,4301.538461538462,4110.769230769231,4123.076923076924,4488.205128205129
3758.8474,0.98625666,0.37748778,0.2614213,0.6873682,0,0.0,0.0,0.0,0.0,0.046091985,0,0,0.0,0.0,0,0,102.0,0.0,536.0,4552.820512820514,3865.6410256410263,4445.128205128206,4390.769230769231,4187.179487179487,4506.153846153847,4396.923076923077,4326.153846153847,4373.333333333334,4714.871794871796,4369.743589743591,4170.256410256411,4175.384615384616,4507.6923076923085
3759.0977,0.98625666,0.37748778,0.2614213,0.6873682,0,0.0,0.0,0.17918617,0.0,0.0,0,0,0.0,0.0,0,0,5.0,0.0,557.0,4557.948717948719,3861.538461538462,4444.615384615385,4397.435897435898,4184.102564102564,4504.615384615385,4410.769230769231,4363.589743589744,4396.923076923077,4732.307692307693,4390.769230769231,4187.179487179487,4183.589743589744,4506.666666666667
3759.348,1.0,0.34449786,0.25124997,0.69515115,0,0.0,0.0,0.0,0.0,0.11283006,0,0,0.0,0.0,0,0,37.0,0.0,0.0,4564.615384615385,3894.358974358975,4454.871794871796,4412.820512820514,4217.435897435898,4526.666666666667,4416.923076923077,4367.6923076923085,4398.461538461539,4721.538461538462,4382.051282051282,4201.538461538462,4176.410256410257,4491.282051282052
3759.5981,1.0,0.34449786,0.25124997,0.69515115,0,0.0,0.0,0.0,0.0,0.18105595,0,0,0.0,0.0,0,0,69.0,0.0,557.0,4605.128205128206,3929.7435897435903,4460.512820512821,4424.102564102564,4218.974358974359,4495.8974358974365,4391.794871794872,4322.051282051282,4364.102564102564,4677.435897435898,4364.615384615385,4201.025641025642,4149.74358974359,4510.256410256411
3759.8484,0.87188077,0.3501993,0.2348711,0.7007464,0,0.0,0.0,0.0,0.0,0.31963107,0,0,0.0,0.0,0,0,101.0,0.0,467.0,4705.641025641026,3973.8461538461543,4475.384615384616,4448.717948717949,4251.282051282052,4510.769230769231,4378.461538461539,4325.128205128206,4370.256410256411,4687.6923076923085,4385.641025641026,4219.48717948718,4197.948717948719,4544.615384615385
3760.0986,0.87188077,0.3501993,0.2348711,0.7007464,0,0.0,0.0,0.0,0.0,0.0887295,0,0,0.0,0.0,0,0,4.0,0.0,558.0,4674.358974358975,3938.461538461539,4453.333333333334,4431.282051282052,4245.641025641026,4505.641025641026,4357.435897435898,4297.948717948719,4336.410256410257,4659.48717948718,4361.025641025642,4181.538461538462,4158.974358974359,4516.410256410257
3760.3489,0.86921597,0.37329534,0.20736195,0.7033522,0,0.0,0.0,0.0,0.0,0.07226698,0,0,0.0,0.0,0,0,36.0,0.0,0.0,4658.974358974359,3957.9487179487182,4459.48717948718,4433.333333333334,4249.74358974359,4496.410256410257,4357.948717948719,4285.641025641026,4305.641025641026,4628.205128205129,4330.769230769231,4182.564102564103,4146.666666666667,4504.102564102564
3760.5989,0.86921597,0.37329534,0.20736195,0.7033522,0,0.0,0.0,0.0,0.0,0.09522854,0,0,0.0,0.0,0,0,68.0,0.0,558.0,4629.743589743591,3952.307692307693,4450.256410256411,4437.948717948719,4245.641025641026,4492.307692307693,4348.717948717949,4283.589743589744,4303.076923076924,4621.538461538462,4298.974358974359,4155.8974358974365,4092.820512820513,4474.358974358975
3760.849,0.81669647,0.41130218,0.182608,0.70506364,0,0.0,0.0,0.0,0.0,0.0,0,0,0.0,0.0,0,0,100.0,0.0,502.0,4621.538461538462,3928.717948717949,4450.769230769231,4425.128205128206,4232.307692307693,4517.948717948719,4369.2307692307695,4309.2307692307695,4341.025641025642,4642.564102564103,4316.410256410257,4163.589743589744,4113.846153846154,4471.794871794872
3760.849,0.81669647,0.41130218,0.182608,0.70506364,0,0.0,0.0,0.0,0.0,0.0,0,0,0.0,0.0,0,0,100.0,0.0,502.0,4621.538461538462,3928.717948717949,4450.769230769231,4425.128205128206,4232.307692307693,4517.948717948719,4369.2307692307695,4309.2307692307695,4341.025641025642,4642.564102564103,4316.410256410257,4163.589743589744,4113.846153846154,4471.794871794872
3761.3496,0.7383898,0.45802292,0.16033477,0.69935715,0,0.0,0.0,0.0,0.0,0.0,0,0,0.0,0.0,0,0,35.0,0.0,0.0,4461.538461538462,3851.7948717948725,4427.179487179487,4398.461538461539,4233.846153846154,4545.641025641026,4401.538461538462,4318.974358974359,4330.769230769231,4629.2307692307695,4274.358974358975,4140.512820512821,4080.5128205128212,4421.538461538462
3761.3496,0.7383898,0.45802292,0.16033477,0.69935715,0,0.0,0.0,0.0,0.0,0.0,0,0,0.0,0.0,0,0,35.0,0.0,0.0,4461.538461538462,3851.7948717948725,4427.179487179487,4398.461538461539,4233.846153846154,4545.641025641026,4401.538461538462,4318.974358974359,4330.769230769231,4629.2307692307695,4274.358974358975,4140.512820512821,4080.5128205128212,4421.538461538462
3761.85,0.68508124,0.48074937,0.15198553,0.69384426,0,0.0,0.0,0.0,0.0,0.0,0,0,0.0,0.0,0,0,99.0,0.0,393.0,4478.461538461539,3861.538461538462,4454.871794871796,4401.025641025642,4238.974358974359,4545.128205128206,4426.666666666667,4373.333333333334,4393.333333333334,4684.615384615386,4324.102564102564,4185.641025641026,4142.051282051282,4429.2307692307695
3762.1316,0.68508124,0.48074937,0.15198553,0.69384426,1,0.0,0.0,0.0,0.0,0.5844154,0,0,0.0,0.0,0,0,6.0,0.0,534.0,4555.8974358974365,3882.0512820512827,4459.48717948718,4415.384615384616,4248.205128205129,4556.923076923077,4425.641025641026,4364.615384615385,4383.589743589744,4690.256410256411,4324.102564102564,4187.179487179487,4153.333333333334,4424.102564102564
3762.3506,0.68499196,0.5253298,0.17738006,0.6738876,0,0.0,0.0,0.0,0.0,0.256915,0,0,0.0,0.0,0,0,34.0,0.0,0.0,4528.205128205129,3828.717948717949,4490.256410256411,4382.051282051282,4202.051282051282,4562.564102564103,4465.128205128206,4446.666666666667,4447.179487179487,4738.461538461539,4371.282051282052,4258.974358974359,4165.641025641026,4428.717948717949
3762.6006,0.68499196,0.5253298,0.17738006,0.6738876,0,0.0,0.0,0.0,0.0,0.012552647,0,0,0.0,0.0,0,0,66.0,0.0,446.0,4694.358974358975,3794.358974358975,4634.358974358975,4364.102564102564,4119.48717948718,4619.48717948718,4624.102564102564,4647.179487179488,4567.179487179488,4858.461538461539,4472.307692307693,4451.282051282052,4231.794871794872,4503.076923076924
3762.8508,0.7990675,0.5654594,0.24947627,0.6348941,0,0.0,0.0,0.0,0.0,0.06398571,0,0,0.0,0.0,0,0,98.0,0.0,536.0,4957.948717948719,3928.717948717949,4816.410256410257,4445.128205128206,4156.410256410257,4703.076923076924,4771.282051282052,4889.2307692307695,4721.538461538462,5037.948717948719,4636.410256410257,4687.6923076923085,4382.564102564103,4633.846153846154
3763.101,0.7990675,0.5654594,0.24947627,0.6348941,0,0.0,0.0,0.0,0.0,0.21165548,0,0,0.0,0.0,0,0,1.0,0.0,495.0,5066.153846153847,4063.076923076924,4849.743589743591,4525.128205128206,4215.384615384616,4725.128205128206,4767.179487179488,4906.153846153847,4708.205128205129,5085.641025641026,4673.846153846154,4731.282051282052,4450.256410256411,4690.256410256411
3763.3513,0.91317946,0.60157603,0.3143628,0.5998014,0,0.0,0.0,0.0,0.0,0.036102455,0,0,0.0,0.0,0,0,33.0,0.0,0.0,5039.487179487181,4117.435897435898,4786.153846153847,4555.8974358974365,4264.102564102564,4662.564102564103,4678.974358974359,4795.384615384616,4595.8974358974365,5016.410256410257,4584.102564102564,4644.102564102564,4380.000000000001,4680.512820512821
3763.6016,0.91317946,0.60157603,0.3143628,0.5998014,0,0.0,0.0,0.3360947,0.0,0.0,0,0,0.0,0.0,0,0,65.0,0.0,495.0,4960.512820512821,4124.102564102564,4664.615384615386,4555.384615384616,4326.666666666667,4634.871794871796,4585.641025641026,4680.512820512821,4526.153846153847,4928.205128205129,4455.384615384616,4501.538461538462,4308.205128205129,4647.6923076923085
3763.8518,1.0,0.634081,0.37276083,0.56821823,0,0.0,0.0,0.23156333,0.0,0.0,0,0,0.0,0.0,0,0,97.0,0.0,458.0,4834.871794871796,4113.333333333334,4536.410256410257,4539.48717948718,4343.589743589744,4551.282051282052,4428.717948717949,4472.307692307693,4374.358974358975,4781.025641025642,4360.512820512821,4332.307692307693,4201.025641025642,4585.128205128206
3764.102,1.0,0.634081,0.37276083,0.56821823,0,0.0,0.0,0.0,0.0,0.021024574,0,0,0.0,0.0,0,0,0.0,0.0,478.0,4696.410256410257,4053.8461538461543,4423.589743589744,4503.076923076924,4341.025641025642,4506.666666666667,4323.589743589744,4292.820512820514,4288.205128205129,4649.743589743591,4220.512820512821,4165.641025641026,4090.7692307692314,4520.000000000001
3764.3523,1.0,0.66333544,0.40529978,0.5571445,0,0.0,0.0,0.0,0.0,0.06832091,0,0,0.0,0.0,0,0,32.0,0.0,0.0,4616.410256410257,3984.615384615385,4358.974358974359,4460.000000000001,4324.102564102564,4473.333333333334,4264.615384615385,4215.384615384616,4249.2307692307695,4584.102564102564,4175.384615384616,4067.1794871794878,4038.9743589743593,4486.666666666667
3764.6023,1.0,0.66333544,0.40529978,0.5571445,0,0.0,0.0,0.0,0.0,0.092733994,0,0,0.0,0.0,0,0,64.0,0.0,485.0,4568.205128205129,3947.1794871794878,4355.384615384616,4449.2307692307695,4311.282051282052,4474.871794871796,4269.74358974359,4188.717948717949,4246.666666666667,4578.461538461539,4188.205128205129,4047.1794871794878,4046.666666666667,4475.8974358974365
3764.8525,0.9735058,0.6896645,0.38254476,0.571379,0,0.0,0.0,0.0,0.0,0.28184968,0,0,0.0,0.0,0,0,96.0,0.0,502.0,4511.794871794872,3902.0512820512827,4362.564102564103,4427.179487179487,4296.923076923077,4475.8974358974365,4291.282051282052,4213.333333333334,4281.025641025642,4598.974358974359,4239.48717948718,4057.9487179487182,4094.8717948717954,4475.384615384616
3765.1028,0.9735058,0.6896645,0.38254476,0.571379,0,0.0,0.0,0.0,0.0,0.39100996,0,0,0.0,0.0,0,0,128.0,0.0,502.0,4503.589743589744,3892.820512820513,4366.666666666667,4416.923076923077,4281.538461538462,4490.256410256411,4303.589743589744,4212.820512820514,4290.769230769231,4594.871794871796,4249.2307692307695,4048.205128205129,4106.153846153847,4472.820512820514
3765.353,1.0,0.7133606,0.35911974,0.5841898,0,0.0,0.0,0.0,0.0,0.10599514,0,0,0.0,0.0,0,0,31.0,0.0,0.0,4489.743589743591,3880.512820512821,4380.512820512821,4407.6923076923085,4266.153846153847,4493.846153846154,4321.025641025642,4233.333333333334,4304.102564102564,4610.769230769231,4245.641025641026,4066.1538461538466,4114.358974358975,4460.512820512821
3765.6033,1.0,0.7133606,0.35911974,0.5841898,0,0.0,0.0,0.0,0.0,0.0762946,0,0,0.0,0.0,0,0,63.0,0.0,0.0,4486.153846153847,3866.666666666667,4395.384615384616,4397.435897435898,4263.076923076924,4506.153846153847,4355.8974358974365,4266.153846153847,4327.6923076923085,4621.538461538462,4280.000000000001,4090.2564102564106,4133.846153846154,4442.051282051282
3765.8535,1.0,0.7346871,0.33803695,0.6068418,0,0.0,0.0,0.0,0.0,0.08740853,0,0,0.0,0.0,0,0,95.0,0.0,392.0,4474.358974358975,3860.0000000000005,4397.435897435898,4382.564102564103,4240.512820512821,4500.512820512821,4357.948717948719,4266.153846153847,4333.846153846154,4615.8974358974365,4274.358974358975,4089.7435897435903,4125.128205128206,4427.6923076923085
3766.1038,1.0,0.7346871,0.33803695,0.6068418,0,0.0,0.0,0.0,0.0,0.043934893,0,0,0.0,0.0,0,0,127.0,0.0,392.0,4505.128205128206,3865.1282051282055,4411.794871794872,4382.564102564103,4226.666666666667,4503.589743589744,4366.153846153847,4291.794871794872,4357.435897435898,4642.051282051282,4303.589743589744,4128.205128205129,4138.974358974359,4441.025641025642
3766.354,1.0,0.7538809,0.31860694,0.62923527,0,0.0,0.0,0.0,0.0,0.0,0,0,0.0,0.0,0,0,30.0,0.0,0.0,4547.6923076923085,3896.410256410257,4463.076923076924,4402.564102564103,4231.794871794872,4525.128205128206,4404.615384615385,4340.512820512821,4403.076923076924,4690.769230769231,4374.871794871796,4183.589743589744,4200.512820512821,4495.384615384616
3766.354,1.0,0.7538809,0.31860694,0.62923527,0,0.0,0.0,0.0,0.0,0.0,0,0,0.0,0.0,0,0,30.0,0.0,0.0,4547.6923076923085,3896.410256410257,4463.076923076924,4402.564102564103,4231.794871794872,4525.128205128206,4404.615384615385,4340.512820512821,4403.076923076924,4690.769230769231,4374.871794871796,4183.589743589744,4200.512820512821,4495.384615384616
3766.8542,0.9541681,0.7056057,0.3011202,0.6421032,0,0.0,0.0,0.0,0.0,0.0,0,0,0.0,0.0,0,0,94.0,0.0,536.0,4588.205128205129,3909.7435897435903,4469.743589743591,4411.282051282052,4229.2307692307695,4538.461538461539,4437.948717948719,4389.743589743591,4420.000000000001,4723.589743589744,4383.076923076924,4216.410256410257,4209.2307692307695,4495.384615384616
3767.1045,0.9541681,0.7056057,0.3011202,0.6421032,0,0.0,0.0,0.0,0.0,0.0,0,0,0.0,0.16769834,0,0,126.0,0.0,536.0,4594.358974358975,3920.5128205128212,4472.820512820514,4415.384615384616,4234.358974358975,4537.948717948719,4443.076923076924,4390.256410256411,4414.358974358975,4708.717948717949,4368.205128205129,4201.538461538462,4190.769230769231,4486.153846153847
3767.3547,0.8480515,0.6656419,0.2853827,0.65826434,0,0.0,0.0,0.0,0.0,0.0,0,0,0.0,0.2050279,0,0,29.0,0.0,0.0,4590.256410256411,3933.8461538461543,4473.333333333334,4427.179487179487,4231.794871794872,4537.435897435898,4426.153846153847,4369.2307692307695,4385.641025641026,4697.435897435898,4360.000000000001,4205.128205128206,4178.461538461539,4482.051282051282
3767.605,0.8480515,0.6656419,0.2853827,0.65826434,0,0.0,0.0,0.0,0.0,0.06987595,0,0,0.0,0.0,0,0,61.0,0.0,0.0,4594.358974358975,3926.666666666667,4450.769230769231,4372.307692307693,4230.769230769231,4535.8974358974365,4410.769230769231,4351.794871794872,4373.846153846154,4685.641025641026,4341.538461538462,4169.2307692307695,4164.102564102564,4482.051282051282
3767.8552,0.7544539,0.6271821,0.2706821,0.68125427,0,0.0,0.0,0.0,0.0,0.0,0,0,0.0,0.0,0,0,93.0,0.0,467.0,4596.923076923077,3909.2307692307695,4464.102564102564,4375.8974358974365,4231.282051282052,4538.461538461539,4424.615384615385,4364.102564102564,4366.153846153847,4677.948717948719,4347.6923076923085,4191.794871794872,4164.615384615385,4483.589743589744
3768.1055,0.7544539,0.6271821,0.2706821,0.68125427,0,0.0,0.0,0.0,0.0,0.0,0,0,0.0,0.0,0,0,125.0,0.0,467.0,4650.256410256411,3847.1794871794878,4540.512820512821,4350.256410256411,4170.769230769231,4551.794871794872,4505.128205128206,4487.6923076923085,4440.000000000001,4769.743589743591,4445.128205128206,4314.358974358975,4247.6923076923085,4529.743589743591
3768.3557,0.75730306,0.59258187,0.2560047,0.7067848,0,0.0,0.0,0.0,0.0,0.0056316475,0,0,0.0,0.0,0,0,28.0,0.0,0.0,4919.48717948718,3845.1282051282055,4782.564102564103,4353.333333333334,4058.9743589743593,4613.333333333334,4756.410256410257,4843.589743589744,4765.128205128206,5055.8974358974365,4736.410256410257,4657.435897435898,4518.461538461539,4689.743589743591
3768.606,0.75730306,0.59258187,0.2560047,0.7067848,0,0.0,0.0,0.4119239,0.0,0.0,0,0,0.0,0.0,0,0,60.0,0.0,0.0,5228.717948717949,4054.358974358975,5021.538461538462,4474.871794871796,4094.8717948717954,4722.564102564103,4987.179487179488,5197.435897435898,5051.794871794872,5350.769230769231,5034.358974358975,4997.435897435898,4827.179487179488,4859.48717948718
3768.856,0.8764267,0.5614416,0.23712176,0.7267528,0,0.0,0.0,0.26610294,0.0,0.0,0,0,0.0,0.0,0,0,92.0,0.0,482.0,5316.410256410257,4228.205128205129,5058.461538461539,4577.435897435898,4183.589743589744,4703.076923076924,4966.153846153847,5241.025641025642,5048.205128205129,5407.6923076923085,5094.358974358975,5093.846153846154,4891.794871794872,4938.461538461539
3769.1062,0.8764267,0.5614416,0.23712176,0.7267528,0,0.0,0.0,0.0,0.0,0.0,0,0,0.39505988,0.0,0,0,124.0,0.0,482.0,5358.461538461539,4369.743589743591,4967.6923076923085,4667.6923076923085,4270.769230769231,4649.743589743591,4845.128205128206,5070.769230769231,4876.410256410257,5261.025641025642,4968.205128205129,4949.2307692307695,4767.6923076923085,4953.333333333334
3769.3564,0.98125553,0.5334154,0.21337157,0.73841906,0,0.0,0.0,0.0,0.0,0.0,0,0,1.0,0.0,0,0,27.0,0.0,0.0,5186.153846153847,4345.128205128206,4731.794871794872,4686.153846153847,4352.820512820514,4605.128205128206,4701.538461538462,4846.666666666667,4697.948717948719,5106.666666666667,4766.666666666667,4729.2307692307695,4606.153846153847,4911.282051282052
3769.3564,0.98125553,0.5334154,0.21337157,0.73841906,0,0.0,0.0,0.0,0.0,0.0,0,0,1.0,0.0,0,0,27.0,0.0,0.0,5186.153846153847,4345.128205128206,4731.794871794872,4686.153846153847,4352.820512820514,4605.128205128206,4701.538461538462,4846.666666666667,4697.948717948719,5106.666666666667,4766.666666666667,4729.2307692307695,4606.153846153847,4911.282051282052
3769.857,1.0,0.50819176,0.19200006,0.7489101,0,0.0,0.0,0.0,0.0,0.16499905,0,0,0.0,0.0,0,0,91.0,0.0,383.0,4679.48717948718,4159.48717948718,4381.025641025642,4602.051282051282,4392.820512820514,4475.8974358974365,4340.512820512821,4292.307692307693,4272.307692307693,4650.256410256411,4267.6923076923085,4184.615384615385,4104.615384615385,4665.128205128206
3770.1072,1.0,0.50819176,0.19200006,0.7489101,0,0.0,0.0,0.0,0.0,0.049249582,0,0,0.0,0.0,0,0,123.0,0.0,383.0,4555.384615384616,3995.8974358974365,4313.333333333334,4524.615384615385,4349.743589743591,4427.6923076923085,4246.666666666667,4153.846153846154,4157.435897435898,4526.153846153847,4154.871794871796,4042.0512820512827,3961.0256410256416,4582.564102564103
3770.3574,1.0,0.48549053,0.17277011,0.7536494,0,0.0,0.0,0.0,0.0,0.0020238487,0,0,0.0,0.0,0,0,26.0,0.0,0.0,4617.948717948719,3822.564102564103,4435.384615384616,4422.051282051282,4220.512820512821,4438.461538461539,4358.461538461539,4292.820512820514,4218.974358974359,4584.102564102564,4229.74358974359,4205.128205128206,4006.1538461538466,4617.948717948719
3770.6077,1.0,0.48549053,0.17277011,0.7536494,0,0.0,0.0,0.0,0.0,0.002042539,0,0,0.0,0.0,0,0,58.0,0.0,0.0,4912.307692307693,3826.666666666667,4755.384615384616,4381.025641025642,4106.666666666667,4568.717948717949,4757.435897435898,4792.820512820514,4465.128205128206,4885.641025641026,4522.051282051282,4670.769230769231,4285.128205128206,4797.948717948719
3770.8577,1.0,0.46505943,0.16954449,0.7434551,0,0.0,0.0,0.19365142,0.0,0.0,0,0,0.0,0.0,0,0,90.0,0.0,530.0,5195.384615384616,4082.564102564103,4945.641025641026,4459.48717948718,4146.153846153847,4673.846153846154,4993.333333333334,5055.8974358974365,4561.025641025642,5113.333333333334,4616.410256410257,4904.615384615386,4521.538461538462,4921.538461538462
3771.108,1.0,0.46505943,0.16954449,0.7434551,0,0.0,0.0,0.12184919,0.0,0.0,0,0,0.0,0.0,0,0,122.0,0.0,530.0,5205.128205128206,4235.8974358974365,4888.717948717949,4491.794871794872,4209.74358974359,4626.666666666667,4856.923076923077,4905.641025641026,4452.307692307693,5101.025641025642,4550.769230769231,4741.538461538462,4475.384615384616,4922.051282051283
3771.3582,1.0,0.44667143,0.18802014,0.7145804,0,0.0,0.0,0.0,0.0,0.006085032,0,0,0.0,0.0,0,0,25.0,0.0,0.0,5066.153846153847,4243.076923076924,4747.6923076923085,4537.435897435898,4266.153846153847,4587.179487179488,4668.717948717949,4704.615384615386,4327.179487179487,4973.333333333334,4482.564102564103,4461.025641025642,4319.48717948718,4863.589743589744
3771.6084,1.0,0.44667143,0.18802014,0.7145804,0,0.0,0.0,0.12968041,0.0,0.0,0,0,0.0,0.0,0,0,57.0,0.0,0.0,4940.000000000001,4253.846153846154,4577.435897435898,4572.820512820514,4305.128205128206,4493.333333333334,4454.871794871796,4418.974358974359,4197.435897435898,4803.076923076924,4340.512820512821,4155.8974358974365,4163.589743589744,4793.333333333334
3771.8586,1.0,0.43012223,0.21567689,0.6879174,0,0.0,0.0,0.11244391,0.0,0.0,0,0,0.0,0.0,0,0,89.0,0.0,468.0,4761.538461538462,4174.871794871796,4417.948717948719,4602.051282051282,4317.435897435898,4423.076923076924,4253.846153846154,4173.846153846154,4096.923076923077,4606.666666666667,4195.384615384616,3760.0000000000005,4011.2820512820517,4680.512820512821
3772.109,1.0,0.43012223,0.21567689,0.6879174,0,0.0,0.0,0.0,0.0,0.07908871,0,0,0.0,0.0,0,0,121.0,0.0,468.0,4481.538461538462,4034.8717948717954,4257.435897435898,4555.384615384616,4291.282051282052,4350.256410256411,4090.7692307692314,3932.820512820513,3973.8461538461543,4429.2307692307695,4029.7435897435903,3635.8974358974365,3848.717948717949,4521.025641025642
3772.3591,1.0,0.41522795,0.25143456,0.66131043,0,0.0,0.0,0.0,0.0,0.0,0,0,0.0,0.0,0,0,24.0,0.0,0.0,4215.384615384616,3892.820512820513,4182.051282051282,4489.2307692307695,4293.846153846154,4371.282051282052,4071.2820512820517,3913.333333333334,4010.7692307692314,4363.589743589744,3914.8717948717954,3589.2307692307695,3732.307692307693,4381.025641025642
3772.6094,1.0,0.41522795,0.25143456,0.66131043,0,0.0,0.0,0.0,0.0,0.8483066,0,0,0.0,0.0,0,0,56.0,0.0,0.0,4168.205128205129,3830.2564102564106,4193.333333333334,4450.256410256411,4279.48717948718,4381.538461538462,4075.3846153846157,3911.7948717948725,4038.461538461539,4362.564102564103,3955.3846153846157,3634.8717948717954,3771.2820512820517,4340.000000000001
3772.8596,0.9027117,0.40182307,0.30397606,0.628004,0,0.0,0.0,0.0,0.0,0.6414008,0,0,0.0,0.0,0,0,88.0,0.0,507.0,4128.205128205129,3787.692307692308,4213.333333333334,4418.974358974359,4275.384615384616,4398.974358974359,4096.410256410257,3953.8461538461543,4091.7948717948725,4383.076923076924,3988.205128205129,3708.205128205129,3814.358974358975,4295.384615384616
3773.1096,0.9027117,0.40182307,0.30397606,0.628004,0,0.0,0.0,0.0,0.0,0.17887022,0,0,0.0,0.0,0,0,120.0,0.0,507.0,4140.512820512821,3767.1794871794878,4230.769230769231,4388.717948717949,4264.102564102564,4415.384615384616,4136.410256410257,4001.538461538462,4134.358974358975,4421.538461538462,4040.5128205128212,3758.461538461539,3857.435897435898,4269.2307692307695
3773.3599,1.0,0.3897587,0.3512637,0.5980292,0,0.0,0.0,0.0,0.0,0.091319785,0,0,0.0,0.0,0,0,23.0,0.0,0.0,4202.564102564103,3775.8974358974365,4292.307692307693,4382.564102564103,4267.179487179487,4444.102564102564,4182.051282051282,4062.564102564103,4202.051282051282,4480.512820512821,4109.74358974359,3865.6410256410263,3934.358974358975,4318.461538461539
3773.61,1.0,0.3897587,0.3512637,0.5980292,0,0.0,0.0,0.0,0.0,0.0,0,0,0.0,0.4445192,0,0,55.0,0.0,0.0,4217.948717948719,3782.564102564103,4325.128205128206,4371.282051282052,4262.051282051282,4454.871794871796,4241.538461538462,4129.2307692307695,4243.076923076924,4518.974358974359,4144.102564102564,3911.7948717948725,3988.717948717949,4358.974358974359
3773.8604,1.0,0.3789008,0.41819108,0.57105196,0,0.0,0.0,0.48232815,0.0,0.0,0,0,0.0,0.0,0,0,87.0,0.0,396.0,4409.2307692307695,3831.2820512820517,4396.410256410257,4395.8974358974365,4258.974358974359,4475.8974358974365,4282.051282051282,4187.179487179487,4295.8974358974365,4566.666666666667,4228.205128205129,4015.8974358974365,4067.1794871794878,4419.48717948718
3774.1106,1.0,0.3789008,0.41819108,0.57105196,0,0.0,0.0,0.0,0.0,0.46056703,0,0,0.0,0.0,0,0,119.0,0.0,396.0,4322.051282051282,3780.0000000000005,4376.923076923077,4358.974358974359,4247.6923076923085,4490.256410256411,4301.025641025642,4215.8974358974365,4325.641025641026,4591.282051282052,4246.666666666667,4024.615384615385,4047.1794871794878,4346.153846153847
3774.3608,0.9596392,0.36912864,0.47842088,0.55197275,0,0.0,0.0,0.0,0.0,0.21952638,0,0,0.0,0.0,0,0,22.0,0.0,0.0,4379.48717948718,3820.512820512821,4400.000000000001,4371.794871794872,4251.282051282052,4507.179487179488,4328.205128205129,4233.333333333334,4352.820512820514,4616.410256410257,4288.717948717949,4043.589743589744,4080.5128205128212,4351.794871794872
3774.611,0.9596392,0.36912864,0.47842088,0.55197275,0,0.0,0.0,0.0,0.0,0.3768147,0,0,0.0,0.0,0,0,54.0,0.0,0.0,4423.589743589744,3811.7948717948725,4417.948717948719,4372.307692307693,4231.794871794872,4508.717948717949,4347.179487179487,4285.128205128206,4363.589743589744,4624.615384615385,4298.461538461539,4101.025641025642,4095.3846153846157,4340.512820512821
3774.8613,0.9838958,0.3603337,0.5326178,0.5348015,0,0.0,0.0,0.0,0.0,0.0,0,0,0.0,0.0,0,0,86.0,0.0,533.0,4488.717948717949,3845.6410256410263,4456.410256410257,4389.2307692307695,4239.48717948718,4524.102564102564,4365.128205128206,4311.282051282052,4383.589743589744,4646.666666666667,4349.2307692307695,4152.820512820514,4138.461538461539,4340.000000000001
3774.8613,0.9838958,0.3603337,0.5326178,0.5348015,0,0.0,0.0,0.0,0.0,0.0,0,0,0.0,0.0,0,0,86.0,0.0,533.0,4488.717948717949,3845.6410256410263,4456.410256410257,4389.2307692307695,4239.48717948718,4524.102564102564,4365.128205128206,4311.282051282052,4383.589743589744,4646.666666666667,4349.2307692307695,4152.820512820514,4138.461538461539,4340.000000000001
3775.3616,1.0,0.3524183,0.54413205,0.52885056,0,0.0,0.0,0.0,0.0,0.0,0,0,0.0,0.0,0,0,21.0,0.0,0.0,4553.333333333334,3864.615384615385,4475.8974358974365,4385.128205128206,4240.512820512821,4528.205128205129,4372.307692307693,4327.6923076923085,4400.000000000001,4660.512820512821,4355.384615384616,4190.769230769231,4159.48717948718,4347.6923076923085
3775.6118,1.0,0.3524183,0.54413205,0.52885056,0,0.0,0.0,0.0,0.0,0.0,0,0,0.0,0.35333252,0,0,53.0,0.0,0.0,4569.743589743591,3863.589743589744,4471.794871794872,4385.128205128206,4232.820512820514,4536.410256410257,4395.384615384616,4339.48717948718,4402.051282051282,4660.512820512821,4352.307692307693,4191.794871794872,4151.282051282052,4344.615384615385
3775.862,0.9514759,0.390728,0.5073828,0.5423934,0,0.0,0.0,0.0,0.0,0.0,0,0,0.0,0.3404183,0,1,85.0,0.0,468.0,4689.743589743591,3915.3846153846157,4489.2307692307695,4404.615384615385,4229.2307692307695,4520.512820512821,4371.794871794872,4318.974358974359,4398.461538461539,4652.307692307693,4374.358974358975,4212.820512820514,4184.102564102564,4395.384615384616
3776.1123,0.9514759,0.390728,0.5073828,0.5423934,0,0.0,0.0,0.0,0.0,0.23751678,0,0,0.0,0.0,0,0,117.0,0.0,468.0,4656.410256410257,3905.6410256410263,4498.461538461539,4413.333333333334,4232.307692307693,4520.512820512821,4386.666666666667,4350.256410256411,4406.153846153847,4668.717948717949,4387.6923076923085,4248.717948717949,4189.74358974359,4388.717948717949
3776.3625,0.90876,0.43215576,0.47215173,0.55458206,0,0.0,0.0,0.0,0.0,0.18554685,0,0,0.0,0.0,0,0,20.0,0.0,0.0,4534.358974358975,3876.9230769230776,4458.974358974359,4389.2307692307695,4240.000000000001,4551.794871794872,4426.153846153847,4353.333333333334,4407.6923076923085,4658.974358974359,4328.205128205129,4181.538461538462,4134.358974358975,4342.564102564103
3776.6128,0.90876,0.43215576,0.47215173,0.55458206,0,0.0,0.0,0.0,0.0,0.0,0,0,0.0,0.0,0,0,52.0,0.0,0.0,4553.846153846154,3910.2564102564106,4463.589743589744,4401.538461538462,4245.128205128206,4553.846153846154,4431.794871794872,4362.051282051282,4403.589743589744,4668.717948717949,4343.076923076924,4201.538461538462,4137.435897435898,4348.717948717949
3776.863,0.85352904,0.46213698,0.44044402,0.56555176,0,0.0,0.0,0.0,0.0,0.0,0,0,0.0,0.0,0,0,84.0,0.0,506.0,4520.512820512821,3870.7692307692314,4456.923076923077,4392.820512820514,4233.333333333334,4556.923076923077,4432.307692307693,4388.205128205129,4441.538461538462,4697.948717948719,4365.641025641026,4211.794871794872,4185.641025641026,4368.717948717949
3777.1133,0.85352904,0.46213698,0.44044402,0.56555176,0,0.0,0.0,0.0,0.0,0.0,0,0,0.0,0.91622424,0,0,116.0,0.0,506.0,4530.769230769231,3877.9487179487182,4477.948717948719,4392.307692307693,4203.589743589744,4554.871794871796,4457.948717948719,4414.871794871796,4447.179487179487,4716.923076923077,4392.820512820514,4232.820512820514,4203.589743589744,4397.948717948719
3777.3633,0.8335504,0.48911908,0.4119068,0.57216895,0,0.0,0.0,0.22413887,0.0,0.0,0,0,0.0,0.0,0,0,19.0,0.0,0.0,4614.871794871796,3750.2564102564106,4586.153846153847,4315.384615384616,4122.051282051282,4583.076923076924,4588.717948717949,4608.717948717949,4570.256410256411,4851.794871794872,4529.743589743591,4440.000000000001,4301.538461538462,4478.974358974359
3777.6135,0.8335504,0.48911908,0.4119068,0.57216895,0,0.0,0.0,0.26343012,0.0,0.0,0,0,0.0,0.0,0,0,51.0,0.0,0.0,5052.820512820514,3831.7948717948725,4933.846153846154,4363.589743589744,4075.3846153846157,4684.102564102564,4892.307692307693,5067.6923076923085,4831.794871794872,5182.051282051283,4849.2307692307695,4911.282051282052,4616.923076923077,4709.2307692307695
3777.8638,0.9435243,0.513403,0.39771682,0.56638706,0,0.0,0.0,0.23165387,0.0,0.0,0,0,0.0,0.0,0,0,83.0,0.0,390.0,5377.948717948719,4102.051282051282,5206.153846153847,4498.974358974359,4206.666666666667,4799.48717948718,5146.666666666667,5378.461538461539,4890.256410256411,5412.820512820514,4978.461538461539,5205.128205128206,4883.589743589744,4888.717948717949
3778.114,0.9435243,0.513403,0.39771682,0.56638706,0,0.0,0.0,0.13898815,0.0,0.0,0,0,0.0,0.0,0,0,115.0,0.0,390.0,5453.333333333334,4319.48717948718,5090.769230769231,4570.256410256411,4312.820512820514,4733.333333333334,5074.871794871796,5304.615384615386,4758.461538461539,5418.461538461539,4943.589743589744,5196.410256410257,4867.6923076923085,4926.666666666667
3778.3643,1.0,0.53525853,0.39936242,0.56118333,0,0.0,0.0,0.0,0.0,0.0,0,0,0.49040517,0.0,0,0,18.0,0.0,0.0,5263.076923076924,4278.461538461539,4792.307692307693,4587.179487179488,4335.384615384616,4640.512820512821,4807.6923076923085,4943.076923076924,4519.48717948718,5198.974358974359,4705.128205128206,4788.205128205129,4563.076923076924,4842.051282051283
3778.6145,1.0,0.53525853,0.39936242,0.56118333,0,0.0,0.0,0.0,0.0,0.0,0,0,0.35046762,0.0,0,0,50.0,0.0,0.0,5041.025641025642,4233.846153846154,4604.102564102564,4601.538461538462,4340.000000000001,4537.435897435898,4540.000000000001,4631.794871794872,4348.205128205129,4965.128205128206,4548.717948717949,4423.589743589744,4335.384615384616,4752.820512820514
3778.8647,1.0,0.5549285,0.4008425,0.54935044,0,0.0,0.0,0.17482662,0.0,0.0,0,0,0.0,0.0,0,0,82.0,0.0,529.0,4816.923076923077,4189.74358974359,4428.717948717949,4613.333333333334,4362.051282051282,4493.333333333334,4355.8974358974365,4347.179487179487,4232.820512820514,4771.794871794872,4365.128205128206,4127.179487179487,4155.384615384616,4645.641025641026
3779.115,1.0,0.5549285,0.4008425,0.54935044,0,0.0,0.0,0.0,0.0,0.031240994,0,0,0.0,0.0,0,0,114.0,0.0,529.0,4631.794871794872,4109.2307692307695,4272.820512820514,4582.051282051282,4326.666666666667,4432.307692307693,4222.564102564103,4137.948717948719,4131.282051282052,4560.000000000001,4196.923076923077,3914.358974358975,3986.1538461538466,4553.846153846154
3779.365,1.0,0.5726314,0.40346512,0.52998537,0,0.0,0.0,0.0,0.0,0.0625203,0,0,0.0,0.0,0,0,17.0,0.0,0.0,4520.000000000001,4033.8461538461543,4232.307692307693,4539.48717948718,4297.948717948719,4407.6923076923085,4182.564102564103,4037.9487179487182,4090.7692307692314,4426.666666666667,4082.0512820512827,3798.461538461539,3852.820512820513,4489.743589743591
3779.6152,1.0,0.5726314,0.40346512,0.52998537,0,0.0,0.0,0.0,0.0,0.63264376,0,0,0.0,0.0,0,0,49.0,0.0,0.0,4407.6923076923085,3974.358974358975,4218.974358974359,4504.102564102564,4282.051282051282,4411.794871794872,4156.923076923077,4003.589743589744,4104.102564102564,4392.820512820514,4051.7948717948725,3796.410256410257,3832.307692307693,4458.461538461539
3779.8655,1.0,0.5885641,0.40582442,0.5138623,0,0.0,0.0,0.0,0.0,0.66621464,0,0,0.0,0.0,0,0,81.0,0.0,467.0,4384.615384615385,3926.666666666667,4238.974358974359,4476.923076923077,4282.564102564103,4412.307692307693,4171.282051282052,4023.076923076924,4140.512820512821,4408.205128205129,4075.3846153846157,3834.8717948717954,3851.7948717948725,4429.743589743591
3780.1157,1.0,0.5885641,0.40582442,0.5138623,0,0.0,0.0,0.0,0.0,0.24151842,0,0,0.0,0.0,0,0,113.0,0.0,467.0,4354.871794871796,3865.1282051282055,4275.8974358974365,4434.871794871796,4266.153846153847,4425.128205128206,4213.846153846154,4070.2564102564106,4197.948717948719,4458.461538461539,4134.358974358975,3910.2564102564106,3937.9487179487182,4425.128205128206
3780.366,1.0,0.60290354,0.4029896,0.51900244,0,0.0,0.0,0.0,0.0,0.17462474,0,0,0.0,0.0,0,0,16.0,0.0,0.0,4359.48717948718,3843.076923076924,4310.769230769231,4414.871794871796,4275.384615384616,4458.974358974359,4265.128205128206,4125.128205128206,4263.589743589744,4482.051282051282,4149.2307692307695,3958.9743589743593,3961.0256410256416,4397.435897435898
3780.6162,1.0,0.60290354,0.4029896,0.51900244,0,0.0,0.0,0.0,0.0,0.163012,0,0,0.0,0.0,0,0,48.0,0.0,0.0,4396.410256410257,3828.205128205129,4344.615384615385,4398.974358974359,4263.076923076924,4473.846153846154,4296.923076923077,4172.820512820514,4296.923076923077,4537.435897435898,4185.641025641026,4013.333333333334,4019.48717948718,4395.384615384616
3780.8665,1.0,0.61580896,0.39598522,0.533247,0,0.0,0.0,0.0,0.0,0.098351516,0,0,0.0,0.0,0,0,80.0,0.0,502.0,4412.307692307693,3843.076923076924,4380.000000000001,4392.820512820514,4257.948717948719,4482.051282051282,4319.48717948718,4216.410256410257,4328.205128205129,4583.076923076924,4228.205128205129,4061.538461538462,4071.2820512820517,4416.410256410257
3781.1167,1.0,0.61580896,0.39598522,0.533247,0,0.0,0.0,0.0,0.0,0.0,0,0,0.0,0.53500825,0,0,112.0,0.0,502.0,4389.2307692307695,3834.358974358975,4394.871794871796,4383.589743589744,4252.307692307693,4503.589743589744,4342.051282051282,4231.282051282052,4344.102564102564,4590.256410256411,4233.333333333334,4082.564102564103,4073.8461538461543,4400.000000000001
3781.3667,1.0,0.6274239,0.38789704,0.5475363,0,0.0,0.0,0.0,0.0,0.0,0,0,0.32403526,0.0,0,0,15.0,0.0,390.0,4400.000000000001,3830.7692307692314,4426.666666666667,4381.538461538462,4241.538461538462,4522.051282051282,4360.000000000001,4286.666666666667,4376.410256410257,4613.846153846154,4263.076923076924,4125.128205128206,4100.512820512821,4420.000000000001
3781.492,1.0,0.6274239,0.38789704,0.5475363,0,0.0,0.0,0.0,0.0,0.0,0,0,0.0,0.0,0,0,31.0,0.0,0.0,4401.025641025642,3831.7948717948725,4441.025641025642,4381.538461538462,4233.846153846154,4517.948717948719,4373.846153846154,4298.974358974359,4381.538461538462,4626.666666666667,4272.307692307693,4141.025641025642,4106.153846153847,4415.384615384616
3781.8672,1.0,0.63787735,0.37753832,0.5698322,0,0.0,0.0,0.0,0.0,0.0,0,0,0.0,0.0,0,0,79.0,0.0,390.0,4423.076923076924,3875.8974358974365,4436.410256410257,4380.512820512821,4243.589743589744,4528.717948717949,4380.512820512821,4295.8974358974365,4366.666666666667,4633.333333333334,4278.461538461539,4136.923076923077,4108.205128205129,4416.410256410257
3782.1174,1.0,0.63787735,0.37753832,0.5698322,0,0.0,0.0,0.0,0.0,0.18847592,0,0,0.0,0.0,0,0,111.0,0.0,390.0,4485.128205128206,3864.615384615385,4456.923076923077,4385.128205128206,4224.102564102564,4521.025641025642,4388.717948717949,4313.333333333334,4389.2307692307695,4660.000000000001,4316.923076923077,4174.871794871796,4130.769230769231,4437.948717948719
3782.3677,0.94060487,0.6472854,0.36248195,0.60009044,0,0.0,0.0,0.0,0.0,0.13032602,0,0,0.0,0.0,0,0,14.0,0.0,537.0,4537.435897435898,3832.820512820513,4506.666666666667,4348.717948717949,4147.6923076923085,4505.641025641026,4414.871794871796,4385.641025641026,4443.589743589744,4716.923076923077,4379.48717948718,4249.74358974359,4180.000000000001,4466.666666666667
3782.618,0.94060487,0.6472854,0.36248195,0.60009044,0,0.0,0.0,0.3988633,0.0,0.0,0,0,0.0,0.0,0,0,46.0,0.0,0.0,4716.923076923077,3847.692307692308,4642.564102564103,4349.743589743591,4085.6410256410263,4540.000000000001,4569.2307692307695,4634.871794871796,4651.282051282052,4909.2307692307695,4588.717948717949,4470.256410256411,4390.769230769231,4577.435897435898
3782.8682,1.0,0.65575266,0.34033453,0.63604254,0,0.0,0.0,0.51718307,0.0,0.0,0,0,0.0,0.0,0,0,78.0,0.0,532.0,4886.666666666667,3924.615384615385,4778.461538461539,4401.538461538462,4081.0256410256416,4591.794871794872,4678.974358974359,4851.282051282052,4824.102564102564,5092.307692307693,4766.666666666667,4688.205128205129,4587.6923076923085,4654.871794871796
3783.1184,1.0,0.65575266,0.34033453,0.63604254,0,0.0,0.0,0.0,0.0,0.0,0,0,0.0,0.23215681,1,0,110.0,0.0,532.0,4966.666666666667,4017.435897435898,4796.410256410257,4476.410256410257,4119.48717948718,4590.256410256411,4681.538461538462,4877.435897435898,4812.820512820514,5119.487179487181,4778.461538461539,4729.2307692307695,4604.615384615385,4677.435897435898
3783.3687,1.0,0.66337323,0.31648543,0.6683946,0,0.0,0.0,0.0,0.0,0.014755344,0,0,0.0,0.0,0,0,13.0,0.0,457.0,4918.461538461539,4105.641025641026,4746.666666666667,4522.564102564103,4197.435897435898,4567.179487179488,4603.589743589744,4767.6923076923085,4717.948717948719,5030.769230769231,4724.102564102564,4654.871794871796,4544.102564102564,4667.6923076923085
3783.4937,1.0,0.66337323,0.31648543,0.6683946,0,0.0,0.0,0.0,0.0,0.0,0,0,1.0,0.0,0,0,29.0,0.0,0.0,4847.179487179488,4101.538461538462,4688.205128205129,4523.589743589744,4231.794871794872,4568.717948717949,4569.743589743591,4704.102564102564,4651.282051282052,4952.820512820514,4627.6923076923085,4564.102564102564,4452.820512820514,4645.128205128206
3783.869,1.0,0.6702317,0.29502156,0.69750386,0,0.0,0.0,0.5149079,0.0,0.0,0,0,0.0,0.0,0,0,77.0,0.0,457.0,4678.974358974359,4072.307692307693,4524.102564102564,4524.102564102564,4326.666666666667,4546.153846153847,4444.102564102564,4435.8974358974365,4413.333333333334,4743.076923076924,4380.000000000001,4311.794871794872,4201.538461538462,4550.769230769231
3784.1191,1.0,0.6702317,0.29502156,0.69750386,0,0.0,0.0,0.49503,0.0,0.0,0,0,0.0,0.0,0,0,109.0,0.0,457.0,4584.615384615385,4005.1282051282055,4441.538461538462,4478.974358974359,4330.256410256411,4508.717948717949,4349.2307692307695,4298.974358974359,4310.769230769231,4624.615384615385,4284.102564102564,4185.128205128206,4097.435897435898,4515.8974358974365
3784.3694,1.0,0.67640436,0.27570483,0.7109597,0,0.0,0.0,0.0,0.0,0.0,0,0,0.0,0.0,0,0,12.0,0.0,504.0,4624.102564102564,4006.666666666667,4430.256410256411,4470.256410256411,4331.794871794872,4491.794871794872,4311.794871794872,4218.461538461539,4244.102564102564,4555.8974358974365,4230.769230769231,4125.641025641026,4065.6410256410263,4538.461538461539
3784.6196,1.0,0.67640436,0.27570483,0.7109597,0,0.0,0.0,0.0,0.0,0.4808798,0,0,0.0,0.0,1,0,44.0,0.0,0.0,4616.923076923077,3936.410256410257,4427.6923076923085,4438.974358974359,4303.076923076924,4487.6923076923085,4337.435897435898,4221.025641025642,4248.205128205129,4538.461538461539,4230.256410256411,4125.641025641026,4060.5128205128212,4539.48717948718
3784.8699,0.9829685,0.68195975,0.2740997,0.70173866,0,0.0,0.0,0.0,0.0,0.24239598,0,0,0.0,0.0,0,0,76.0,0.0,505.0,4444.102564102564,3875.8974358974365,4383.589743589744,4401.025641025642,4289.2307692307695,4500.000000000001,4338.974358974359,4238.974358974359,4264.615384615385,4534.871794871796,4179.48717948718,4050.7692307692314,3983.076923076924,4457.948717948719
3785.12,0.9829685,0.68195975,0.2740997,0.70173866,0,0.0,0.0,0.0,0.0,0.24406913,0,0,0.0,0.0,0,0,108.0,0.0,505.0,4408.205128205129,3862.0512820512827,4384.102564102564,4384.615384615385,4278.461538461539,4506.666666666667,4345.128205128206,4226.666666666667,4260.512820512821,4516.923076923077,4164.615384615385,4045.6410256410263,3983.076923076924,4465.641025641026
