timestamp,excitement,frustration,meditation,engagementBoredom,blink,clench,laugh,smile,eyebrow,furrowBrow,lookLeft,lookRight,smirkLeft,smirkRight,winkLeft,winkRight,eeg0,eeg1,eeg2,eeg3,eeg4,eeg5,eeg6,eeg7,eeg8,eeg9,eeg10,eeg11,eeg12,eeg13,eeg14,eeg15,eeg16
3875.823,1.0,0.68029326,0.21830495,0.6323236,0,0.0,0.0,0.31403384,0.0,0.0,0,0,0.0,0.0,0,0,98.0,0.0,525.0,4893.846153846154,4122.051282051282,4567.179487179488,4640.000000000001,4426.153846153847,4586.153846153847,4383.589743589744,4499.48717948718,4360.000000000001,4753.333333333334,4327.179487179487,4422.051282051282,4212.820512820514,4635.384615384616
3876.1982,1.0,0.6781174,0.2265451,0.6273643,0,0.0,0.0,0.3558357,0.0,0.0,0,0,0.0,0.0,0,0,17.0,0.0,0.0,4878.461538461539,4128.717948717949,4475.384615384616,4591.282051282052,4569.743589743591,4608.717948717949,4300.512820512821,4296.410256410257,4303.589743589744,4616.410256410257,4214.358974358975,4231.282051282052,4125.641025641026,4565.641025641026
3876.3235,1.0,0.6781174,0.2265451,0.6273643,0,0.0,0.0,0.0,0.0,0.0,0,0,0.74165416,0.0,0,0,33.0,0.0,0.0,4806.666666666667,4052.820512820513,4422.564102564103,4537.948717948719,4540.000000000001,4537.948717948719,4218.974358974359,4206.153846153847,4234.358974358975,4543.076923076924,4125.641025641026,4110.769230769231,4035.3846153846157,4508.205128205129
3876.5737,1.0,0.676159,0.23791389,0.62290055,0,0.0,0.0,0.0,0.0,0.0,0,0,0.0,0.0,0,0,65.0,0.0,491.0,4797.435897435898,4025.1282051282055,4380.000000000001,4520.000000000001,4491.794871794872,4525.641025641026,4213.333333333334,4148.205128205129,4225.641025641026,4468.717948717949,4083.589743589744,4026.666666666667,3983.589743589744,4467.179487179487
3876.5737,1.0,0.676159,0.23791389,0.62290055,0,0.0,0.0,0.0,0.0,0.0,0,0,0.0,0.0,0,0,65.0,0.0,491.0,4797.435897435898,4025.1282051282055,4380.000000000001,4520.000000000001,4491.794871794872,4525.641025641026,4213.333333333334,4148.205128205129,4225.641025641026,4468.717948717949,4083.589743589744,4026.666666666667,3983.589743589744,4467.179487179487
3876.949,0.9521379,0.6743966,0.25354743,0.61888283,0,0.0,0.0,0.0,0.0,0.0,0,0,0.0,0.0,0,0,113.0,0.0,465.0,4721.538461538462,3958.461538461539,4375.8974358974365,4448.717948717949,4371.794871794872,4522.564102564103,4257.948717948719,4153.846153846154,4238.974358974359,4511.794871794872,4116.923076923077,4000.5128205128212,4001.0256410256416,4427.179487179487
3876.949,0.9521379,0.6743966,0.25354743,0.61888283,0,0.0,0.0,0.0,0.0,0.0,0,0,0.0,0.0,0,0,113.0,0.0,465.0,4721.538461538462,3958.461538461539,4375.8974358974365,4448.717948717949,4371.794871794872,4522.564102564103,4257.948717948719,4153.846153846154,4238.974358974359,4511.794871794872,4116.923076923077,4000.5128205128212,4001.0256410256416,4427.179487179487
3877.6997,0.96342796,0.6728103,0.2764902,0.6152665,0,0.0,0.0,0.0,0.0,0.082345806,0,0,0.0,0.0,0,0,80.0,0.0,504.0,4652.820512820514,3968.205128205129,4402.564102564103,4445.641025641026,4298.974358974359,4523.589743589744,4344.615384615385,4233.846153846154,4294.358974358975,4582.564102564103,4205.128205128206,4058.461538461539,4104.102564102564,4429.743589743591
3877.8247,0.96342796,0.6728103,0.2764902,0.6152665,0,0.0,0.0,0.0,0.0,0.0,0,0,0.0,0.0,0,0,96.0,0.0,504.0,4611.794871794872,3943.589743589744,4411.794871794872,4434.358974358975,4276.410256410257,4509.2307692307695,4351.282051282052,4239.48717948718,4277.435897435898,4585.641025641026,4203.076923076924,4069.7435897435903,4101.025641025642,4423.076923076924
3878.1375,0.9954554,0.67138267,0.2971393,0.6122571,1,0.0,0.0,0.0,0.0,0.7603802,0,0,0.0,0.0,0,0,7.0,0.0,484.0,4564.615384615385,3897.9487179487182,4386.666666666667,4407.179487179487,4240.512820512821,4492.307692307693,4341.538461538462,4220.000000000001,4224.102564102564,4577.948717948719,4198.461538461539,4050.2564102564106,4071.2820512820517,4409.743589743591
3878.3252,0.9954554,0.67138267,0.2971393,0.6122571,0,0.0,0.0,0.0,0.0,0.47045788,0,0,0.0,0.0,0,0,31.0,0.0,0.0,4517.435897435898,3867.692307692308,4398.461538461539,4381.025641025642,4230.256410256411,4491.794871794872,4337.948717948719,4219.48717948718,4200.000000000001,4558.461538461539,4191.794871794872,4057.9487179487182,4058.461538461539,4414.358974358975
3878.5754,1.0,0.6700978,0.31572387,0.61377,0,0.0,0.0,0.0,0.0,0.3850178,0,0,0.0,0.0,0,0,63.0,0.0,0.0,4540.512820512821,3880.0000000000005,4424.102564102564,4385.641025641026,4216.410256410257,4507.179487179488,4358.461538461539,4252.307692307693,4268.205128205129,4615.384615384616,4230.769230769231,4082.0512820512827,4089.23076923077,4414.358974358975
3878.8257,1.0,0.6700978,0.31572387,0.61377,0,0.0,0.0,0.0,0.0,0.0,0,0,0.0,0.0,0,0,95.0,0.0,390.0,4540.000000000001,3887.692307692308,4442.051282051282,4396.410256410257,4232.820512820514,4524.102564102564,4378.461538461539,4265.128205128206,4263.076923076924,4627.179487179488,4247.6923076923085,4103.589743589744,4108.205128205129,4429.743589743591
3878.9507,1.0,0.6689415,0.32915694,0.6177247,0,0.0,0.0,0.0,0.0,0.0,0,0,0.0,0.0,0,0,111.0,0.0,390.0,4537.948717948719,3877.9487179487182,4455.8974358974365,4402.564102564103,4232.307692307693,4520.512820512821,4381.025641025642,4274.871794871796,4258.461538461539,4624.615384615385,4249.74358974359,4125.641025641026,4105.128205128206,4426.666666666667
3878.9507,1.0,0.6689415,0.32915694,0.6177247,0,0.0,0.0,0.0,0.0,0.0,0,0,0.0,0.0,0,0,111.0,0.0,390.0,4537.948717948719,3877.9487179487182,4455.8974358974365,4402.564102564103,4232.307692307693,4520.512820512821,4381.025641025642,4274.871794871796,4258.461538461539,4624.615384615385,4249.74358974359,4125.641025641026,4105.128205128206,4426.666666666667
3879.4512,0.9866178,0.66790074,0.33518645,0.6212831,0,0.0,0.0,0.0,0.0,0.0,0,0,0.0,0.0,0,0,46.0,0.0,0.0,4742.051282051282,3795.8974358974365,4673.333333333334,4366.666666666667,4171.794871794872,4635.384615384616,4640.512820512821,4638.461538461539,4541.538461538462,4864.615384615386,4470.769230769231,4466.666666666667,4281.538461538462,4582.051282051282
3879.8264,0.9866178,0.66790074,0.33518645,0.6212831,0,0.0,0.0,0.18582578,0.0,0.0,0,0,0.0,0.0,0,0,94.0,0.0,538.0,5026.666666666667,3958.9743589743593,4846.153846153847,4472.820512820514,4266.153846153847,4715.8974358974365,4771.794871794872,4890.256410256411,4714.358974358975,5097.948717948719,4618.461538461539,4764.102564102564,4484.102564102564,4733.846153846154
3880.0767,1.0,0.66696405,0.33122388,0.6274049,0,0.0,0.0,0.0,0.0,0.10450346,0,0,0.0,0.0,0,0,126.0,0.0,538.0,5021.025641025642,4022.564102564103,4786.153846153847,4506.666666666667,4310.256410256411,4688.717948717949,4685.641025641026,4796.923076923077,4628.717948717949,5042.564102564103,4550.769230769231,4678.461538461539,4454.871794871796,4731.282051282052
3880.327,1.0,0.66696405,0.33122388,0.6274049,0,0.0,0.0,0.0,0.0,0.018995835,0,0,0.0,0.0,0,0,29.0,0.0,0.0,4947.6923076923085,4090.7692307692314,4700.512820512821,4523.076923076924,4342.051282051282,4616.410256410257,4585.128205128206,4644.102564102564,4495.384615384616,4925.128205128206,4464.615384615385,4535.384615384616,4349.743589743591,4691.794871794872
3880.5771,1.0,0.66612107,0.31692776,0.64329284,0,0.0,0.0,0.0,0.0,0.042541984,0,0,0.0,0.0,0,0,61.0,0.0,0.0,4789.2307692307695,4064.1025641025644,4540.512820512821,4524.102564102564,4365.128205128206,4572.307692307693,4457.435897435898,4472.307692307693,4394.358974358975,4793.846153846154,4341.538461538462,4353.846153846154,4242.564102564103,4633.846153846154
3880.8274,1.0,0.66612107,0.31692776,0.64329284,0,0.0,0.0,0.0,0.0,0.075405896,0,0,0.0,0.0,0,0,93.0,0.0,458.0,4643.589743589744,4022.0512820512827,4447.6923076923085,4498.461538461539,4352.820512820514,4530.769230769231,4373.846153846154,4336.923076923077,4301.538461538462,4672.307692307693,4234.871794871796,4201.025641025642,4124.615384615385,4566.153846153847
3881.0774,1.0,0.6653624,0.30437207,0.6575894,0,0.0,0.0,0.0,0.0,0.11983873,0,0,0.0,0.0,0,0,125.0,0.0,458.0,4522.564102564103,3944.1025641025644,4367.6923076923085,4443.589743589744,4310.256410256411,4472.820512820514,4296.923076923077,4214.358974358975,4251.282051282052,4594.871794871796,4175.384615384616,4073.8461538461543,4061.0256410256416,4521.538461538462
3881.3276,1.0,0.6653624,0.30437207,0.6575894,0,0.0,0.0,0.0,0.0,0.24571648,0,0,0.0,0.0,0,0,28.0,0.0,0.0,4460.512820512821,3879.48717948718,4340.512820512821,4400.512820512821,4280.000000000001,4462.564102564103,4292.307692307693,4200.512820512821,4242.564102564103,4550.256410256411,4186.153846153847,4033.333333333334,4046.1538461538466,4508.717948717949
3881.578,1.0,0.6646796,0.29307243,0.67045313,0,0.0,0.0,0.0,0.0,0.2622889,0,0,0.0,0.0,0,0,60.0,0.0,0.0,4429.2307692307695,3854.8717948717954,4349.2307692307695,4387.6923076923085,4264.102564102564,4459.48717948718,4302.051282051282,4188.205128205129,4266.666666666667,4563.076923076924,4206.153846153847,4008.717948717949,4047.1794871794878,4493.846153846154
3881.8281,1.0,0.6646796,0.29307243,0.67045313,0,0.0,0.0,0.0,0.0,0.15321586,0,0,0.0,0.0,0,0,92.0,0.0,503.0,4446.153846153847,3878.9743589743593,4369.2307692307695,4394.871794871796,4246.153846153847,4449.743589743591,4306.153846153847,4191.282051282052,4248.717948717949,4538.974358974359,4204.102564102564,3995.8974358974365,4013.333333333334,4474.358974358975
3882.0784,0.9708948,0.664065,0.2829034,0.677626,0,0.0,0.0,0.0,0.0,0.06353757,0,0,0.0,0.0,0,0,124.0,0.0,503.0,4492.307692307693,3865.6410256410263,4400.000000000001,4397.948717948719,4245.128205128206,4488.205128205129,4345.128205128206,4250.256410256411,4291.794871794872,4590.256410256411,4261.025641025642,4029.7435897435903,4063.076923076924,4488.717948717949
3882.3286,0.9708948,0.664065,0.2829034,0.677626,0,0.0,0.0,0.0,0.0,0.24996972,0,0,0.0,0.0,0,0,27.0,0.0,0.0,4526.666666666667,3862.564102564103,4410.256410256411,4390.769230769231,4215.8974358974365,4472.820512820514,4330.256410256411,4248.717948717949,4289.2307692307695,4585.128205128206,4271.794871794872,4042.0512820512827,4080.0000000000005,4488.205128205129
3882.5789,1.0,0.66351193,0.27760592,0.6772635,0,0.0,0.0,0.0,0.0,0.0,0,0,0.0,0.0,0,0,59.0,0.0,0.0,4538.461538461539,3862.564102564103,4419.48717948718,4398.974358974359,4214.871794871796,4489.743589743591,4368.205128205129,4265.641025641026,4310.256410256411,4600.000000000001,4291.794871794872,4047.1794871794878,4092.820512820513,4490.769230769231
3882.5789,1.0,0.66351193,0.27760592,0.6772635,0,0.0,0.0,0.0,0.0,0.0,0,0,0.0,0.0,0,0,59.0,0.0,0.0,4538.461538461539,3862.564102564103,4419.48717948718,4398.974358974359,4214.871794871796,4489.743589743591,4368.205128205129,4265.641025641026,4310.256410256411,4600.000000000001,4291.794871794872,4047.1794871794878,4092.820512820513,4490.769230769231
3883.0793,1.0,0.6630142,0.275102,0.6686215,0,0.0,0.0,0.0,0.0,0.0,0,0,0.31552687,0.0,0,0,123.0,0.0,387.0,4553.333333333334,3838.461538461539,4428.717948717949,4392.307692307693,4217.435897435898,4511.794871794872,4388.717948717949,4325.641025641026,4362.051282051282,4635.8974358974365,4320.512820512821,4098.461538461539,4143.589743589744,4508.717948717949
3883.3293,1.0,0.6630142,0.275102,0.6686215,0,0.0,0.0,0.0,0.0,0.0,0,0,0.0,0.0,0,0,26.0,0.0,0.0,4594.358974358975,3871.2820512820517,4456.410256410257,4414.358974358975,4214.358974358975,4509.743589743591,4397.948717948719,4315.384615384616,4353.846153846154,4647.6923076923085,4334.358974358975,4124.615384615385,4161.025641025642,4523.589743589744
3883.4546,0.997907,0.6625661,0.27284935,0.6608437,0,0.0,0.0,0.0,0.0,0.0,0,0,0.0,0.0,0,0,42.0,0.0,0.0,4616.923076923077,3897.9487179487182,4478.974358974359,4426.666666666667,4241.538461538462,4541.538461538462,4423.076923076924,4354.871794871796,4395.8974358974365,4691.282051282052,4368.205128205129,4157.435897435898,4197.948717948719,4542.564102564103
3883.4546,0.997907,0.6625661,0.27284935,0.6608437,0,0.0,0.0,0.0,0.0,0.0,0,0,0.0,0.0,0,0,42.0,0.0,0.0,4616.923076923077,3897.9487179487182,4478.974358974359,4426.666666666667,4241.538461538462,4541.538461538462,4423.076923076924,4354.871794871796,4395.8974358974365,4691.282051282052,4368.205128205129,4157.435897435898,4197.948717948719,4542.564102564103
3883.955,0.93944603,0.6662082,0.27082285,0.6621585,0,0.0,0.0,0.0,0.0,0.0,0,0,0.0,0.0,0,0,106.0,0.0,536.0,4587.6923076923085,3860.0000000000005,4449.2307692307695,4398.974358974359,4202.051282051282,4510.256410256411,4390.256410256411,4320.000000000001,4358.461538461539,4643.076923076924,4333.333333333334,4140.000000000001,4152.820512820514,4524.102564102564
3883.955,0.93944603,0.6662082,0.27082285,0.6621585,0,0.0,0.0,0.0,0.0,0.0,0,0,0.0,0.0,0,0,106.0,0.0,536.0,4587.6923076923085,3860.0000000000005,4449.2307692307695,4398.974358974359,4202.051282051282,4510.256410256411,4390.256410256411,4320.000000000001,4358.461538461539,4643.076923076924,4333.333333333334,4140.000000000001,4152.820512820514,4524.102564102564
3884.4553,0.8275673,0.6458513,0.26539913,0.6709784,0,0.0,0.0,0.0,0.0,0.0,0,0,0.0,0.0,0,0,41.0,0.0,0.0,4544.102564102564,3862.564102564103,4443.589743589744,4389.2307692307695,4198.461538461539,4524.615384615385,4411.282051282052,4335.8974358974365,4341.538461538462,4636.923076923077,4301.538461538462,4134.358974358975,4109.74358974359,4506.153846153847
3884.4553,0.8275673,0.6458513,0.26539913,0.6709784,0,0.0,0.0,0.0,0.0,0.0,0,0,0.0,0.0,0,0,41.0,0.0,0.0,4544.102564102564,3862.564102564103,4443.589743589744,4389.2307692307695,4198.461538461539,4524.615384615385,4411.282051282052,4335.8974358974365,4341.538461538462,4636.923076923077,4301.538461538462,4134.358974358975,4109.74358974359,4506.153846153847
3884.9558,0.7774492,0.63076836,0.2525559,0.67891353,0,0.0,0.0,0.0,0.0,0.0,0,0,0.0,0.0,0,0,105.0,0.0,464.0,4588.205128205129,3911.7948717948725,4474.358974358975,4415.8974358974365,4207.179487179487,4524.615384615385,4409.743589743591,4335.384615384616,4365.641025641026,4662.051282051282,4337.948717948719,4186.666666666667,4166.153846153847,4555.8974358974365
3884.9558,0.7774492,0.63076836,0.2525559,0.67891353,0,0.0,0.0,0.0,0.0,0.0,0,0,0.0,0.0,0,0,105.0,0.0,464.0,4588.205128205129,3911.7948717948725,4474.358974358975,4415.8974358974365,4207.179487179487,4524.615384615385,4409.743589743591,4335.384615384616,4365.641025641026,4662.051282051282,4337.948717948719,4186.666666666667,4166.153846153847,4555.8974358974365
3885.4563,0.70848006,0.6185118,0.23867771,0.6848879,0,0.0,0.0,0.0,0.0,0.0,0,0,0.0,0.0,0,0,40.0,0.0,0.0,4673.333333333334,3934.358974358975,4507.6923076923085,4441.025641025642,4231.282051282052,4552.820512820514,4431.282051282052,4365.641025641026,4383.076923076924,4691.282051282052,4368.717948717949,4220.512820512821,4197.948717948719,4569.2307692307695
3885.4563,0.70848006,0.6185118,0.23867771,0.6848879,0,0.0,0.0,0.0,0.0,0.0,0,0,0.0,0.0,0,0,40.0,0.0,0.0,4673.333333333334,3934.358974358975,4507.6923076923085,4441.025641025642,4231.282051282052,4552.820512820514,4431.282051282052,4365.641025641026,4383.076923076924,4691.282051282052,4368.717948717949,4220.512820512821,4197.948717948719,4569.2307692307695
3885.9568,0.692464,0.61903954,0.22618936,0.6902619,0,0.0,0.0,0.0,0.0,0.0,0,0,0.0,0.0,0,0,104.0,0.0,504.0,4661.025641025642,3925.6410256410263,4505.128205128206,4430.769230769231,4232.820512820514,4556.923076923077,4441.538461538462,4370.256410256411,4399.48717948718,4690.256410256411,4352.820512820514,4221.025641025642,4183.589743589744,4571.794871794872
3885.9568,0.692464,0.61903954,0.22618936,0.6902619,0,0.0,0.0,0.0,0.0,0.0,0,0,0.0,0.0,0,0,104.0,0.0,504.0,4661.025641025642,3925.6410256410263,4505.128205128206,4430.769230769231,4232.820512820514,4556.923076923077,4441.538461538462,4370.256410256411,4399.48717948718,4690.256410256411,4352.820512820514,4221.025641025642,4183.589743589744,4571.794871794872
3886.457,0.6887182,0.6192501,0.22116391,0.6785739,0,0.0,0.0,0.0,0.0,0.0,0,0,0.0,0.0,0,0,39.0,0.0,0.0,4614.358974358975,3904.1025641025644,4481.538461538462,4411.282051282052,4201.025641025642,4522.564102564103,4412.820512820514,4376.923076923077,4389.2307692307695,4681.025641025642,4329.743589743591,4200.000000000001,4171.282051282052,4568.205128205129
3886.457,0.6887182,0.6192501,0.22116391,0.6785739,0,0.0,0.0,0.0,0.0,0.0,0,0,0.0,0.0,0,0,39.0,0.0,0.0,4614.358974358975,3904.1025641025644,4481.538461538462,4411.282051282052,4201.025641025642,4522.564102564103,4412.820512820514,4376.923076923077,4389.2307692307695,4681.025641025642,4329.743589743591,4200.000000000001,4171.282051282052,4568.205128205129
3886.9575,0.6119119,0.6118397,0.22316612,0.6561657,0,0.0,0.0,0.0,0.0,0.0,0,0,0.0,0.0,0,0,103.0,0.0,387.0,4602.564102564103,3922.564102564103,4491.282051282052,4428.205128205129,4169.2307692307695,4530.256410256411,4411.282051282052,4374.358974358975,4395.8974358974365,4694.871794871796,4341.538461538462,4221.025641025642,4172.307692307693,4575.8974358974365
3886.9575,0.6119119,0.6118397,0.22316612,0.6561657,0,0.0,0.0,0.0,0.0,0.0,0,0,0.0,0.0,0,0,103.0,0.0,387.0,4602.564102564103,3922.564102564103,4491.282051282052,4428.205128205129,4169.2307692307695,4530.256410256411,4411.282051282052,4374.358974358975,4395.8974358974365,4694.871794871796,4341.538461538462,4221.025641025642,4172.307692307693,4575.8974358974365
3887.458,0.5949364,0.5945064,0.23004726,0.63278884,0,0.0,0.0,0.0,0.0,0.0,0,0,0.0,0.0,0,0,38.0,0.0,0.0,4614.871794871796,3937.9487179487182,4497.948717948719,4429.743589743591,4201.025641025642,4545.641025641026,4425.128205128206,4386.666666666667,4418.974358974359,4714.871794871796,4352.307692307693,4224.102564102564,4186.666666666667,4583.589743589744
3887.458,0.5949364,0.5945064,0.23004726,0.63278884,0,0.0,0.0,0.0,0.0,0.0,0,0,0.0,0.0,0,0,38.0,0.0,0.0,4614.871794871796,3937.9487179487182,4497.948717948719,4429.743589743591,4201.025641025642,4545.641025641026,4425.128205128206,4386.666666666667,4418.974358974359,4714.871794871796,4352.307692307693,4224.102564102564,4186.666666666667,4583.589743589744
3887.9585,0.56276625,0.563365,0.23624153,0.6101446,0,0.0,0.0,0.0,0.0,0.0,0,0,0.0,0.0,0,0,102.0,0.0,536.0,4609.2307692307695,3924.1025641025644,4503.589743589744,4445.641025641026,4196.410256410257,4535.384615384616,4419.48717948718,4378.461538461539,4394.358974358975,4692.307692307693,4341.538461538462,4230.769230769231,4169.2307692307695,4570.256410256411
3887.9585,0.56276625,0.563365,0.23624153,0.6101446,0,0.0,0.0,0.0,0.0,0.0,0,0,0.0,0.0,0,0,102.0,0.0,536.0,4609.2307692307695,3924.1025641025644,4503.589743589744,4445.641025641026,4196.410256410257,4535.384615384616,4419.48717948718,4378.461538461539,4394.358974358975,4692.307692307693,4341.538461538462,4230.769230769231,4169.2307692307695,4570.256410256411
3888.4587,0.47490454,0.5352391,0.24359576,0.587471,0,0.0,0.0,0.0,0.0,0.0,0,0,0.0,0.0,0,0,37.0,0.0,0.0,4634.358974358975,3927.692307692308,4510.256410256411,4449.743589743591,4231.794871794872,4548.205128205129,4438.461538461539,4428.717948717949,4429.2307692307695,4735.384615384616,4384.615384615385,4263.589743589744,4220.000000000001,4587.6923076923085
3888.4587,0.47490454,0.5352391,0.24359576,0.587471,0,0.0,0.0,0.0,0.0,0.0,0,0,0.0,0.0,0,0,37.0,0.0,0.0,4634.358974358975,3927.692307692308,4510.256410256411,4449.743589743591,4231.794871794872,4548.205128205129,4438.461538461539,4428.717948717949,4429.2307692307695,4735.384615384616,4384.615384615385,4263.589743589744,4220.000000000001,4587.6923076923085
3888.9592,0.51692337,0.53088224,0.25054523,0.56617063,0,0.0,0.0,0.0,0.0,0.0,0,0,0.0,0.0,0,0,101.0,0.0,464.0,4709.743589743591,3973.333333333334,4534.871794871796,4466.666666666667,4261.025641025642,4560.512820512821,4441.025641025642,4428.205128205129,4418.974358974359,4733.333333333334,4376.410256410257,4262.051282051282,4200.512820512821,4571.794871794872
3888.9592,0.51692337,0.53088224,0.25054523,0.56617063,0,0.0,0.0,0.0,0.0,0.0,0,0,0.0,0.0,0,0,101.0,0.0,464.0,4709.743589743591,3973.333333333334,4534.871794871796,4466.666666666667,4261.025641025642,4560.512820512821,4441.025641025642,4428.205128205129,4418.974358974359,4733.333333333334,4376.410256410257,4262.051282051282,4200.512820512821,4571.794871794872
3889.4597,0.5583604,0.5278483,0.2579016,0.5470002,0,0.0,0.0,0.0,0.0,0.0,0,0,0.0,0.0,0,0,36.0,0.0,0.0,4718.461538461539,3947.692307692308,4506.153846153847,4443.589743589744,4272.820512820514,4551.794871794872,4427.6923076923085,4396.923076923077,4397.435897435898,4714.358974358975,4345.128205128206,4230.769230769231,4183.076923076924,4558.461538461539
3889.4597,0.5583604,0.5278483,0.2579016,0.5470002,0,0.0,0.0,0.0,0.0,0.0,0,0,0.0,0.0,0,0,36.0,0.0,0.0,4718.461538461539,3947.692307692308,4506.153846153847,4443.589743589744,4272.820512820514,4551.794871794872,4427.6923076923085,4396.923076923077,4397.435897435898,4714.358974358975,4345.128205128206,4230.769230769231,4183.076923076924,4558.461538461539
3889.9602,0.5110696,0.5285702,0.2645233,0.5310521,0,0.0,0.0,0.0,0.0,0.0,0,0,0.0,0.0,0,0,100.0,0.0,504.0,4737.435897435898,3990.7692307692314,4495.8974358974365,4475.384615384616,4286.666666666667,4557.435897435898,4418.974358974359,4389.743589743591,4385.128205128206,4744.615384615386,4311.282051282052,4232.820512820514,4218.461538461539,4554.871794871796
3890.3354,0.5110696,0.5285702,0.2645233,0.5310521,0,0.0,0.0,0.2965911,0.0,0.0,0,0,0.0,0.0,0,0,19.0,0.0,0.0,4675.8974358974365,4000.5128205128212,4447.6923076923085,4492.307692307693,4291.282051282052,4527.179487179488,4401.538461538462,4381.538461538462,4364.102564102564,4777.948717948719,4277.435897435898,4215.8974358974365,4260.000000000001,4555.8974358974365
3890.5857,0.50597966,0.52601165,0.270273,0.5141519,0,0.0,0.0,0.0,0.0,0.0,0,0,0.0,0.0,0,0,51.0,0.0,0.0,4646.666666666667,4015.8974358974365,4464.615384615385,4473.333333333334,4237.948717948719,4529.2307692307695,4423.589743589744,4385.641025641026,4374.358974358975,4763.589743589744,4314.358974358975,4220.512820512821,4251.282051282052,4554.871794871796
3890.5857,0.50597966,0.52601165,0.270273,0.5141519,0,0.0,0.0,0.0,0.0,0.0,0,0,0.0,0.0,0,0,51.0,0.0,0.0,4646.666666666667,4015.8974358974365,4464.615384615385,4473.333333333334,4237.948717948719,4529.2307692307695,4423.589743589744,4385.641025641026,4374.358974358975,4763.589743589744,4314.358974358975,4220.512820512821,4251.282051282052,4554.871794871796
3890.961,0.45054036,0.5095033,0.276892,0.49912322,0,0.0,0.0,0.0,0.0,0.0,0,0,0.0,0.0,0,0,99.0,0.0,387.0,4638.461538461539,3956.9230769230776,4491.282051282052,4444.615384615385,4211.282051282052,4521.025641025642,4430.769230769231,4412.307692307693,4412.307692307693,4768.205128205129,4356.923076923077,4246.153846153847,4234.358974358975,4563.076923076924
3891.3364,0.45054036,0.5095033,0.276892,0.49912322,0,0.0,0.0,0.5573576,0.0,0.0,0,0,0.0,0.0,0,0,18.0,0.0,0.0,4671.282051282052,3888.717948717949,4535.8974358974365,4389.743589743591,4123.589743589744,4537.435897435898,4490.256410256411,4485.641025641026,4482.564102564103,4829.2307692307695,4453.846153846154,4323.076923076924,4301.538461538462,4588.717948717949
3891.5864,0.46596494,0.49687222,0.2838986,0.48559847,0,0.0,0.0,0.0,0.0,0.0,0,0,1.0,0.0,0,0,50.0,0.0,0.0,4713.846153846154,3918.461538461539,4556.410256410257,4399.48717948718,4157.948717948719,4583.076923076924,4537.948717948719,4557.435897435898,4558.974358974359,4891.794871794872,4521.538461538462,4365.641025641026,4370.769230769231,4623.589743589744
3891.8367,0.46596494,0.49687222,0.2838986,0.48559847,0,0.0,0.0,0.0,0.0,0.0,0,0,0.28160676,0.0,0,0,82.0,0.0,536.0,4742.051282051282,3982.0512820512827,4575.8974358974365,4437.948717948719,4205.128205128206,4602.564102564103,4525.128205128206,4529.743589743591,4538.974358974359,4887.179487179488,4524.615384615385,4381.538461538462,4382.564102564103,4636.923076923077
3892.087,0.6018535,0.48550263,0.2906617,0.47075462,0,0.0,0.0,0.0,0.0,0.0,0,0,0.32079676,0.0,0,0,114.0,0.0,536.0,4835.8974358974365,4027.1794871794878,4608.205128205129,4465.128205128206,4229.2307692307695,4601.025641025642,4537.435897435898,4551.794871794872,4553.846153846154,4894.871794871796,4568.717948717949,4427.6923076923085,4417.435897435898,4696.410256410257
3892.3684,0.6018535,0.48550263,0.2906617,0.47075462,0,0.0,0.0,0.0,0.0,0.0,0,0,0.47022322,0.0,0,0,21.0,0.0,0.0,4817.435897435898,4018.9743589743593,4625.128205128206,4447.6923076923085,4220.000000000001,4606.153846153847,4565.641025641026,4602.564102564103,4582.051282051282,4918.461538461539,4590.256410256411,4460.000000000001,4390.769230769231,4688.205128205129
3892.5874,0.6396877,0.47526997,0.29757968,0.45581132,0,0.0,0.0,0.0,0.0,0.0,0,0,0.42685023,0.0,0,0,49.0,0.0,0.0,4828.717948717949,4014.358974358975,4640.512820512821,4437.948717948719,4198.974358974359,4585.128205128206,4564.615384615385,4631.794871794872,4613.846153846154,4968.717948717949,4618.461538461539,4504.102564102564,4401.025641025642,4709.743589743591
3892.8376,0.6396877,0.47526997,0.29757968,0.45581132,0,0.0,0.0,0.0,0.0,0.0,0,0,0.92289513,0.0,0,0,81.0,0.0,465.0,4795.384615384616,4043.589743589744,4621.538461538462,4441.538461538462,4232.820512820514,4569.743589743591,4526.153846153847,4568.205128205129,4533.846153846154,4896.410256410257,4568.717948717949,4472.307692307693,4364.102564102564,4697.435897435898
3893.088,0.6871046,0.4660606,0.31036043,0.43876204,0,0.0,0.0,0.2961244,0.0,0.0,0,0,0.0,0.0,0,0,113.0,0.0,465.0,4748.717948717949,4013.8461538461543,4580.512820512821,4507.179487179488,4254.358974358975,4557.948717948719,4485.641025641026,4518.974358974359,4486.153846153847,4863.589743589744,4554.871794871796,4414.358974358975,4323.589743589744,4690.256410256411
3893.3381,0.6871046,0.4660606,0.31036043,0.43876204,0,0.0,0.0,0.0,0.0,0.0,0,0,0.0,0.0,0,0,16.0,0.0,0.0,4691.794871794872,3998.461538461539,4533.846153846154,4504.102564102564,4257.948717948719,4515.8974358974365,4425.641025641026,4441.538461538462,4393.846153846154,4784.102564102564,4457.948717948719,4331.282051282052,4227.179487179487,4665.128205128206
3893.4631,0.7161565,0.45777217,0.3218634,0.42342347,0,0.0,0.0,0.0,0.0,0.0,0,0,0.0,0.0,0,0,32.0,0.0,0.0,4642.564102564103,3972.307692307693,4508.205128205129,4491.794871794872,4272.820512820514,4509.2307692307695,4423.076923076924,4421.025641025642,4392.820512820514,4752.307692307693,4427.6923076923085,4292.307692307693,4217.948717948719,4647.179487179488
3893.8384,0.7161565,0.45777217,0.3218634,0.42342347,0,0.0,0.0,0.0,0.0,0.0,0,0,1.0,0.0,0,0,80.0,0.0,499.0,4587.6923076923085,3958.9743589743593,4458.461538461539,4493.333333333334,4270.769230769231,4488.205128205129,4366.153846153847,4320.512820512821,4307.6923076923085,4655.8974358974365,4330.769230769231,4192.307692307693,4133.333333333334,4606.666666666667
3893.9636,0.7965883,0.45031258,0.32566032,0.4096235,0,0.0,0.0,0.0,0.0,0.0,0,0,0.0,0.0,0,0,96.0,0.0,499.0,4585.641025641026,3958.461538461539,4460.512820512821,4504.102564102564,4275.8974358974365,4494.358974358975,4376.923076923077,4324.615384615385,4320.512820512821,4652.307692307693,4323.589743589744,4184.615384615385,4140.000000000001,4608.205128205129
3893.9636,0.7965883,0.45031258,0.32566032,0.4096235,0,0.0,0.0,0.0,0.0,0.0,0,0,0.0,0.0,0,0,96.0,0.0,499.0,4585.641025641026,3958.461538461539,4460.512820512821,4504.102564102564,4275.8974358974365,4494.358974358975,4376.923076923077,4324.615384615385,4320.512820512821,4652.307692307693,4323.589743589744,4184.615384615385,4140.000000000001,4608.205128205129
3894.464,0.9109976,0.42233238,0.32907763,0.39859653,0,0.0,0.0,0.0,0.0,0.0,0,0,0.0,0.0,0,0,31.0,0.0,0.0,4568.717948717949,3929.2307692307695,4430.769230769231,4474.358974358975,4247.6923076923085,4476.410256410257,4349.2307692307695,4278.974358974359,4283.076923076924,4607.6923076923085,4265.128205128206,4119.48717948718,4090.7692307692314,4588.205128205129
3894.464,0.9109976,0.42233238,0.32907763,0.39859653,0,0.0,0.0,0.0,0.0,0.0,0,0,0.0,0.0,0,0,31.0,0.0,0.0,4568.717948717949,3929.2307692307695,4430.769230769231,4474.358974358975,4247.6923076923085,4476.410256410257,4349.2307692307695,4278.974358974359,4283.076923076924,4607.6923076923085,4265.128205128206,4119.48717948718,4090.7692307692314,4588.205128205129
3895.0896,1.0,0.40612274,0.33626667,0.39730555,0,0.0,0.0,0.0,0.0,0.0,0,0,0.0,0.0,0,0,111.0,0.0,387.0,4596.923076923077,3922.0512820512827,4431.282051282052,4461.025641025642,4260.000000000001,4497.435897435898,4377.948717948719,4297.948717948719,4277.948717948719,4618.461538461539,4268.205128205129,4115.384615384616,4089.23076923077,4582.051282051282
3895.3398,1.0,0.40612274,0.33626667,0.39730555,0,0.0,0.0,0.0,0.0,0.0,0,0,0.7674646,0.0,0,0,14.0,0.0,536.0,4600.000000000001,3913.333333333334,4437.948717948719,4447.179487179487,4250.256410256411,4495.8974358974365,4382.051282051282,4309.743589743591,4312.820512820514,4635.384615384616,4303.076923076924,4136.923076923077,4127.179487179487,4583.076923076924
3895.59,0.9782125,0.39860556,0.3465456,0.39816862,0,0.0,0.0,0.0,0.0,0.0,0,0,0.6391625,0.0,0,0,46.0,0.0,0.0,4585.641025641026,3879.48717948718,4443.589743589744,4446.666666666667,4274.871794871796,4507.179487179488,4391.794871794872,4325.128205128206,4332.307692307693,4653.846153846154,4318.461538461539,4141.025641025642,4153.333333333334,4583.076923076924
3895.84,0.9782125,0.39860556,0.3465456,0.39816862,0,0.0,0.0,0.0,0.0,0.0,0,0,0.93145376,0.0,0,0,78.0,0.0,536.0,4598.461538461539,3900.0000000000005,4457.435897435898,4435.384615384616,4294.871794871796,4526.153846153847,4408.717948717949,4337.435897435898,4347.6923076923085,4667.179487179488,4333.333333333334,4155.384615384616,4167.179487179487,4572.307692307693
3896.0903,0.9791885,0.4076571,0.35579646,0.40112776,0,0.0,0.0,0.0,0.0,0.0,0,0,0.40424427,0.0,0,0,110.0,0.0,536.0,4603.589743589744,3909.2307692307695,4473.333333333334,4443.589743589744,4286.153846153847,4525.641025641026,4403.589743589744,4340.000000000001,4350.769230769231,4670.256410256411,4346.666666666667,4162.051282051282,4186.153846153847,4603.589743589744
3896.2156,0.9791885,0.4076571,0.35579646,0.40112776,0,0.0,0.0,0.0,0.0,0.0,0,0,0.0,0.0,0,0,126.0,0.0,536.0,4583.076923076924,3889.2307692307695,4446.153846153847,4425.128205128206,4264.615384615385,4520.512820512821,4400.512820512821,4330.769230769231,4327.6923076923085,4670.769230769231,4320.512820512821,4137.948717948719,4153.333333333334,4590.769230769231
3896.4658,0.90940285,0.40343812,0.3656468,0.40379238,0,0.0,0.0,0.0,0.0,0.0,0,0,0.0,0.0,0,0,29.0,0.0,0.0,4590.769230769231,3911.2820512820517,4463.589743589744,4426.666666666667,4227.179487179487,4525.128205128206,4414.358974358975,4351.282051282052,4306.666666666667,4676.410256410257,4327.179487179487,4154.358974358975,4141.538461538462,4583.589743589744
3896.841,0.90940285,0.40343812,0.3656468,0.40379238,0,0.0,0.0,0.0,0.0,0.18946561,0,0,0.0,0.0,0,0,77.0,0.0,465.0,4623.076923076924,3929.7435897435903,4458.461538461539,4434.871794871796,4242.051282051282,4535.384615384616,4394.871794871796,4345.128205128206,4294.871794871796,4681.025641025642,4345.641025641026,4154.871794871796,4169.2307692307695,4570.769230769231
3897.0913,0.7917802,0.39613983,0.3745116,0.40726104,0,0.0,0.0,0.0,0.0,0.0,0,0,0.48864135,0.0,0,0,109.0,0.0,465.0,4627.179487179488,3941.0256410256416,4479.48717948718,4446.153846153847,4256.923076923077,4553.846153846154,4412.820512820514,4357.948717948719,4295.384615384616,4684.615384615386,4345.128205128206,4171.282051282052,4182.564102564103,4563.589743589744
3897.404,0.7917802,0.39613983,0.3745116,0.40726104,1,0.0,0.0,0.0,0.0,0.0,0,0,0.4238525,0.0,0,0,20.0,0.0,0.0,4634.358974358975,3942.0512820512827,4473.846153846154,4430.769230769231,4238.461538461539,4537.948717948719,4410.256410256411,4361.538461538462,4312.307692307693,4702.564102564103,4366.666666666667,4180.000000000001,4210.256410256411,4549.2307692307695
3897.5603,0.72743237,0.40003043,0.38207555,0.41074494,0,0.0,0.0,0.0,0.0,0.0,0,0,0.0,0.0,0,0,40.0,0.0,0.0,4584.615384615385,3927.692307692308,4464.615384615385,4427.6923076923085,4173.846153846154,4543.076923076924,4418.974358974359,4377.435897435898,4312.820512820514,4695.8974358974365,4351.794871794872,4167.179487179487,4185.128205128206,4534.871794871796
3897.5603,0.72743237,0.40003043,0.38207555,0.41074494,0,0.0,0.0,0.0,0.0,0.0,0,0,0.0,0.0,0,0,40.0,0.0,0.0,4584.615384615385,3927.692307692308,4464.615384615385,4427.6923076923085,4173.846153846154,4543.076923076924,4418.974358974359,4377.435897435898,4312.820512820514,4695.8974358974365,4351.794871794872,4167.179487179487,4185.128205128206,4534.871794871796
3897.967,0.63883317,0.40045023,0.3797821,0.41388154,0,0.0,0.0,0.0,0.0,0.0,0,0,0.0,0.0,0,0,92.0,0.0,502.0,4575.384615384616,3927.692307692308,4461.538461538462,4430.256410256411,4177.948717948719,4535.384615384616,4417.435897435898,4377.948717948719,4353.846153846154,4718.974358974359,4365.641025641026,4184.615384615385,4191.282051282052,4518.974358974359
3898.3423,0.63883317,0.40045023,0.3797821,0.41388154,0,0.0,0.0,0.0,0.0,0.0,0,0,0.9604784,0.0,0,0,11.0,0.0,387.0,4600.000000000001,3945.1282051282055,4475.384615384616,4444.102564102564,4221.538461538462,4554.358974358975,4427.179487179487,4392.820512820514,4380.000000000001,4738.461538461539,4380.000000000001,4194.871794871796,4217.435897435898,4514.871794871796
3898.5925,0.6285751,0.4152968,0.3686052,0.4184407,0,0.0,0.0,0.0,0.0,0.0,0,0,0.20461355,0.0,0,0,43.0,0.0,0.0,4600.512820512821,3939.48717948718,4480.000000000001,4449.743589743591,4218.974358974359,4536.410256410257,4424.102564102564,4390.256410256411,4381.538461538462,4729.743589743591,4381.025641025642,4202.564102564103,4197.948717948719,4508.717948717949
3898.8428,0.6285751,0.4152968,0.3686052,0.4184407,0,0.0,0.0,0.0,0.0,0.0,0,0,0.61205107,0.0,0,0,75.0,0.0,387.0,4516.923076923077,3907.692307692308,4443.076923076924,4419.48717948718,4251.794871794872,4549.743589743591,4432.307692307693,4413.333333333334,4414.871794871796,4765.128205128206,4421.025641025642,4201.025641025642,4234.871794871796,4491.794871794872
3899.093,0.5652597,0.43197575,0.3585455,0.42080966,0,0.0,0.0,0.0,0.0,0.0,0,0,0.6576426,0.0,0,0,107.0,0.0,387.0,4571.282051282052,3932.820512820513,4481.025641025642,4447.6923076923085,4248.717948717949,4554.358974358975,4434.358974358975,4416.410256410257,4416.410256410257,4751.282051282052,4413.846153846154,4214.871794871796,4230.256410256411,4512.307692307693
3899.218,0.5652597,0.43197575,0.3585455,0.42080966,0,0.0,0.0,0.0,0.0,0.0,0,0,1.0,0.0,0,0,123.0,0.0,387.0,4677.435897435898,3940.5128205128212,4505.128205128206,4454.871794871796,4234.358974358975,4540.000000000001,4441.538461538462,4406.666666666667,4375.384615384616,4720.000000000001,4388.717948717949,4241.025641025642,4183.589743589744,4522.564102564103
3899.5935,0.4976608,0.45687035,0.34949148,0.42168704,0,0.0,0.0,0.0,0.0,0.0,0,0,0.49701378,0.0,0,0,42.0,0.0,0.0,4664.615384615386,3901.0256410256416,4518.461538461539,4441.025641025642,4185.641025641026,4553.846153846154,4470.256410256411,4438.974358974359,4421.025641025642,4748.717948717949,4422.051282051282,4263.076923076924,4226.666666666667,4506.666666666667
3899.7185,0.4976608,0.45687035,0.34949148,0.42168704,0,0.0,0.0,0.0,0.0,0.0,0,0,1.0,0.0,0,0,58.0,0.0,0.0,4682.051282051282,3916.9230769230776,4536.410256410257,4452.307692307693,4165.641025641026,4556.923076923077,4494.358974358975,4476.410256410257,4464.102564102564,4771.282051282052,4456.410256410257,4294.358974358975,4250.256410256411,4517.435897435898
3899.9688,0.52715206,0.48006308,0.34987664,0.41570398,0,0.0,0.0,0.0,0.0,0.0,0,0,1.0,0.0,0,0,90.0,0.0,536.0,4754.358974358975,3910.7692307692314,4570.256410256411,4431.794871794872,4169.2307692307695,4583.589743589744,4526.153846153847,4526.153846153847,4511.794871794872,4844.615384615386,4516.410256410257,4358.461538461539,4302.051282051282,4550.256410256411
3900.344,0.52715206,0.48006308,0.34987664,0.41570398,0,0.0,0.0,0.0,0.0,0.0,0,0,0.79865545,0.0,0,0,9.0,0.0,471.0,5027.179487179488,3883.076923076924,4846.666666666667,4393.333333333334,4073.8461538461543,4670.256410256411,4830.256410256411,5003.076923076924,4850.256410256411,5212.820512820514,4862.051282051283,4828.717948717949,4591.794871794872,4704.615384615386
3900.5942,0.6738938,0.50093687,0.3579956,0.41032234,0,0.0,0.0,0.1248931,0.0,0.0,0,0,0.0,0.0,0,0,41.0,0.0,0.0,5264.102564102564,4091.2820512820517,5017.948717948719,4500.512820512821,4197.435897435898,4782.564102564103,4968.205128205129,5189.743589743591,4912.820512820514,5349.2307692307695,4918.974358974359,5073.333333333334,4687.6923076923085,4840.512820512821
3900.8445,0.6738938,0.50093687,0.3579956,0.41032234,0,0.0,0.0,0.0,0.0,0.44654754,0,0,0.0,0.0,0,0,73.0,0.0,466.0,5322.051282051283,4262.051282051282,5038.461538461539,4651.282051282052,4335.384615384616,4782.564102564103,4939.48717948718,5168.205128205129,4809.743589743591,5345.128205128206,4846.153846153847,5067.6923076923085,4705.128205128206,4907.179487179488
3901.0947,0.8030265,0.51972324,0.36660326,0.407086,0,0.0,0.0,0.0,0.0,0.0,0,0,0.8163798,0.0,0,0,105.0,0.0,445.0,5258.974358974359,4338.461538461539,4951.794871794872,4707.179487179488,4412.820512820514,4733.333333333334,4774.358974358975,4996.410256410257,4619.48717948718,5227.179487179488,4761.025641025642,4896.410256410257,4549.743589743591,4878.461538461539
3901.4387,0.8030265,0.51972324,0.36660326,0.407086,1,0.0,0.0,0.0,0.0,0.0,0,0,0.3763456,0.0,0,0,20.0,0.0,0.0,5177.435897435898,4337.948717948719,4704.615384615386,4752.307692307693,4443.589743589744,4625.641025641026,4535.384615384616,4693.333333333334,4351.794871794872,4952.820512820514,4592.307692307693,4632.820512820514,4314.358974358975,4816.923076923077
3901.5952,0.91666335,0.536631,0.3744923,0.3943981,0,0.0,0.0,0.0,0.0,0.0,0,0,0.64743847,0.0,0,0,40.0,0.0,0.0,5008.205128205129,4273.333333333334,4601.025641025642,4705.641025641026,4445.641025641026,4576.923076923077,4478.461538461539,4546.153846153847,4278.461538461539,4851.282051282052,4500.000000000001,4472.820512820514,4215.384615384616,4763.076923076924
3901.8455,0.91666335,0.536631,0.3744923,0.3943981,0,0.0,0.0,0.0,0.0,0.15462764,0,0,0.0,0.0,0,0,72.0,0.0,501.0,4811.794871794872,4174.358974358975,4493.846153846154,4650.769230769231,4412.307692307693,4508.205128205129,4371.794871794872,4343.076923076924,4200.000000000001,4700.512820512821,4381.025641025642,4280.512820512821,4124.102564102564,4678.974358974359
3902.0955,1.0,0.55184793,0.38159177,0.38606107,0,0.0,0.0,0.0,0.0,0.13472372,0,0,0.0,0.0,0,0,104.0,0.0,494.0,4655.384615384616,4080.0000000000005,4395.8974358974365,4572.307692307693,4402.051282051282,4473.846153846154,4318.461538461539,4218.461538461539,4168.205128205129,4576.410256410257,4268.205128205129,4134.358974358975,4041.0256410256416,4608.717948717949
3902.3457,1.0,0.55184793,0.38159177,0.38606107,0,0.0,0.0,0.0,0.0,0.0,0,0,0.0,0.0,0,0,7.0,0.0,481.0,4583.589743589744,4028.205128205129,4388.205128205129,4523.076923076924,4361.538461538462,4473.846153846154,4315.384615384616,4202.564102564103,4217.435897435898,4573.846153846154,4251.794871794872,4075.3846153846157,4034.358974358975,4560.512820512821
3902.596,1.0,0.56554323,0.38798055,0.3785631,0,0.0,0.0,0.0,0.0,0.15185837,0,0,0.0,0.0,0,0,39.0,0.0,0.0,4485.128205128206,3940.0000000000005,4352.820512820514,4391.794871794872,4324.102564102564,4453.846153846154,4322.564102564103,4189.2307692307695,4225.641025641026,4549.743589743591,4215.8974358974365,4019.48717948718,4012.820512820513,4502.564102564103
3902.8462,1.0,0.56554323,0.38798055,0.3785631,0,0.0,0.0,0.0,0.0,0.0,0,0,0.19596371,0.0,0,0,71.0,0.0,481.0,4472.307692307693,3910.2564102564106,4352.307692307693,4337.435897435898,4309.2307692307695,4457.948717948719,4324.615384615385,4177.948717948719,4220.512820512821,4582.051282051282,4240.000000000001,4013.8461538461543,4061.0256410256416,4505.641025641026
3903.0964,0.9137714,0.577869,0.39323506,0.37593856,0,0.0,0.0,0.0,0.0,0.0,0,0,0.3627934,0.0,0,0,103.0,0.0,382.0,4438.974358974359,3857.9487179487182,4344.615384615385,4327.179487179487,4283.076923076924,4451.794871794872,4296.410256410257,4170.256410256411,4216.923076923077,4532.820512820514,4204.615384615385,3977.9487179487182,4028.205128205129,4496.923076923077
3903.3467,0.9137714,0.577869,0.39323506,0.37593856,0,0.0,0.0,0.0,0.0,0.07521136,0,0,0.0,0.0,0,0,6.0,0.0,533.0,4459.48717948718,3861.538461538462,4356.923076923077,4334.871794871796,4268.205128205129,4473.333333333334,4313.333333333334,4194.871794871796,4261.025641025642,4541.538461538462,4230.769230769231,3987.1794871794878,4048.205128205129,4505.128205128206
3903.4717,1.0,0.5889622,0.39105195,0.37358043,0,0.0,0.0,0.0,0.0,0.0,0,0,0.0,0.0,0,0,22.0,0.0,0.0,4492.820512820514,3883.076923076924,4372.820512820514,4333.846153846154,4247.6923076923085,4482.564102564103,4328.717948717949,4210.256410256411,4283.589743589744,4567.6923076923085,4236.410256410257,4002.0512820512827,4060.5128205128212,4508.205128205129
3903.4717,1.0,0.5889622,0.39105195,0.37358043,0,0.0,0.0,0.0,0.0,0.0,0,0,0.0,0.0,0,0,22.0,0.0,0.0,4492.820512820514,3883.076923076924,4372.820512820514,4333.846153846154,4247.6923076923085,4482.564102564103,4328.717948717949,4210.256410256411,4283.589743589744,4567.6923076923085,4236.410256410257,4002.0512820512827,4060.5128205128212,4508.205128205129
3903.9722,1.0,0.59894603,0.3890864,0.37146202,0,0.0,0.0,0.0,0.0,0.0,0,0,0.0,0.0,0,0,86.0,0.0,534.0,4526.666666666667,3913.8461538461543,4404.102564102564,4342.051282051282,4370.256410256411,4509.743589743591,4344.102564102564,4238.974358974359,4292.820512820514,4552.307692307693,4256.923076923077,4025.6410256410263,4086.1538461538466,4481.538461538462
3904.3474,1.0,0.59894603,0.3890864,0.37146202,0,0.72727424,0.0,0.0,0.0,0.0,0,0,0.0,0.0,0,0,5.0,0.0,559.0,4528.717948717949,3942.0512820512827,4410.769230769231,4347.6923076923085,4252.307692307693,4483.589743589744,4328.205128205129,4247.179487179487,4291.794871794872,4580.512820512821,4207.179487179487,4032.307692307693,4108.717948717949,4458.974358974359
3904.5977,1.0,0.6079315,0.3820053,0.3802687,0,1.0,0.0,0.0,0.0,0.0,0,0,0.0,0.0,0,0,37.0,0.0,0.0,4563.076923076924,3779.48717948718,4444.615384615385,4274.871794871796,4062.0512820512827,4478.974358974359,4383.589743589744,4314.358974358975,4350.256410256411,4712.820512820514,4303.076923076924,4109.74358974359,4135.384615384616,4496.923076923077
3904.723,1.0,0.6079315,0.3820053,0.3802687,0,0.0,0.0,1.0,0.0,0.0,0,0,0.0,0.0,0,0,53.0,0.0,0.0,4601.025641025642,3780.512820512821,4500.512820512821,4274.871794871796,4040.5128205128212,4504.102564102564,4427.179487179487,4378.974358974359,4411.282051282052,4757.435897435898,4377.435897435898,4182.051282051282,4193.333333333334,4503.589743589744
3905.0981,1.0,0.6160184,0.3771319,0.39748847,0,0.0,0.0,0.41605175,0.0,0.0,0,0,0.0,0.0,0,0,101.0,0.0,464.0,4960.512820512821,3799.48717948718,4765.641025641026,4343.076923076924,4004.615384615385,4540.512820512821,4640.000000000001,4751.282051282052,4667.179487179488,4969.2307692307695,4695.8974358974365,4622.051282051282,4502.051282051282,4716.923076923077
3905.3484,1.0,0.6160184,0.3771319,0.39748847,0,0.0,0.0,0.17556952,0.0,0.0,0,0,0.0,0.0,0,0,4.0,0.0,563.0,5068.717948717949,3907.692307692308,4944.102564102564,4448.717948717949,4039.48717948718,4608.717948717949,4816.923076923077,5023.589743589744,4765.641025641026,5211.794871794872,4765.641025641026,4907.179487179488,4615.384615384616,4802.051282051282
3905.5986,1.0,0.6232967,0.3727453,0.41298416,0,0.0,0.0,0.0,0.0,0.0,0,0,0.0,0.0,0,0,36.0,0.0,0.0,5144.615384615386,4088.717948717949,5010.769230769231,4554.358974358975,4147.179487179487,4646.153846153847,4835.384615384616,5073.846153846154,4751.794871794872,5309.2307692307695,4807.6923076923085,4970.769230769231,4718.461538461539,4880.000000000001
3905.5986,1.0,0.6232967,0.3727453,0.41298416,0,0.0,0.0,0.0,0.0,0.0,0,0,0.0,0.0,0,0,36.0,0.0,0.0,5144.615384615386,4088.717948717949,5010.769230769231,4554.358974358975,4147.179487179487,4646.153846153847,4835.384615384616,5073.846153846154,4751.794871794872,5309.2307692307695,4807.6923076923085,4970.769230769231,4718.461538461539,4880.000000000001
3906.099,1.0,0.62984705,0.36879742,0.4269289,0,0.0,0.0,0.0,0.0,0.0,0,0,0.6499118,0.0,0,0,100.0,0.0,489.0,4935.8974358974365,4210.256410256411,4691.794871794872,4603.589743589744,4294.358974358975,4552.307692307693,4580.000000000001,4638.974358974359,4420.512820512821,5007.179487179488,4526.666666666667,4586.153846153847,4404.102564102564,4764.102564102564
3906.349,1.0,0.62984705,0.36879742,0.4269289,0,0.0,0.0,0.24347278,0.0,0.0,0,0,0.0,0.0,0,0,3.0,0.0,541.0,4799.48717948718,4221.025641025642,4571.794871794872,4570.256410256411,4295.8974358974365,4508.717948717949,4410.769230769231,4407.179487179487,4284.615384615385,4880.000000000001,4342.564102564103,4341.025641025642,4170.256410256411,4673.333333333334
3906.5994,1.0,0.6357424,0.365245,0.4394784,0,0.0,0.0,0.1249205,0.0,0.0,0,0,0.0,0.0,0,0,35.0,0.0,0.0,4672.307692307693,4148.205128205129,4479.48717948718,4512.307692307693,4287.179487179487,4488.205128205129,4328.205128205129,4270.769230769231,4217.948717948719,4717.435897435898,4276.923076923077,4195.8974358974365,4082.564102564103,4617.948717948719
3906.8496,1.0,0.6357424,0.365245,0.4394784,0,0.0,0.0,0.0,0.0,0.0,0,0,1.0,0.0,0,0,67.0,0.0,541.0,4521.538461538462,4112.820512820514,4366.153846153847,4510.769230769231,4312.307692307693,4440.512820512821,4262.051282051282,4171.794871794872,4131.282051282052,4580.512820512821,4140.512820512821,4063.589743589744,3993.8461538461543,4553.846153846154
3906.9749,1.0,0.64104825,0.3620474,0.4507725,0,0.0,0.0,0.0,0.0,0.0,0,0,1.0,0.0,0,0,83.0,0.0,384.0,4477.435897435898,4204.102564102564,4356.923076923077,4508.717948717949,4303.589743589744,4449.743589743591,4260.000000000001,4150.769230769231,4133.333333333334,4579.48717948718,4081.0256410256416,4034.358974358975,4020.5128205128212,4533.846153846154
3907.35,1.0,0.64104825,0.3620474,0.4507725,0,0.0,0.0,0.0,0.0,0.0,0,0,0.2761579,0.0,0,0,2.0,0.0,438.0,4398.974358974359,3956.410256410257,4349.743589743591,4408.717948717949,4269.74358974359,4455.384615384616,4284.615384615385,4183.076923076924,4198.461538461539,4524.615384615385,4127.6923076923085,4006.1538461538466,4044.615384615385,4507.179487179488
3907.6003,0.98842967,0.64582354,0.36504903,0.4631946,0,0.0,0.0,0.0,0.0,0.0,0,0,1.0,0.0,0,0,34.0,0.0,0.0,4355.8974358974365,3823.076923076924,4347.179487179487,4370.256410256411,4221.538461538462,4458.461538461539,4297.435897435898,4198.974358974359,4218.461538461539,4581.025641025642,4172.820512820514,3981.0256410256416,4021.538461538462,4489.743589743591
3907.8506,0.98842967,0.64582354,0.36504903,0.4631946,0,0.0,0.0,0.0,0.0,0.0,0,0,0.71109396,0.0,0,0,66.0,0.0,444.0,4369.743589743591,3834.8717948717954,4377.435897435898,4374.358974358975,4265.128205128206,4459.48717948718,4309.743589743591,4212.820512820514,4227.179487179487,4546.666666666667,4185.641025641026,3986.1538461538466,4015.3846153846157,4462.564102564103
3907.9756,0.9140389,0.6501212,0.3768236,0.48121935,0,0.0,0.0,0.0,0.0,0.0,0,0,1.0,0.0,0,0,82.0,0.0,535.0,4380.512820512821,3853.333333333334,4381.025641025642,4387.6923076923085,4282.564102564103,4462.051282051282,4302.051282051282,4214.871794871796,4236.410256410257,4555.8974358974365,4205.641025641026,3996.9230769230776,4047.1794871794878,4471.282051282052
3907.9756,0.9140389,0.6501212,0.3768236,0.48121935,0,0.0,0.0,0.0,0.0,0.0,0,0,1.0,0.0,0,0,82.0,0.0,535.0,4380.512820512821,3853.333333333334,4381.025641025642,4387.6923076923085,4282.564102564103,4462.051282051282,4302.051282051282,4214.871794871796,4236.410256410257,4555.8974358974365,4205.641025641026,3996.9230769230776,4047.1794871794878,4471.282051282052
3908.601,0.9980021,0.6539892,0.39640287,0.51065695,0,0.0,0.0,0.30992854,0.0,0.0,0,0,0.0,0.0,0,0,33.0,0.0,0.0,4389.743589743591,3813.8461538461543,4430.769230769231,4336.923076923077,4221.025641025642,4477.948717948719,4363.076923076924,4266.153846153847,4290.769230769231,4536.410256410257,4241.025641025642,4049.7435897435903,4090.7692307692314,4453.846153846154
3908.8513,0.9980021,0.6539892,0.39640287,0.51065695,0,0.0,0.0,0.48668343,0.0,0.0,0,0,0.0,0.0,0,0,65.0,0.0,496.0,4465.641025641026,3832.820512820513,4486.153846153847,4357.435897435898,4200.000000000001,4523.076923076924,4444.615384615385,4373.846153846154,4391.794871794872,4686.666666666667,4316.923076923077,4130.256410256411,4188.205128205129,4477.948717948719
3909.1016,1.0,0.65747035,0.42328066,0.55006385,0,0.0,0.0,0.8258084,0.0,0.0,0,0,0.0,0.0,0,0,97.0,0.0,463.0,4535.8974358974365,3871.2820512820517,4552.820512820514,4379.48717948718,4159.48717948718,4535.8974358974365,4509.743589743591,4444.615384615385,4455.8974358974365,4765.128205128206,4384.615384615385,4214.871794871796,4245.128205128206,4487.179487179488
3909.3518,1.0,0.65747035,0.42328066,0.55006385,0,0.0,0.0,0.6428808,0.0,0.0,0,0,0.0,0.0,0,0,0.0,0.0,487.0,4569.2307692307695,3908.205128205129,4577.948717948719,4411.794871794872,4169.74358974359,4555.8974358974365,4523.589743589744,4475.384615384616,4444.615384615385,4786.666666666667,4421.025641025642,4267.179487179487,4276.923076923077,4513.333333333334
3909.4768,1.0,0.6606034,0.44746813,0.590883,0,0.0,0.0,0.0,0.0,0.0,0,0,1.0,0.0,0,0,16.0,0.0,0.0,4569.743589743591,3908.717948717949,4567.6923076923085,4407.179487179487,4178.974358974359,4552.307692307693,4523.076923076924,4489.743589743591,4432.307692307693,4812.307692307693,4445.641025641026,4277.948717948719,4283.589743589744,4513.333333333334
3909.946,1.0,0.6606034,0.44746813,0.590883,1,0.0,0.0,0.0,0.0,0.0,0,0,0.30872378,0.0,0,0,76.0,0.0,501.0,4684.615384615386,4041.0256410256416,4560.512820512821,4433.333333333334,4236.923076923077,4536.923076923077,4476.410256410257,4415.8974358974365,4345.128205128206,4726.666666666667,4394.358974358975,4253.333333333334,4314.358974358975,4528.717948717949
3910.1025,0.90933233,0.6634231,0.46923345,0.6276187,0,0.0,0.0,0.24914156,0.0,0.0,0,0,0.0,0.0,0,0,96.0,0.0,501.0,4564.615384615385,4013.333333333334,4515.384615384616,4413.333333333334,4265.641025641026,4541.025641025642,4471.282051282052,4402.051282051282,4339.48717948718,4707.179487179488,4349.2307692307695,4198.974358974359,4250.256410256411,4459.48717948718
3910.3528,0.90933233,0.6634231,0.46923345,0.6276187,0,0.0,0.0,0.9267024,0.0,0.0,0,0,0.0,0.0,0,0,128.0,0.0,501.0,4516.410256410257,3961.0256410256416,4456.923076923077,4389.2307692307695,4230.769230769231,4506.153846153847,4413.846153846154,4338.461538461539,4257.948717948719,4669.743589743591,4260.512820512821,4143.589743589744,4156.410256410257,4439.48717948718
3910.4778,0.89317364,0.7159244,0.4722897,0.66067684,0,0.0,0.0,1.0,0.0,0.0,0,0,0.0,0.0,0,0,15.0,0.0,386.0,4521.538461538462,3967.692307692308,4458.461538461539,4393.333333333334,4279.48717948718,4524.615384615385,4428.205128205129,4337.435897435898,4270.256410256411,4704.615384615386,4246.153846153847,4140.000000000001,4156.410256410257,4445.641025641026
3910.853,0.89317364,0.7159244,0.4722897,0.66067684,0,0.0,0.0,0.30561018,0.0,0.0,0,0,0.0,0.0,0,0,63.0,0.0,0.0,4651.794871794872,3813.8461538461543,4617.435897435898,4333.846153846154,4167.6923076923085,4559.48717948718,4572.307692307693,4555.8974358974365,4431.794871794872,4846.153846153847,4409.743589743591,4372.820512820514,4252.820512820514,4538.461538461539
3911.1033,0.8735862,0.7632148,0.4565382,0.68102384,0,0.0,0.0,0.3306126,0.0,0.0,0,0,0.0,0.0,0,0,95.0,0.0,389.0,4940.512820512821,3835.8974358974365,4940.000000000001,4373.333333333334,4048.717948717949,4655.8974358974365,4892.307692307693,5031.282051282052,4751.794871794872,5245.128205128206,4792.307692307693,4906.153846153847,4539.48717948718,4753.846153846154
3911.3535,0.8735862,0.7632148,0.4565382,0.68102384,0,0.0,0.0,0.3711656,0.0,0.0,0,0,0.0,0.0,0,0,127.0,0.0,389.0,5209.743589743591,4056.410256410257,5165.641025641026,4432.820512820514,4038.461538461539,4732.820512820514,5070.769230769231,5332.307692307693,4886.666666666667,5472.820512820514,4948.717948717949,5237.948717948719,4691.282051282052,4921.538461538462
3911.6038,0.9787558,0.80577624,0.44236088,0.69069797,0,0.0,0.0,0.31766483,0.0,0.0,0,0,0.0,0.0,0,0,30.0,0.0,0.0,5256.923076923078,4202.564102564103,5009.743589743591,4512.307692307693,4148.717948717949,4748.205128205129,5016.923076923077,5236.923076923078,4766.153846153847,5409.743589743591,4872.820512820514,5164.615384615386,4653.333333333334,4925.641025641026
3911.854,0.9787558,0.80577624,0.44236088,0.69069797,0,0.0,0.0,0.0,0.0,0.0,0,0,0.82125217,0.0,0,0,62.0,0.0,0.0,5153.846153846154,4213.333333333334,4830.769230769231,4536.923076923077,4209.2307692307695,4685.641025641026,4843.589743589744,5011.282051282052,4581.538461538462,5238.461538461539,4672.307692307693,4936.410256410257,4473.333333333334,4857.435897435898
3912.1042,1.0,0.8440815,0.4296003,0.69902796,0,0.0,0.0,0.29716027,0.0,0.0,0,0,0.0,0.0,0,0,94.0,0.0,526.0,4990.256410256411,4135.8974358974365,4661.538461538462,4525.128205128206,4238.461538461539,4629.2307692307695,4674.358974358975,4772.307692307693,4469.2307692307695,5050.769230769231,4555.384615384616,4677.948717948719,4321.538461538462,4803.589743589744
3912.3545,1.0,0.8440815,0.4296003,0.69902796,0,0.0,0.0,0.26576844,0.0,0.0,0,0,0.0,0.0,0,0,126.0,0.0,526.0,4763.589743589744,4023.589743589744,4474.871794871796,4544.615384615385,4279.48717948718,4524.615384615385,4456.410256410257,4494.871794871796,4309.2307692307695,4816.410256410257,4393.846153846154,4398.461538461539,4181.025641025642,4734.871794871796
3912.6045,1.0,0.87855625,0.41914132,0.6987332,0,0.0,0.0,0.0,0.0,0.0,0,0,0.7898398,0.0,0,0,29.0,0.0,0.0,4545.128205128206,3993.8461538461543,4316.410256410257,4530.256410256411,4297.948717948719,4458.974358974359,4286.153846153847,4255.8974358974365,4181.538461538462,4614.358974358975,4187.6923076923085,4135.8974358974365,4033.333333333334,4612.307692307693
3912.8547,1.0,0.87855625,0.41914132,0.6987332,0,0.0,0.0,0.0,0.0,0.0,0,0,0.77040666,0.0,0,0,61.0,0.0,0.0,4365.128205128206,3898.9743589743593,4244.102564102564,4437.435897435898,4241.538461538462,4374.871794871796,4198.974358974359,4112.820512820514,4103.589743589744,4458.461538461539,4101.025641025642,3971.2820512820517,3922.564102564103,4516.410256410257
3913.105,1.0,0.9095835,0.4207509,0.69289404,0,0.0,0.0,0.0,0.0,0.0,0,0,1.0,0.0,0,0,93.0,0.0,462.0,4343.076923076924,3889.2307692307695,4247.6923076923085,4448.717948717949,4267.6923076923085,4375.384615384616,4168.717948717949,4064.1025641025644,4081.0256410256416,4382.051282051282,4045.6410256410263,3912.307692307693,3850.2564102564106,4461.538461538462
3913.3552,1.0,0.9095835,0.4207509,0.69289404,0,0.0,0.0,0.0,0.0,0.0,0,0,0.9214511,0.0,0,0,125.0,0.0,462.0,4323.589743589744,3864.1025641025644,4262.051282051282,4426.153846153847,4266.153846153847,4396.923076923077,4185.128205128206,4063.076923076924,4114.871794871796,4400.512820512821,4060.0000000000005,3892.820512820513,3895.8974358974365,4438.974358974359
3913.6055,0.9889232,0.93750805,0.43117058,0.68393016,0,0.0,0.0,0.0,0.0,0.0,0,0,0.27780506,0.0,0,0,28.0,0.0,0.0,4308.717948717949,3830.7692307692314,4301.025641025642,4391.794871794872,4243.076923076924,4415.384615384616,4217.435897435898,4092.307692307693,4144.102564102564,4409.2307692307695,4082.0512820512827,3896.410256410257,3918.9743589743593,4419.48717948718
3913.8557,0.9889232,0.93750805,0.43117058,0.68393016,0,0.0,0.0,0.0,0.0,0.0,0,0,0.5677149,0.0,0,0,60.0,0.0,0.0,4335.8974358974365,3841.0256410256416,4342.564102564103,4372.820512820514,4265.128205128206,4446.153846153847,4251.282051282052,4126.153846153847,4200.000000000001,4455.8974358974365,4129.74358974359,3907.692307692308,3961.0256410256416,4410.769230769231
3914.106,1.0,0.9626401,0.44606116,0.6758627,0,0.0,0.0,0.0,0.0,0.0,0,0,0.8481781,0.0,0,0,92.0,0.0,507.0,4334.871794871796,3849.7435897435903,4377.435897435898,4400.000000000001,4272.820512820514,4458.974358974359,4285.641025641026,4172.820512820514,4263.076923076924,4505.641025641026,4222.051282051282,3961.538461538462,4071.2820512820517,4431.794871794872
3914.3562,1.0,0.9626401,0.44606116,0.6758627,0,0.0,0.0,0.24727744,0.0,0.0,0,0,0.0,0.0,0,0,124.0,0.0,507.0,4350.769230769231,3862.0512820512827,4394.358974358975,4386.153846153847,4275.384615384616,4477.435897435898,4312.307692307693,4192.820512820514,4268.205128205129,4518.461538461539,4215.8974358974365,3975.3846153846157,4055.3846153846157,4425.641025641026
3914.6062,1.0,0.985259,0.45946002,0.67231023,0,0.0,0.0,0.0,0.0,0.0,0,0,1.0,0.0,0,0,27.0,0.0,0.0,4380.000000000001,3868.717948717949,4414.871794871796,4376.923076923077,4271.282051282052,4488.717948717949,4335.384615384616,4207.179487179487,4272.307692307693,4544.615384615385,4231.794871794872,4003.589743589744,4084.1025641025644,4427.6923076923085
3914.6062,1.0,0.985259,0.45946002,0.67231023,0,0.0,0.0,0.0,0.0,0.0,0,0,1.0,0.0,0,0,27.0,0.0,0.0,4380.000000000001,3868.717948717949,4414.871794871796,4376.923076923077,4271.282051282052,4488.717948717949,4335.384615384616,4207.179487179487,4272.307692307693,4544.615384615385,4231.794871794872,4003.589743589744,4084.1025641025644,4427.6923076923085
3915.1067,1.0,1.0,0.4614425,0.6759509,0,0.0,0.0,0.0,0.0,0.0,0,0,0.775237,0.0,0,0,91.0,0.0,385.0,4430.256410256411,3907.692307692308,4450.256410256411,4380.512820512821,4259.48717948718,4504.615384615385,4365.641025641026,4232.820512820514,4267.6923076923085,4553.333333333334,4221.538461538462,4026.666666666667,4067.692307692308,4412.820512820514
3915.357,1.0,1.0,0.4614425,0.6759509,0,0.0,0.0,0.0,0.0,0.0,0,0,0.6440754,0.0,0,0,123.0,0.0,385.0,4425.128205128206,3878.461538461539,4461.025641025642,4392.820512820514,4268.205128205129,4525.641025641026,4395.384615384616,4271.282051282052,4301.025641025642,4585.128205128206,4277.435897435898,4077.9487179487187,4108.717948717949,4430.256410256411
3915.6072,0.97791076,1.0,0.45752856,0.6792253,0,0.0,0.0,0.0,0.0,0.0,0,0,0.80614,0.0,0,0,26.0,0.0,0.0,4416.410256410257,3880.0000000000005,4462.564102564103,4369.743589743591,4232.307692307693,4515.8974358974365,4387.179487179487,4288.717948717949,4326.666666666667,4616.923076923077,4307.179487179487,4109.74358974359,4125.641025641026,4429.743589743591
3915.8574,0.97791076,1.0,0.45752856,0.6792253,0,0.0,0.0,0.0,0.0,0.0,0,0,0.0,0.0,0,0,58.0,0.0,0.0,4413.846153846154,3838.461538461539,4452.820512820514,4356.410256410257,4197.948717948719,4514.871794871796,4397.435897435898,4297.435897435898,4310.256410256411,4622.051282051282,4288.205128205129,4104.102564102564,4106.666666666667,4413.846153846154
3915.9824,0.91763145,1.0,0.44420445,0.69199646,0,0.0,0.0,0.0,0.0,0.0,0,0,0.0,0.0,0,0,74.0,0.0,535.0,4446.153846153847,3860.0000000000005,4470.256410256411,4360.000000000001,4214.358974358975,4533.846153846154,4408.205128205129,4323.076923076924,4344.102564102564,4643.589743589744,4334.358974358975,4137.948717948719,4149.2307692307695,4442.051282051282
3916.2327,0.91763145,1.0,0.44420445,0.69199646,0,0.0,0.0,0.0,0.0,0.0,0,0,1.0,0.0,0,0,106.0,0.0,535.0,4461.538461538462,3899.48717948718,4474.871794871796,4380.000000000001,4191.794871794872,4522.051282051282,4411.282051282052,4324.102564102564,4332.820512820514,4651.282051282052,4325.128205128206,4141.538461538462,4151.794871794872,4439.48717948718
3916.6082,0.84984934,1.0,0.42716533,0.70381624,0,0.0,0.0,0.0,0.0,0.057227515,0,0,0.0,0.0,0,0,25.0,0.0,0.0,4518.461538461539,3847.692307692308,4460.512820512821,4443.076923076924,4200.512820512821,4556.410256410257,4468.205128205129,4405.641025641026,4393.846153846154,4704.102564102564,4386.153846153847,4214.871794871796,4198.461538461539,4450.769230769231
3916.8582,0.84984934,1.0,0.42716533,0.70381624,0,0.0,0.0,0.0,0.0,0.030669093,0,0,0.0,0.0,0,0,57.0,0.0,0.0,4591.282051282052,3786.1538461538466,4540.512820512821,4411.282051282052,4135.384615384616,4569.743589743591,4555.384615384616,4508.717948717949,4465.128205128206,4777.948717948719,4446.666666666667,4326.666666666667,4248.717948717949,4476.410256410257
3917.1084,0.8571156,1.0,0.410301,0.71036637,0,0.0,0.0,0.0,0.0,0.0,0,0,0.0,0.0,0,0,89.0,0.0,465.0,4640.512820512821,3849.2307692307695,4584.615384615385,4415.384615384616,4140.512820512821,4577.435897435898,4582.051282051282,4569.743589743591,4508.717948717949,4841.025641025642,4489.2307692307695,4397.948717948719,4294.358974358975,4505.641025641026
3917.1084,0.8571156,1.0,0.410301,0.71036637,0,0.0,0.0,0.0,0.0,0.0,0,0,0.0,0.0,0,0,89.0,0.0,465.0,4640.512820512821,3849.2307692307695,4584.615384615385,4415.384615384616,4140.512820512821,4577.435897435898,4582.051282051282,4569.743589743591,4508.717948717949,4841.025641025642,4489.2307692307695,4397.948717948719,4294.358974358975,4505.641025641026
3917.609,0.8996577,0.98513836,0.39180216,0.7162572,0,0.0,0.0,0.0,0.0,0.0,0,0,0.93707097,0.0,0,0,24.0,0.0,0.0,4624.102564102564,3931.2820512820517,4567.179487179488,4463.076923076924,4198.974358974359,4563.589743589744,4548.205128205129,4517.948717948719,4452.820512820514,4789.743589743591,4455.8974358974365,4363.589743589744,4274.871794871796,4504.102564102564
3917.8591,0.8996577,0.98513836,0.39180216,0.7162572,0,0.0,0.0,0.0,0.0,0.0,0,0,0.7748048,0.0,0,0,56.0,0.0,0.0,4623.076923076924,3976.9230769230776,4532.307692307693,4494.358974358975,4227.179487179487,4552.307692307693,4486.153846153847,4445.128205128206,4415.8974358974365,4733.333333333334,4411.282051282052,4298.461538461539,4240.000000000001,4490.256410256411
3918.1094,0.92164505,0.9677554,0.37515262,0.72584325,0,0.0,0.0,0.0,0.0,0.0,0,0,0.55766654,0.0,0,0,88.0,0.0,502.0,4605.641025641026,3982.0512820512827,4492.307692307693,4509.743589743591,4266.153846153847,4542.564102564103,4444.102564102564,4382.051282051282,4364.615384615385,4681.025641025642,4343.076923076924,4221.538461538462,4185.641025641026,4464.102564102564
3918.3596,0.92164505,0.9677554,0.37515262,0.72584325,0,0.0,0.0,0.0,0.0,0.0,0,0,0.0,0.0,0,0,120.0,0.0,502.0,4561.025641025642,3967.1794871794878,4454.358974358975,4509.743589743591,4291.282051282052,4537.435897435898,4411.794871794872,4331.794871794872,4333.846153846154,4646.153846153847,4298.974358974359,4167.179487179487,4161.025641025642,4427.6923076923085
3918.4846,0.91249657,0.95211065,0.35641375,0.73854613,0,0.0,0.0,0.0,0.0,0.0,0,0,0.0,0.0,0,0,7.0,0.0,478.0,4554.871794871796,3955.8974358974365,4457.948717948719,4542.564102564103,4297.948717948719,4542.051282051282,4411.794871794872,4340.512820512821,4345.128205128206,4654.358974358975,4313.846153846154,4170.256410256411,4184.615384615385,4444.102564102564
3918.4846,0.91249657,0.95211065,0.35641375,0.73854613,0,0.0,0.0,0.0,0.0,0.0,0,0,0.0,0.0,0,0,7.0,0.0,478.0,4554.871794871796,3955.8974358974365,4457.948717948719,4542.564102564103,4297.948717948719,4542.051282051282,4411.794871794872,4340.512820512821,4345.128205128206,4654.358974358975,4313.846153846154,4170.256410256411,4184.615384615385,4444.102564102564
3918.985,0.9484149,0.9380305,0.3372395,0.74777055,0,0.0,0.0,0.0,0.0,0.0,0,0,0.0,0.0,0,0,71.0,0.0,478.0,4517.435897435898,3957.435897435898,4468.717948717949,4588.205128205129,4325.128205128206,4567.179487179488,4424.102564102564,4328.717948717949,4337.435897435898,4642.051282051282,4332.820512820514,4165.128205128206,4174.871794871796,4421.538461538462
3918.985,0.9484149,0.9380305,0.3372395,0.74777055,0,0.0,0.0,0.0,0.0,0.0,0,0,0.0,0.0,0,0,71.0,0.0,478.0,4517.435897435898,3957.435897435898,4468.717948717949,4588.205128205129,4325.128205128206,4567.179487179488,4424.102564102564,4328.717948717949,4337.435897435898,4642.051282051282,4332.820512820514,4165.128205128206,4174.871794871796,4421.538461538462
3919.6106,0.9573424,0.87192434,0.31573224,0.75606465,0,0.0,0.0,0.0,0.0,0.0,0,0,1.0,0.0,0,0,22.0,0.0,0.0,4587.179487179488,3937.9487179487182,4445.641025641026,4472.307692307693,4263.589743589744,4526.666666666667,4390.769230769231,4297.948717948719,4312.820512820514,4617.948717948719,4296.923076923077,4126.153846153847,4123.589743589744,4428.205128205129
3919.8608,0.9573424,0.87192434,0.31573224,0.75606465,0,0.0,0.0,0.0,0.0,0.0,0,0,0.84895885,0.0,0,0,54.0,0.0,0.0,4585.641025641026,3896.9230769230776,4443.589743589744,4427.179487179487,4222.564102564103,4502.564102564103,4373.333333333334,4294.871794871796,4303.589743589744,4618.461538461539,4310.769230769231,4147.6923076923085,4138.461538461539,4428.717948717949
3919.9858,0.8454376,0.8589524,0.29331818,0.76352113,0,0.0,0.0,0.0,0.0,0.0,0,0,0.0,0.0,0,0,70.0,0.0,533.0,4556.410256410257,3899.48717948718,4440.512820512821,4425.641025641026,4222.051282051282,4507.179487179488,4386.666666666667,4286.153846153847,4289.2307692307695,4595.8974358974365,4285.128205128206,4126.153846153847,4103.589743589744,4407.6923076923085
3920.3613,0.8454376,0.8589524,0.29331818,0.76352113,0,0.0,0.0,0.0,0.0,0.100589044,0,0,0.0,0.0,0,0,118.0,0.0,537.0,4555.8974358974365,3909.7435897435903,4442.051282051282,4425.128205128206,4230.256410256411,4517.435897435898,4389.743589743591,4313.333333333334,4318.974358974359,4624.615384615385,4288.205128205129,4137.435897435898,4109.74358974359,4429.743589743591
3920.4863,0.8175126,0.8462995,0.2731463,0.76274693,0,0.0,0.0,0.0,0.0,0.0,0,0,0.0,0.0,0,0,5.0,0.0,559.0,4564.102564102564,3927.1794871794878,4450.769230769231,4443.589743589744,4238.974358974359,4525.641025641026,4398.461538461539,4319.48717948718,4321.538461538462,4643.589743589744,4293.333333333334,4143.589743589744,4122.051282051282,4423.076923076924
3920.4863,0.8175126,0.8462995,0.2731463,0.76274693,0,0.0,0.0,0.0,0.0,0.0,0,0,0.0,0.0,0,0,5.0,0.0,559.0,4564.102564102564,3927.1794871794878,4450.769230769231,4443.589743589744,4238.974358974359,4525.641025641026,4398.461538461539,4319.48717948718,4321.538461538462,4643.589743589744,4293.333333333334,4143.589743589744,4122.051282051282,4423.076923076924
3920.9868,0.73782,0.8292743,0.25499287,0.7507948,0,0.0,0.0,0.0,0.0,0.0,0,0,0.0,0.0,0,0,69.0,0.0,559.0,4535.8974358974365,3900.5128205128212,4466.666666666667,4437.435897435898,4205.128205128206,4519.48717948718,4399.48717948718,4347.6923076923085,4342.051282051282,4639.48717948718,4313.333333333334,4170.256410256411,4131.282051282052,4443.076923076924
3920.9868,0.73782,0.8292743,0.25499287,0.7507948,0,0.0,0.0,0.0,0.0,0.0,0,0,0.0,0.0,0,0,69.0,0.0,559.0,4535.8974358974365,3900.5128205128212,4466.666666666667,4437.435897435898,4205.128205128206,4519.48717948718,4399.48717948718,4347.6923076923085,4342.051282051282,4639.48717948718,4313.333333333334,4170.256410256411,4131.282051282052,4443.076923076924
3921.6123,0.68909943,0.81501335,0.2411352,0.73328245,0,0.0,0.0,0.0,0.0,0.0,0,0,0.61755013,0.0,0,0,20.0,0.0,0.0,4629.743589743591,3829.2307692307695,4554.358974358975,4399.48717948718,4188.717948717949,4581.025641025642,4530.256410256411,4536.923076923077,4471.794871794872,4773.333333333334,4428.205128205129,4337.435897435898,4250.256410256411,4507.179487179488
3921.8625,0.68909943,0.81501335,0.2411352,0.73328245,0,0.0,0.0,0.0,0.0,0.0,0,0,0.71117556,0.0,0,0,52.0,0.0,0.0,4732.307692307693,3873.333333333334,4595.8974358974365,4407.179487179487,4200.000000000001,4570.256410256411,4536.923076923077,4555.8974358974365,4493.333333333334,4822.051282051282,4465.641025641026,4396.923076923077,4293.846153846154,4545.128205128206
3922.1128,0.81640744,0.8068742,0.22866525,0.71752435,0,0.0,0.0,0.0,0.0,0.0,0,0,0.0,0.0,0,0,84.0,0.0,502.0,4713.333333333334,3917.9487179487182,4565.641025641026,4421.538461538462,4230.769230769231,4570.769230769231,4521.538461538462,4549.743589743591,4474.871794871796,4836.410256410257,4446.153846153847,4380.512820512821,4281.538461538462,4538.461538461539
3922.1128,0.81640744,0.8068742,0.22866525,0.71752435,0,0.0,0.0,0.0,0.0,0.0,0,0,0.0,0.0,0,0,84.0,0.0,502.0,4713.333333333334,3917.9487179487182,4565.641025641026,4421.538461538462,4230.769230769231,4570.769230769231,4521.538461538462,4549.743589743591,4474.871794871796,4836.410256410257,4446.153846153847,4380.512820512821,4281.538461538462,4538.461538461539
3922.488,0.8527872,0.7858102,0.21947658,0.70334405,0,0.0,0.0,0.0,0.0,0.0,0,0,0.0,0.0,0,0,3.0,0.0,538.0,4645.128205128206,3968.205128205129,4535.8974358974365,4469.2307692307695,4268.717948717949,4569.2307692307695,4476.923076923077,4476.410256410257,4430.769230769231,4764.102564102564,4402.564102564103,4327.6923076923085,4236.923076923077,4523.076923076924
3922.488,0.8527872,0.7858102,0.21947658,0.70334405,0,0.0,0.0,0.0,0.0,0.0,0,0,0.0,0.0,0,0,3.0,0.0,538.0,4645.128205128206,3968.205128205129,4535.8974358974365,4469.2307692307695,4268.717948717949,4569.2307692307695,4476.923076923077,4476.410256410257,4430.769230769231,4764.102564102564,4402.564102564103,4327.6923076923085,4236.923076923077,4523.076923076924
3922.9885,0.82140905,0.763137,0.2130991,0.69792753,0,0.0,0.0,0.0,0.0,0.0,0,0,0.0,0.0,0,0,67.0,0.0,538.0,4551.282051282052,3990.7692307692314,4461.025641025642,4481.025641025642,4264.102564102564,4524.102564102564,4403.076923076924,4342.051282051282,4300.000000000001,4675.384615384616,4302.051282051282,4197.948717948719,4148.205128205129,4478.974358974359
3923.3638,0.82140905,0.763137,0.2130991,0.69792753,0,0.0,0.0,0.0,0.0,0.024203002,0,0,0.0,0.0,0,0,115.0,0.0,389.0,4604.102564102564,3861.538461538462,4554.871794871796,4399.48717948718,4174.871794871796,4537.948717948719,4505.128205128206,4484.102564102564,4416.410256410257,4760.512820512821,4412.820512820514,4339.48717948718,4235.384615384616,4543.076923076924
3923.614,0.7884906,0.74278706,0.20736168,0.7013199,0,0.0,0.0,0.0,0.0,0.010428074,0,0,0.0,0.0,0,0,18.0,0.0,0.0,4894.358974358975,3849.2307692307695,4834.358974358975,4390.769230769231,4107.6923076923085,4648.205128205129,4792.820512820514,4902.564102564103,4694.358974358975,5063.076923076924,4707.6923076923085,4768.205128205129,4474.358974358975,4710.769230769231
3923.8643,0.7884906,0.74278706,0.20736168,0.7013199,0,0.0,0.0,0.2334967,0.0,0.0,0,0,0.0,0.0,0,0,50.0,0.0,0.0,5238.461538461539,4115.8974358974365,5140.512820512821,4518.461538461539,4239.48717948718,4833.333333333334,5089.743589743591,5285.128205128206,4941.538461538462,5383.076923076924,4925.128205128206,5166.153846153847,4766.666666666667,4867.6923076923085
3924.1145,0.9038717,0.72447217,0.20084473,0.70437,0,0.0,0.0,0.0,0.0,0.17874669,0,0,0.0,0.0,0,0,82.0,0.0,523.0,5341.025641025642,4273.333333333334,5178.461538461539,4575.384615384616,4281.538461538462,4798.974358974359,5073.333333333334,5296.923076923078,4878.974358974359,5425.641025641026,4925.128205128206,5190.256410256411,4762.051282051282,4905.641025641026
3924.2395,0.9038717,0.72447217,0.20084473,0.70437,0,0.0,0.0,0.0,0.0,0.0,0,0,0.0,0.0,0,0,98.0,0.0,523.0,5321.538461538462,4304.102564102564,5127.179487179488,4596.923076923077,4321.538461538462,4778.461538461539,5004.102564102564,5225.641025641026,4814.358974358975,5378.461538461539,4891.282051282052,5118.461538461539,4715.8974358974365,4887.6923076923085
3924.4897,1.0,0.70798874,0.19623257,0.7110938,0,0.0,0.0,0.0,0.0,0.0,0,0,0.0,0.0,0,0,1.0,0.0,492.0,5203.076923076924,4319.48717948718,4874.358974358975,4653.333333333334,4367.6923076923085,4708.717948717949,4860.000000000001,4991.794871794872,4640.512820512821,5227.179487179488,4796.410256410257,4924.615384615386,4571.282051282052,4854.358974358975
3924.4897,1.0,0.70798874,0.19623257,0.7110938,0,0.0,0.0,0.0,0.0,0.0,0,0,0.0,0.0,0,0,1.0,0.0,492.0,5203.076923076924,4319.48717948718,4874.358974358975,4653.333333333334,4367.6923076923085,4708.717948717949,4860.000000000001,4991.794871794872,4640.512820512821,5227.179487179488,4796.410256410257,4924.615384615386,4571.282051282052,4854.358974358975
3924.9902,1.0,0.6931537,0.19344023,0.7217807,0,0.0,0.0,0.0,0.0,0.0,0,0,0.0,0.0,0,0,65.0,0.0,492.0,4745.128205128206,4137.435897435898,4470.769230769231,4617.948717948719,4332.307692307693,4494.358974358975,4439.48717948718,4392.820512820514,4245.128205128206,4731.794871794872,4359.48717948718,4292.820512820514,4135.8974358974365,4632.307692307693
3924.9902,1.0,0.6931537,0.19344023,0.7217807,0,0.0,0.0,0.0,0.0,0.0,0,0,0.0,0.0,0,0,65.0,0.0,492.0,4745.128205128206,4137.435897435898,4470.769230769231,4617.948717948719,4332.307692307693,4494.358974358975,4439.48717948718,4392.820512820514,4245.128205128206,4731.794871794872,4359.48717948718,4292.820512820514,4135.8974358974365,4632.307692307693
3925.4907,1.0,0.67980206,0.19610019,0.73487407,0,0.0,0.0,0.0,0.0,0.0,0,0,0.0,0.0,0,0,0.0,0.0,484.0,4394.358974358975,3944.1025641025644,4295.384615384616,4537.435897435898,4277.948717948719,4387.6923076923085,4214.871794871796,4094.358974358975,4070.7692307692314,4444.102564102564,4115.8974358974365,3966.666666666667,3905.6410256410263,4461.538461538462
3925.741,1.0,0.67980206,0.19610019,0.73487407,0,0.0,0.0,0.0,0.0,0.0,0,0,1.0,0.0,0,0,32.0,0.0,0.0,4350.256410256411,3948.717948717949,4285.641025641026,4505.641025641026,4258.461538461539,4387.179487179487,4200.000000000001,4060.0000000000005,4082.564102564103,4392.820512820514,4021.538461538462,3883.076923076924,3816.9230769230776,4397.948717948719
3926.1162,1.0,0.66778564,0.20081066,0.7463528,0,0.0,0.0,0.0,0.0,0.0,0,0,0.4136212,0.0,0,0,80.0,0.0,505.0,4335.8974358974365,3912.307692307693,4309.743589743591,4461.025641025642,4267.179487179487,4411.282051282052,4228.717948717949,4070.2564102564106,4122.564102564103,4406.153846153847,4049.23076923077,3883.589743589744,3865.1282051282055,4362.051282051282
3926.2412,1.0,0.66778564,0.20081066,0.7463528,0,0.0,0.0,0.0,0.0,0.0,0,0,0.0,0.0,0,0,96.0,0.0,505.0,4344.102564102564,3878.9743589743593,4308.205128205129,4458.974358974359,4264.102564102564,4437.435897435898,4255.384615384616,4120.512820512821,4169.2307692307695,4452.820512820514,4063.589743589744,3894.358974358975,3890.2564102564106,4351.282051282052
3926.6167,1.0,0.6569709,0.20505182,0.7566749,0,0.0,0.0,0.0,0.0,0.0,0,0,1.0,0.0,0,0,15.0,0.0,390.0,4396.410256410257,3865.1282051282055,4347.179487179487,4428.717948717949,4244.615384615385,4440.000000000001,4276.410256410257,4154.871794871796,4222.051282051282,4511.794871794872,4142.564102564103,3940.0000000000005,3984.615384615385,4361.025641025642
3926.6167,1.0,0.6569709,0.20505182,0.7566749,0,0.0,0.0,0.0,0.0,0.0,0,0,1.0,0.0,0,0,15.0,0.0,390.0,4396.410256410257,3865.1282051282055,4347.179487179487,4428.717948717949,4244.615384615385,4440.000000000001,4276.410256410257,4154.871794871796,4222.051282051282,4511.794871794872,4142.564102564103,3940.0000000000005,3984.615384615385,4361.025641025642
3927.1172,1.0,0.6472376,0.21230966,0.76595557,0,0.0,0.0,0.0,0.0,0.0,0,0,0.0,0.0,0,0,79.0,0.0,390.0,4450.256410256411,3865.6410256410263,4391.282051282052,4414.871794871796,4247.179487179487,4473.846153846154,4329.743589743591,4220.000000000001,4297.948717948719,4582.051282051282,4231.282051282052,4003.589743589744,4076.9230769230776,4358.461538461539
3927.1172,1.0,0.6472376,0.21230966,0.76595557,0,0.0,0.0,0.0,0.0,0.0,0,0,0.0,0.0,0,0,79.0,0.0,390.0,4450.256410256411,3865.6410256410263,4391.282051282052,4414.871794871796,4247.179487179487,4473.846153846154,4329.743589743591,4220.000000000001,4297.948717948719,4582.051282051282,4231.282051282052,4003.589743589744,4076.9230769230776,4358.461538461539
3927.4924,1.0,0.6384776,0.21884316,0.76807815,0,0.0,0.0,0.0,0.0,0.0,0,0,0.0,0.0,0,0,127.0,0.0,390.0,4500.512820512821,3898.461538461539,4426.666666666667,4431.282051282052,4251.794871794872,4493.333333333334,4355.384615384616,4246.666666666667,4308.205128205129,4598.461538461539,4241.025641025642,4038.461538461539,4089.23076923077,4353.333333333334
3927.4924,1.0,0.6384776,0.21884316,0.76807815,0,0.0,0.0,0.0,0.0,0.0,0,0,0.0,0.0,0,0,127.0,0.0,390.0,4500.512820512821,3898.461538461539,4426.666666666667,4431.282051282052,4251.794871794872,4493.333333333334,4355.384615384616,4246.666666666667,4308.205128205129,4598.461538461539,4241.025641025642,4038.461538461539,4089.23076923077,4353.333333333334
3928.118,0.9849786,0.63059366,0.22128479,0.76622194,0,0.0,0.0,0.0,0.0,0.0,0,0,0.82055336,0.0,0,0,78.0,0.0,534.0,4509.2307692307695,3836.9230769230776,4448.205128205129,4398.461538461539,4217.948717948719,4505.128205128206,4393.333333333334,4328.717948717949,4382.051282051282,4688.205128205129,4349.2307692307695,4135.8974358974365,4219.48717948718,4389.743589743591
3928.243,0.9849786,0.63059366,0.22128479,0.76622194,0,0.0,0.0,0.0,0.0,0.0,0,0,0.0,0.0,0,0,94.0,0.0,534.0,4481.538461538462,3815.8974358974365,4442.564102564103,4386.153846153847,4225.128205128206,4524.615384615385,4414.871794871796,4349.2307692307695,4395.8974358974365,4685.641025641026,4358.974358974359,4144.102564102564,4224.102564102564,4375.384615384616
3928.4932,0.9089236,0.6234981,0.21964023,0.7603469,0,0.0,0.0,0.0,0.0,0.0,0,0,0.0,0.0,0,0,126.0,0.0,534.0,4505.128205128206,3854.358974358975,4444.102564102564,4398.974358974359,4235.8974358974365,4522.564102564103,4396.923076923077,4332.820512820514,4376.923076923077,4667.179487179488,4340.000000000001,4128.717948717949,4202.051282051282,4371.282051282052
3928.4932,0.9089236,0.6234981,0.21964023,0.7603469,0,0.0,0.0,0.0,0.0,0.0,0,0,0.0,0.0,0,0,126.0,0.0,534.0,4505.128205128206,3854.358974358975,4444.102564102564,4398.974358974359,4235.8974358974365,4522.564102564103,4396.923076923077,4332.820512820514,4376.923076923077,4667.179487179488,4340.000000000001,4128.717948717949,4202.051282051282,4371.282051282052
3929.119,0.84599584,0.60384583,0.23124969,0.75251466,0,0.0,0.0,0.0,0.0,0.0,0,0,0.6060895,0.0,0,0,77.0,0.0,463.0,4627.6923076923085,3785.1282051282055,4551.282051282052,4350.769230769231,4151.794871794872,4550.256410256411,4507.6923076923085,4513.846153846154,4507.6923076923085,4798.974358974359,4465.641025641026,4297.435897435898,4283.076923076924,4446.153846153847
3929.369,0.84599584,0.60384583,0.23124969,0.75251466,0,0.0,0.0,0.0,0.0,0.009094699,0,0,0.0,0.0,0,0,109.0,0.0,463.0,4833.846153846154,3752.820512820513,4733.333333333334,4318.461538461539,4067.1794871794878,4603.589743589744,4682.051282051282,4802.564102564103,4731.282051282052,5028.717948717949,4684.615384615386,4593.846153846154,4481.538461538462,4558.461538461539
3929.6191,0.92090404,0.5861694,0.24874273,0.7434745,0,0.0,0.0,0.0,0.0,0.0,0,0,0.91794235,0.0,0,0,12.0,0.0,490.0,5087.179487179488,3947.692307692308,4942.051282051283,4429.743589743591,4154.358974358975,4705.128205128206,4890.256410256411,5115.8974358974365,4993.333333333334,5324.615384615386,4952.307692307693,4918.461538461539,4737.435897435898,4697.948717948719
3929.8694,0.92090404,0.5861694,0.24874273,0.7434745,0,0.0,0.0,0.0,0.0,0.0,0,0,0.36703542,0.0,0,0,44.0,0.0,0.0,5116.410256410257,4092.820512820513,4933.846153846154,4491.794871794872,4237.948717948719,4694.358974358975,4841.538461538462,5091.794871794872,4963.076923076924,5330.256410256411,4956.923076923077,4946.153846153847,4743.589743589744,4737.948717948719
3929.9946,1.0,0.57026064,0.24204895,0.7360287,0,0.0,0.0,0.0,0.0,0.0,0,0,0.0,0.0,0,0,60.0,0.0,0.0,5103.076923076924,4157.435897435898,4927.6923076923085,4550.769230769231,4280.000000000001,4689.2307692307695,4792.307692307693,5038.461538461539,4906.666666666667,5292.307692307693,4905.641025641026,4920.512820512821,4707.179487179488,4747.6923076923085
3930.3699,1.0,0.57026064,0.24204895,0.7360287,0,0.0,0.0,0.3108476,0.0,0.0,0,0,0.0,0.0,0,0,108.0,0.0,487.0,4941.025641025642,4157.435897435898,4665.641025641026,4615.8974358974365,4326.153846153847,4620.512820512821,4586.153846153847,4703.589743589744,4604.615384615385,5004.615384615386,4587.6923076923085,4606.153846153847,4459.48717948718,4689.2307692307695
3930.4949,1.0,0.5559427,0.23602618,0.729327,0,0.0,0.0,0.0,0.0,0.0,0,0,0.0,0.0,0,0,124.0,0.0,487.0,4875.384615384616,4138.461538461539,4579.48717948718,4610.256410256411,4328.205128205129,4586.153846153847,4525.641025641026,4596.923076923077,4516.410256410257,4905.641025641026,4509.743589743591,4498.974358974359,4383.076923076924,4683.076923076924
3930.8704,1.0,0.5559427,0.23602618,0.729327,0,0.0,0.0,0.0,0.0,0.04450255,0,0,0.0,0.0,0,0,43.0,0.0,0.0,4673.846153846154,4076.9230769230776,4429.2307692307695,4721.538461538462,4323.589743589744,4525.128205128206,4367.6923076923085,4324.102564102564,4300.000000000001,4680.512820512821,4263.076923076924,4215.384615384616,4170.769230769231,4585.641025641026
3931.1206,1.0,0.5430566,0.23072545,0.72636694,0,0.0,0.0,0.0,0.0,0.0,0,0,0.0,0.0,0,0,75.0,0.0,386.0,4612.820512820514,3992.820512820513,4382.564102564103,4557.435897435898,4319.48717948718,4508.205128205129,4325.128205128206,4231.794871794872,4217.435897435898,4570.256410256411,4188.717948717949,4101.538461538462,4052.820512820513,4554.358974358975
3931.1206,1.0,0.5430566,0.23072545,0.72636694,0,0.0,0.0,0.0,0.0,0.0,0,0,0.0,0.0,0,0,75.0,0.0,386.0,4612.820512820514,3992.820512820513,4382.564102564103,4557.435897435898,4319.48717948718,4508.205128205129,4325.128205128206,4231.794871794872,4217.435897435898,4570.256410256411,4188.717948717949,4101.538461538462,4052.820512820513,4554.358974358975
3931.4958,1.0,0.5314591,0.2518703,0.7173528,0,0.0,0.0,0.0,0.0,0.0,0,0,0.0,0.0,0,0,123.0,0.0,386.0,4504.615384615385,3908.717948717949,4345.128205128206,4443.076923076924,4273.846153846154,4473.333333333334,4321.025641025642,4186.666666666667,4186.666666666667,4492.820512820514,4151.794871794872,4015.8974358974365,3985.6410256410263,4478.461538461539
3931.4958,1.0,0.5314591,0.2518703,0.7173528,0,0.0,0.0,0.0,0.0,0.0,0,0,0.0,0.0,0,0,123.0,0.0,386.0,4504.615384615385,3908.717948717949,4345.128205128206,4443.076923076924,4273.846153846154,4473.333333333334,4321.025641025642,4186.666666666667,4186.666666666667,4492.820512820514,4151.794871794872,4015.8974358974365,3985.6410256410263,4478.461538461539
3931.9963,0.9402541,0.52102137,0.26669434,0.7096651,0,0.0,0.0,0.0,0.0,0.0,0,0,0.0,0.0,0,0,58.0,0.0,0.0,4505.641025641026,3857.435897435898,4364.102564102564,4400.512820512821,4242.051282051282,4449.743589743591,4312.820512820514,4187.179487179487,4199.48717948718,4497.435897435898,4173.846153846154,4004.1025641025644,3996.410256410257,4422.564102564103
3931.9963,0.9402541,0.52102137,0.26669434,0.7096651,0,0.0,0.0,0.0,0.0,0.0,0,0,0.0,0.0,0,0,58.0,0.0,0.0,4505.641025641026,3857.435897435898,4364.102564102564,4400.512820512821,4242.051282051282,4449.743589743591,4312.820512820514,4187.179487179487,4199.48717948718,4497.435897435898,4173.846153846154,4004.1025641025644,3996.410256410257,4422.564102564103
3932.4966,1.0,0.5116274,0.2596879,0.71750116,0,0.0,0.0,0.0,0.0,0.0,0,0,0.0,0.0,0,0,122.0,0.0,532.0,4532.307692307693,3861.538461538462,4395.8974358974365,4398.461538461539,4228.717948717949,4474.871794871796,4347.179487179487,4233.333333333334,4248.717948717949,4536.923076923077,4216.923076923077,4036.9230769230776,4050.2564102564106,4392.307692307693
3932.4966,1.0,0.5116274,0.2596879,0.71750116,0,0.0,0.0,0.0,0.0,0.0,0,0,0.0,0.0,0,0,122.0,0.0,532.0,4532.307692307693,3861.538461538462,4395.8974358974365,4398.461538461539,4228.717948717949,4474.871794871796,4347.179487179487,4233.333333333334,4248.717948717949,4536.923076923077,4216.923076923077,4036.9230769230776,4050.2564102564106,4392.307692307693
3932.997,1.0,0.5031728,0.25338337,0.723242,0,0.0,0.0,0.0,0.0,0.0,0,0,0.0,0.0,0,0,57.0,0.0,0.0,4592.820512820514,3893.8461538461543,4426.153846153847,4413.333333333334,4241.025641025642,4506.666666666667,4369.743589743591,4281.538461538462,4291.282051282052,4589.743589743591,4264.615384615385,4078.9743589743593,4108.205128205129,4414.871794871796
3932.997,1.0,0.5031728,0.25338337,0.723242,0,0.0,0.0,0.0,0.0,0.0,0,0,0.0,0.0,0,0,57.0,0.0,0.0,4592.820512820514,3893.8461538461543,4426.153846153847,4413.333333333334,4241.025641025642,4506.666666666667,4369.743589743591,4281.538461538462,4291.282051282052,4589.743589743591,4264.615384615385,4078.9743589743593,4108.205128205129,4414.871794871796
3933.4976,0.98702675,0.4955637,0.24771066,0.7282339,0,0.0,0.0,0.0,0.0,0.0,0,0,0.0,0.0,0,0,121.0,0.0,463.0,4644.615384615385,3897.435897435898,4445.641025641026,4412.307692307693,4212.820512820514,4510.256410256411,4376.410256410257,4310.256410256411,4297.948717948719,4628.205128205129,4288.717948717949,4113.846153846154,4142.051282051282,4449.2307692307695
3933.4976,0.98702675,0.4955637,0.24771066,0.7282339,0,0.0,0.0,0.0,0.0,0.0,0,0,0.0,0.0,0,0,121.0,0.0,463.0,4644.615384615385,3897.435897435898,4445.641025641026,4412.307692307693,4212.820512820514,4510.256410256411,4376.410256410257,4310.256410256411,4297.948717948719,4628.205128205129,4288.717948717949,4113.846153846154,4142.051282051282,4449.2307692307695
3933.998,0.9054994,0.4887155,0.23838298,0.72173715,0,0.0,0.0,0.0,0.0,0.0,0,0,0.0,0.0,0,0,56.0,0.0,0.0,4563.589743589744,3901.0256410256416,4444.615384615385,4412.307692307693,4237.948717948719,4538.974358974359,4389.743589743591,4322.564102564103,4310.769230769231,4624.615384615385,4296.410256410257,4122.564102564103,4138.974358974359,4437.948717948719
3933.998,0.9054994,0.4887155,0.23838298,0.72173715,0,0.0,0.0,0.0,0.0,0.0,0,0,0.0,0.0,0,0,56.0,0.0,0.0,4563.589743589744,3901.0256410256416,4444.615384615385,4412.307692307693,4237.948717948719,4538.974358974359,4389.743589743591,4322.564102564103,4310.769230769231,4624.615384615385,4296.410256410257,4122.564102564103,4138.974358974359,4437.948717948719
3934.4985,0.8842195,0.4855885,0.22533211,0.71588945,0,0.0,0.0,0.0,0.0,0.0,0,0,0.0,0.0,0,0,120.0,0.0,503.0,4566.153846153847,3909.7435897435903,4459.48717948718,4426.153846153847,4237.435897435898,4547.6923076923085,4413.333333333334,4340.512820512821,4307.6923076923085,4637.435897435898,4302.564102564103,4150.256410256411,4136.923076923077,4445.641025641026
3934.4985,0.8842195,0.4855885,0.22533211,0.71588945,0,0.0,0.0,0.0,0.0,0.0,0,0,0.0,0.0,0,0,120.0,0.0,503.0,4566.153846153847,3909.7435897435903,4459.48717948718,4426.153846153847,4237.435897435898,4547.6923076923085,4413.333333333334,4340.512820512821,4307.6923076923085,4637.435897435898,4302.564102564103,4150.256410256411,4136.923076923077,4445.641025641026
3935.124,0.7783073,0.48031375,0.21358874,0.71665704,0,0.0,0.0,0.0,0.0,0.0,0,0,0.69221026,0.0,0,0,71.0,0.0,481.0,4584.615384615385,3874.8717948717954,4490.769230769231,4394.871794871796,4191.282051282052,4550.769230769231,4442.564102564103,4391.794871794872,4388.717948717949,4704.102564102564,4369.2307692307695,4196.923076923077,4205.641025641026,4480.512820512821
3935.3743,0.7783073,0.48031375,0.21358874,0.71665704,0,0.0,0.0,0.0,0.0,0.0,0,0,1.0,0.0,0,0,103.0,0.0,387.0,4653.846153846154,3891.2820512820517,4541.025641025642,4396.923076923077,4164.615384615385,4569.743589743591,4503.076923076924,4495.384615384616,4480.000000000001,4781.538461538462,4433.846153846154,4281.025641025642,4269.2307692307695,4523.589743589744
3935.687,0.79100317,0.4849818,0.20302239,0.70397717,0,0.0,0.0,0.0,0.0,0.0,1,0,0.0,0.0,0,0,14.0,0.0,536.0,4820.512820512821,4049.7435897435903,4596.923076923077,4461.538461538462,4163.589743589744,4554.358974358975,4489.743589743591,4501.025641025642,4419.48717948718,4707.179487179488,4351.794871794872,4277.435897435898,4135.8974358974365,4522.051282051282
3935.7495,0.79100317,0.4849818,0.20302239,0.70397717,0,0.0,0.0,0.0,0.0,1.0,1,0,0.0,0.0,0,0,22.0,0.0,0.0,4822.051282051282,4056.9230769230776,4585.128205128206,4461.538461538462,4190.256410256411,4555.8974358974365,4486.153846153847,4506.153846153847,4427.179487179487,4722.564102564103,4364.102564102564,4283.076923076924,4154.358974358975,4520.512820512821
3936.1248,0.7662444,0.51326203,0.19786437,0.68556327,0,0.0,0.0,0.0,0.0,0.19728145,1,0,0.0,0.0,0,0,70.0,0.0,533.0,4739.48717948718,4038.461538461539,4542.051282051282,4470.256410256411,4230.769230769231,4543.589743589744,4472.307692307693,4469.743589743591,4405.128205128206,4704.615384615386,4341.538461538462,4249.74358974359,4146.666666666667,4503.589743589744
3936.375,0.7662444,0.51326203,0.19786437,0.68556327,0,0.0,0.0,0.0,0.0,0.0,1,0,0.0,0.0,0,0,102.0,0.0,536.0,4677.948717948719,3983.076923076924,4507.179487179488,4458.461538461539,4235.384615384616,4530.256410256411,4441.025641025642,4422.564102564103,4368.717948717949,4666.666666666667,4297.435897435898,4209.2307692307695,4119.48717948718,4518.461538461539
3936.5002,0.7634696,0.537487,0.21186511,0.6665278,0,0.0,0.0,0.0,0.0,0.0,1,0,0.0,0.0,0,0,118.0,0.0,536.0,4694.871794871796,3963.589743589744,4522.564102564103,4460.000000000001,4238.974358974359,4541.538461538462,4444.102564102564,4430.769230769231,4390.256410256411,4692.820512820514,4320.512820512821,4237.948717948719,4135.384615384616,4541.025641025642
3936.8755,0.7634696,0.537487,0.21186511,0.6665278,0,0.0,0.0,0.0,0.0,0.4028594,0,0,0.0,0.0,0,0,37.0,0.0,0.0,4642.564102564103,3815.3846153846157,4541.025641025642,4394.358974358975,4215.8974358974365,4569.743589743591,4525.641025641026,4510.256410256411,4475.384615384616,4782.564102564103,4445.128205128206,4368.717948717949,4293.846153846154,4628.717948717949
3937.1257,0.71822023,0.54527014,0.24141227,0.65027755,0,0.0,0.0,0.0,0.0,0.17099635,0,0,0.0,0.0,0,0,69.0,0.0,558.0,4666.666666666667,3872.307692307693,4571.794871794872,4431.794871794872,4239.48717948718,4574.358974358975,4529.2307692307695,4489.2307692307695,4461.025641025642,4783.589743589744,4419.48717948718,4385.128205128206,4302.051282051282,4629.743589743591
3937.376,0.71822023,0.54527014,0.24141227,0.65027755,0,0.0,0.0,0.0,0.0,0.10448469,0,0,0.0,0.0,0,0,101.0,0.0,464.0,4729.2307692307695,3910.7692307692314,4545.128205128206,4457.948717948719,4228.717948717949,4555.384615384616,4495.384615384616,4448.205128205129,4431.282051282052,4757.948717948719,4382.051282051282,4350.769230769231,4292.820512820514,4670.769230769231
3937.6262,0.6685123,0.58367443,0.26983652,0.6417767,0,0.0,0.0,0.0,0.0,0.0,0,0,0.0,0.0,0,0,4.0,0.0,560.0,4650.769230769231,3938.461538461539,4510.256410256411,4463.076923076924,4256.923076923077,4538.461538461539,4457.948717948719,4400.512820512821,4413.846153846154,4723.076923076924,4303.076923076924,4293.333333333334,4201.025641025642,4609.743589743591
3937.8762,0.6685123,0.58367443,0.26983652,0.6417767,0,0.0,0.0,0.5232203,0.0,0.0,0,0,0.0,0.0,0,0,36.0,0.0,0.0,4601.538461538462,3942.0512820512827,4473.333333333334,4458.974358974359,4245.641025641026,4509.743589743591,4427.179487179487,4341.025641025642,4371.794871794872,4674.358974358975,4264.615384615385,4215.384615384616,4154.358974358975,4587.179487179488
3938.1265,0.65312856,0.575641,0.29655823,0.62406015,0,0.0,0.0,0.0,0.0,0.0,0,0,0.0,0.0,0,0,68.0,0.0,560.0,4580.000000000001,3962.0512820512827,4459.48717948718,4471.794871794872,4261.025641025642,4516.923076923077,4398.461538461539,4316.923076923077,4372.820512820514,4663.589743589744,4268.205128205129,4174.871794871796,4139.48717948718,4569.743589743591
3938.3767,0.65312856,0.575641,0.29655823,0.62406015,0,0.0,0.0,0.0,0.0,0.0,0,0,0.24955475,0.0,0,0,100.0,0.0,503.0,4530.769230769231,3936.9230769230776,4436.923076923077,4460.000000000001,4248.205128205129,4508.205128205129,4392.820512820514,4293.333333333334,4357.948717948719,4630.256410256411,4242.564102564103,4134.871794871796,4102.564102564103,4550.769230769231
3938.627,0.7032452,0.573198,0.32060823,0.6047857,0,0.0,0.0,0.0,0.0,0.0,0,0,0.0,0.0,0,0,3.0,0.0,541.0,4536.410256410257,3944.1025641025644,4442.051282051282,4458.461538461539,4232.820512820514,4507.179487179488,4392.307692307693,4295.384615384616,4367.6923076923085,4657.435897435898,4267.179487179487,4128.717948717949,4125.641025641026,4566.153846153847
3938.9397,0.7032452,0.573198,0.32060823,0.6047857,1,0.0,0.0,0.0,0.0,0.0,0,0,0.0,0.0,0,0,43.0,0.0,0.0,4592.307692307693,3941.0256410256416,4444.615384615385,4449.2307692307695,4251.794871794872,4525.641025641026,4396.410256410257,4312.307692307693,4375.384615384616,4660.000000000001,4300.000000000001,4138.974358974359,4156.923076923077,4602.051282051282
3939.0962,0.7103281,0.607833,0.3422534,0.59138817,0,0.0,0.0,0.0,0.0,0.0,0,0,0.0,0.0,0,0,63.0,0.0,0.0,4543.076923076924,3926.1538461538466,4438.974358974359,4445.641025641026,4245.641025641026,4524.102564102564,4412.820512820514,4318.974358974359,4377.435897435898,4653.846153846154,4300.512820512821,4130.769230769231,4142.564102564103,4567.179487179488
3939.3777,0.7103281,0.607833,0.3422534,0.59138817,0,0.0,0.0,0.0,0.0,0.35045734,0,0,0.0,0.0,0,0,99.0,0.0,387.0,4541.538461538462,3931.7948717948725,4446.666666666667,4446.153846153847,4261.025641025642,4523.589743589744,4403.589743589744,4320.000000000001,4382.051282051282,4661.538461538462,4295.384615384616,4128.205128205129,4133.846153846154,4583.076923076924
3939.628,0.6395253,0.59002686,0.3603573,0.5836182,0,0.0,0.0,0.0,0.0,1.0,1,0,0.0,0.0,0,0,2.0,0.0,439.0,4597.435897435898,4007.1794871794878,4457.948717948719,4461.025641025642,4281.538461538462,4537.435897435898,4384.615384615385,4312.307692307693,4348.205128205129,4617.948717948719,4249.74358974359,4096.923076923077,4063.076923076924,4553.846153846154
3939.878,0.6395253,0.59002686,0.3603573,0.5836182,0,0.0,0.0,0.0,0.0,0.5346009,1,0,0.0,0.0,0,0,34.0,0.0,0.0,4584.102564102564,3986.1538461538466,4456.923076923077,4442.051282051282,4277.435897435898,4535.384615384616,4398.461538461539,4310.769230769231,4339.48717948718,4631.794871794872,4239.48717948718,4098.461538461539,4058.9743589743593,4535.8974358974365
3940.1282,0.54769874,0.65014577,0.3621382,0.57662505,0,0.0,0.0,0.0,0.0,0.0,1,0,0.0,0.0,0,0,66.0,0.0,439.0,4598.974358974359,3965.6410256410263,4461.538461538462,4442.051282051282,4259.48717948718,4526.666666666667,4397.948717948719,4311.282051282052,4341.538461538462,4633.846153846154,4248.205128205129,4118.461538461539,4075.3846153846157,4534.871794871796
3940.1282,0.54769874,0.65014577,0.3621382,0.57662505,0,0.0,0.0,0.0,0.0,0.0,1,0,0.0,0.0,0,0,66.0,0.0,439.0,4598.974358974359,3965.6410256410263,4461.538461538462,4442.051282051282,4259.48717948718,4526.666666666667,4397.948717948719,4311.282051282052,4341.538461538462,4633.846153846154,4248.205128205129,4118.461538461539,4075.3846153846157,4534.871794871796
3940.5037,0.52723867,0.70570564,0.36374062,0.5703311,0,0.0,0.0,0.0,0.0,0.0,0,0,0.0,0.0,0,0,114.0,0.0,536.0,4600.000000000001,3891.2820512820517,4472.820512820514,4411.794871794872,4248.205128205129,4542.564102564103,4429.2307692307695,4373.846153846154,4400.512820512821,4704.102564102564,4355.8974358974365,4187.179487179487,4210.769230769231,4591.794871794872
3940.879,0.52723867,0.70570564,0.36374062,0.5703311,0,0.0,0.0,0.0,0.0,0.21489012,0,0,0.0,0.0,0,0,33.0,0.0,0.0,4627.6923076923085,3884.615384615385,4477.948717948719,4413.333333333334,4236.410256410257,4553.333333333334,4438.974358974359,4378.461538461539,4394.358974358975,4712.307692307693,4358.974358974359,4208.717948717949,4194.871794871796,4582.051282051282
3941.004,0.47176668,0.6907027,0.36518237,0.5647408,0,0.0,0.0,0.0,0.0,0.0,0,0,0.0,0.0,0,0,49.0,0.0,0.0,4647.179487179488,3893.333333333334,4506.666666666667,4424.615384615385,4228.205128205129,4554.871794871796,4462.564102564103,4416.923076923077,4429.743589743591,4745.128205128206,4398.461538461539,4244.102564102564,4229.2307692307695,4587.179487179488
3941.004,0.47176668,0.6907027,0.36518237,0.5647408,0,0.0,0.0,0.0,0.0,0.0,0,0,0.0,0.0,0,0,49.0,0.0,0.0,4647.179487179488,3893.333333333334,4506.666666666667,4424.615384615385,4228.205128205129,4554.871794871796,4462.564102564103,4416.923076923077,4429.743589743591,4745.128205128206,4398.461538461539,4244.102564102564,4229.2307692307695,4587.179487179488
3941.5044,0.480069,0.6869914,0.36964718,0.5597095,0,0.0,0.0,0.0,0.0,0.0,0,0,0.0,0.0,0,0,113.0,0.0,464.0,4748.717948717949,3941.538461538462,4563.076923076924,4412.820512820514,4199.48717948718,4567.179487179488,4509.743589743591,4493.846153846154,4492.820512820514,4815.8974358974365,4431.282051282052,4306.666666666667,4246.666666666667,4570.769230769231
3941.5044,0.480069,0.6869914,0.36964718,0.5597095,0,0.0,0.0,0.0,0.0,0.0,0,0,0.0,0.0,0,0,113.0,0.0,464.0,4748.717948717949,3941.538461538462,4563.076923076924,4412.820512820514,4199.48717948718,4567.179487179488,4509.743589743591,4493.846153846154,4492.820512820514,4815.8974358974365,4431.282051282052,4306.666666666667,4246.666666666667,4570.769230769231
3942.13,0.4784991,0.6602306,0.38879675,0.5551812,0,0.0,0.0,0.0,0.0,0.0,0,0,0.761978,0.0,0,0,64.0,0.0,486.0,4707.6923076923085,3959.48717948718,4530.769230769231,4431.794871794872,4236.410256410257,4537.435897435898,4455.384615384616,4455.384615384616,4445.128205128206,4762.051282051282,4398.461538461539,4294.871794871796,4237.948717948719,4548.205128205129
3942.3801,0.4784991,0.6602306,0.38879675,0.5551812,0,0.0,0.0,0.0,0.0,0.0,0,0,0.0,0.0,0,0,96.0,0.0,503.0,4650.769230769231,3948.717948717949,4508.205128205129,4442.564102564103,4239.48717948718,4524.615384615385,4437.435897435898,4414.358974358975,4408.205128205129,4714.871794871796,4371.282051282052,4263.076923076924,4205.128205128206,4544.615384615385
3942.5054,0.48468634,0.631869,0.40603024,0.55159223,0,0.0,0.0,0.0,0.0,0.0,0,0,0.0,0.0,0,0,112.0,0.0,503.0,4642.051282051282,3942.564102564103,4507.6923076923085,4454.358974358975,4265.128205128206,4540.000000000001,4428.205128205129,4404.102564102564,4392.820512820514,4712.820512820514,4360.512820512821,4255.8974358974365,4191.282051282052,4537.948717948719
3942.5054,0.48468634,0.631869,0.40603024,0.55159223,0,0.0,0.0,0.0,0.0,0.0,0,0,0.0,0.0,0,0,112.0,0.0,503.0,4642.051282051282,3942.564102564103,4507.6923076923085,4454.358974358975,4265.128205128206,4540.000000000001,4428.205128205129,4404.102564102564,4392.820512820514,4712.820512820514,4360.512820512821,4255.8974358974365,4191.282051282052,4537.948717948719
3943.0056,0.4913382,0.60256433,0.42153883,0.5559873,0,0.0,0.0,0.0,0.0,0.0,0,0,0.0,0.0,0,0,47.0,0.0,0.0,4612.820512820514,3936.410256410257,4476.923076923077,4452.820512820514,4267.6923076923085,4537.948717948719,4414.871794871796,4366.666666666667,4358.461538461539,4672.820512820514,4330.256410256411,4217.435897435898,4157.948717948719,4520.000000000001
3943.0056,0.4913382,0.60256433,0.42153883,0.5559873,0,0.0,0.0,0.0,0.0,0.0,0,0,0.0,0.0,0,0,47.0,0.0,0.0,4612.820512820514,3936.410256410257,4476.923076923077,4452.820512820514,4267.6923076923085,4537.948717948719,4414.871794871796,4366.666666666667,4358.461538461539,4672.820512820514,4330.256410256411,4217.435897435898,4157.948717948719,4520.000000000001
3943.6313,0.43035027,0.55805576,0.42995754,0.5613948,0,0.0,0.0,0.0,0.0,1.0,0,0,0.0,0.0,0,0,127.0,0.0,387.0,4687.179487179488,3938.9743589743593,4461.025641025642,4457.435897435898,4249.74358974359,4525.641025641026,4396.923076923077,4345.128205128206,4344.102564102564,4664.102564102564,4329.2307692307695,4196.410256410257,4149.2307692307695,4505.641025641026
3943.8816,0.43035027,0.55805576,0.42995754,0.5613948,0,0.0,0.0,0.0,0.0,0.66388285,0,0,0.0,0.0,1,0,30.0,0.0,0.0,4707.6923076923085,3957.435897435898,4472.820512820514,4460.512820512821,4245.641025641026,4540.000000000001,4411.794871794872,4352.820512820514,4355.384615384616,4668.717948717949,4354.871794871796,4199.48717948718,4163.589743589744,4490.769230769231
3944.1943,0.43250677,0.56102324,0.41411862,0.58001447,0,0.0,0.0,0.0,0.0,0.34609157,0,0,0.0,0.0,0,0,70.0,0.0,533.0,4669.2307692307695,3942.0512820512827,4471.794871794872,4444.615384615385,4243.076923076924,4552.307692307693,4417.435897435898,4381.538461538462,4381.538461538462,4691.282051282052,4349.743589743591,4191.282051282052,4167.179487179487,4485.128205128206
3944.3818,0.43250677,0.56102324,0.41411862,0.58001447,0,0.0,0.0,0.0,0.0,0.11636164,0,0,0.0,0.0,0,0,94.0,0.0,537.0,4662.051282051282,3932.307692307693,4473.846153846154,4440.512820512821,4252.307692307693,4551.282051282052,4430.769230769231,4394.871794871796,4362.564102564103,4717.435897435898,4390.769230769231,4221.025641025642,4217.435897435898,4496.923076923077
3944.632,0.3839564,0.5631093,0.38295442,0.59890383,0,0.0,0.0,0.0,0.0,0.0,0,0,0.0,0.0,0,0,126.0,0.0,537.0,4642.564102564103,3932.820512820513,4482.051282051282,4443.076923076924,4241.025641025642,4554.358974358975,4441.025641025642,4393.846153846154,4343.589743589744,4712.307692307693,4400.000000000001,4227.179487179487,4217.948717948719,4484.615384615385
3944.632,0.3839564,0.5631093,0.38295442,0.59890383,0,0.0,0.0,0.0,0.0,0.0,0,0,0.0,0.0,0,0,126.0,0.0,537.0,4642.564102564103,3932.820512820513,4482.051282051282,4443.076923076924,4241.025641025642,4554.358974358975,4441.025641025642,4393.846153846154,4343.589743589744,4712.307692307693,4400.000000000001,4227.179487179487,4217.948717948719,4484.615384615385
3945.0076,0.39390656,0.5696466,0.34829584,0.6173951,0,0.0,0.0,0.0,0.0,0.0,0,0,0.0,0.0,0,0,45.0,0.0,0.0,4664.102564102564,3928.717948717949,4352.820512820514,4441.025641025642,4252.307692307693,4553.846153846154,4443.589743589744,4420.000000000001,4335.8974358974365,4741.025641025642,4414.358974358975,4248.717948717949,4232.307692307693,4505.128205128206
3945.0076,0.39390656,0.5696466,0.34829584,0.6173951,0,0.0,0.0,0.0,0.0,0.0,0,0,0.0,0.0,0,0,45.0,0.0,0.0,4664.102564102564,3928.717948717949,4352.820512820514,4441.025641025642,4252.307692307693,4553.846153846154,4443.589743589744,4420.000000000001,4335.8974358974365,4741.025641025642,4414.358974358975,4248.717948717949,4232.307692307693,4505.128205128206
3945.5078,0.41811568,0.5755383,0.3171029,0.63956004,0,0.0,0.0,0.0,0.0,0.0,0,0,0.0,0.0,0,0,109.0,0.0,464.0,4823.589743589744,3855.8974358974365,4702.051282051282,4413.846153846154,4120.512820512821,4585.641025641026,4578.461538461539,4628.717948717949,4573.333333333334,4918.461538461539,4600.000000000001,4455.384615384616,4396.410256410257,4625.128205128206
3945.5078,0.41811568,0.5755383,0.3171029,0.63956004,0,0.0,0.0,0.0,0.0,0.0,0,0,0.0,0.0,0,0,109.0,0.0,464.0,4823.589743589744,3855.8974358974365,4702.051282051282,4413.846153846154,4120.512820512821,4585.641025641026,4578.461538461539,4628.717948717949,4573.333333333334,4918.461538461539,4600.000000000001,4455.384615384616,4396.410256410257,4625.128205128206
3946.0083,0.5779418,0.58084077,0.29564175,0.66830623,0,0.0,0.0,0.0,0.0,0.0,0,0,0.0,0.0,0,0,44.0,0.0,0.0,5028.205128205129,4105.641025641026,4827.179487179488,4508.717948717949,4230.256410256411,4646.666666666667,4706.153846153847,4826.153846153847,4747.179487179488,5090.256410256411,4750.256410256411,4663.589743589744,4539.48717948718,4728.717948717949
3946.3835,0.5779418,0.58084077,0.29564175,0.66830623,0,0.0,0.0,0.0,0.0,0.08076603,0,0,0.0,0.0,0,0,92.0,0.0,496.0,4923.589743589744,4129.2307692307695,4691.794871794872,4542.564102564103,4286.666666666667,4592.307692307693,4568.205128205129,4653.333333333334,4611.794871794872,4955.384615384616,4601.538461538462,4522.564102564103,4408.717948717949,4717.948717948719
3946.6338,0.71858877,0.585613,0.30156177,0.7001145,0,0.0,0.0,0.0,0.0,0.06004876,0,0,0.0,0.0,0,0,124.0,0.0,496.0,4813.333333333334,4102.564102564103,4592.307692307693,4538.974358974359,4311.282051282052,4550.256410256411,4492.307692307693,4518.461538461539,4470.769230769231,4822.051282051282,4473.846153846154,4380.000000000001,4275.8974358974365,4677.948717948719
3946.884,0.71858877,0.585613,0.30156177,0.7001145,0,0.0,0.0,0.45560744,0.0,0.0,0,0,0.0,0.0,0,0,27.0,0.0,0.0,4749.743589743591,4061.538461538462,4521.538461538462,4514.358974358975,4325.641025641026,4522.564102564103,4427.179487179487,4409.2307692307695,4368.717948717949,4714.358974358975,4372.307692307693,4276.923076923077,4177.948717948719,4635.8974358974365
3947.1343,0.78726643,0.58990806,0.33039933,0.73223776,0,0.0,0.0,0.3121644,0.0,0.0,0,0,0.0,0.0,0,0,59.0,0.0,0.0,4657.948717948719,3988.717948717949,4442.051282051282,4488.205128205129,4314.871794871796,4505.641025641026,4365.128205128206,4312.820512820514,4310.256410256411,4656.410256410257,4315.384615384616,4183.076923076924,4140.000000000001,4606.153846153847
3947.2593,0.78726643,0.58990806,0.33039933,0.73223776,0,0.0,0.0,0.0,0.0,0.0,0,0,0.0,0.0,0,0,75.0,0.0,387.0,4642.564102564103,3974.358974358975,4429.743589743591,4483.589743589744,4321.538461538462,4506.666666666667,4372.820512820514,4295.8974358974365,4294.871794871796,4651.794871794872,4310.769230769231,4171.282051282052,4142.051282051282,4600.512820512821
3947.5095,0.90279454,0.5937736,0.35635316,0.76113236,0,0.0,0.0,0.0,0.0,0.0,0,0,0.0,0.0,0,0,107.0,0.0,387.0,4583.076923076924,3938.9743589743593,4395.384615384616,4453.846153846154,4298.461538461539,4495.8974358974365,4359.48717948718,4261.538461538462,4251.282051282052,4587.6923076923085,4246.666666666667,4124.615384615385,4077.9487179487187,4567.6923076923085
3947.5095,0.90279454,0.5937736,0.35635316,0.76113236,0,0.0,0.0,0.0,0.0,0.0,0,0,0.0,0.0,0,0,107.0,0.0,387.0,4583.076923076924,3938.9743589743593,4395.384615384616,4453.846153846154,4298.461538461539,4495.8974358974365,4359.48717948718,4261.538461538462,4251.282051282052,4587.6923076923085,4246.666666666667,4124.615384615385,4077.9487179487187,4567.6923076923085
3948.01,0.9529659,0.59725255,0.37971115,0.7871175,0,0.0,0.0,0.0,0.0,0.0,0,0,0.0,0.0,0,0,42.0,0.0,0.0,4525.641025641026,3925.6410256410263,4390.256410256411,4438.974358974359,4271.794871794872,4490.256410256411,4340.000000000001,4249.2307692307695,4246.153846153847,4576.923076923077,4233.333333333334,4092.307692307693,4068.717948717949,4537.435897435898
3948.3853,0.9529659,0.59725255,0.37971115,0.7871175,0,0.0,0.0,0.0,0.0,0.0,0,0,0.6283924,0.0,0,0,90.0,0.0,535.0,4485.641025641026,3900.0000000000005,4385.128205128206,4416.410256410257,4249.74358974359,4508.205128205129,4366.153846153847,4274.358974358975,4262.564102564103,4610.769230769231,4241.025641025642,4091.2820512820517,4075.3846153846157,4540.512820512821
3948.6355,0.9449396,0.60038364,0.3872436,0.80613095,0,0.0,0.0,0.0,0.0,0.0,0,0,0.5200252,0.0,0,0,122.0,0.0,535.0,4508.717948717949,3925.6410256410263,4413.333333333334,4425.641025641026,4266.666666666667,4523.589743589744,4397.948717948719,4312.307692307693,4299.48717948718,4641.538461538462,4268.205128205129,4133.333333333334,4107.179487179487,4568.205128205129
3948.8857,0.9449396,0.60038364,0.3872436,0.80613095,0,0.0,0.0,0.0,0.0,0.0,0,0,0.77049726,0.0,0,0,25.0,0.0,0.0,4471.794871794872,3884.615384615385,4403.076923076924,4410.256410256411,4247.6923076923085,4527.6923076923085,4396.410256410257,4320.000000000001,4326.153846153847,4656.410256410257,4301.538461538462,4131.282051282052,4151.794871794872,4587.179487179488
3949.011,0.94157183,0.6032016,0.37953323,0.8138051,0,0.0,0.0,0.0,0.0,0.0,0,0,0.0,0.0,0,0,41.0,0.0,0.0,4472.820512820514,3892.820512820513,4407.6923076923085,4408.717948717949,4252.307692307693,4526.153846153847,4397.435897435898,4323.076923076924,4324.615384615385,4657.948717948719,4293.846153846154,4131.794871794872,4150.256410256411,4589.2307692307695
3949.3862,0.94157183,0.6032016,0.37953323,0.8138051,0,0.0,0.0,0.0,0.0,0.0,0,0,0.0,0.0,0,0,89.0,0.0,463.0,4508.717948717949,3908.205128205129,4431.282051282052,4426.666666666667,4240.512820512821,4527.6923076923085,4406.153846153847,4322.564102564103,4334.871794871796,4676.410256410257,4331.282051282052,4162.051282051282,4178.461538461539,4603.076923076924
3949.6365,0.96340066,0.6057378,0.37214383,0.8084686,0,0.0,0.0,0.0,0.0,0.0,0,0,0.22518504,0.0,0,0,121.0,0.0,463.0,4489.743589743591,3893.333333333334,4427.179487179487,4408.717948717949,4229.74358974359,4523.589743589744,4411.282051282052,4348.717948717949,4348.717948717949,4657.435897435898,4305.128205128206,4150.769230769231,4149.2307692307695,4598.974358974359
3949.8867,0.96340066,0.6057378,0.37214383,0.8084686,0,0.0,0.0,0.0,0.0,0.0,0,0,0.51050645,0.0,0,0,24.0,0.0,0.0,4518.974358974359,3881.0256410256416,4432.820512820514,4409.2307692307695,4237.948717948719,4527.6923076923085,4416.923076923077,4355.8974358974365,4349.743589743591,4682.564102564103,4327.179487179487,4169.74358974359,4169.74358974359,4615.384615384616
3950.0117,0.9100756,0.60802037,0.36549288,0.792532,0,0.0,0.0,0.0,0.0,0.0,0,0,0.0,0.0,0,0,40.0,0.0,0.0,4544.102564102564,3908.717948717949,4445.128205128206,4417.948717948719,4241.025641025642,4534.358974358975,4430.769230769231,4361.538461538462,4368.717948717949,4693.333333333334,4337.435897435898,4177.435897435898,4177.948717948719,4623.589743589744
3950.0117,0.9100756,0.60802037,0.36549288,0.792532,0,0.0,0.0,0.0,0.0,0.0,0,0,0.0,0.0,0,0,40.0,0.0,0.0,4544.102564102564,3908.717948717949,4445.128205128206,4417.948717948719,4241.025641025642,4534.358974358975,4430.769230769231,4361.538461538462,4368.717948717949,4693.333333333334,4337.435897435898,4177.435897435898,4177.948717948719,4623.589743589744
3950.7,0.83925444,0.5939882,0.356998,0.77819306,1,0.0,0.0,0.0,0.0,0.0,0,0,0.0,0.0,0,0,119.0,0.0,387.0,4726.153846153847,3971.7948717948725,4491.282051282052,4444.615384615385,4250.256410256411,4537.435897435898,4421.538461538462,4366.153846153847,4357.948717948719,4671.794871794872,4360.000000000001,4216.923076923077,4197.948717948719,4667.6923076923085
3950.8875,0.83925444,0.5939882,0.356998,0.77819306,0,0.0,0.0,0.0,0.0,0.6725387,0,0,0.0,0.0,0,0,23.0,0.0,0.0,4645.128205128206,3957.435897435898,4474.871794871796,4443.076923076924,4250.256410256411,4524.102564102564,4420.000000000001,4368.205128205129,4368.205128205129,4707.179487179488,4344.102564102564,4197.435897435898,4169.74358974359,4641.025641025642
3951.1377,0.74351674,0.6041424,0.35013306,0.7652907,0,0.0,0.0,0.0,0.0,0.31221953,0,0,0.0,0.0,0,0,55.0,0.0,0.0,4645.128205128206,3948.717948717949,4472.820512820514,4435.8974358974365,4239.48717948718,4526.666666666667,4414.358974358975,4367.6923076923085,4381.025641025642,4695.384615384616,4336.410256410257,4204.615384615385,4168.205128205129,4645.641025641026
3951.263,0.74351674,0.6041424,0.35013306,0.7652907,0,0.0,0.0,0.0,0.0,0.0,0,0,0.0,0.0,0,0,71.0,0.0,482.0,4663.076923076924,3958.461538461539,4481.025641025642,4442.564102564103,4231.282051282052,4526.153846153847,4412.820512820514,4372.307692307693,4388.717948717949,4715.8974358974365,4351.794871794872,4214.871794871796,4187.6923076923085,4651.794871794872
3951.5757,0.65637887,0.6144048,0.33920553,0.7542323,1,0.0,0.0,0.0,0.0,0.0,0,0,0.0,0.0,0,0,111.0,0.0,387.0,4696.410256410257,3957.9487179487182,4488.717948717949,4441.025641025642,4231.282051282052,4521.538461538462,4409.743589743591,4355.8974358974365,4356.410256410257,4680.512820512821,4321.025641025642,4199.48717948718,4160.000000000001,4652.820512820514
3951.732,0.65637887,0.6144048,0.33920553,0.7542323,0,0.0,0.0,0.0,0.0,0.0,0,0,0.0,0.0,0,0,2.0,0.0,438.0,4663.589743589744,3944.615384615385,4477.948717948719,4427.6923076923085,4215.384615384616,4525.128205128206,4428.717948717949,4374.358974358975,4372.820512820514,4689.743589743591,4328.205128205129,4204.615384615385,4166.666666666667,4650.256410256411
3952.0134,0.58143127,0.6656579,0.32568195,0.7438476,0,0.0,0.0,0.0,0.0,0.0,0,0,0.0,0.0,0,0,38.0,0.0,0.0,4688.205128205129,3925.6410256410263,4489.2307692307695,4417.435897435898,4229.74358974359,4523.589743589744,4424.615384615385,4376.923076923077,4367.179487179487,4688.205128205129,4327.179487179487,4217.948717948719,4154.358974358975,4641.538461538462
3952.0134,0.58143127,0.6656579,0.32568195,0.7438476,0,0.0,0.0,0.0,0.0,0.0,0,0,0.0,0.0,0,0,38.0,0.0,0.0,4688.205128205129,3925.6410256410263,4489.2307692307695,4417.435897435898,4229.74358974359,4523.589743589744,4424.615384615385,4376.923076923077,4367.179487179487,4688.205128205129,4327.179487179487,4217.948717948719,4154.358974358975,4641.538461538462
3952.639,0.60513395,0.73409456,0.31720006,0.73450196,0,0.0,0.0,0.0,0.0,0.103490666,0,0,0.0,0.0,0,0,118.0,0.0,535.0,4876.923076923077,3877.9487179487182,4631.794871794872,4381.538461538462,4177.435897435898,4600.000000000001,4564.102564102564,4606.666666666667,4563.589743589744,4905.128205128206,4556.410256410257,4443.076923076924,4343.589743589744,4698.974358974359
3952.8892,0.60513395,0.73409456,0.31720006,0.73450196,0,0.0,0.0,0.0,0.0,0.09410341,0,0,0.0,0.0,0,0,21.0,0.0,0.0,4856.923076923077,3901.538461538462,4622.051282051282,4399.48717948718,4211.282051282052,4601.025641025642,4551.282051282052,4601.025641025642,4555.8974358974365,4905.641025641026,4551.282051282052,4447.6923076923085,4350.256410256411,4711.794871794872
3953.1394,0.6939196,0.79573226,0.30956662,0.7119091,0,0.0,0.0,0.0,0.0,0.0,0,0,0.7155371,0.0,0,0,53.0,0.0,0.0,4825.641025641026,3941.538461538462,4586.666666666667,4427.179487179487,4236.410256410257,4572.307692307693,4524.102564102564,4540.512820512821,4490.256410256411,4842.564102564103,4509.2307692307695,4409.743589743591,4322.564102564103,4701.025641025642
3953.3896,0.6939196,0.79573226,0.30956662,0.7119091,0,0.0,0.0,0.0,0.0,0.0,0,0,0.9595012,0.0,0,0,85.0,0.0,463.0,4783.589743589744,3972.307692307693,4558.461538461539,4450.769230769231,4266.153846153847,4556.923076923077,4477.435897435898,4460.000000000001,4429.743589743591,4786.153846153847,4447.6923076923085,4357.948717948719,4265.641025641026,4674.871794871796
3953.5146,0.72728676,0.8512062,0.30269688,0.69157904,0,0.0,0.0,0.0,0.0,0.0,0,0,1.0,0.0,0,0,101.0,0.0,463.0,4738.461538461539,3974.358974358975,4525.128205128206,4450.769230769231,4283.076923076924,4560.512820512821,4463.589743589744,4438.461538461539,4409.2307692307695,4752.307692307693,4416.410256410257,4312.307692307693,4234.358974358975,4661.538461538462
3953.8901,0.72728676,0.8512062,0.30269688,0.69157904,0,0.0,0.0,0.2632725,0.0,0.0,0,0,0.0,0.0,0,0,20.0,0.0,0.0,4666.666666666667,3989.23076923077,4494.358974358975,4488.205128205129,4282.051282051282,4536.410256410257,4410.769230769231,4355.8974358974365,4347.179487179487,4675.8974358974365,4348.205128205129,4248.717948717949,4183.076923076924,4633.333333333334
3954.1404,0.69368535,0.90113276,0.29910812,0.6640579,0,0.0,0.0,0.0,0.0,0.0,0,0,0.0,0.0,0,0,52.0,0.0,0.0,4612.820512820514,3965.6410256410263,4467.6923076923085,4472.820512820514,4281.025641025642,4524.102564102564,4399.48717948718,4333.333333333334,4334.871794871796,4673.846153846154,4310.256410256411,4201.538461538462,4154.871794871796,4632.307692307693
3954.1404,0.69368535,0.90113276,0.29910812,0.6640579,0,0.0,0.0,0.0,0.0,0.0,0,0,0.0,0.0,0,0,52.0,0.0,0.0,4612.820512820514,3965.6410256410263,4467.6923076923085,4472.820512820514,4281.025641025642,4524.102564102564,4399.48717948718,4333.333333333334,4334.871794871796,4673.846153846154,4310.256410256411,4201.538461538462,4154.871794871796,4632.307692307693
3954.5156,0.7721892,0.9460666,0.29509455,0.6253394,0,0.0,0.0,0.0,0.0,0.0,0,0,0.0,0.0,0,0,100.0,0.0,501.0,4587.6923076923085,3954.358974358975,4448.205128205129,4463.589743589744,4260.512820512821,4511.282051282052,4383.589743589744,4313.333333333334,4322.564102564103,4654.358974358975,4288.205128205129,4164.615384615385,4136.410256410257,4621.025641025642
3954.5156,0.7721892,0.9460666,0.29509455,0.6253394,0,0.0,0.0,0.0,0.0,0.0,0,0,0.0,0.0,0,0,100.0,0.0,501.0,4587.6923076923085,3954.358974358975,4448.205128205129,4463.589743589744,4260.512820512821,4511.282051282052,4383.589743589744,4313.333333333334,4322.564102564103,4654.358974358975,4288.205128205129,4164.615384615385,4136.410256410257,4621.025641025642
3955.016,0.7278976,0.85741615,0.29108992,0.6006762,0,0.0,0.0,0.0,0.0,0.0,0,0,0.0,0.0,0,0,35.0,0.0,0.0,4607.6923076923085,3946.666666666667,4458.461538461539,4452.820512820514,4255.384615384616,4522.051282051282,4396.923076923077,4331.282051282052,4331.794871794872,4656.410256410257,4243.589743589744,4172.820512820514,4135.384615384616,4596.923076923077
3955.016,0.7278976,0.85741615,0.29108992,0.6006762,0,0.0,0.0,0.0,0.0,0.0,0,0,0.0,0.0,0,0,35.0,0.0,0.0,4607.6923076923085,3946.666666666667,4458.461538461539,4452.820512820514,4255.384615384616,4522.051282051282,4396.923076923077,4331.282051282052,4331.794871794872,4656.410256410257,4243.589743589744,4172.820512820514,4135.384615384616,4596.923076923077
3955.5164,0.67853534,0.792392,0.28501135,0.59243333,0,0.0,0.0,0.0,0.0,0.0,0,0,0.0,0.0,0,0,99.0,0.0,386.0,4597.948717948719,3929.2307692307695,4467.179487179487,4417.435897435898,4227.179487179487,4507.179487179488,4395.384615384616,4349.2307692307695,4351.282051282052,4680.000000000001,4250.256410256411,4186.666666666667,4152.820512820514,4582.564102564103
3955.5164,0.67853534,0.792392,0.28501135,0.59243333,0,0.0,0.0,0.0,0.0,0.0,0,0,0.0,0.0,0,0,99.0,0.0,386.0,4597.948717948719,3929.2307692307695,4467.179487179487,4417.435897435898,4227.179487179487,4507.179487179488,4395.384615384616,4349.2307692307695,4351.282051282052,4680.000000000001,4250.256410256411,4186.666666666667,4152.820512820514,4582.564102564103
3956.0168,0.6516837,0.74423486,0.27954137,0.5850146,0,0.0,0.0,0.0,0.0,0.0,0,0,0.0,0.0,0,0,34.0,0.0,0.0,4580.000000000001,3923.589743589744,4460.512820512821,4396.410256410257,4228.717948717949,4524.615384615385,4407.6923076923085,4362.051282051282,4358.461538461539,4690.769230769231,4300.000000000001,4176.410256410257,4155.384615384616,4570.256410256411
3956.3923,0.6516837,0.74423486,0.27954137,0.5850146,0,0.0,0.0,0.21056412,0.0,0.0,0,0,0.0,0.0,0,0,82.0,0.0,536.0,4605.641025641026,3940.5128205128212,4476.923076923077,4425.128205128206,4260.000000000001,4540.512820512821,4440.000000000001,4381.538461538462,4378.461538461539,4698.974358974359,4301.025641025642,4187.6923076923085,4203.076923076924,4562.564102564103
3956.6423,0.65266067,0.7175385,0.2794587,0.57398957,0,0.0,0.0,0.0,0.0,0.0,0,0,0.0,0.33073822,0,0,114.0,0.0,536.0,4601.025641025642,3942.0512820512827,4472.820512820514,4424.102564102564,4275.8974358974365,4541.538461538462,4422.051282051282,4360.000000000001,4365.641025641026,4675.8974358974365,4293.333333333334,4186.666666666667,4174.871794871796,4551.794871794872
3956.8926,0.65266067,0.7175385,0.2794587,0.57398957,0,0.0,0.0,0.0,0.0,0.0,0,0,0.0,0.0,0,0,17.0,0.0,0.0,4639.48717948718,3968.717948717949,4493.846153846154,4449.743589743591,4269.74358974359,4552.820512820514,4440.000000000001,4390.769230769231,4391.794871794872,4708.205128205129,4367.6923076923085,4218.461538461539,4205.128205128206,4579.48717948718
3957.0178,0.62178135,0.6960642,0.27255625,0.56406695,0,0.0,0.0,0.0,0.0,0.0,0,0,0.0,0.0,0,0,33.0,0.0,0.0,4639.48717948718,3975.8974358974365,4484.615384615385,4449.2307692307695,4285.641025641026,4570.769230769231,4446.153846153847,4409.2307692307695,4414.358974358975,4732.820512820514,4391.794871794872,4212.307692307693,4217.948717948719,4585.128205128206
3957.0178,0.62178135,0.6960642,0.27255625,0.56406695,0,0.0,0.0,0.0,0.0,0.0,0,0,0.0,0.0,0,0,33.0,0.0,0.0,4639.48717948718,3975.8974358974365,4484.615384615385,4449.2307692307695,4285.641025641026,4570.769230769231,4446.153846153847,4409.2307692307695,4414.358974358975,4732.820512820514,4391.794871794872,4212.307692307693,4217.948717948719,4585.128205128206
3957.5183,0.5845683,0.6720628,0.263074,0.55993134,0,0.0,0.0,0.0,0.0,0.0,0,0,0.0,0.0,0,0,97.0,0.0,464.0,4660.512820512821,3951.2820512820517,4473.333333333334,4440.512820512821,4264.102564102564,4555.8974358974365,4441.025641025642,4379.48717948718,4375.384615384616,4688.717948717949,4365.128205128206,4196.410256410257,4178.461538461539,4557.435897435898
3957.5183,0.5845683,0.6720628,0.263074,0.55993134,0,0.0,0.0,0.0,0.0,0.0,0,0,0.0,0.0,0,0,97.0,0.0,464.0,4660.512820512821,3951.2820512820517,4473.333333333334,4440.512820512821,4264.102564102564,4555.8974358974365,4441.025641025642,4379.48717948718,4375.384615384616,4688.717948717949,4365.128205128206,4196.410256410257,4178.461538461539,4557.435897435898
3958.0186,0.5268018,0.6542161,0.25925165,0.5650425,0,0.0,0.0,0.0,0.0,0.0,0,0,0.0,0.0,0,0,32.0,0.0,0.0,4644.615384615385,3955.8974358974365,4501.025641025642,4435.384615384616,4252.820512820514,4549.743589743591,4442.051282051282,4385.128205128206,4382.564102564103,4711.282051282052,4380.512820512821,4214.871794871796,4182.564102564103,4566.153846153847
3958.0186,0.5268018,0.6542161,0.25925165,0.5650425,0,0.0,0.0,0.0,0.0,0.0,0,0,0.0,0.0,0,0,32.0,0.0,0.0,4644.615384615385,3955.8974358974365,4501.025641025642,4435.384615384616,4252.820512820514,4549.743589743591,4442.051282051282,4385.128205128206,4382.564102564103,4711.282051282052,4380.512820512821,4214.871794871796,4182.564102564103,4566.153846153847
3958.6755,0.4530319,0.6320449,0.24933337,0.56964236,0,0.0,0.0,0.0,0.0,0.0,0,0,0.0,0.0,1,0,116.0,0.0,506.0,4772.307692307693,3892.820512820513,4570.256410256411,4406.153846153847,4180.000000000001,4536.410256410257,4468.205128205129,4457.435897435898,4436.923076923077,4798.974358974359,4457.435897435898,4318.974358974359,4273.333333333334,4651.282051282052
3958.8943,0.4530319,0.6320449,0.24933337,0.56964236,0,0.0,0.0,0.0,0.0,0.02975939,0,0,0.0,0.0,1,0,15.0,0.0,386.0,4863.589743589744,3841.0256410256416,4680.000000000001,4372.307692307693,4122.564102564103,4591.794871794872,4624.615384615385,4684.102564102564,4600.000000000001,4953.846153846154,4602.564102564103,4495.384615384616,4396.410256410257,4703.589743589744
3959.1445,0.5245229,0.612106,0.24040848,0.5845539,0,0.0,0.0,0.0,0.0,0.022659473,0,0,0.0,0.0,0,0,47.0,0.0,0.0,5056.410256410257,3914.8717948717954,4800.000000000001,4375.384615384616,4115.8974358974365,4642.051282051282,4750.769230769231,4911.794871794872,4736.410256410257,5106.666666666667,4768.205128205129,4739.48717948718,4537.948717948719,4793.333333333334
