timestamp,excitement,frustration,meditation,engagementBoredom,blink,clench,laugh,smile,eyebrow,furrowBrow,lookLeft,lookRight,smirkLeft,smirkRight,winkLeft,winkRight,eeg0,eeg1,eeg2,eeg3,eeg4,eeg5,eeg6,eeg7,eeg8,eeg9,eeg10,eeg11,eeg12,eeg13,eeg14,eeg15,eeg16
2895.598,1.0,0.86333567,0.4976752,0.7996894,0,0.0,0.0,0.0,0.0,0.12993649,0,0,0.0,0.0,0,0,124.0,0.0,495.0,4508.717948717949,3962.564102564103,4166.666666666667,4523.589743589744,4295.8974358974365,4385.641025641026,4066.1538461538466,3941.538461538462,4110.769230769231,4443.589743589744,4003.076923076924,3823.589743589744,3952.820512820513,5036.410256410257
2895.848,1.0,0.86333567,0.4976752,0.7996894,0,0.0,0.0,0.0,0.0,1.0,0,0,0.0,0.0,0,0,27.0,0.0,0.0,4423.589743589744,3910.7692307692314,4189.74358974359,4493.333333333334,4338.974358974359,4446.666666666667,4112.820512820514,3961.538461538462,4159.48717948718,4483.589743589744,3989.23076923077,3848.205128205129,3925.1282051282055,4897.435897435898
2896.0981,0.91188985,0.86030793,0.4932558,0.78733987,0,0.0,0.0,0.0,0.0,0.6421168,0,0,0.0,0.0,0,0,59.0,0.0,0.0,4312.307692307693,3862.0512820512827,4238.974358974359,4460.512820512821,4343.076923076924,4477.435897435898,4170.769230769231,4023.076923076924,4214.358974358975,4535.384615384616,4020.5128205128212,3914.8717948717954,3925.6410256410263,4736.410256410257
2896.3484,0.91188985,0.86030793,0.4932558,0.78733987,0,0.0,0.0,0.0,0.0,0.49503633,0,0,0.0,0.0,0,0,91.0,0.0,388.0,4253.846153846154,3843.076923076924,4293.846153846154,4424.615384615385,4357.435897435898,4508.717948717949,4235.8974358974365,4080.0000000000005,4246.666666666667,4555.8974358974365,4049.7435897435903,3969.7435897435903,3931.2820512820517,4634.358974358975
2896.5986,1.0,0.8575829,0.48001477,0.7832229,0,0.0,0.0,0.0,0.0,0.18268608,0,0,0.0,0.0,0,0,123.0,0.0,388.0,4288.205128205129,3849.2307692307695,4361.538461538462,4415.384615384616,4351.282051282052,4537.948717948719,4310.769230769231,4168.717948717949,4313.846153846154,4610.769230769231,4106.153846153847,4056.9230769230776,3980.0000000000005,4601.025641025642
2896.8489,1.0,0.8575829,0.48001477,0.7832229,0,0.0,0.0,0.0,0.0,0.14894477,0,0,0.0,0.0,0,0,26.0,0.0,0.0,4278.461538461539,3857.9487179487182,4409.2307692307695,4406.666666666667,4340.512820512821,4553.333333333334,4365.641025641026,4228.205128205129,4344.102564102564,4651.794871794872,4172.820512820514,4129.74358974359,4045.6410256410263,4568.717948717949
2897.099,1.0,0.85513043,0.4605134,0.77951336,0,0.0,0.0,0.0,0.0,0.17522337,0,0,0.0,0.0,0,0,58.0,0.0,0.0,4290.769230769231,3848.717948717949,4459.48717948718,4400.000000000001,4340.512820512821,4573.333333333334,4417.948717948719,4305.128205128206,4371.794871794872,4693.846153846154,4232.307692307693,4206.153846153847,4077.435897435898,4540.512820512821
2897.3494,1.0,0.85513043,0.4605134,0.77951336,0,0.0,0.0,0.0,0.0,0.2629305,0,0,0.0,0.0,0,0,90.0,0.0,524.0,4348.717948717949,3846.666666666667,4458.974358974359,4390.769230769231,4310.769230769231,4577.435897435898,4441.538461538462,4330.256410256411,4391.794871794872,4703.076923076924,4267.179487179487,4219.48717948718,4085.1282051282055,4505.128205128206
2897.5996,1.0,0.8529232,0.4409632,0.77617043,0,0.0,0.0,0.0,0.0,0.962434,0,0,0.0,0.0,1,0,122.0,0.0,524.0,4428.717948717949,3875.8974358974365,4490.769230769231,4475.384615384616,4337.948717948719,4602.564102564103,4471.794871794872,4369.2307692307695,4401.025641025642,4710.769230769231,4307.179487179487,4285.128205128206,4122.564102564103,4514.871794871796
2897.8496,1.0,0.8529232,0.4409632,0.77617043,0,0.0,0.0,0.0,0.0,0.5564692,0,0,0.0,0.0,1,0,25.0,0.0,0.0,4383.076923076924,3854.358974358975,4504.102564102564,4466.153846153847,4312.820512820514,4585.641025641026,4458.461538461539,4369.743589743591,4386.153846153847,4676.410256410257,4340.512820512821,4296.410256410257,4125.641025641026,4532.307692307693
2898.0999,1.0,0.8509367,0.42336726,0.7677032,0,0.0,0.0,0.0,0.0,0.0,0,0,0.0,0.0,0,0,57.0,0.0,0.0,4403.589743589744,3938.9743589743593,4508.717948717949,4477.948717948719,4300.512820512821,4581.538461538462,4457.948717948719,4381.538461538462,4395.384615384616,4668.205128205129,4285.128205128206,4235.384615384616,4007.1794871794878,4464.615384615385
2898.35,1.0,0.8509367,0.42336726,0.7677032,0,0.0,0.0,0.0,0.0,0.3336826,1,0,0.0,0.0,0,0,89.0,0.0,469.0,4359.48717948718,3894.358974358975,4506.153846153847,4443.589743589744,4308.717948717949,4570.256410256411,4455.8974358974365,4381.538461538462,4407.6923076923085,4668.205128205129,4297.948717948719,4240.512820512821,4005.1282051282055,4491.282051282052
2898.6003,1.0,0.89618313,0.40610364,0.7570561,0,0.0,0.0,0.0,0.0,0.37821496,1,0,0.0,0.0,0,0,121.0,0.0,469.0,4334.358974358975,3874.8717948717954,4490.769230769231,4396.410256410257,4310.769230769231,4558.461538461539,4441.538461538462,4386.153846153847,4387.6923076923085,4658.974358974359,4313.333333333334,4255.8974358974365,4033.333333333334,4460.512820512821
2898.8506,1.0,0.89618313,0.40610364,0.7570561,0,0.0,0.0,0.0,0.0,1.0,0,0,0.0,0.0,0,0,24.0,0.0,0.0,4430.256410256411,3858.9743589743593,4496.923076923077,4386.153846153847,4292.307692307693,4542.564102564103,4445.128205128206,4400.512820512821,4355.384615384616,4652.307692307693,4303.076923076924,4257.435897435898,4028.205128205129,4445.128205128206
2899.1008,0.9578036,0.98640263,0.3911854,0.74747473,0,0.0,0.0,0.0,0.0,0.0,0,0,0.0,0.0,0,0,56.0,0.0,0.0,4436.410256410257,3782.0512820512827,4553.333333333334,4335.384615384616,4191.794871794872,4554.358974358975,4521.025641025642,4514.871794871796,4406.153846153847,4677.948717948719,4294.871794871796,4327.179487179487,3988.717948717949,4457.948717948719
2899.1008,0.9578036,0.98640263,0.3911854,0.74747473,0,0.0,0.0,0.0,0.0,0.0,0,0,0.0,0.0,0,0,56.0,0.0,0.0,4436.410256410257,3782.0512820512827,4553.333333333334,4335.384615384616,4191.794871794872,4554.358974358975,4521.025641025642,4514.871794871796,4406.153846153847,4677.948717948719,4294.871794871796,4327.179487179487,3988.717948717949,4457.948717948719
2899.6013,1.0,1.0,0.37636936,0.73885196,0,0.0,0.0,0.0,0.0,0.0,0,0,1.0,0.0,0,0,120.0,0.0,502.0,5079.487179487181,3855.3846153846157,4833.333333333334,4351.282051282052,3968.717948717949,4535.384615384616,4824.102564102564,4922.564102564103,4631.794871794872,4963.589743589744,4598.461538461539,4690.256410256411,4334.358974358975,4690.769230769231
2899.8516,1.0,1.0,0.37636936,0.73885196,0,0.0,0.0,0.0,0.0,0.0,0,0,0.0,0.0,0,0,23.0,0.0,0.0,5215.8974358974365,4071.2820512820517,4890.769230769231,4515.384615384616,4112.307692307693,4548.717948717949,4862.051282051283,5052.820512820514,4718.974358974359,5136.410256410257,4746.153846153847,4765.128205128206,4567.179487179488,4763.589743589744
2900.1016,1.0,1.0,0.36111617,0.7315971,0,0.0,0.0,0.0,0.0,0.0,0,0,0.0,0.0,0,0,55.0,0.0,0.0,5213.846153846154,4213.846153846154,4748.717948717949,4569.2307692307695,4258.461538461539,4521.025641025642,4709.2307692307695,4894.871794871796,4613.333333333334,5100.512820512821,4747.6923076923085,4645.128205128206,4606.153846153847,4754.358974358975
2900.1016,1.0,1.0,0.36111617,0.7315971,0,0.0,0.0,0.0,0.0,0.0,0,0,0.0,0.0,0,0,55.0,0.0,0.0,5213.846153846154,4213.846153846154,4748.717948717949,4569.2307692307695,4258.461538461539,4521.025641025642,4709.2307692307695,4894.871794871796,4613.333333333334,5100.512820512821,4747.6923076923085,4645.128205128206,4606.153846153847,4754.358974358975
2900.602,1.0,1.0,0.3477034,0.72506714,0,0.0,0.0,0.0,0.0,0.13382088,0,0,0.0,0.0,0,0,119.0,0.0,397.0,4728.717948717949,4134.871794871796,4446.153846153847,4597.948717948719,4353.846153846154,4493.846153846154,4309.743589743591,4434.871794871796,4436.923076923077,4886.153846153847,4550.769230769231,4262.564102564103,4442.564102564103,4607.179487179488
2900.8523,1.0,1.0,0.3477034,0.72506714,0,0.0,0.0,0.0,0.0,0.097233474,0,0,0.0,0.0,0,0,22.0,0.0,0.0,4634.871794871796,4068.717948717949,4346.153846153847,4572.307692307693,4386.153846153847,4484.102564102564,4182.564102564103,4229.2307692307695,4307.6923076923085,4689.2307692307695,4395.8974358974365,4100.000000000001,4276.923076923077,4489.743589743591
2901.1025,1.0,1.0,0.3356317,0.71918917,0,0.0,0.0,0.0,0.0,0.0,0,0,0.0,0.0,0,0,54.0,0.0,0.0,4630.769230769231,4015.8974358974365,4347.6923076923085,4541.538461538462,4311.282051282052,4525.641025641026,4202.564102564103,4204.102564102564,4328.205128205129,4670.256410256411,4374.871794871796,4077.9487179487187,4234.358974358975,4476.923076923077
2901.1025,1.0,1.0,0.3356317,0.71918917,0,0.0,0.0,0.0,0.0,0.0,0,0,0.0,0.0,0,0,54.0,0.0,0.0,4630.769230769231,4015.8974358974365,4347.6923076923085,4541.538461538462,4311.282051282052,4525.641025641026,4202.564102564103,4204.102564102564,4328.205128205129,4670.256410256411,4374.871794871796,4077.9487179487187,4234.358974358975,4476.923076923077
2901.603,1.0,1.0,0.3341288,0.70974404,0,0.0,0.0,0.0,0.0,0.0,0,0,0.0,0.0,0,0,118.0,0.0,524.0,4565.641025641026,3989.23076923077,4415.8974358974365,4489.743589743591,4309.2307692307695,4557.948717948719,4320.512820512821,4290.256410256411,4388.205128205129,4647.179487179488,4352.307692307693,4152.307692307693,4186.666666666667,4418.974358974359
2901.603,1.0,1.0,0.3341288,0.70974404,0,0.0,0.0,0.0,0.0,0.0,0,0,0.0,0.0,0,0,118.0,0.0,524.0,4565.641025641026,3989.23076923077,4415.8974358974365,4489.743589743591,4309.2307692307695,4557.948717948719,4320.512820512821,4290.256410256411,4388.205128205129,4647.179487179488,4352.307692307693,4152.307692307693,4186.666666666667,4418.974358974359
2902.1348,1.0,1.0,0.3346812,0.69253486,0,0.0,0.0,0.0,0.0,0.0,0,0,0.0,0.0,1,0,57.0,0.0,0.0,4596.410256410257,4004.1025641025644,4493.333333333334,4458.974358974359,4361.538461538462,4590.769230769231,4424.615384615385,4363.589743589744,4433.333333333334,4667.179487179488,4356.410256410257,4239.48717948718,4185.128205128206,4352.307692307693
2902.3223,1.0,1.0,0.3346812,0.69253486,0,0.0,0.0,0.0,0.0,0.0,0,0,0.0,0.0,0,0,81.0,0.0,471.0,4618.461538461539,4024.615384615385,4506.666666666667,4453.333333333334,4403.589743589744,4615.384615384616,4467.6923076923085,4400.000000000001,4441.025641025642,4689.743589743591,4356.923076923077,4247.179487179487,4186.666666666667,4349.2307692307695
2902.6038,0.94003373,1.0,0.34745806,0.67432636,0,0.0,0.0,0.0,0.0,0.0,0,0,0.0,0.0,0,0,117.0,0.0,471.0,4650.769230769231,3962.0512820512827,4490.256410256411,4413.846153846154,4354.358974358975,4600.512820512821,4445.641025641026,4383.076923076924,4401.538461538462,4690.256410256411,4346.153846153847,4234.358974358975,4165.641025641026,4374.358974358975
2902.6038,0.94003373,1.0,0.34745806,0.67432636,0,0.0,0.0,0.0,0.0,0.0,0,0,0.0,0.0,0,0,117.0,0.0,471.0,4650.769230769231,3962.0512820512827,4490.256410256411,4413.846153846154,4354.358974358975,4600.512820512821,4445.641025641026,4383.076923076924,4401.538461538462,4690.256410256411,4346.153846153847,4234.358974358975,4165.641025641026,4374.358974358975
2903.1042,0.92587763,1.0,0.36178288,0.6558169,0,0.0,0.0,0.0,0.0,0.0,0,0,0.0,0.0,0,0,52.0,0.0,0.0,4662.051282051282,3932.307692307693,4501.538461538462,4408.205128205129,4270.769230769231,4603.589743589744,4471.794871794872,4385.128205128206,4414.358974358975,4707.6923076923085,4376.923076923077,4259.48717948718,4172.307692307693,4350.256410256411
2903.1042,0.92587763,1.0,0.36178288,0.6558169,0,0.0,0.0,0.0,0.0,0.0,0,0,0.0,0.0,0,0,52.0,0.0,0.0,4662.051282051282,3932.307692307693,4501.538461538462,4408.205128205129,4270.769230769231,4603.589743589744,4471.794871794872,4385.128205128206,4414.358974358975,4707.6923076923085,4376.923076923077,4259.48717948718,4172.307692307693,4350.256410256411
2903.6047,0.8186324,1.0,0.3746747,0.6391596,0,0.0,0.0,0.0,0.0,0.0,0,0,0.0,0.0,0,0,116.0,0.0,499.0,4679.48717948718,3914.358974358975,4521.025641025642,4390.256410256411,4245.128205128206,4586.666666666667,4486.153846153847,4431.282051282052,4431.794871794872,4715.384615384616,4390.769230769231,4289.74358974359,4163.589743589744,4393.846153846154
2903.6047,0.8186324,1.0,0.3746747,0.6391596,0,0.0,0.0,0.0,0.0,0.0,0,0,0.0,0.0,0,0,116.0,0.0,499.0,4679.48717948718,3914.358974358975,4521.025641025642,4390.256410256411,4245.128205128206,4586.666666666667,4486.153846153847,4431.282051282052,4431.794871794872,4715.384615384616,4390.769230769231,4289.74358974359,4163.589743589744,4393.846153846154
2904.1052,0.78890175,1.0,0.38261694,0.6224336,0,0.0,0.0,0.0,0.0,0.8871441,0,0,0.0,0.0,0,0,51.0,0.0,0.0,4539.48717948718,3926.666666666667,4504.102564102564,4388.717948717949,4261.025641025642,4584.615384615385,4491.794871794872,4429.2307692307695,4423.589743589744,4726.153846153847,4360.000000000001,4254.358974358975,4127.6923076923085,4380.000000000001
2904.3552,0.78890175,1.0,0.38261694,0.6224336,0,0.0,0.0,0.0,0.0,0.3595746,0,0,0.0,0.0,0,0,83.0,0.0,404.0,4549.743589743591,3912.820512820513,4511.794871794872,4406.153846153847,4256.923076923077,4577.435897435898,4475.384615384616,4422.051282051282,4443.589743589744,4734.871794871796,4395.384615384616,4265.128205128206,4154.358974358975,4409.743589743591
2904.6367,0.7478122,1.0,0.3869371,0.6044413,0,0.0,0.0,0.0,0.0,0.5116941,0,0,0.0,0.0,1,0,119.0,0.0,404.0,4647.6923076923085,3908.717948717949,4541.538461538462,4406.666666666667,4281.025641025642,4573.846153846154,4489.743589743591,4441.538461538462,4460.512820512821,4744.102564102564,4437.948717948719,4329.2307692307695,4202.051282051282,4476.410256410257
2904.8557,0.7478122,1.0,0.3869371,0.6044413,0,0.0,0.0,0.0,0.0,0.67282134,0,0,0.0,0.0,0,0,18.0,0.0,0.0,4566.153846153847,3908.205128205129,4535.384615384616,4402.564102564103,4312.820512820514,4585.641025641026,4494.871794871796,4443.076923076924,4461.538461538462,4734.358974358975,4422.564102564103,4312.307692307693,4187.6923076923085,4463.076923076924
2905.106,0.66318315,1.0,0.38311425,0.58690727,0,0.0,0.0,0.0,0.0,0.3757802,0,0,0.0,0.0,0,0,50.0,0.0,0.0,4552.820512820514,3880.0000000000005,4517.435897435898,4386.666666666667,4306.666666666667,4566.666666666667,4473.846153846154,4433.333333333334,4460.000000000001,4733.333333333334,4394.358974358975,4292.307692307693,4175.384615384616,4462.051282051282
2905.3562,0.66318315,1.0,0.38311425,0.58690727,0,0.0,0.0,0.0,0.0,0.0,0,0,0.0,0.0,0,0,82.0,0.0,529.0,4525.641025641026,3893.333333333334,4514.871794871796,4412.307692307693,4302.051282051282,4566.153846153847,4474.358974358975,4440.000000000001,4462.564102564103,4738.974358974359,4412.307692307693,4295.384615384616,4186.153846153847,4464.102564102564
2905.6064,0.6174828,1.0,0.37024766,0.56716204,0,0.0,0.0,0.0,0.0,0.0,0,0,0.0,0.0,0,0,114.0,0.0,529.0,4489.2307692307695,3877.9487179487182,4509.743589743591,4400.000000000001,4271.282051282052,4564.615384615385,4491.794871794872,4451.282051282052,4467.6923076923085,4745.641025641026,4405.641025641026,4294.871794871796,4185.641025641026,4475.384615384616
2905.6064,0.6174828,1.0,0.37024766,0.56716204,0,0.0,0.0,0.0,0.0,0.0,0,0,0.0,0.0,0,0,114.0,0.0,529.0,4489.2307692307695,3877.9487179487182,4509.743589743591,4400.000000000001,4271.282051282052,4564.615384615385,4491.794871794872,4451.282051282052,4467.6923076923085,4745.641025641026,4405.641025641026,4294.871794871796,4185.641025641026,4475.384615384616
2906.107,0.546191,1.0,0.357715,0.54939127,0,0.0,0.0,0.0,0.0,0.0,0,0,0.0,0.0,0,0,49.0,0.0,0.0,4475.384615384616,3894.358974358975,4534.871794871796,4415.384615384616,4264.615384615385,4553.846153846154,4461.025641025642,4429.2307692307695,4445.641025641026,4749.2307692307695,4415.384615384616,4288.205128205129,4203.076923076924,4492.307692307693
2906.107,0.546191,1.0,0.357715,0.54939127,0,0.0,0.0,0.0,0.0,0.0,0,0,0.0,0.0,0,0,49.0,0.0,0.0,4475.384615384616,3894.358974358975,4534.871794871796,4415.384615384616,4264.615384615385,4553.846153846154,4461.025641025642,4429.2307692307695,4445.641025641026,4749.2307692307695,4415.384615384616,4288.205128205129,4203.076923076924,4492.307692307693
2906.6072,0.50600797,1.0,0.34643534,0.5373628,0,0.0,0.0,0.0,0.0,0.0,0,0,0.0,0.0,0,0,113.0,0.0,471.0,4536.410256410257,3891.2820512820517,4527.6923076923085,4428.717948717949,4247.179487179487,4552.820512820514,4462.051282051282,4425.641025641026,4421.025641025642,4731.794871794872,4427.179487179487,4300.512820512821,4215.8974358974365,4516.410256410257
2906.6072,0.50600797,1.0,0.34643534,0.5373628,0,0.0,0.0,0.0,0.0,0.0,0,0,0.0,0.0,0,0,113.0,0.0,471.0,4536.410256410257,3891.2820512820517,4527.6923076923085,4428.717948717949,4247.179487179487,4552.820512820514,4462.051282051282,4425.641025641026,4421.025641025642,4731.794871794872,4427.179487179487,4300.512820512821,4215.8974358974365,4516.410256410257
2907.1077,0.5048359,1.0,0.33628342,0.5367593,0,0.0,0.0,0.0,0.0,0.0,0,0,0.0,0.0,0,0,48.0,0.0,0.0,4463.076923076924,3888.717948717949,4492.307692307693,4413.333333333334,4264.102564102564,4556.923076923077,4457.435897435898,4404.615384615385,4413.333333333334,4717.435897435898,4382.051282051282,4263.076923076924,4162.051282051282,4473.846153846154
2907.1077,0.5048359,1.0,0.33628342,0.5367593,0,0.0,0.0,0.0,0.0,0.0,0,0,0.0,0.0,0,0,48.0,0.0,0.0,4463.076923076924,3888.717948717949,4492.307692307693,4413.333333333334,4264.102564102564,4556.923076923077,4457.435897435898,4404.615384615385,4413.333333333334,4717.435897435898,4382.051282051282,4263.076923076924,4162.051282051282,4473.846153846154
2907.6082,0.47608104,1.0,0.32714668,0.54125875,0,0.0,0.0,0.0,0.0,0.0,0,0,0.0,0.0,0,0,112.0,0.0,499.0,4507.179487179488,3905.1282051282055,4508.717948717949,4439.48717948718,4264.102564102564,4567.6923076923085,4458.974358974359,4419.48717948718,4430.256410256411,4722.051282051282,4408.205128205129,4282.051282051282,4187.179487179487,4483.076923076924
2907.6082,0.47608104,1.0,0.32714668,0.54125875,0,0.0,0.0,0.0,0.0,0.0,0,0,0.0,0.0,0,0,112.0,0.0,499.0,4507.179487179488,3905.1282051282055,4508.717948717949,4439.48717948718,4264.102564102564,4567.6923076923085,4458.974358974359,4419.48717948718,4430.256410256411,4722.051282051282,4408.205128205129,4282.051282051282,4187.179487179487,4483.076923076924
2908.1086,0.42375627,1.0,0.31979808,0.5501723,0,0.0,0.0,0.0,0.0,0.0,0,0,0.0,0.0,0,0,47.0,0.0,0.0,4529.743589743591,3928.205128205129,4521.538461538462,4456.410256410257,4269.2307692307695,4572.820512820514,4460.512820512821,4427.6923076923085,4435.8974358974365,4742.051282051282,4426.153846153847,4285.641025641026,4217.948717948719,4489.743589743591
2908.1086,0.42375627,1.0,0.31979808,0.5501723,0,0.0,0.0,0.0,0.0,0.0,0,0,0.0,0.0,0,0,47.0,0.0,0.0,4529.743589743591,3928.205128205129,4521.538461538462,4456.410256410257,4269.2307692307695,4572.820512820514,4460.512820512821,4427.6923076923085,4435.8974358974365,4742.051282051282,4426.153846153847,4285.641025641026,4217.948717948719,4489.743589743591
2908.609,0.35582736,1.0,0.31295064,0.5581946,0,0.0,0.0,0.0,0.0,0.0,0,0,0.0,0.0,0,0,111.0,0.0,404.0,4536.923076923077,3926.666666666667,4511.794871794872,4458.461538461539,4262.564102564103,4580.512820512821,4459.48717948718,4434.358974358975,4447.6923076923085,4750.256410256411,4412.820512820514,4277.435897435898,4220.000000000001,4500.512820512821
2908.609,0.35582736,1.0,0.31295064,0.5581946,0,0.0,0.0,0.0,0.0,0.0,0,0,0.0,0.0,0,0,111.0,0.0,404.0,4536.923076923077,3926.666666666667,4511.794871794872,4458.461538461539,4262.564102564103,4580.512820512821,4459.48717948718,4434.358974358975,4447.6923076923085,4750.256410256411,4412.820512820514,4277.435897435898,4220.000000000001,4500.512820512821
2909.1094,0.33996472,0.9788334,0.30671534,0.562486,0,0.0,0.0,0.0,0.0,0.0,0,0,0.0,0.0,0,0,46.0,0.0,0.0,4519.48717948718,3937.435897435898,4506.666666666667,4459.48717948718,4246.666666666667,4567.6923076923085,4457.948717948719,4424.102564102564,4413.846153846154,4714.871794871796,4400.000000000001,4274.871794871796,4181.538461538462,4491.794871794872
2909.1094,0.33996472,0.9788334,0.30671534,0.562486,0,0.0,0.0,0.0,0.0,0.0,0,0,0.0,0.0,0,0,46.0,0.0,0.0,4519.48717948718,3937.435897435898,4506.666666666667,4459.48717948718,4246.666666666667,4567.6923076923085,4457.948717948719,4424.102564102564,4413.846153846154,4714.871794871796,4400.000000000001,4274.871794871796,4181.538461538462,4491.794871794872
2909.6099,0.319137,0.9560048,0.30110395,0.5614827,0,0.0,0.0,0.0,0.0,0.0,0,0,0.0,0.0,0,0,110.0,0.0,529.0,4530.769230769231,3907.692307692308,4504.615384615385,4455.8974358974365,4244.615384615385,4579.48717948718,4469.743589743591,4455.384615384616,4437.948717948719,4730.256410256411,4421.025641025642,4279.48717948718,4239.48717948718,4493.333333333334
2909.6099,0.319137,0.9560048,0.30110395,0.5614827,0,0.0,0.0,0.0,0.0,0.0,0,0,0.0,0.0,0,0,110.0,0.0,529.0,4530.769230769231,3907.692307692308,4504.615384615385,4455.8974358974365,4244.615384615385,4579.48717948718,4469.743589743591,4455.384615384616,4437.948717948719,4730.256410256411,4421.025641025642,4279.48717948718,4239.48717948718,4493.333333333334
2910.1104,0.30741182,0.9354164,0.29760337,0.5453634,0,0.0,0.0,0.0,0.0,0.0,0,0,0.0,0.0,0,0,45.0,0.0,0.0,4606.666666666667,3889.2307692307695,4492.820512820514,4438.974358974359,4237.948717948719,4576.410256410257,4459.48717948718,4444.615384615385,4434.871794871796,4747.6923076923085,4402.564102564103,4276.923076923077,4227.179487179487,4478.461538461539
2910.1104,0.30741182,0.9354164,0.29760337,0.5453634,0,0.0,0.0,0.0,0.0,0.0,0,0,0.0,0.0,0,0,45.0,0.0,0.0,4606.666666666667,3889.2307692307695,4492.820512820514,4438.974358974359,4237.948717948719,4576.410256410257,4459.48717948718,4444.615384615385,4434.871794871796,4747.6923076923085,4402.564102564103,4276.923076923077,4227.179487179487,4478.461538461539
2910.6106,0.27503705,0.9753597,0.30112433,0.52847755,1,0.0,0.0,0.0,0.0,0.7330754,0,0,0.0,0.0,0,0,109.0,0.0,471.0,4734.358974358975,3954.8717948717954,4528.717948717949,4474.871794871796,4262.051282051282,4565.641025641026,4458.974358974359,4436.410256410257,4414.358974358975,4729.743589743591,4400.512820512821,4291.794871794872,4206.153846153847,4514.871794871796
2910.8608,0.27503705,0.9753597,0.30112433,0.52847755,0,0.0,0.0,0.0,0.0,0.7337447,0,0,0.0,0.0,0,0,12.0,0.0,499.0,4708.717948717949,3924.1025641025644,4518.461538461539,4466.153846153847,4244.615384615385,4567.6923076923085,4448.205128205129,4436.410256410257,4413.846153846154,4724.615384615386,4399.48717948718,4278.974358974359,4217.948717948719,4504.102564102564
2911.111,0.24836344,1.0,0.310665,0.51241505,0,0.0,0.0,0.0,0.0,0.14622915,0,0,0.0,0.0,0,0,44.0,0.0,0.0,4688.205128205129,3911.7948717948725,4507.6923076923085,4447.179487179487,4252.820512820514,4553.846153846154,4443.076923076924,4418.461538461539,4379.48717948718,4718.461538461539,4370.769230769231,4259.48717948718,4199.48717948718,4489.743589743591
2911.3613,0.24836344,1.0,0.310665,0.51241505,0,0.0,0.0,0.0,0.0,0.0,0,0,0.0,0.0,0,0,76.0,0.0,499.0,4636.923076923077,3924.1025641025644,4507.6923076923085,4455.8974358974365,4252.820512820514,4555.384615384616,4443.076923076924,4423.076923076924,4377.435897435898,4724.615384615386,4389.743589743591,4263.589743589744,4209.74358974359,4488.717948717949
2911.6116,0.24086,1.0,0.32666788,0.4833792,0,0.0,0.0,0.0,0.0,0.0,0,0,0.0,0.0,0,0,108.0,0.0,499.0,4635.384615384616,3922.564102564103,4506.666666666667,4458.461538461539,4263.589743589744,4561.538461538462,4446.666666666667,4428.717948717949,4409.2307692307695,4747.179487179488,4392.307692307693,4266.666666666667,4226.153846153847,4477.435897435898
2911.6116,0.24086,1.0,0.32666788,0.4833792,0,0.0,0.0,0.0,0.0,0.0,0,0,0.0,0.0,0,0,108.0,0.0,499.0,4635.384615384616,3922.564102564103,4506.666666666667,4458.461538461539,4263.589743589744,4561.538461538462,4446.666666666667,4428.717948717949,4409.2307692307695,4747.179487179488,4392.307692307693,4266.666666666667,4226.153846153847,4477.435897435898
2912.112,0.20859672,1.0,0.3410706,0.46067902,0,0.0,0.0,0.0,0.0,0.0,0,0,0.0,0.0,0,0,43.0,0.0,0.0,4627.179487179488,3941.0256410256416,4511.794871794872,4461.538461538462,4286.153846153847,4573.846153846154,4445.128205128206,4417.435897435898,4421.025641025642,4722.564102564103,4402.564102564103,4264.102564102564,4215.8974358974365,4461.538461538462
2912.112,0.20859672,1.0,0.3410706,0.46067902,0,0.0,0.0,0.0,0.0,0.0,0,0,0.0,0.0,0,0,43.0,0.0,0.0,4627.179487179488,3941.0256410256416,4511.794871794872,4461.538461538462,4286.153846153847,4573.846153846154,4445.128205128206,4417.435897435898,4421.025641025642,4722.564102564103,4402.564102564103,4264.102564102564,4215.8974358974365,4461.538461538462
2912.6123,0.16733241,1.0,0.35209858,0.4548349,0,0.0,0.0,0.0,0.0,0.0,0,0,0.0,0.0,0,0,107.0,0.0,404.0,4655.384615384616,3931.7948717948725,4513.333333333334,4456.410256410257,4255.384615384616,4555.8974358974365,4454.358974358975,4443.076923076924,4409.2307692307695,4713.846153846154,4396.410256410257,4270.769230769231,4201.025641025642,4462.564102564103
2912.6123,0.16733241,1.0,0.35209858,0.4548349,0,0.0,0.0,0.0,0.0,0.0,0,0,0.0,0.0,0,0,107.0,0.0,404.0,4655.384615384616,3931.7948717948725,4513.333333333334,4456.410256410257,4255.384615384616,4555.8974358974365,4454.358974358975,4443.076923076924,4409.2307692307695,4713.846153846154,4396.410256410257,4270.769230769231,4201.025641025642,4462.564102564103
2913.144,0.17218953,1.0,0.35460743,0.45603338,0,0.0,0.0,0.0,0.0,1.0,0,0,0.0,0.0,0,0,46.0,0.0,0.0,6567.6923076923085,4663.076923076924,4474.358974358975,4536.410256410257,4293.846153846154,4511.282051282052,4416.410256410257,4401.538461538462,4392.307692307693,4709.743589743591,4378.974358974359,4249.74358974359,4268.717948717949,4697.948717948719
2913.144,0.17218953,1.0,0.35460743,0.45603338,0,0.0,0.0,0.0,0.0,1.0,0,0,0.0,0.0,0,0,46.0,0.0,0.0,6567.6923076923085,4663.076923076924,4474.358974358975,4536.410256410257,4293.846153846154,4511.282051282052,4416.410256410257,4401.538461538462,4392.307692307693,4709.743589743591,4378.974358974359,4249.74358974359,4268.717948717949,4697.948717948719
2913.6445,0.23461314,1.0,0.35480464,0.46095,0,0.0,0.0,0.0,0.0,0.77879333,0,0,0.0,0.0,0,0,110.0,0.0,529.0,5602.564102564103,3805.1282051282055,4586.666666666667,4442.564102564103,4246.666666666667,4611.282051282052,4583.589743589744,4596.410256410257,4511.794871794872,4827.6923076923085,4481.538461538462,4394.358974358975,4266.666666666667,4662.564102564103
2913.8635,0.23461314,1.0,0.35480464,0.46095,0,0.0,0.0,0.0,0.0,0.14453998,0,0,0.0,0.0,0,0,9.0,0.0,480.0,5659.487179487181,3762.0512820512827,4767.6923076923085,4370.256410256411,4108.717948717949,4662.564102564103,4800.000000000001,4901.538461538462,4711.794871794872,4998.974358974359,4595.8974358974365,4638.461538461539,4345.128205128206,4783.076923076924
2914.1138,0.41645956,1.0,0.3526548,0.47008932,0,0.0,0.0,0.0,0.0,1.8798915E-4,0,0,0.0,0.0,0,0,41.0,0.0,0.0,5865.128205128206,4026.666666666667,5056.410256410257,4377.435897435898,4115.8974358974365,4676.410256410257,5090.256410256411,5372.820512820514,4961.538461538462,5332.820512820514,4822.051282051282,4962.564102564103,4597.435897435898,5038.461538461539
2914.364,0.41645956,1.0,0.3526548,0.47008932,0,0.0,0.0,0.08702554,0.0,0.0,0,0,0.0,0.0,0,0,73.0,0.0,469.0,5974.3589743589755,4368.717948717949,5139.487179487181,4460.512820512821,4293.333333333334,4671.794871794872,5150.769230769231,5446.666666666667,4896.923076923077,5370.769230769231,4694.871794871796,4995.8974358974365,4724.102564102564,5113.333333333334
2914.614,0.5764844,1.0,0.3507197,0.47831488,0,0.0,0.0,0.31401873,0.0,0.0,0,0,0.0,0.0,0,0,105.0,0.0,455.0,5834.871794871796,4463.076923076924,4901.025641025642,4581.538461538462,4388.205128205129,4537.435897435898,4974.358974358975,5232.307692307693,4737.948717948719,5277.948717948719,4678.461538461539,4756.923076923077,4713.333333333334,5087.179487179488
2914.8643,0.5764844,1.0,0.3507197,0.47831488,0,0.0,0.0,0.10768411,0.0,0.0,0,0,0.0,0.0,0,0,8.0,0.0,491.0,5501.538461538462,4392.820512820514,4701.538461538462,4616.410256410257,4389.743589743591,4428.205128205129,4717.435897435898,4910.769230769231,4538.461538461539,5088.205128205129,4623.589743589744,4490.256410256411,4591.794871794872,5023.589743589744
2915.1145,0.71730626,1.0,0.34897786,0.4857181,0,0.0,0.0,0.10905136,0.0,0.0,0,0,0.0,0.0,0,0,40.0,0.0,0.0,5191.282051282052,4284.102564102564,4521.025641025642,4643.076923076924,4408.717948717949,4372.307692307693,4464.102564102564,4608.205128205129,4383.589743589744,4922.051282051283,4427.6923076923085,4246.153846153847,4411.794871794872,4929.743589743591
2915.3647,0.71730626,1.0,0.34897786,0.4857181,0,0.0,0.0,0.09901348,0.0,0.0,0,0,0.0,0.0,0,0,72.0,0.0,499.0,4890.256410256411,4210.256410256411,4372.307692307693,4650.256410256411,4400.512820512821,4347.6923076923085,4265.641025641026,4347.179487179487,4284.102564102564,4756.923076923077,4321.025641025642,4009.7435897435903,4295.384615384616,4830.769230769231
2915.615,0.8412295,1.0,0.34741026,0.49238133,0,0.0,0.0,0.09411257,0.0,0.0,0,0,0.0,0.0,0,0,104.0,0.0,497.0,4622.051282051282,4114.358974358975,4261.538461538462,4632.307692307693,4372.307692307693,4354.871794871796,4090.2564102564106,4123.589743589744,4178.461538461539,4598.974358974359,4211.282051282052,3846.666666666667,4149.74358974359,4703.076923076924
2915.8652,0.8412295,1.0,0.34741026,0.49238133,0,0.0,0.0,0.0,0.0,0.0,0,0,0.2954411,0.0,0,0,7.0,0.0,476.0,4488.717948717949,4023.076923076924,4205.641025641026,4594.871794871796,4341.538461538462,4351.282051282052,4029.23076923077,4009.7435897435903,4138.461538461539,4513.846153846154,4166.153846153847,3797.9487179487182,4074.358974358975,4617.948717948719
2916.1155,0.9502819,1.0,0.34599975,0.49837855,0,0.0,0.0,0.0,0.0,0.0,0,0,0.0,0.0,0,0,39.0,0.0,0.0,4352.307692307693,3971.2820512820517,4215.8974358974365,4548.717948717949,4322.051282051282,4373.333333333334,4052.307692307693,3982.0512820512827,4134.358974358975,4457.948717948719,4136.923076923077,3808.205128205129,4036.410256410257,4556.923076923077
2916.1155,0.9502819,1.0,0.34599975,0.49837855,0,0.0,0.0,0.0,0.0,0.0,0,0,0.0,0.0,0,0,39.0,0.0,0.0,4352.307692307693,3971.2820512820517,4215.8974358974365,4548.717948717949,4322.051282051282,4373.333333333334,4052.307692307693,3982.0512820512827,4134.358974358975,4457.948717948719,4136.923076923077,3808.205128205129,4036.410256410257,4556.923076923077
2916.616,0.89197135,1.0,0.3447301,0.5037756,0,0.0,0.0,0.0,0.0,0.18753672,0,0,0.0,0.0,0,0,103.0,0.0,392.0,4287.179487179487,3876.9230769230776,4286.153846153847,4473.846153846154,4298.974358974359,4426.153846153847,4155.8974358974365,4067.692307692308,4260.000000000001,4546.666666666667,4213.846153846154,3948.717948717949,4120.000000000001,4537.435897435898
2916.866,0.89197135,1.0,0.3447301,0.5037756,0,0.0,0.0,0.0,0.0,0.0,0,0,0.2078148,0.0,0,0,6.0,0.0,535.0,4264.615384615385,3848.717948717949,4323.589743589744,4444.102564102564,4268.205128205129,4456.923076923077,4231.794871794872,4103.076923076924,4264.615384615385,4541.025641025642,4225.128205128206,4004.615384615385,4093.8461538461543,4485.641025641026
2917.1162,0.8994923,1.0,0.3443804,0.5124755,0,0.0,0.0,0.0,0.0,0.0,0,0,0.0,0.0,0,0,38.0,0.0,0.0,4251.794871794872,3848.205128205129,4366.666666666667,4425.641025641026,4279.48717948718,4490.769230769231,4266.153846153847,4152.820512820514,4310.256410256411,4565.128205128206,4227.6923076923085,4041.538461538462,4075.8974358974365,4453.846153846154
2917.1162,0.8994923,1.0,0.3443804,0.5124755,0,0.0,0.0,0.0,0.0,0.0,0,0,0.0,0.0,0,0,38.0,0.0,0.0,4251.794871794872,3848.205128205129,4366.666666666667,4425.641025641026,4279.48717948718,4490.769230769231,4266.153846153847,4152.820512820514,4310.256410256411,4565.128205128206,4227.6923076923085,4041.538461538462,4075.8974358974365,4453.846153846154
2917.6167,0.98085344,1.0,0.34585294,0.52440864,0,0.0,0.0,0.0,0.0,0.0,0,0,0.0,0.0,0,0,102.0,0.0,528.0,4346.666666666667,3897.435897435898,4441.025641025642,4422.564102564103,4259.48717948718,4507.6923076923085,4354.358974358975,4248.717948717949,4343.589743589744,4566.153846153847,4232.307692307693,4113.846153846154,4071.2820512820517,4446.153846153847
2917.6167,0.98085344,1.0,0.34585294,0.52440864,0,0.0,0.0,0.0,0.0,0.0,0,0,0.0,0.0,0,0,102.0,0.0,528.0,4346.666666666667,3897.435897435898,4441.025641025642,4422.564102564103,4259.48717948718,4507.6923076923085,4354.358974358975,4248.717948717949,4343.589743589744,4566.153846153847,4232.307692307693,4113.846153846154,4071.2820512820517,4446.153846153847
2918.1172,1.0,1.0,0.3560998,0.54715353,0,0.0,0.0,0.0,0.0,0.0,0,0,0.0,0.0,0,0,37.0,0.0,0.0,4341.538461538462,3845.1282051282055,4460.512820512821,4400.512820512821,4248.717948717949,4540.000000000001,4411.794871794872,4326.153846153847,4415.8974358974365,4649.2307692307695,4309.2307692307695,4185.128205128206,4154.358974358975,4446.153846153847
2918.1172,1.0,1.0,0.3560998,0.54715353,0,0.0,0.0,0.0,0.0,0.0,0,0,0.0,0.0,0,0,37.0,0.0,0.0,4341.538461538462,3845.1282051282055,4460.512820512821,4400.512820512821,4248.717948717949,4540.000000000001,4411.794871794872,4326.153846153847,4415.8974358974365,4649.2307692307695,4309.2307692307695,4185.128205128206,4154.358974358975,4446.153846153847
2918.6177,1.0,1.0,0.36532167,0.5698494,0,0.0,0.0,0.0,0.0,0.0,0,0,0.0,0.0,0,0,101.0,0.0,471.0,4366.666666666667,3854.8717948717954,4473.846153846154,4395.384615384616,4267.6923076923085,4551.282051282052,4425.641025641026,4374.358974358975,4434.358974358975,4695.8974358974365,4343.076923076924,4230.769230769231,4148.717948717949,4443.589743589744
2918.6177,1.0,1.0,0.36532167,0.5698494,0,0.0,0.0,0.0,0.0,0.0,0,0,0.0,0.0,0,0,101.0,0.0,471.0,4366.666666666667,3854.8717948717954,4473.846153846154,4395.384615384616,4267.6923076923085,4551.282051282052,4425.641025641026,4374.358974358975,4434.358974358975,4695.8974358974365,4343.076923076924,4230.769230769231,4148.717948717949,4443.589743589744
2919.118,1.0,1.0,0.3736208,0.5916161,0,0.0,0.0,0.0,0.0,0.0,0,0,0.0,0.0,0,0,36.0,0.0,0.0,4426.153846153847,3856.9230769230776,4488.205128205129,4401.538461538462,4249.2307692307695,4546.153846153847,4432.820512820514,4390.256410256411,4414.358974358975,4694.871794871796,4370.256410256411,4245.641025641026,4145.641025641026,4431.794871794872
2919.3682,1.0,1.0,0.3736208,0.5916161,0,0.0,0.0,0.0,0.0,0.009869767,0,0,0.0,0.0,0,0,68.0,0.0,557.0,4433.333333333334,3747.1794871794878,4524.615384615385,4339.48717948718,4192.307692307693,4551.794871794872,4506.153846153847,4506.153846153847,4448.717948717949,4722.564102564103,4397.435897435898,4323.076923076924,4103.589743589744,4423.589743589744
2919.6184,1.0,1.0,0.38108942,0.614886,0,0.0,0.0,0.0,0.0,0.021791851,0,0,0.0,0.0,0,0,100.0,0.0,504.0,4734.358974358975,3621.0256410256416,4749.2307692307695,4262.051282051282,4052.820512820513,4602.051282051282,4766.153846153847,4868.717948717949,4646.666666666667,4887.6923076923085,4520.000000000001,4621.025641025642,4189.74358974359,4530.769230769231
2919.8687,1.0,1.0,0.38108942,0.614886,0,0.0,0.0,0.0,0.0,0.04384053,0,0,0.0,0.0,0,0,3.0,0.0,540.0,5134.358974358975,3863.076923076924,5073.846153846154,4322.051282051282,4123.076923076924,4662.564102564103,5089.743589743591,5310.769230769231,4843.076923076924,5177.948717948719,4768.717948717949,4989.743589743591,4509.2307692307695,4783.589743589744
2920.119,1.0,1.0,0.38672632,0.647391,0,0.0,0.0,0.0,0.0,0.0,0,0,0.0,0.0,0,0,35.0,0.0,0.0,5230.769230769231,4126.153846153847,5054.871794871796,4461.025641025642,4230.256410256411,4623.589743589744,5115.8974358974365,5391.282051282052,4796.923076923077,5229.2307692307695,4842.051282051283,5014.358974358975,4681.025641025642,4845.128205128206
2920.119,1.0,1.0,0.38672632,0.647391,0,0.0,0.0,0.0,0.0,0.0,0,0,0.0,0.0,0,0,35.0,0.0,0.0,5230.769230769231,4126.153846153847,5054.871794871796,4461.025641025642,4230.256410256411,4623.589743589744,5115.8974358974365,5391.282051282052,4796.923076923077,5229.2307692307695,4842.051282051283,5014.358974358975,4681.025641025642,4845.128205128206
2920.6194,1.0,1.0,0.3755607,0.6766384,0,0.0,0.0,0.0,0.0,0.0,0,0,0.14920159,0.0,0,0,99.0,0.0,394.0,4953.333333333334,4235.8974358974365,4648.205128205129,4597.948717948719,4315.384615384616,4446.666666666667,4553.333333333334,4721.538461538462,4400.000000000001,4900.000000000001,4545.641025641026,4429.2307692307695,4511.282051282052,4763.589743589744
2920.8696,1.0,1.0,0.3755607,0.6766384,0,0.0,0.0,0.0,0.0,0.0,0,0,0.29996145,0.0,0,0,2.0,0.0,447.0,4732.307692307693,4199.48717948718,4447.6923076923085,4651.794871794872,4385.641025641026,4452.820512820514,4331.282051282052,4398.461538461539,4238.974358974359,4746.666666666667,4341.025641025642,4110.256410256411,4317.948717948719,4635.384615384616
2921.1196,1.0,1.0,0.3628741,0.70231265,0,0.0,0.0,0.0,0.0,0.0,0,0,0.3140219,0.0,0,0,34.0,0.0,0.0,4556.410256410257,4127.179487179487,4292.307692307693,4648.717948717949,4374.358974358975,4422.564102564103,4157.435897435898,4136.923076923077,4098.974358974359,4618.461538461539,4206.666666666667,3844.1025641025644,4153.846153846154,4504.615384615385
2921.3699,1.0,1.0,0.3628741,0.70231265,0,0.0,0.0,0.0,0.0,0.0,0,0,0.2548808,0.0,0,0,66.0,0.0,457.0,4482.051282051282,4062.0512820512827,4200.512820512821,4576.923076923077,4348.205128205129,4406.153846153847,4058.9743589743593,3982.564102564103,4047.1794871794878,4519.48717948718,4131.282051282052,3731.2820512820517,4041.538461538462,4397.948717948719
2921.62,1.0,1.0,0.35145578,0.7164557,0,0.0,0.0,0.0,0.0,0.0,0,0,0.0,0.0,0,0,98.0,0.0,524.0,4401.538461538462,4019.48717948718,4166.666666666667,4511.794871794872,4308.717948717949,4421.025641025642,4053.333333333334,3953.333333333334,4076.410256410257,4513.333333333334,4124.102564102564,3748.717948717949,3996.9230769230776,4340.512820512821
2921.62,1.0,1.0,0.35145578,0.7164557,0,0.0,0.0,0.0,0.0,0.0,0,0,0.0,0.0,0,0,98.0,0.0,524.0,4401.538461538462,4019.48717948718,4166.666666666667,4511.794871794872,4308.717948717949,4421.025641025642,4053.333333333334,3953.333333333334,4076.410256410257,4513.333333333334,4124.102564102564,3748.717948717949,3996.9230769230776,4340.512820512821
2922.1206,1.0,1.0,0.34028625,0.72917455,0,0.0,0.0,0.0,0.0,0.0,0,0,0.0,0.0,0,0,33.0,0.0,0.0,4378.461538461539,3941.0256410256416,4252.820512820514,4436.923076923077,4309.743589743591,4494.358974358975,4200.000000000001,4064.1025641025644,4184.102564102564,4556.410256410257,4155.8974358974365,3911.7948717948725,4048.205128205129,4323.589743589744
2922.1206,1.0,1.0,0.34028625,0.72917455,0,0.0,0.0,0.0,0.0,0.0,0,0,0.0,0.0,0,0,33.0,0.0,0.0,4378.461538461539,3941.0256410256416,4252.820512820514,4436.923076923077,4309.743589743591,4494.358974358975,4200.000000000001,4064.1025641025644,4184.102564102564,4556.410256410257,4155.8974358974365,3911.7948717948725,4048.205128205129,4323.589743589744
2922.621,1.0,1.0,0.3348206,0.73791844,0,0.0,0.0,0.0,0.0,0.0,0,0,0.0,0.0,0,0,97.0,0.0,468.0,4367.179487179487,3957.9487179487182,4370.769230769231,4405.641025641026,4296.410256410257,4532.820512820514,4310.769230769231,4188.205128205129,4278.974358974359,4602.564102564103,4151.794871794872,4060.0000000000005,4021.538461538462,4301.538461538462
2922.621,1.0,1.0,0.3348206,0.73791844,0,0.0,0.0,0.0,0.0,0.0,0,0,0.0,0.0,0,0,97.0,0.0,468.0,4367.179487179487,3957.9487179487182,4370.769230769231,4405.641025641026,4296.410256410257,4532.820512820514,4310.769230769231,4188.205128205129,4278.974358974359,4602.564102564103,4151.794871794872,4060.0000000000005,4021.538461538462,4301.538461538462
2923.1213,1.0,1.0,0.3313878,0.731394,0,0.0,0.0,0.0,0.0,0.0,0,0,0.0,0.0,0,0,32.0,0.0,0.0,4339.48717948718,3920.5128205128212,4443.589743589744,4380.000000000001,4296.923076923077,4551.794871794872,4398.974358974359,4299.48717948718,4367.179487179487,4680.000000000001,4300.000000000001,4194.358974358975,4111.794871794872,4334.358974358975
2923.1213,1.0,1.0,0.3313878,0.731394,0,0.0,0.0,0.0,0.0,0.0,0,0,0.0,0.0,0,0,32.0,0.0,0.0,4339.48717948718,3920.5128205128212,4443.589743589744,4380.000000000001,4296.923076923077,4551.794871794872,4398.974358974359,4299.48717948718,4367.179487179487,4680.000000000001,4300.000000000001,4194.358974358975,4111.794871794872,4334.358974358975
2923.6218,1.0,1.0,0.32932976,0.7223657,0,0.0,0.0,0.0,0.0,0.0,0,0,0.0,0.0,0,0,96.0,0.0,502.0,4409.743589743591,3895.8974358974365,4487.6923076923085,4402.051282051282,4270.769230769231,4587.6923076923085,4460.000000000001,4355.384615384616,4390.769230769231,4690.769230769231,4352.307692307693,4228.717948717949,4127.179487179487,4362.564102564103
2923.6218,1.0,1.0,0.32932976,0.7223657,0,0.0,0.0,0.0,0.0,0.0,0,0,0.0,0.0,0,0,96.0,0.0,502.0,4409.743589743591,3895.8974358974365,4487.6923076923085,4402.051282051282,4270.769230769231,4587.6923076923085,4460.000000000001,4355.384615384616,4390.769230769231,4690.769230769231,4352.307692307693,4228.717948717949,4127.179487179487,4362.564102564103
2924.1223,1.0,1.0,0.32747757,0.7105558,0,0.0,0.0,0.0,0.0,0.0,0,0,0.0,0.0,0,0,31.0,0.0,0.0,4458.974358974359,3909.7435897435903,4507.6923076923085,4422.564102564103,4267.6923076923085,4573.333333333334,4444.102564102564,4370.256410256411,4412.820512820514,4736.923076923077,4411.794871794872,4270.769230769231,4169.74358974359,4381.538461538462
2924.1223,1.0,1.0,0.32747757,0.7105558,0,0.0,0.0,0.0,0.0,0.0,0,0,0.0,0.0,0,0,31.0,0.0,0.0,4458.974358974359,3909.7435897435903,4507.6923076923085,4422.564102564103,4267.6923076923085,4573.333333333334,4444.102564102564,4370.256410256411,4412.820512820514,4736.923076923077,4411.794871794872,4270.769230769231,4169.74358974359,4381.538461538462
2924.6228,0.9514838,1.0,0.32576367,0.699928,0,0.0,0.0,0.0,0.0,0.0,0,0,0.0,0.0,0,0,95.0,0.0,404.0,4518.974358974359,3893.8461538461543,4507.179487179488,4408.205128205129,4254.871794871796,4574.358974358975,4445.641025641026,4394.358974358975,4403.589743589744,4732.820512820514,4409.2307692307695,4260.512820512821,4173.333333333334,4348.205128205129
2924.6228,0.9514838,1.0,0.32576367,0.699928,0,0.0,0.0,0.0,0.0,0.0,0,0,0.0,0.0,0,0,95.0,0.0,404.0,4518.974358974359,3893.8461538461543,4507.179487179488,4408.205128205129,4254.871794871796,4574.358974358975,4445.641025641026,4394.358974358975,4403.589743589744,4732.820512820514,4409.2307692307695,4260.512820512821,4173.333333333334,4348.205128205129
2925.123,0.9195453,1.0,0.32422128,0.6927494,0,0.0,0.0,0.0,0.0,0.0,0,0,0.0,0.0,0,0,30.0,0.0,0.0,4612.820512820514,3865.1282051282055,4504.102564102564,4417.435897435898,4233.846153846154,4555.8974358974365,4427.179487179487,4390.769230769231,4381.025641025642,4700.000000000001,4395.384615384616,4246.153846153847,4153.333333333334,4329.2307692307695
2925.123,0.9195453,1.0,0.32422128,0.6927494,0,0.0,0.0,0.0,0.0,0.0,0,0,0.0,0.0,0,0,30.0,0.0,0.0,4612.820512820514,3865.1282051282055,4504.102564102564,4417.435897435898,4233.846153846154,4555.8974358974365,4427.179487179487,4390.769230769231,4381.025641025642,4700.000000000001,4395.384615384616,4246.153846153847,4153.333333333334,4329.2307692307695
2925.6235,0.78828377,1.0,0.31918314,0.68981355,0,0.0,0.0,0.0,0.0,0.0,0,0,0.0,0.0,0,0,94.0,0.0,528.0,4614.358974358975,3850.7692307692314,4475.8974358974365,4396.410256410257,4213.333333333334,4544.615384615385,4425.641025641026,4389.2307692307695,4389.2307692307695,4682.051282051282,4396.410256410257,4240.512820512821,4148.205128205129,4325.128205128206
2925.6235,0.78828377,1.0,0.31918314,0.68981355,0,0.0,0.0,0.0,0.0,0.0,0,0,0.0,0.0,0,0,94.0,0.0,528.0,4614.358974358975,3850.7692307692314,4475.8974358974365,4396.410256410257,4213.333333333334,4544.615384615385,4425.641025641026,4389.2307692307695,4389.2307692307695,4682.051282051282,4396.410256410257,4240.512820512821,4148.205128205129,4325.128205128206
2926.124,0.72102404,1.0,0.3109371,0.6966313,0,0.0,0.0,0.0,0.0,0.0,0,0,0.0,0.0,0,0,29.0,0.0,0.0,4604.102564102564,3847.692307692308,4520.000000000001,4396.410256410257,4204.615384615385,4552.820512820514,4460.512820512821,4432.820512820514,4430.769230769231,4711.794871794872,4453.333333333334,4291.282051282052,4181.025641025642,4370.256410256411
2926.124,0.72102404,1.0,0.3109371,0.6966313,0,0.0,0.0,0.0,0.0,0.0,0,0,0.0,0.0,0,0,29.0,0.0,0.0,4604.102564102564,3847.692307692308,4520.000000000001,4396.410256410257,4204.615384615385,4552.820512820514,4460.512820512821,4432.820512820514,4430.769230769231,4711.794871794872,4453.333333333334,4291.282051282052,4181.025641025642,4370.256410256411
2926.6245,0.7432939,1.0,0.30351603,0.7066768,0,0.0,0.0,0.0,0.0,0.0,0,0,0.0,0.0,0,0,93.0,0.0,471.0,4537.948717948719,3877.435897435898,4523.589743589744,4389.743589743591,4208.205128205129,4558.461538461539,4474.871794871796,4466.666666666667,4468.717948717949,4752.820512820514,4478.461538461539,4334.358974358975,4206.153846153847,4385.128205128206
2926.6245,0.7432939,1.0,0.30351603,0.7066768,0,0.0,0.0,0.0,0.0,0.0,0,0,0.0,0.0,0,0,93.0,0.0,471.0,4537.948717948719,3877.435897435898,4523.589743589744,4389.743589743591,4208.205128205129,4558.461538461539,4474.871794871796,4466.666666666667,4468.717948717949,4752.820512820514,4478.461538461539,4334.358974358975,4206.153846153847,4385.128205128206
2927.125,0.684811,1.0,0.29771027,0.7157107,0,0.0,0.0,0.0,0.0,0.0,0,0,0.0,0.0,0,0,28.0,0.0,0.0,4541.538461538462,3908.717948717949,4506.666666666667,4412.307692307693,4235.8974358974365,4554.871794871796,4446.666666666667,4433.846153846154,4457.948717948719,4748.205128205129,4459.48717948718,4295.8974358974365,4232.820512820514,4459.48717948718
2927.125,0.684811,1.0,0.29771027,0.7157107,0,0.0,0.0,0.0,0.0,0.0,0,0,0.0,0.0,0,0,28.0,0.0,0.0,4541.538461538462,3908.717948717949,4506.666666666667,4412.307692307693,4235.8974358974365,4554.871794871796,4446.666666666667,4433.846153846154,4457.948717948719,4748.205128205129,4459.48717948718,4295.8974358974365,4232.820512820514,4459.48717948718
2927.6252,0.6052252,1.0,0.29248562,0.72158283,0,0.0,0.0,0.0,0.0,0.0,0,0,0.0,0.0,0,0,92.0,0.0,502.0,4546.153846153847,3930.2564102564106,4481.538461538462,4426.666666666667,4254.871794871796,4541.025641025642,4424.102564102564,4442.564102564103,4416.923076923077,4728.717948717949,4420.000000000001,4258.461538461539,4212.307692307693,4480.512820512821
2927.6252,0.6052252,1.0,0.29248562,0.72158283,0,0.0,0.0,0.0,0.0,0.0,0,0,0.0,0.0,0,0,92.0,0.0,502.0,4546.153846153847,3930.2564102564106,4481.538461538462,4426.666666666667,4254.871794871796,4541.025641025642,4424.102564102564,4442.564102564103,4416.923076923077,4728.717948717949,4420.000000000001,4258.461538461539,4212.307692307693,4480.512820512821
2928.1257,0.6018542,1.0,0.28778404,0.72950685,0,0.0,0.0,0.0,0.0,0.0,0,0,0.0,0.0,0,0,27.0,0.0,0.0,4530.769230769231,3924.615384615385,4473.846153846154,4437.435897435898,4261.025641025642,4550.769230769231,4421.538461538462,4396.923076923077,4398.461538461539,4700.512820512821,4387.6923076923085,4231.282051282052,4180.000000000001,4461.025641025642
2928.1257,0.6018542,1.0,0.28778404,0.72950685,0,0.0,0.0,0.0,0.0,0.0,0,0,0.0,0.0,0,0,27.0,0.0,0.0,4530.769230769231,3924.615384615385,4473.846153846154,4437.435897435898,4261.025641025642,4550.769230769231,4421.538461538462,4396.923076923077,4398.461538461539,4700.512820512821,4387.6923076923085,4231.282051282052,4180.000000000001,4461.025641025642
2928.6262,0.5710155,1.0,0.28355333,0.7366303,0,0.0,0.0,0.0,0.0,0.775971,0,0,0.0,0.0,0,0,91.0,0.0,404.0,4627.6923076923085,3966.1538461538466,4477.948717948719,4445.128205128206,4244.615384615385,4537.948717948719,4410.256410256411,4355.8974358974365,4373.846153846154,4660.512820512821,4319.48717948718,4197.948717948719,4105.641025641026,4468.717948717949
2928.8765,0.5710155,1.0,0.28355333,0.7366303,0,0.0,0.0,0.0,0.0,0.2905086,0,0,0.0,0.0,0,0,123.0,0.0,404.0,4596.410256410257,3894.358974358975,4490.769230769231,4441.025641025642,4250.769230769231,4558.461538461539,4433.846153846154,4400.512820512821,4424.615384615385,4719.48717948718,4417.435897435898,4246.666666666667,4217.435897435898,4506.153846153847
2929.1267,0.54349697,1.0,0.279277,0.743033,0,0.0,0.0,0.0,0.0,0.24901223,0,1,0.0,0.0,0,0,26.0,0.0,0.0,4602.051282051282,3892.820512820513,4478.974358974359,4439.48717948718,4247.179487179487,4562.564102564103,4443.589743589744,4395.384615384616,4421.538461538462,4726.666666666667,4408.205128205129,4242.564102564103,4216.410256410257,4510.256410256411
2929.3767,0.54349697,1.0,0.279277,0.743033,0,0.0,0.0,0.0,0.0,0.18924099,0,1,0.0,0.0,0,0,58.0,0.0,0.0,4574.358974358975,3908.717948717949,4489.743589743591,4444.102564102564,4238.974358974359,4569.2307692307695,4445.128205128206,4404.102564102564,4426.153846153847,4717.948717948719,4397.948717948719,4246.666666666667,4210.769230769231,4519.48717948718
2929.627,0.5204226,1.0,0.2754291,0.7515994,0,0.0,0.0,0.0,0.0,0.0,0,0,0.0,0.0,0,0,90.0,0.0,528.0,4607.6923076923085,3945.1282051282055,4503.076923076924,4444.615384615385,4249.2307692307695,4550.256410256411,4437.435897435898,4393.333333333334,4393.846153846154,4690.769230769231,4356.923076923077,4227.179487179487,4161.538461538462,4507.179487179488
2929.8772,0.5204226,1.0,0.2754291,0.7515994,0,0.0,0.0,0.0,0.0,0.6732131,0,0,0.0,0.0,0,0,122.0,0.0,528.0,4605.641025641026,3951.7948717948725,4499.48717948718,4456.410256410257,4246.666666666667,4554.358974358975,4425.128205128206,4385.641025641026,4397.948717948719,4700.000000000001,4372.820512820514,4232.307692307693,4194.871794871796,4524.615384615385
2930.1274,0.50579476,1.0,0.27352986,0.7657806,0,0.0,0.0,0.0,0.0,0.75401205,0,0,0.0,0.0,0,0,25.0,0.0,0.0,4557.435897435898,3943.589743589744,4492.820512820514,4443.076923076924,4259.48717948718,4554.871794871796,4440.000000000001,4383.076923076924,4374.358974358975,4699.48717948718,4367.6923076923085,4235.384615384616,4180.512820512821,4521.025641025642
2930.2527,0.50579476,1.0,0.27352986,0.7657806,0,0.0,0.0,0.0,0.0,0.0,0,0,0.0,0.0,0,0,41.0,0.0,0.0,4533.333333333334,3913.333333333334,4488.205128205129,4429.2307692307695,4229.74358974359,4546.153846153847,4432.307692307693,4388.205128205129,4381.025641025642,4695.384615384616,4372.820512820514,4233.846153846154,4178.461538461539,4530.256410256411
2930.628,0.50133425,1.0,0.27269852,0.7785268,0,0.0,0.0,0.0,0.0,0.7506999,0,0,0.0,0.0,0,0,89.0,0.0,472.0,4597.948717948719,3934.8717948717954,4525.641025641026,4413.846153846154,4242.564102564103,4595.8974358974365,4514.358974358975,4495.384615384616,4497.435897435898,4798.974358974359,4428.205128205129,4287.6923076923085,4211.282051282052,4527.6923076923085
2930.8782,0.50133425,1.0,0.27269852,0.7785268,0,0.0,0.0,0.0,0.0,0.23344094,0,0,0.0,0.0,0,0,121.0,0.0,472.0,4690.769230769231,3924.615384615385,4548.717948717949,4392.307692307693,4214.871794871796,4586.666666666667,4551.794871794872,4554.358974358975,4552.820512820514,4857.948717948719,4505.641025641026,4360.512820512821,4303.589743589744,4581.538461538462
2931.1284,0.5938546,1.0,0.27039918,0.7899805,0,0.0,0.0,0.0,0.0,0.30820855,0,0,0.0,0.0,0,0,24.0,0.0,0.0,4702.051282051282,3939.48717948718,4523.076923076924,4394.358974358975,4242.564102564103,4589.743589743591,4536.410256410257,4551.282051282052,4556.923076923077,4857.948717948719,4522.051282051282,4356.923076923077,4326.153846153847,4600.000000000001
2931.3787,0.5938546,1.0,0.27039918,0.7899805,0,0.0,0.0,0.0,0.0,0.3993041,0,0,0.0,0.0,0,0,56.0,0.0,0.0,4798.974358974359,3996.9230769230776,4518.461538461539,4426.666666666667,4258.974358974359,4563.589743589744,4510.256410256411,4523.076923076924,4541.025641025642,4846.666666666667,4493.333333333334,4334.871794871796,4322.051282051282,4636.923076923077
2931.6287,0.51624054,1.0,0.2810603,0.795735,1,0.0,0.0,0.0,0.0,0.52991617,0,0,0.0,0.0,0,0,88.0,0.0,502.0,4807.179487179488,3964.615384615385,4505.641025641026,4438.974358974359,4264.102564102564,4549.743589743591,4489.743589743591,4477.948717948719,4481.538461538462,4785.128205128206,4457.948717948719,4319.48717948718,4276.410256410257,4668.205128205129
2931.879,0.51624054,1.0,0.2810603,0.795735,0,0.0,0.0,0.0,0.0,0.3428327,0,0,0.0,0.0,0,0,120.0,0.0,502.0,4768.205128205129,3983.589743589744,4502.051282051282,4465.641025641026,4276.923076923077,4542.564102564103,4462.051282051282,4448.717948717949,4465.128205128206,4760.000000000001,4431.794871794872,4288.717948717949,4252.307692307693,4668.717948717949
2932.1292,0.60793257,1.0,0.29839185,0.79030997,0,0.0,0.0,0.0,0.0,0.21191458,0,0,0.0,0.0,0,0,23.0,0.0,0.0,4717.435897435898,3955.8974358974365,4475.384615384616,4473.846153846154,4282.564102564103,4541.538461538462,4443.589743589744,4405.641025641026,4430.769230769231,4732.820512820514,4400.000000000001,4249.2307692307695,4220.512820512821,4653.846153846154
2932.2544,0.60793257,1.0,0.29839185,0.79030997,0,0.0,0.0,0.0,0.0,0.0,0,0,0.0,0.0,0,0,39.0,0.0,0.0,4695.8974358974365,3970.2564102564106,4478.461538461539,4475.384615384616,4262.051282051282,4525.128205128206,4422.564102564103,4361.538461538462,4378.974358974359,4687.6923076923085,4368.205128205129,4232.820512820514,4207.179487179487,4648.717948717949
2932.6296,0.67662174,1.0,0.31197584,0.7811892,0,0.0,0.0,0.3346503,0.0,0.0,0,0,0.0,0.0,0,0,87.0,0.0,401.0,4606.153846153847,3972.307692307693,4481.538461538462,4476.410256410257,4291.794871794872,4539.48717948718,4429.2307692307695,4364.102564102564,4366.153846153847,4666.666666666667,4327.6923076923085,4209.2307692307695,4148.717948717949,4624.615384615385
2932.88,0.67662174,1.0,0.31197584,0.7811892,0,0.0,0.0,0.0,0.0,0.35552698,0,0,0.0,0.0,0,0,119.0,0.0,401.0,4708.205128205129,4014.8717948717954,4503.076923076924,4490.256410256411,4285.641025641026,4542.051282051282,4412.820512820514,4359.48717948718,4376.410256410257,4687.179487179488,4345.641025641026,4223.076923076924,4196.410256410257,4675.8974358974365
2933.1301,0.70543075,1.0,0.31646365,0.77178127,1,0.0,0.0,0.0,0.0,0.40579158,0,0,0.0,0.0,0,0,22.0,0.0,0.0,4559.48717948718,3931.7948717948725,4481.538461538462,4463.589743589744,4281.538461538462,4557.435897435898,4446.666666666667,4394.871794871796,4397.435897435898,4706.666666666667,4361.538461538462,4222.051282051282,4201.025641025642,4642.564102564103
2933.3804,0.70543075,1.0,0.31646365,0.77178127,0,0.0,0.0,0.0,0.0,0.49497586,0,0,0.0,0.0,0,0,54.0,0.0,0.0,4492.820512820514,3895.3846153846157,4489.2307692307695,4438.974358974359,4251.794871794872,4538.974358974359,4445.128205128206,4407.179487179487,4396.410256410257,4720.512820512821,4363.076923076924,4244.102564102564,4196.923076923077,4620.512820512821
2933.6304,0.64622074,1.0,0.32179523,0.76331425,0,0.0,0.0,0.0,0.0,0.003924519,0,0,0.0,0.0,0,0,86.0,0.0,528.0,4596.923076923077,3744.615384615385,4621.025641025642,4346.153846153847,4129.74358974359,4570.256410256411,4616.923076923077,4643.076923076924,4541.538461538462,4829.2307692307695,4466.666666666667,4452.307692307693,4248.205128205129,4687.179487179488
2933.8806,0.64622074,1.0,0.32179523,0.76331425,0,0.0,0.0,0.14148726,0.0,0.0,0,0,0.0,0.0,0,0,118.0,0.0,528.0,5050.256410256411,3848.717948717949,4987.6923076923085,4309.2307692307695,4022.564102564103,4617.435897435898,4970.256410256411,5186.153846153847,4811.282051282052,5099.487179487181,4683.589743589744,4912.307692307693,4487.6923076923085,4933.333333333334
2934.1309,0.7786742,1.0,0.33304152,0.7602078,0,0.0,0.0,0.0,0.0,0.0,0,0,0.3013234,0.0,0,0,21.0,0.0,0.0,5401.025641025642,4238.461538461539,5289.2307692307695,4347.6923076923085,4191.794871794872,4626.666666666667,5260.000000000001,5591.794871794873,4937.435897435898,5396.923076923078,4858.461538461539,5233.333333333334,4798.461538461539,5166.153846153847
2934.256,0.7786742,1.0,0.33304152,0.7602078,0,0.0,0.0,0.0,0.0,0.0,0,0,0.0,0.0,0,0,37.0,0.0,0.0,5461.538461538462,4313.333333333334,5235.8974358974365,4409.743589743591,4197.948717948719,4547.6923076923085,5223.076923076924,5587.6923076923085,4892.307692307693,5422.051282051283,4791.282051282052,5224.615384615386,4930.769230769231,5211.794871794872
2934.6313,0.8952333,1.0,0.33671457,0.75740814,0,0.0,0.0,0.0,0.0,0.0,0,0,0.2769491,0.0,0,0,85.0,0.0,451.0,5195.384615384616,4342.051282051282,4828.205128205129,4508.717948717949,4289.74358974359,4334.871794871796,4751.282051282052,5042.051282051283,4443.076923076924,5092.307692307693,4518.974358974359,4688.205128205129,4625.128205128206,5075.384615384616
2934.8816,0.8952333,1.0,0.33671457,0.75740814,0,0.0,0.0,0.0,0.0,0.0,0,0,0.40320784,0.0,0,0,117.0,0.0,451.0,5048.717948717949,4308.205128205129,4618.974358974359,4568.205128205129,4356.923076923077,4333.846153846154,4534.871794871796,4683.589743589744,4333.846153846154,4941.538461538462,4424.615384615385,4285.641025641026,4433.846153846154,4972.307692307693
2935.1318,0.9978053,1.0,0.34002027,0.75916666,0,0.0,0.0,0.0,0.0,0.0,0,0,0.24133377,0.0,0,0,20.0,0.0,0.0,4830.769230769231,4238.974358974359,4456.923076923077,4649.743589743591,4404.615384615385,4328.717948717949,4343.076923076924,4344.102564102564,4201.538461538462,4772.820512820514,4304.102564102564,3845.1282051282055,4295.8974358974365,4843.076923076924
2935.382,0.9978053,1.0,0.34002027,0.75916666,0,0.0,0.0,0.0,0.0,0.0,0,0,0.0,0.0,0,0,52.0,0.0,0.0,4600.000000000001,4151.794871794872,4286.666666666667,4657.435897435898,4418.974358974359,4328.717948717949,4157.948717948719,4027.1794871794878,4074.8717948717954,4589.2307692307695,4136.923076923077,3665.1282051282055,4104.102564102564,4710.769230769231
2935.632,1.0,1.0,0.3470015,0.76074225,0,0.0,0.0,0.0,0.0,0.0,0,0,0.0,0.0,0,0,84.0,0.0,502.0,4473.333333333334,4072.820512820513,4188.717948717949,4629.2307692307695,4418.461538461539,4335.384615384616,4081.0256410256416,3882.0512820512827,4042.0512820512827,4491.282051282052,4062.0512820512827,3588.205128205129,4011.7948717948725,4600.000000000001
2935.632,1.0,1.0,0.3470015,0.76074225,0,0.0,0.0,0.0,0.0,0.0,0,0,0.0,0.0,0,0,84.0,0.0,502.0,4473.333333333334,4072.820512820513,4188.717948717949,4629.2307692307695,4418.461538461539,4335.384615384616,4081.0256410256416,3882.0512820512827,4042.0512820512827,4491.282051282052,4062.0512820512827,3588.205128205129,4011.7948717948725,4600.000000000001
2936.1326,1.0,1.0,0.36378393,0.7636103,0,0.0,0.0,0.0,0.0,0.0,0,0,0.0,0.0,0,0,19.0,0.0,0.0,4264.615384615385,3952.307692307693,4187.6923076923085,4507.6923076923085,4369.2307692307695,4431.282051282052,4106.666666666667,3883.589743589744,4113.846153846154,4464.615384615385,4049.7435897435903,3681.538461538462,3957.435897435898,4480.000000000001
2936.3828,1.0,1.0,0.36378393,0.7636103,0,0.0,0.0,0.0,0.0,0.31888443,0,0,0.0,0.0,0,0,51.0,0.0,0.0,4269.74358974359,3928.205128205129,4234.871794871796,4470.256410256411,4353.846153846154,4462.051282051282,4170.256410256411,3990.7692307692314,4195.8974358974365,4526.666666666667,4090.2564102564106,3821.0256410256416,3989.23076923077,4457.948717948719
2936.633,1.0,1.0,0.37901682,0.7727534,0,0.0,0.0,0.0,0.0,0.13286434,0,0,0.0,0.0,0,0,83.0,0.0,396.0,4263.076923076924,3923.589743589744,4313.846153846154,4451.282051282052,4341.025641025642,4478.974358974359,4215.8974358974365,4050.2564102564106,4260.512820512821,4574.358974358975,4139.48717948718,3945.6410256410263,4065.1282051282055,4448.717948717949
2936.852,1.0,1.0,0.37901682,0.7727534,1,0.0,0.0,0.0,0.0,0.0,0,0,0.0,0.0,0,0,111.0,0.0,396.0,4248.717948717949,3887.692307692308,4343.076923076924,4427.6923076923085,4343.589743589744,4507.179487179488,4265.128205128206,4117.948717948719,4296.410256410257,4601.538461538462,4163.589743589744,4013.8461538461543,4088.717948717949,4431.794871794872
2937.1335,1.0,1.0,0.39272562,0.7809683,0,0.0,0.0,0.0,0.0,0.06869562,0,0,0.0,0.0,0,0,18.0,0.0,0.0,4301.025641025642,3785.6410256410263,4409.743589743591,4349.2307692307695,4290.769230769231,4539.48717948718,4377.435897435898,4217.435897435898,4319.48717948718,4610.769230769231,4134.871794871796,4092.307692307693,4008.205128205129,4375.384615384616
2937.3838,1.0,1.0,0.39272562,0.7809683,0,0.0,0.0,0.0,0.0,0.05320038,0,0,0.0,0.0,0,0,50.0,0.0,0.0,4401.538461538462,3739.48717948718,4488.717948717949,4300.000000000001,4245.128205128206,4587.179487179488,4490.256410256411,4334.358974358975,4342.564102564103,4633.333333333334,4173.333333333334,4145.641025641026,4008.205128205129,4369.2307692307695
2937.634,1.0,1.0,0.40506244,0.78177947,0,0.0,0.0,0.0,0.0,0.07683733,0,0,0.0,0.0,0,0,82.0,0.0,527.0,4487.179487179488,3788.205128205129,4523.589743589744,4317.948717948719,4250.769230769231,4602.564102564103,4538.974358974359,4389.2307692307695,4343.076923076924,4661.538461538462,4220.000000000001,4168.717948717949,4047.692307692308,4397.948717948719
2937.884,1.0,1.0,0.40506244,0.78177947,0,0.0,0.0,0.0,0.0,0.0,0,0,0.0,0.0,0,0,114.0,0.0,527.0,4585.128205128206,3875.8974358974365,4512.820512820514,4368.717948717949,4235.8974358974365,4588.205128205129,4523.589743589744,4371.794871794872,4322.564102564103,4661.025641025642,4236.410256410257,4229.2307692307695,4076.410256410257,4406.666666666667
2938.1343,1.0,1.0,0.41036227,0.77559686,0,0.0,0.0,0.0,0.0,0.0,0,0,0.0,0.0,0,0,17.0,0.0,0.0,4551.282051282052,3931.7948717948725,4501.025641025642,4409.743589743591,4266.666666666667,4573.333333333334,4476.410256410257,4363.076923076924,4334.358974358975,4676.923076923077,4266.666666666667,4232.307692307693,4121.538461538462,4405.641025641026
2938.1343,1.0,1.0,0.41036227,0.77559686,0,0.0,0.0,0.0,0.0,0.0,0,0,0.0,0.0,0,0,17.0,0.0,0.0,4551.282051282052,3931.7948717948725,4501.025641025642,4409.743589743591,4266.666666666667,4573.333333333334,4476.410256410257,4363.076923076924,4334.358974358975,4676.923076923077,4266.666666666667,4232.307692307693,4121.538461538462,4405.641025641026
2938.6348,0.9218557,1.0,0.4084047,0.76744884,0,0.0,0.0,0.0,0.0,0.0,0,0,0.0,0.0,0,0,81.0,0.0,470.0,4543.076923076924,4018.461538461539,4454.358974358975,4455.384615384616,4306.153846153847,4536.410256410257,4401.025641025642,4308.717948717949,4336.923076923077,4672.307692307693,4260.512820512821,4168.717948717949,4133.846153846154,4384.615384615385
2938.6348,0.9218557,1.0,0.4084047,0.76744884,0,0.0,0.0,0.0,0.0,0.0,0,0,0.0,0.0,0,0,81.0,0.0,470.0,4543.076923076924,4018.461538461539,4454.358974358975,4455.384615384616,4306.153846153847,4536.410256410257,4401.025641025642,4308.717948717949,4336.923076923077,4672.307692307693,4260.512820512821,4168.717948717949,4133.846153846154,4384.615384615385
2939.1353,0.85631526,1.0,0.40280873,0.7430682,0,0.0,0.0,0.0,0.0,0.0,0,0,0.0,0.0,0,0,16.0,0.0,0.0,4506.153846153847,3976.9230769230776,4474.358974358975,4451.794871794872,4306.153846153847,4543.076923076924,4412.307692307693,4358.461538461539,4436.923076923077,4736.923076923077,4369.2307692307695,4260.000000000001,4237.948717948719,4410.769230769231
2939.1353,0.85631526,1.0,0.40280873,0.7430682,0,0.0,0.0,0.0,0.0,0.0,0,0,0.0,0.0,0,0,16.0,0.0,0.0,4506.153846153847,3976.9230769230776,4474.358974358975,4451.794871794872,4306.153846153847,4543.076923076924,4412.307692307693,4358.461538461539,4436.923076923077,4736.923076923077,4369.2307692307695,4260.000000000001,4237.948717948719,4410.769230769231
2939.6357,0.7766201,1.0,0.39387667,0.7122974,0,0.0,0.0,0.0,0.0,0.048556507,0,0,0.0,0.0,0,0,80.0,0.0,504.0,4504.102564102564,3902.0512820512827,4492.820512820514,4421.538461538462,4267.6923076923085,4537.948717948719,4432.820512820514,4393.846153846154,4448.717948717949,4737.435897435898,4355.8974358974365,4282.051282051282,4191.282051282052,4362.564102564103
2939.8857,0.7766201,1.0,0.39387667,0.7122974,0,0.0,0.0,0.0,0.0,0.008235271,0,0,0.0,0.0,0,0,112.0,0.0,504.0,4491.282051282052,3876.410256410257,4515.8974358974365,4393.846153846154,4241.538461538462,4544.102564102564,4505.128205128206,4441.025641025642,4460.000000000001,4751.282051282052,4381.538461538462,4334.358974358975,4186.153846153847,4373.333333333334
2940.136,0.7516792,1.0,0.38583705,0.6821811,0,0.0,0.0,0.0,0.0,0.0,0,0,0.0,0.0,0,0,15.0,0.0,401.0,4563.589743589744,3884.615384615385,4538.974358974359,4395.8974358974365,4230.256410256411,4558.974358974359,4519.48717948718,4474.358974358975,4474.871794871796,4770.256410256411,4417.948717948719,4325.641025641026,4214.358974358975,4403.076923076924
2940.136,0.7516792,1.0,0.38583705,0.6821811,0,0.0,0.0,0.0,0.0,0.0,0,0,0.0,0.0,0,0,15.0,0.0,401.0,4563.589743589744,3884.615384615385,4538.974358974359,4395.8974358974365,4230.256410256411,4558.974358974359,4519.48717948718,4474.358974358975,4474.871794871796,4770.256410256411,4417.948717948719,4325.641025641026,4214.358974358975,4403.076923076924
2940.6365,0.70210886,1.0,0.38162112,0.65508103,0,0.0,0.0,0.0,0.0,0.0,0,0,0.0,0.0,0,0,79.0,0.0,401.0,4590.769230769231,3947.1794871794878,4540.000000000001,4432.307692307693,4269.2307692307695,4570.769230769231,4482.051282051282,4457.435897435898,4466.153846153847,4766.153846153847,4430.256410256411,4326.666666666667,4222.564102564103,4434.871794871796
2940.6365,0.70210886,1.0,0.38162112,0.65508103,0,0.0,0.0,0.0,0.0,0.0,0,0,0.0,0.0,0,0,79.0,0.0,401.0,4590.769230769231,3947.1794871794878,4540.000000000001,4432.307692307693,4269.2307692307695,4570.769230769231,4482.051282051282,4457.435897435898,4466.153846153847,4766.153846153847,4430.256410256411,4326.666666666667,4222.564102564103,4434.871794871796
2941.137,0.64394265,1.0,0.37782618,0.6330371,0,0.0,0.0,0.0,0.0,0.0,0,0,0.0,0.0,0,0,14.0,0.0,529.0,4579.48717948718,4025.6410256410263,4524.615384615385,4464.615384615385,4296.923076923077,4596.410256410257,4492.820512820514,4461.538461538462,4461.025641025642,4815.8974358974365,4432.820512820514,4397.435897435898,4256.923076923077,4461.025641025642
2941.137,0.64394265,1.0,0.37782618,0.6330371,0,0.0,0.0,0.0,0.0,0.0,0,0,0.0,0.0,0,0,14.0,0.0,529.0,4579.48717948718,4025.6410256410263,4524.615384615385,4464.615384615385,4296.923076923077,4596.410256410257,4492.820512820514,4461.538461538462,4461.025641025642,4815.8974358974365,4432.820512820514,4397.435897435898,4256.923076923077,4461.025641025642
2941.6375,0.77666956,1.0,0.3744101,0.62637097,0,0.0,0.0,0.817428,0.0,0.0,0,0,0.0,0.0,0,0,78.0,0.0,527.0,4663.076923076924,4478.974358974359,4599.48717948718,4627.179487179488,4543.076923076924,4635.8974358974365,4633.846153846154,4542.051282051282,4570.769230769231,4860.512820512821,4552.820512820514,4449.2307692307695,4534.871794871796,4512.820512820514
2941.8877,0.77666956,1.0,0.3744101,0.62637097,0,0.0,0.0,0.12455846,0.0,0.0,0,0,0.0,0.0,0,0,110.0,0.0,527.0,4877.948717948719,4773.846153846154,4652.307692307693,4654.358974358975,4657.435897435898,4674.358974358975,4654.871794871796,4578.461538461539,4639.48717948718,5017.948717948719,4639.48717948718,4461.538461538462,4669.2307692307695,4575.8974358974365
2942.1377,0.8934692,1.0,0.3728577,0.63798136,0,0.0,0.0,0.36597112,0.0,0.0,0,0,0.0,0.0,0,0,13.0,0.0,470.0,4897.435897435898,4622.564102564103,4633.846153846154,4606.666666666667,4480.000000000001,4640.512820512821,4671.794871794872,4575.8974358974365,4635.384615384616,5027.6923076923085,4629.2307692307695,4371.794871794872,4662.564102564103,4575.8974358974365
2942.388,0.8934692,1.0,0.3728577,0.63798136,0,0.0,0.0,0.21002086,0.0,0.0,0,0,0.0,0.0,0,0,45.0,0.0,0.0,4934.871794871796,4330.256410256411,4707.179487179488,4447.6923076923085,4365.128205128206,4662.564102564103,4769.2307692307695,4709.2307692307695,4687.6923076923085,5033.333333333334,4660.512820512821,4522.564102564103,4577.948717948719,4606.153846153847
2942.6382,0.9698869,1.0,0.3738899,0.64926577,0,0.0,0.0,0.10938299,0.0,0.0,0,0,0.0,0.0,0,0,77.0,0.0,461.0,5289.2307692307695,4221.538461538462,5025.641025641026,4440.512820512821,4216.923076923077,4732.307692307693,5120.000000000001,5184.102564102564,4911.794871794872,5260.512820512821,4877.435897435898,4915.384615384616,4703.589743589744,4824.615384615386
2942.8884,0.9698869,1.0,0.3738899,0.64926577,0,0.0,0.0,0.15453339,0.0,0.0,0,0,0.0,0.0,0,0,109.0,0.0,461.0,5652.820512820514,4487.6923076923085,5288.205128205129,4522.564102564103,4269.74358974359,4694.358974358975,5353.846153846154,5504.615384615386,4980.512820512821,5428.205128205129,5082.051282051283,5183.076923076924,4908.717948717949,5068.205128205129
2943.1387,1.0,1.0,0.37481827,0.65941864,0,0.0,0.34052527,0.0,0.0,0.0,0,0,0.0,0.0,0,0,12.0,0.0,491.0,5713.333333333334,4585.128205128206,5111.794871794872,4564.102564102564,4329.2307692307695,4564.102564102564,5216.923076923078,5362.564102564103,4811.794871794872,5399.487179487181,4853.333333333334,4939.48717948718,4873.846153846154,5052.820512820514
2943.389,1.0,1.0,0.37481827,0.65941864,0,0.0,0.20008154,0.0,0.0,0.0,0,0,0.0,0.0,0,0,44.0,0.0,0.0,5557.948717948719,4615.384615384616,4891.282051282052,4695.8974358974365,4452.820512820514,4536.923076923077,4900.000000000001,5049.2307692307695,4656.410256410257,5281.538461538462,4765.641025641026,4587.179487179488,4727.179487179488,5032.820512820514
2943.6392,1.0,0.97361034,0.38405675,0.670244,0,0.0,0.20384571,0.0,0.0,0.0,0,0,0.0,0.0,0,0,76.0,0.0,489.0,5331.794871794872,4494.358974358975,4665.641025641026,4776.923076923077,4451.794871794872,4509.2307692307695,4667.179487179488,4686.153846153847,4493.846153846154,5061.025641025642,4612.820512820514,4064.1025641025644,4507.179487179488,4942.564102564103
2943.8894,1.0,0.97361034,0.38405675,0.670244,0,0.0,0.28093156,0.0,0.0,0.0,0,0,0.0,0.0,0,0,108.0,0.0,489.0,5102.564102564103,4356.923076923077,4518.461538461539,4828.717948717949,4526.153846153847,4503.589743589744,4500.000000000001,4403.589743589744,4384.615384615385,4956.410256410257,4470.256410256411,3842.564102564103,4368.717948717949,4874.358974358975
2944.1394,1.0,0.9285772,0.39237052,0.6799824,0,0.0,0.0,0.1147935,0.0,0.0,0,0,0.0,0.0,0,0,11.0,0.0,390.0,4890.256410256411,4282.564102564103,4436.410256410257,4798.461538461539,4508.717948717949,4527.6923076923085,4413.846153846154,4205.128205128206,4335.8974358974365,4808.205128205129,4384.102564102564,3760.512820512821,4262.051282051282,4812.820512820514
2944.3896,1.0,0.9285772,0.39237052,0.6799824,0,0.0,0.2875037,0.0,0.0,0.0,0,0,0.0,0.0,0,0,43.0,0.0,0.0,4696.923076923077,4085.6410256410263,4329.743589743591,4716.410256410257,4429.743589743591,4494.871794871796,4307.179487179487,4092.307692307693,4273.846153846154,4661.025641025642,4254.358974358975,3741.0256410256416,4115.8974358974365,4716.410256410257
2944.64,1.0,0.8880473,0.40148962,0.6887422,0,0.0,1.0,0.0,0.0,0.0,0,0,0.0,0.0,0,0,75.0,0.0,390.0,4512.820512820514,3947.692307692308,4260.000000000001,4607.6923076923085,4334.871794871796,4468.205128205129,4234.871794871796,4024.615384615385,4213.846153846154,4560.512820512821,4142.564102564103,3748.205128205129,4007.692307692308,4644.102564102564
2944.8901,1.0,0.8880473,0.40148962,0.6887422,0,0.0,0.36438712,0.0,0.0,0.0,0,0,0.0,0.0,0,0,107.0,0.0,390.0,4393.846153846154,3840.512820512821,4254.871794871796,4534.871794871796,4289.74358974359,4487.6923076923085,4215.384615384616,4040.0000000000005,4212.820512820514,4468.717948717949,4087.1794871794878,3814.358974358975,3926.666666666667,4595.384615384616
2945.1404,1.0,0.85157037,0.4096956,0.7088537,0,0.0,0.24407037,0.0,0.0,0.0,0,0,0.0,0.0,0,0,10.0,0.0,529.0,4424.102564102564,3842.0512820512827,4304.615384615385,4503.076923076924,4357.948717948719,4525.128205128206,4236.923076923077,4100.000000000001,4290.769230769231,4536.410256410257,4106.666666666667,3908.205128205129,3990.7692307692314,4572.820512820514
2945.3906,1.0,0.85157037,0.4096956,0.7088537,0,0.0,0.6105687,0.0,0.0,0.0,0,0,0.0,0.0,0,0,42.0,0.0,0.0,4429.2307692307695,3855.3846153846157,4353.333333333334,4489.743589743591,4377.435897435898,4548.205128205129,4262.564102564103,4149.74358974359,4314.871794871796,4580.000000000001,4107.179487179487,3984.615384615385,4032.307692307693,4564.615384615385
2945.6409,1.0,0.81874114,0.40751934,0.72698253,0,0.0,0.23156886,0.0,0.0,0.0,0,0,0.0,0.0,0,0,74.0,0.0,529.0,4430.256410256411,3858.9743589743593,4396.410256410257,4465.128205128206,4383.076923076924,4558.461538461539,4297.948717948719,4214.871794871796,4364.102564102564,4581.538461538462,4127.6923076923085,4067.1794871794878,4046.1538461538466,4540.512820512821
2945.891,1.0,0.81874114,0.40751934,0.72698253,0,0.0,0.4959313,0.0,0.0,0.0,0,0,0.0,0.0,0,0,106.0,0.0,529.0,4478.461538461539,3881.538461538462,4449.2307692307695,4458.461538461539,4373.333333333334,4611.282051282052,4374.358974358975,4299.48717948718,4430.256410256411,4652.820512820514,4209.2307692307695,4152.820512820514,4139.48717948718,4561.025641025642
2946.141,1.0,0.7891949,0.40092957,0.7432984,0,0.0,0.71044946,0.0,0.0,0.0,0,0,0.0,0.0,0,0,9.0,0.0,487.0,4456.923076923077,3880.0000000000005,4481.025641025642,4442.051282051282,4336.923076923077,4588.205128205129,4391.794871794872,4309.2307692307695,4421.025641025642,4659.48717948718,4243.589743589744,4202.564102564103,4140.000000000001,4552.820512820514
2946.3914,1.0,0.7891949,0.40092957,0.7432984,0,0.0,0.405492,0.0,0.0,0.0,0,0,0.0,0.0,0,0,41.0,0.0,0.0,4485.128205128206,3877.9487179487182,4507.6923076923085,4427.179487179487,4341.025641025642,4624.615384615385,4465.128205128206,4386.153846153847,4458.461538461539,4697.435897435898,4297.948717948719,4260.000000000001,4150.256410256411,4539.48717948718
2946.6416,1.0,0.7626032,0.39416996,0.74694484,0,0.0,0.7798741,0.0,0.0,0.0,0,0,0.0,0.0,0,0,73.0,0.0,485.0,4489.2307692307695,3882.0512820512827,4536.410256410257,4435.8974358974365,4341.538461538462,4606.153846153847,4466.153846153847,4398.974358974359,4477.948717948719,4729.743589743591,4327.6923076923085,4279.48717948718,4166.666666666667,4537.435897435898
2946.8918,1.0,0.7626032,0.39416996,0.74694484,0,0.0,0.0,0.51316524,0.0,0.0,0,0,0.0,0.0,0,0,105.0,0.0,473.0,4471.282051282052,3861.538461538462,4536.410256410257,4434.871794871796,4311.794871794872,4630.256410256411,4495.8974358974365,4442.051282051282,4501.025641025642,4752.307692307693,4362.564102564103,4314.871794871796,4198.461538461539,4542.564102564103
2947.142,0.96591496,0.7386707,0.3880863,0.7274743,0,0.0,0.0,0.6445372,0.0,0.0,0,0,0.0,0.0,0,0,8.0,0.0,505.0,4499.48717948718,3862.0512820512827,4550.769230769231,4425.641025641026,4322.564102564103,4615.384615384616,4494.358974358975,4446.153846153847,4486.666666666667,4757.435897435898,4386.153846153847,4344.615384615385,4182.051282051282,4529.2307692307695
2947.3923,0.96591496,0.7386707,0.3880863,0.7274743,0,0.0,0.0,0.28602704,0.0,0.0,0,0,0.0,0.0,0,0,40.0,0.0,0.0,4546.153846153847,3699.48717948718,4632.307692307693,4336.923076923077,4171.282051282052,4593.846153846154,4598.974358974359,4589.2307692307695,4552.820512820514,4791.794871794872,4464.615384615385,4485.128205128206,4177.948717948719,4549.743589743591
2947.6426,0.9972264,0.7171315,0.382611,0.7099507,0,0.0,0.0,0.11427456,0.0,0.0,0,0,0.0,0.0,1,0,72.0,0.0,495.0,4835.8974358974365,3647.692307692308,4930.256410256411,4274.871794871796,4026.666666666667,4633.846153846154,4983.589743589744,5100.000000000001,4848.717948717949,5100.000000000001,4734.871794871796,4864.102564102564,4334.871794871796,4705.641025641026
2947.8928,0.9972264,0.7171315,0.382611,0.7099507,0,0.0,0.0,0.14579333,0.0,0.0,0,0,0.0,0.0,0,0,104.0,0.0,492.0,5157.435897435898,3830.2564102564106,5094.871794871796,4324.615384615385,3984.615384615385,4568.717948717949,5105.641025641026,5372.820512820514,4906.666666666667,5276.410256410257,4904.615384615386,5082.051282051283,4556.410256410257,4857.435897435898
2948.143,1.0,0.69774616,0.37768322,0.69417953,0,0.0,0.0,0.09845361,0.0,0.0,0,0,0.0,0.0,0,0,7.0,0.0,460.0,5036.923076923077,3872.820512820513,4912.820512820514,4398.974358974359,3919.48717948718,4481.025641025642,4832.820512820514,5145.641025641026,4624.615384615385,5066.666666666667,4706.666666666667,4825.641025641026,4475.384615384616,4798.974358974359
2948.393,1.0,0.69774616,0.37768322,0.69417953,0,0.0,0.07279077,0.0,0.0,0.0,0,0,0.0,0.0,0,0,39.0,0.0,0.0,4831.282051282052,3816.9230769230776,4661.538461538462,4412.820512820514,3910.7692307692314,4424.615384615385,4558.461538461539,4818.461538461539,4436.410256410257,4892.820512820514,4487.6923076923085,4465.128205128206,4344.615384615385,4707.179487179488
2948.6433,1.0,0.68029934,0.37324825,0.67998546,0,0.0,0.22062202,0.0,0.0,0.0,0,0,0.0,0.0,0,0,71.0,0.0,466.0,4693.846153846154,3780.0000000000005,4460.512820512821,4490.769230769231,3928.717948717949,4362.051282051282,4274.871794871796,4473.333333333334,4262.564102564103,4652.820512820514,4347.179487179487,4103.076923076924,4053.333333333334,4548.717948717949
2948.8936,1.0,0.68029934,0.37324825,0.67998546,0,0.0,0.0,0.15209536,0.0,0.0,0,0,0.0,0.0,0,0,103.0,0.0,394.0,4555.8974358974365,3762.0512820512827,4297.435897435898,4572.820512820514,4025.1282051282055,4361.025641025642,4146.153846153847,4205.128205128206,4163.589743589744,4516.923076923077,4216.410256410257,3850.7692307692314,3937.435897435898,4446.153846153847
2949.1438,1.0,0.6645973,0.3692517,0.6671931,0,0.0,0.0,0.13387334,0.0,0.0,0,0,0.0,0.0,0,0,6.0,0.0,539.0,4408.717948717949,3733.8461538461543,4174.358974358975,4560.512820512821,4070.2564102564106,4360.512820512821,4027.1794871794878,3977.9487179487182,4077.435897435898,4431.794871794872,4102.564102564103,3743.589743589744,3842.564102564103,4338.461538461539
2949.394,1.0,0.6645973,0.3692517,0.6671931,0,0.0,0.0,0.0,0.0,0.0,0,0,0.0,0.0,0,0,38.0,0.0,0.0,4228.717948717949,3652.307692307693,4110.769230769231,4502.564102564103,4075.3846153846157,4361.538461538462,3975.3846153846157,3878.9743589743593,4061.0256410256416,4381.025641025642,4031.7948717948725,3713.8461538461543,3782.564102564103,4231.794871794872
2949.6443,1.0,0.65046537,0.36565435,0.65568066,0,0.0,0.0,0.0,0.0,0.0,0,0,0.0,0.0,0,0,64.0,0.0,487.0,4122.051282051282,3624.1025641025644,4132.307692307693,4476.410256410257,4084.1025641025644,4375.8974358974365,3975.8974358974365,3849.2307692307695,4061.538461538462,4359.48717948718,3995.8974358974365,3752.307692307693,3771.2820512820517,4209.2307692307695
2949.8945,1.0,0.65046537,0.36565435,0.65568066,0,0.0,0.0,0.0,0.0,0.0,0,0,0.0,0.0,0,0,102.0,0.0,530.0,4045.1282051282055,3572.307692307693,4181.538461538462,4417.948717948719,4056.9230769230776,4412.307692307693,4075.8974358974365,3924.615384615385,4117.435897435898,4375.384615384616,4032.820512820513,3854.8717948717954,3786.1538461538466,4184.102564102564
2950.1448,1.0,0.63774663,0.36241627,0.64531976,0,0.0,0.0,0.0,0.0,0.0,0,0,0.0,0.0,0,0,4.0,0.0,551.0,4136.923076923077,3642.564102564103,4280.000000000001,4408.205128205129,4186.666666666667,4482.051282051282,4148.205128205129,4008.205128205129,4204.102564102564,4452.820512820514,4082.564102564103,3963.589743589744,3861.0256410256416,4216.923076923077
2950.3635,1.0,0.63774663,0.36241627,0.64531976,0,0.0,0.0,0.0,0.0,0.0,0,0,0.0,0.0,0,0,33.0,0.0,0.0,4111.794871794872,3637.9487179487182,4306.153846153847,4360.000000000001,4183.076923076924,4494.871794871796,4224.102564102564,4070.7692307692314,4237.948717948719,4494.871794871796,4115.384615384616,4038.9743589743593,3889.2307692307695,4228.717948717949
2950.3635,1.0,0.63774663,0.36241627,0.64531976,0,0.0,0.0,0.0,0.0,0.0,0,0,0.0,0.0,0,0,33.0,0.0,0.0,4111.794871794872,3637.9487179487182,4306.153846153847,4360.000000000001,4183.076923076924,4494.871794871796,4224.102564102564,4070.7692307692314,4237.948717948719,4494.871794871796,4115.384615384616,4038.9743589743593,3889.2307692307695,4228.717948717949
2950.645,1.0,0.6262998,0.35950163,0.6359961,0,0.0,0.0,0.0,0.0,0.0,0,0,0.0,0.0,0,0,69.0,0.0,562.0,4076.410256410257,3660.512820512821,4382.564102564103,4366.153846153847,4215.8974358974365,4536.410256410257,4304.102564102564,4168.205128205129,4309.743589743591,4580.000000000001,4181.025641025642,4155.384615384616,3963.076923076924,4269.2307692307695
2951.1455,1.0,0.6159977,0.35687807,0.62760687,0,0.0,0.0,0.0,0.0,0.0,0,0,0.0,0.0,0,0,88.0,0.0,504.0,4155.384615384616,3674.8717948717954,4412.307692307693,4364.615384615385,4196.410256410257,4535.8974358974365,4331.282051282052,4199.48717948718,4323.589743589744,4602.051282051282,4181.538461538462,4216.923076923077,3993.333333333334,4309.743589743591
2951.1455,1.0,0.6159977,0.35687807,0.62760687,0,0.0,0.0,0.0,0.0,0.0,0,0,0.0,0.0,0,0,4.0,0.0,560.0,4147.6923076923085,3665.1282051282055,4464.615384615385,4418.461538461539,4208.205128205129,4562.564102564103,4398.461538461539,4265.641025641026,4365.641025641026,4623.076923076924,4247.6923076923085,4281.538461538462,4041.538461538462,4300.000000000001
2951.646,1.0,0.60672575,0.3514312,0.64337474,0,0.0,0.0,0.0,0.0,0.0,0,0,0.0,0.0,0,0,19.0,0.0,0.0,4183.076923076924,3697.9487179487182,4485.128205128206,4420.512820512821,4194.358974358975,4572.307692307693,4424.102564102564,4295.384615384616,4388.717948717949,4647.6923076923085,4264.102564102564,4301.025641025642,4072.307692307693,4317.435897435898
2951.646,1.0,0.60672575,0.3514312,0.64337474,0,0.0,0.0,0.0,0.0,0.0,0,0,0.0,0.0,0,0,68.0,0.0,560.0,4272.307692307693,3723.589743589744,4493.846153846154,4405.128205128206,4170.769230769231,4555.8974358974365,4447.6923076923085,4335.8974358974365,4404.102564102564,4670.256410256411,4307.6923076923085,4334.871794871796,4106.666666666667,4349.2307692307695
2952.1465,1.0,0.598381,0.3318172,0.6685244,0,0.0,0.0,0.0,0.0,0.0,0,0,0.0,0.0,0,0,80.0,0.0,504.0,4290.769230769231,3727.1794871794878,4504.102564102564,4411.282051282052,4152.820512820514,4554.358974358975,4450.769230769231,4339.48717948718,4401.025641025642,4666.153846153847,4321.538461538462,4331.794871794872,4112.307692307693,4360.512820512821
2952.3965,1.0,0.598381,0.3318172,0.6685244,0,0.0,0.0,0.0,0.0,0.0,0,0,0.0,0.0,0,0,35.0,0.0,0.0,4410.256410256411,3783.076923076924,4524.102564102564,4379.48717948718,4177.948717948719,4559.48717948718,4478.461538461539,4401.025641025642,4446.666666666667,4732.307692307693,4404.102564102564,4350.769230769231,4175.8974358974365,4416.923076923077
2952.3965,1.0,0.598381,0.3318172,0.6685244,0,0.0,0.0,0.0,0.0,0.0,0,0,0.0,0.0,0,0,35.0,0.0,0.0,4410.256410256411,3783.076923076924,4524.102564102564,4379.48717948718,4177.948717948719,4559.48717948718,4478.461538461539,4401.025641025642,4446.666666666667,4732.307692307693,4404.102564102564,4350.769230769231,4175.8974358974365,4416.923076923077
2952.6467,1.0,0.69010717,0.30619016,0.69115114,0,0.0,0.0,0.0,0.0,0.0,0,0,0.0,0.0,0,0,67.0,0.0,541.0,4445.128205128206,3781.538461538462,4506.153846153847,4352.820512820514,4178.974358974359,4554.358974358975,4485.128205128206,4403.589743589744,4441.538461538462,4714.358974358975,4397.435897435898,4341.538461538462,4163.589743589744,4413.846153846154
2952.6467,1.0,0.69010717,0.30619016,0.69115114,0,0.0,0.0,0.0,0.0,0.0,0,0,0.0,0.0,0,0,67.0,0.0,541.0,4445.128205128206,3781.538461538462,4506.153846153847,4352.820512820514,4178.974358974359,4554.358974358975,4485.128205128206,4403.589743589744,4441.538461538462,4714.358974358975,4397.435897435898,4341.538461538462,4163.589743589744,4413.846153846154
2953.3975,0.9678446,0.75275236,0.28312635,0.7115052,0,0.0,0.0,0.0,0.0,0.23135236,0,0,0.0,0.0,0,0,34.0,0.0,0.0,4524.102564102564,3850.2564102564106,4503.076923076924,4394.358974358975,4202.051282051282,4546.153846153847,4454.358974358975,4400.512820512821,4406.666666666667,4680.512820512821,4343.589743589744,4283.076923076924,4109.74358974359,4419.48717948718
2953.6477,0.9837772,0.80088705,0.26237,0.717384,0,0.0,0.0,0.0,0.0,0.0,0,0,0.0,0.0,0,0,66.0,0.0,478.0,4488.717948717949,3859.48717948718,4504.615384615385,4378.974358974359,4186.666666666667,4533.333333333334,4453.846153846154,4379.48717948718,4380.000000000001,4670.769230769231,4353.333333333334,4277.435897435898,4102.564102564103,4405.128205128206
2953.6477,0.9837772,0.80088705,0.26237,0.717384,0,0.0,0.0,0.0,0.0,0.0,0,0,0.0,0.0,0,0,66.0,0.0,465.0,4488.205128205129,3870.2564102564106,4508.717948717949,4384.615384615385,4198.974358974359,4540.512820512821,4462.051282051282,4393.846153846154,4394.358974358975,4677.435897435898,4364.615384615385,4291.282051282052,4108.717948717949,4409.743589743591
2953.6477,0.9837772,0.80088705,0.26237,0.717384,0,0.0,0.0,0.0,0.0,0.0,0,0,0.0,0.0,0,0,66.0,0.0,465.0,4488.205128205129,3870.2564102564106,4508.717948717949,4384.615384615385,4198.974358974359,4540.512820512821,4462.051282051282,4393.846153846154,4394.358974358975,4677.435897435898,4364.615384615385,4291.282051282052,4108.717948717949,4409.743589743591
2954.1482,1.0,0.82204735,0.25660467,0.7216271,0,0.0,0.0,0.0,0.0,0.0,0,0,0.0,0.0,0,0,1.0,0.0,478.0,4553.846153846154,3892.307692307693,4515.384615384616,4398.461538461539,4212.307692307693,4561.025641025642,4463.589743589744,4406.666666666667,4408.717948717949,4704.102564102564,4414.358974358975,4289.74358974359,4157.435897435898,4436.410256410257
2954.1482,1.0,0.82204735,0.25660467,0.7216271,0,0.0,0.0,0.0,0.0,0.0,0,0,0.0,0.0,0,0,1.0,0.0,478.0,4553.846153846154,3892.307692307693,4515.384615384616,4398.461538461539,4212.307692307693,4561.025641025642,4463.589743589744,4406.666666666667,4408.717948717949,4704.102564102564,4414.358974358975,4289.74358974359,4157.435897435898,4436.410256410257
2954.6484,0.99828726,0.8409561,0.26990032,0.72062707,0,0.0,0.0,0.0,0.0,0.0,0,0,0.0,0.0,0,0,65.0,0.0,478.0,4594.358974358975,3898.9743589743593,4493.846153846154,4405.641025641026,4190.769230769231,4546.153846153847,4427.6923076923085,4375.8974358974365,4389.743589743591,4706.666666666667,4413.846153846154,4266.666666666667,4156.410256410257,4440.000000000001
2954.6484,0.99828726,0.8409561,0.26990032,0.72062707,0,0.0,0.0,0.0,0.0,0.0,0,0,0.0,0.0,0,0,65.0,0.0,478.0,4594.358974358975,3898.9743589743593,4493.846153846154,4405.641025641026,4190.769230769231,4546.153846153847,4427.6923076923085,4375.8974358974365,4389.743589743591,4706.666666666667,4413.846153846154,4266.666666666667,4156.410256410257,4440.000000000001
2955.149,0.9410736,0.86908436,0.28876406,0.7150991,0,0.0,0.0,0.0,0.0,0.0,0,0,0.0,0.0,0,0,0.0,0.0,485.0,4640.000000000001,3888.717948717949,4508.205128205129,4407.179487179487,4188.205128205129,4541.025641025642,4427.6923076923085,4376.923076923077,4401.025641025642,4691.794871794872,4424.102564102564,4283.589743589744,4150.256410256411,4429.743589743591
2955.149,0.9410736,0.86908436,0.28876406,0.7150991,0,0.0,0.0,0.0,0.0,0.0,0,0,0.0,0.0,0,0,0.0,0.0,485.0,4640.000000000001,3888.717948717949,4508.205128205129,4407.179487179487,4188.205128205129,4541.025641025642,4427.6923076923085,4376.923076923077,4401.025641025642,4691.794871794872,4424.102564102564,4283.589743589744,4150.256410256411,4429.743589743591
2955.8997,0.9628053,0.8922011,0.30896342,0.708658,0,0.0,0.0,0.0,0.0,0.45202914,0,0,0.0,0.0,0,0,96.0,0.0,504.0,4658.974358974359,3928.205128205129,4506.153846153847,4447.179487179487,4220.000000000001,4556.410256410257,4442.051282051282,4394.871794871796,4398.461538461539,4681.538461538462,4404.615384615385,4262.051282051282,4155.8974358974365,4433.846153846154
2956.0247,0.9628053,0.8922011,0.30896342,0.708658,0,0.0,0.0,0.0,0.0,0.9516064,0,0,0.0,0.0,0,0,112.0,0.0,504.0,4670.256410256411,3924.1025641025644,4511.794871794872,4448.205128205129,4214.358974358975,4543.076923076924,4441.025641025642,4408.205128205129,4405.128205128206,4716.410256410257,4416.410256410257,4280.000000000001,4168.717948717949,4462.051282051282
2956.4001,0.91334736,0.9189909,0.32714316,0.70286024,0,0.0,0.0,0.0,0.0,0.59600216,0,0,0.0,0.0,0,0,31.0,0.0,0.0,4558.461538461539,3930.7692307692314,4485.128205128206,4448.205128205129,4225.128205128206,4552.820512820514,4426.666666666667,4380.512820512821,4401.025641025642,4708.717948717949,4375.384615384616,4230.256410256411,4135.8974358974365,4411.794871794872
2956.5251,0.91334736,0.9189909,0.32714316,0.70286024,0,0.0,0.0,0.0,0.0,0.8234697,0,0,0.0,0.0,0,0,47.0,0.0,0.0,4544.615384615385,3926.1538461538466,4476.923076923077,4442.564102564103,4234.358974358975,4555.8974358974365,4443.076923076924,4397.948717948719,4411.794871794872,4714.871794871796,4385.128205128206,4233.333333333334,4146.666666666667,4414.358974358975
2956.7754,0.8786489,0.9336584,0.34117725,0.6991061,0,0.0,0.0,0.0,0.0,0.0,0,0,0.0,0.0,0,0,79.0,0.0,407.0,4548.205128205129,3908.717948717949,4474.871794871796,4433.333333333334,4228.205128205129,4550.256410256411,4429.2307692307695,4386.666666666667,4378.461538461539,4684.102564102564,4360.512820512821,4217.435897435898,4109.74358974359,4405.641025641026
2956.7754,0.8786489,0.9336584,0.34117725,0.6991061,0,0.0,0.0,0.0,0.0,0.0,0,0,0.0,0.0,0,0,79.0,0.0,407.0,4548.205128205129,3908.717948717949,4474.871794871796,4433.333333333334,4228.205128205129,4550.256410256411,4429.2307692307695,4386.666666666667,4378.461538461539,4684.102564102564,4360.512820512821,4217.435897435898,4109.74358974359,4405.641025641026
2957.1506,0.8561255,0.9453306,0.3538078,0.6920846,0,0.0,0.0,0.0,0.0,0.0,0,0,0.0,0.0,0,0,127.0,0.0,407.0,4588.205128205129,3929.2307692307695,4491.282051282052,4433.846153846154,4224.615384615385,4558.461538461539,4443.589743589744,4409.743589743591,4396.923076923077,4721.538461538462,4387.6923076923085,4245.128205128206,4160.000000000001,4443.076923076924
2957.5886,0.8561255,0.9453306,0.3538078,0.6920846,0,0.0,0.0,0.0,0.0,0.0,0,0,0.0,0.0,0,0,54.0,0.0,0.0,4615.8974358974365,3894.8717948717954,4507.6923076923085,4437.948717948719,4226.153846153847,4569.2307692307695,4476.923076923077,4444.102564102564,4408.205128205129,4712.307692307693,4427.179487179487,4270.256410256411,4204.615384615385,4492.820512820514
2957.9014,0.8540482,1.0,0.365175,0.67820376,0,0.0,0.0,0.0,0.0,0.3183324,0,0,0.0,0.0,0,0,94.0,0.0,530.0,4609.2307692307695,3922.564102564103,4506.666666666667,4406.666666666667,4233.846153846154,4566.666666666667,4470.256410256411,4424.102564102564,4392.307692307693,4708.205128205129,4438.974358974359,4296.923076923077,4222.051282051282,4511.794871794872
2958.0264,0.8540482,1.0,0.365175,0.67820376,0,0.0,0.0,0.0,0.0,0.0,0,0,0.0,0.0,0,0,110.0,0.0,530.0,4640.000000000001,3921.538461538462,4507.179487179488,4401.538461538462,4240.512820512821,4553.846153846154,4448.205128205129,4411.282051282052,4385.128205128206,4703.589743589744,4428.205128205129,4282.051282051282,4212.820512820514,4520.512820512821
2958.1516,0.7693687,1.0,0.37470248,0.6610885,0,0.0,0.0,0.0,0.0,0.0,0,0,0.0,0.0,0,0,126.0,0.0,530.0,4640.000000000001,3926.666666666667,4504.102564102564,4407.179487179487,4234.871794871796,4555.384615384616,4452.820512820514,4407.179487179487,4394.871794871796,4699.48717948718,4418.461538461539,4268.205128205129,4211.794871794872,4519.48717948718
2958.4956,0.7693687,1.0,0.37470248,0.6610885,1,0.0,0.0,0.0,0.0,0.0,0,0,0.0,0.0,0,0,41.0,0.0,0.0,4672.307692307693,3943.589743589744,4524.102564102564,4427.179487179487,4248.717948717949,4561.538461538462,4468.205128205129,4428.205128205129,4409.743589743591,4704.615384615386,4427.6923076923085,4280.512820512821,4213.846153846154,4519.48717948718
2958.777,0.77102524,1.0,0.37758455,0.65038496,0,0.0,0.0,0.0,0.0,0.35944834,0,0,0.0,0.0,0,0,77.0,0.0,471.0,4667.6923076923085,3910.2564102564106,4505.641025641026,4398.974358974359,4243.589743589744,4565.641025641026,4474.871794871796,4444.615384615385,4428.205128205129,4733.846153846154,4430.256410256411,4278.461538461539,4208.205128205129,4510.769230769231
2959.0273,0.77102524,1.0,0.37758455,0.65038496,0,0.0,0.0,0.0,0.0,0.011045909,0,0,0.0,0.0,0,0,109.0,0.0,471.0,4695.8974358974365,3818.461538461539,4574.871794871796,4344.615384615385,4192.307692307693,4568.205128205129,4554.871794871796,4567.179487179488,4501.538461538462,4816.410256410257,4521.025641025642,4410.256410256411,4234.358974358975,4556.410256410257
2959.1523,0.76900595,1.0,0.38017777,0.64202654,0,0.0,0.0,0.0,0.0,0.0,0,0,0.0,0.0,0,0,125.0,0.0,471.0,4766.153846153847,3757.9487179487182,4663.076923076924,4303.589743589744,4132.820512820514,4606.666666666667,4674.871794871796,4724.615384615386,4608.205128205129,4897.435897435898,4585.641025641026,4521.538461538462,4264.615384615385,4586.153846153847
2959.5278,0.76900595,1.0,0.38017777,0.64202654,0,0.0,0.0,0.0,0.0,0.0,0,0,0.0,0.0,0,0,44.0,0.0,0.0,5168.205128205129,3958.9743589743593,4935.8974358974365,4356.410256410257,4154.358974358975,4632.820512820514,4930.256410256411,5161.538461538462,4874.871794871796,5196.923076923077,4883.589743589744,4907.179487179488,4566.153846153847,4827.6923076923085
2959.6528,0.8867252,1.0,0.38047343,0.6280583,0,0.0,0.0,0.0,0.0,0.0,0,0,0.0,0.0,0,0,60.0,0.0,0.0,5224.102564102564,4061.538461538462,4974.358974358975,4392.820512820514,4238.461538461539,4622.564102564103,4943.076923076924,5206.153846153847,4905.641025641026,5247.179487179488,4941.538461538462,4969.743589743591,4633.846153846154,4878.461538461539
2959.6528,0.8867252,1.0,0.38047343,0.6280583,0,0.0,0.0,0.0,0.0,0.0,0,0,0.0,0.0,0,0,60.0,0.0,0.0,5224.102564102564,4061.538461538462,4974.358974358975,4392.820512820514,4238.461538461539,4622.564102564103,4943.076923076924,5206.153846153847,4905.641025641026,5247.179487179488,4941.538461538462,4969.743589743591,4633.846153846154,4878.461538461539
2960.1533,0.9903181,1.0,0.37384763,0.6110642,0,0.0,0.0,0.0,0.0,0.0,0,0,0.0,0.0,0,0,124.0,0.0,487.0,5125.641025641026,4263.589743589744,4796.410256410257,4452.820512820514,4414.871794871796,4574.871794871796,4716.923076923077,4928.717948717949,4694.871794871796,5110.769230769231,4795.8974358974365,4726.153846153847,4566.666666666667,4888.205128205129
2960.5286,0.9903181,1.0,0.37384763,0.6110642,0,0.0,0.0,0.0,0.0,0.0,0,0,0.0,0.0,0,0,43.0,0.0,0.0,4877.435897435898,4211.282051282052,4492.307692307693,4506.153846153847,4409.2307692307695,4475.8974358974365,4425.641025641026,4504.615384615385,4396.923076923077,4844.102564102564,4485.128205128206,4373.333333333334,4327.6923076923085,4761.538461538462
2960.7788,1.0,1.0,0.36788392,0.6066397,0,0.0,0.0,0.0,0.0,0.0,0,0,0.37622187,0.0,0,0,75.0,0.0,395.0,4698.461538461539,4115.384615384616,4363.589743589744,4517.435897435898,4395.384615384616,4433.846153846154,4293.846153846154,4294.358974358975,4261.025641025642,4681.025641025642,4311.794871794872,4168.205128205129,4158.974358974359,4669.2307692307695
2960.9038,1.0,1.0,0.36788392,0.6066397,0,0.0,0.0,0.0,0.0,0.0,0,0,0.0,0.0,0,0,91.0,0.0,395.0,4646.666666666667,4086.1538461538466,4340.000000000001,4514.871794871796,4375.384615384616,4430.769230769231,4260.000000000001,4216.410256410257,4213.846153846154,4614.871794871796,4259.48717948718,4113.333333333334,4122.051282051282,4626.666666666667
2961.154,1.0,1.0,0.3625161,0.612235,0,0.0,0.0,0.0,0.0,0.0,0,0,0.0,0.0,0,0,123.0,0.0,395.0,4541.538461538462,4021.538461538462,4309.2307692307695,4483.076923076924,4330.769230769231,4432.307692307693,4233.846153846154,4129.74358974359,4185.641025641026,4559.48717948718,4187.179487179487,4034.8717948717954,4051.7948717948725,4567.6923076923085
2961.154,1.0,1.0,0.3625161,0.612235,0,0.0,0.0,0.0,0.0,0.0,0,0,0.0,0.0,0,0,123.0,0.0,395.0,4541.538461538462,4021.538461538462,4309.2307692307695,4483.076923076924,4330.769230769231,4432.307692307693,4233.846153846154,4129.74358974359,4185.641025641026,4559.48717948718,4187.179487179487,4034.8717948717954,4051.7948717948725,4567.6923076923085
2961.6545,1.0,1.0,0.35021937,0.6194868,0,0.0,0.0,0.0,0.0,0.0,0,0,0.0,0.0,0,0,58.0,0.0,0.0,4445.641025641026,3953.333333333334,4337.948717948719,4444.102564102564,4302.564102564103,4476.923076923077,4264.102564102564,4129.2307692307695,4189.2307692307695,4528.717948717949,4155.384615384616,4023.589743589744,4009.23076923077,4491.794871794872
2961.6545,1.0,1.0,0.35021937,0.6194868,0,0.0,0.0,0.0,0.0,0.0,0,0,0.0,0.0,0,0,58.0,0.0,0.0,4445.641025641026,3953.333333333334,4337.948717948719,4444.102564102564,4302.564102564103,4476.923076923077,4264.102564102564,4129.2307692307695,4189.2307692307695,4528.717948717949,4155.384615384616,4023.589743589744,4009.23076923077,4491.794871794872
2962.155,1.0,1.0,0.3391521,0.63466686,0,0.0,0.0,0.0,0.0,0.0,0,0,0.0,0.0,0,0,122.0,0.0,527.0,4392.820512820514,3898.9743589743593,4387.179487179487,4426.666666666667,4277.948717948719,4507.6923076923085,4343.076923076924,4202.051282051282,4261.538461538462,4586.153846153847,4217.948717948719,4100.512820512821,4063.589743589744,4479.48717948718
2962.155,1.0,1.0,0.3391521,0.63466686,0,0.0,0.0,0.0,0.0,0.0,0,0,0.0,0.0,0,0,122.0,0.0,527.0,4392.820512820514,3898.9743589743593,4387.179487179487,4426.666666666667,4277.948717948719,4507.6923076923085,4343.076923076924,4202.051282051282,4261.538461538462,4586.153846153847,4217.948717948719,4100.512820512821,4063.589743589744,4479.48717948718
2962.6555,1.0,1.0,0.3366431,0.648326,0,0.0,0.0,0.0,0.0,0.0,0,0,0.0,0.0,0,0,57.0,0.0,0.0,4464.102564102564,3899.48717948718,4438.461538461539,4440.000000000001,4253.846153846154,4522.051282051282,4397.948717948719,4286.666666666667,4336.410256410257,4656.923076923077,4282.051282051282,4165.128205128206,4129.74358974359,4485.641025641026
2962.6555,1.0,1.0,0.3366431,0.648326,0,0.0,0.0,0.0,0.0,0.0,0,0,0.0,0.0,0,0,57.0,0.0,0.0,4464.102564102564,3899.48717948718,4438.461538461539,4440.000000000001,4253.846153846154,4522.051282051282,4397.948717948719,4286.666666666667,4336.410256410257,4656.923076923077,4282.051282051282,4165.128205128206,4129.74358974359,4485.641025641026
2963.1558,1.0,1.0,0.341298,0.6606158,0,0.0,0.0,0.0,0.0,0.0,0,0,0.0,0.0,0,0,121.0,0.0,472.0,4501.538461538462,3894.358974358975,4472.307692307693,4445.641025641026,4244.102564102564,4538.461538461539,4458.974358974359,4336.410256410257,4350.769230769231,4654.871794871796,4311.794871794872,4210.769230769231,4134.871794871796,4471.282051282052
2963.1558,1.0,1.0,0.341298,0.6606158,0,0.0,0.0,0.0,0.0,0.0,0,0,0.0,0.0,0,0,121.0,0.0,472.0,4501.538461538462,3894.358974358975,4472.307692307693,4445.641025641026,4244.102564102564,4538.461538461539,4458.974358974359,4336.410256410257,4350.769230769231,4654.871794871796,4311.794871794872,4210.769230769231,4134.871794871796,4471.282051282052
2963.6562,1.0,1.0,0.33689073,0.67165124,0,0.0,0.0,0.0,0.0,0.0,0,0,0.0,0.0,0,0,56.0,0.0,0.0,4520.000000000001,3891.2820512820517,4488.717948717949,4444.615384615385,4255.8974358974365,4539.48717948718,4458.974358974359,4370.769230769231,4374.358974358975,4689.743589743591,4343.076923076924,4235.8974358974365,4168.205128205129,4493.846153846154
2963.6562,1.0,1.0,0.33689073,0.67165124,0,0.0,0.0,0.0,0.0,0.0,0,0,0.0,0.0,0,0,56.0,0.0,0.0,4520.000000000001,3891.2820512820517,4488.717948717949,4444.615384615385,4255.8974358974365,4539.48717948718,4458.974358974359,4370.769230769231,4374.358974358975,4689.743589743591,4343.076923076924,4235.8974358974365,4168.205128205129,4493.846153846154
2964.1567,0.91559935,1.0,0.32368594,0.6815787,0,0.0,0.0,0.0,0.0,0.0,0,0,0.0,0.0,0,0,120.0,0.0,503.0,4577.435897435898,3911.7948717948725,4490.769230769231,4442.051282051282,4244.102564102564,4548.717948717949,4452.307692307693,4395.384615384616,4383.589743589744,4705.641025641026,4361.538461538462,4250.769230769231,4194.358974358975,4502.564102564103
2964.1567,0.91559935,1.0,0.32368594,0.6815787,0,0.0,0.0,0.0,0.0,0.0,0,0,0.0,0.0,0,0,120.0,0.0,503.0,4577.435897435898,3911.7948717948725,4490.769230769231,4442.051282051282,4244.102564102564,4548.717948717949,4452.307692307693,4395.384615384616,4383.589743589744,4705.641025641026,4361.538461538462,4250.769230769231,4194.358974358975,4502.564102564103
2964.6572,0.8150165,1.0,0.31180176,0.6909779,0,0.0,0.0,0.0,0.0,0.0,0,0,0.0,0.0,0,0,55.0,0.0,0.0,4534.358974358975,3895.3846153846157,4474.871794871796,4433.333333333334,4213.333333333334,4538.461538461539,4453.333333333334,4379.48717948718,4378.461538461539,4707.179487179488,4350.769230769231,4223.076923076924,4188.205128205129,4471.282051282052
2964.6572,0.8150165,1.0,0.31180176,0.6909779,0,0.0,0.0,0.0,0.0,0.0,0,0,0.0,0.0,0,0,55.0,0.0,0.0,4534.358974358975,3895.3846153846157,4474.871794871796,4433.333333333334,4213.333333333334,4538.461538461539,4453.333333333334,4379.48717948718,4378.461538461539,4707.179487179488,4350.769230769231,4223.076923076924,4188.205128205129,4471.282051282052
2965.1575,0.7092821,1.0,0.30847597,0.70649046,0,0.0,0.0,0.0,0.0,0.0,0,0,0.0,0.0,0,0,119.0,0.0,398.0,4635.384615384616,3981.0256410256416,4504.615384615385,4461.538461538462,4234.871794871796,4540.000000000001,4428.717948717949,4344.102564102564,4335.384615384616,4661.538461538462,4294.871794871796,4202.564102564103,4092.307692307693,4469.2307692307695
2965.533,0.7092821,1.0,0.30847597,0.70649046,0,0.0,0.0,0.0,0.0,0.3101891,0,0,0.0,0.0,0,0,38.0,0.0,0.0,4598.974358974359,3909.2307692307695,4487.6923076923085,4451.282051282052,4224.102564102564,4556.410256410257,4458.461538461539,4398.974358974359,4404.615384615385,4716.410256410257,4367.6923076923085,4241.538461538462,4186.666666666667,4501.538461538462
2965.7832,0.674058,1.0,0.30548313,0.71966904,0,0.0,0.0,0.0,0.0,0.19039838,0,0,0.0,0.0,0,0,70.0,0.0,535.0,4599.48717948718,3910.2564102564106,4503.076923076924,4457.948717948719,4260.000000000001,4568.205128205129,4472.820512820514,4410.256410256411,4404.102564102564,4732.307692307693,4377.435897435898,4250.769230769231,4201.538461538462,4506.666666666667
2966.0332,0.674058,1.0,0.30548313,0.71966904,0,0.0,0.0,0.0,0.0,0.0,0,0,0.0,0.0,0,0,102.0,0.0,530.0,4593.846153846154,3892.307692307693,4498.974358974359,4458.974358974359,4234.871794871796,4560.000000000001,4470.769230769231,4406.666666666667,4401.538461538462,4722.051282051282,4373.846153846154,4246.666666666667,4184.102564102564,4515.384615384616
2966.1584,0.62908196,1.0,0.30278996,0.74141634,0,0.0,0.0,0.0,0.0,0.0,0,0,0.0,0.0,0,0,118.0,0.0,530.0,4585.641025641026,3901.0256410256416,4502.564102564103,4457.435897435898,4255.384615384616,4558.974358974359,4473.846153846154,4406.666666666667,4397.435897435898,4717.948717948719,4365.641025641026,4244.102564102564,4183.076923076924,4517.435897435898
2966.1584,0.62908196,1.0,0.30278996,0.74141634,0,0.0,0.0,0.0,0.0,0.0,0,0,0.0,0.0,0,0,118.0,0.0,530.0,4585.641025641026,3901.0256410256416,4502.564102564103,4457.435897435898,4255.384615384616,4558.974358974359,4473.846153846154,4406.666666666667,4397.435897435898,4717.948717948719,4365.641025641026,4244.102564102564,4183.076923076924,4517.435897435898
2966.659,0.5658477,1.0,0.31113568,0.7632792,0,0.0,0.0,0.0,0.0,0.0,0,0,0.0,0.0,0,0,53.0,0.0,0.0,4612.307692307693,3926.1538461538466,4508.717948717949,4468.205128205129,4257.435897435898,4570.769230769231,4474.358974358975,4417.435897435898,4415.8974358974365,4753.333333333334,4398.461538461539,4260.000000000001,4220.512820512821,4526.666666666667
2966.659,0.5658477,1.0,0.31113568,0.7632792,0,0.0,0.0,0.0,0.0,0.0,0,0,0.0,0.0,0,0,53.0,0.0,0.0,4612.307692307693,3926.1538461538466,4508.717948717949,4468.205128205129,4257.435897435898,4570.769230769231,4474.358974358975,4417.435897435898,4415.8974358974365,4753.333333333334,4398.461538461539,4260.000000000001,4220.512820512821,4526.666666666667
2967.1592,0.5342079,1.0,0.31864712,0.7865924,0,0.0,0.0,0.0,0.0,0.0,0,0,0.0,0.0,0,0,117.0,0.0,472.0,4602.051282051282,3928.717948717949,4497.435897435898,4460.512820512821,4253.846153846154,4562.051282051282,4450.769230769231,4390.769230769231,4383.076923076924,4717.948717948719,4376.923076923077,4233.846153846154,4194.871794871796,4506.666666666667
2967.1592,0.5342079,1.0,0.31864712,0.7865924,0,0.0,0.0,0.0,0.0,0.0,0,0,0.0,0.0,0,0,117.0,0.0,472.0,4602.051282051282,3928.717948717949,4497.435897435898,4460.512820512821,4253.846153846154,4562.051282051282,4450.769230769231,4390.769230769231,4383.076923076924,4717.948717948719,4376.923076923077,4233.846153846154,4194.871794871796,4506.666666666667
2967.6597,0.46634614,1.0,0.32540762,0.80754536,0,0.0,0.0,0.0,0.0,0.0,0,0,0.0,0.0,0,0,52.0,0.0,0.0,4620.000000000001,3931.7948717948725,4507.6923076923085,4461.538461538462,4245.128205128206,4565.641025641026,4461.538461538462,4408.205128205129,4390.769230769231,4720.000000000001,4378.461538461539,4241.538461538462,4183.589743589744,4518.461538461539
2967.6597,0.46634614,1.0,0.32540762,0.80754536,0,0.0,0.0,0.0,0.0,0.0,0,0,0.0,0.0,0,0,52.0,0.0,0.0,4620.000000000001,3931.7948717948725,4507.6923076923085,4461.538461538462,4245.128205128206,4565.641025641026,4461.538461538462,4408.205128205129,4390.769230769231,4720.000000000001,4378.461538461539,4241.538461538462,4183.589743589744,4518.461538461539
2968.1602,0.4275398,1.0,0.3259239,0.82637095,0,0.0,0.0,0.0,0.0,0.0,0,0,0.0,0.0,0,0,116.0,0.0,503.0,4638.461538461539,3922.0512820512827,4506.666666666667,4453.846153846154,4252.307692307693,4568.717948717949,4459.48717948718,4425.128205128206,4409.2307692307695,4731.794871794872,4386.666666666667,4250.769230769231,4201.025641025642,4535.384615384616
2968.1602,0.4275398,1.0,0.3259239,0.82637095,0,0.0,0.0,0.0,0.0,0.0,0,0,0.0,0.0,0,0,116.0,0.0,503.0,4638.461538461539,3922.0512820512827,4506.666666666667,4453.846153846154,4252.307692307693,4568.717948717949,4459.48717948718,4425.128205128206,4409.2307692307695,4731.794871794872,4386.666666666667,4250.769230769231,4201.025641025642,4535.384615384616
2968.6606,0.40010846,1.0,0.316369,0.84622717,0,0.0,0.0,0.0,0.0,0.0,0,0,0.0,0.0,0,0,51.0,0.0,0.0,4664.615384615386,3945.1282051282055,4497.948717948719,4450.256410256411,4251.282051282052,4567.179487179488,4444.102564102564,4412.820512820514,4413.846153846154,4747.6923076923085,4386.666666666667,4240.000000000001,4205.641025641026,4554.358974358975
2968.6606,0.40010846,1.0,0.316369,0.84622717,0,0.0,0.0,0.0,0.0,0.0,0,0,0.0,0.0,0,0,51.0,0.0,0.0,4664.615384615386,3945.1282051282055,4497.948717948719,4450.256410256411,4251.282051282052,4567.179487179488,4444.102564102564,4412.820512820514,4413.846153846154,4747.6923076923085,4386.666666666667,4240.000000000001,4205.641025641026,4554.358974358975
2969.1611,0.3762509,1.0,0.30776983,0.8668892,0,0.0,0.0,0.0,0.0,0.0,0,0,0.0,0.0,0,0,115.0,0.0,398.0,4637.435897435898,3936.410256410257,4487.6923076923085,4443.589743589744,4234.871794871796,4542.051282051282,4428.205128205129,4393.333333333334,4371.282051282052,4703.589743589744,4365.128205128206,4228.717948717949,4171.282051282052,4561.538461538462
2969.1611,0.3762509,1.0,0.30776983,0.8668892,0,0.0,0.0,0.0,0.0,0.0,0,0,0.0,0.0,0,0,115.0,0.0,398.0,4637.435897435898,3936.410256410257,4487.6923076923085,4443.589743589744,4234.871794871796,4542.051282051282,4428.205128205129,4393.333333333334,4371.282051282052,4703.589743589744,4365.128205128206,4228.717948717949,4171.282051282052,4561.538461538462
2969.6614,0.3711723,1.0,0.29753378,0.88543546,0,0.0,0.0,0.0,0.0,0.0,0,0,0.0,0.0,0,0,50.0,0.0,0.0,4640.512820512821,3942.564102564103,4507.6923076923085,4460.512820512821,4234.358974358975,4551.282051282052,4445.128205128206,4408.717948717949,4407.179487179487,4721.025641025642,4388.717948717949,4249.2307692307695,4211.794871794872,4594.358974358975
2969.6614,0.3711723,1.0,0.29753378,0.88543546,0,0.0,0.0,0.0,0.0,0.0,0,0,0.0,0.0,0,0,50.0,0.0,0.0,4640.512820512821,3942.564102564103,4507.6923076923085,4460.512820512821,4234.358974358975,4551.282051282052,4445.128205128206,4408.717948717949,4407.179487179487,4721.025641025642,4388.717948717949,4249.2307692307695,4211.794871794872,4594.358974358975
2970.1619,0.36677405,1.0,0.28678387,0.90207493,0,0.0,0.0,0.0,0.0,0.0,0,0,0.0,0.0,0,0,114.0,0.0,530.0,4616.923076923077,3942.0512820512827,4507.179487179488,4460.000000000001,4235.8974358974365,4568.205128205129,4444.615384615385,4423.076923076924,4426.666666666667,4741.538461538462,4393.846153846154,4248.205128205129,4214.871794871796,4585.641025641026
2970.1619,0.36677405,1.0,0.28678387,0.90207493,0,0.0,0.0,0.0,0.0,0.0,0,0,0.0,0.0,0,0,114.0,0.0,530.0,4616.923076923077,3942.0512820512827,4507.179487179488,4460.000000000001,4235.8974358974365,4568.205128205129,4444.615384615385,4423.076923076924,4426.666666666667,4741.538461538462,4393.846153846154,4248.205128205129,4214.871794871796,4585.641025641026
2970.8813,0.30925328,0.952654,0.27760878,0.90207785,0,0.0,0.0,0.0,0.0,0.0,0,0,0.0,0.0,0,0,77.0,0.0,473.0,4603.589743589744,3925.6410256410263,4490.769230769231,4453.333333333334,4250.769230769231,4569.2307692307695,4442.051282051282,4407.179487179487,4400.512820512821,4725.128205128206,4386.153846153847,4235.384615384616,4200.512820512821,4589.743589743591
2971.0376,0.30925328,0.952654,0.27760878,0.90207785,0,0.0,0.0,0.0,0.0,0.33894336,0,0,0.0,0.0,0,0,97.0,0.0,473.0,4602.564102564103,3921.538461538462,4488.205128205129,4453.333333333334,4265.641025641026,4575.8974358974365,4437.948717948719,4410.769230769231,4412.820512820514,4731.794871794872,4368.205128205129,4229.74358974359,4196.923076923077,4604.102564102564
2971.2878,0.25427973,0.93477577,0.26995635,0.8945008,0,0.0,0.0,0.0,0.0,0.0,0,0,0.0,0.0,0,0,0.0,0.0,484.0,4599.48717948718,3924.1025641025644,4504.102564102564,4451.794871794872,4255.8974358974365,4562.564102564103,4442.564102564103,4428.205128205129,4413.846153846154,4726.153846153847,4387.6923076923085,4242.051282051282,4214.358974358975,4623.076923076924
2971.2878,0.25427973,0.93477577,0.26995635,0.8945008,0,0.0,0.0,0.0,0.0,0.0,0,0,0.0,0.0,0,0,0.0,0.0,484.0,4599.48717948718,3924.1025641025644,4504.102564102564,4451.794871794872,4255.8974358974365,4562.564102564103,4442.564102564103,4428.205128205129,4413.846153846154,4726.153846153847,4387.6923076923085,4242.051282051282,4214.358974358975,4623.076923076924
2971.663,0.267596,0.92409134,0.26382303,0.8794812,0,0.0,0.0,0.0,0.0,0.0,0,0,0.0,0.0,0,0,48.0,0.0,0.0,4703.589743589744,3910.2564102564106,4557.435897435898,4413.333333333334,4247.6923076923085,4581.025641025642,4509.2307692307695,4526.153846153847,4487.6923076923085,4811.794871794872,4443.589743589744,4335.384615384616,4274.358974358975,4681.025641025642
2972.0386,0.267596,0.92409134,0.26382303,0.8794812,0,0.0,0.0,0.0,0.0,0.036579672,0,0,0.0,0.0,0,0,96.0,0.0,503.0,4798.974358974359,3906.666666666667,4614.871794871796,4385.641025641026,4247.179487179487,4616.923076923077,4571.282051282052,4637.948717948719,4583.076923076924,4915.8974358974365,4562.564102564103,4438.974358974359,4400.000000000001,4771.282051282052
2972.2888,0.40547347,0.9146694,0.25830418,0.85389006,0,0.0,0.0,0.0,0.0,0.052631132,0,0,0.0,0.0,0,0,128.0,0.0,503.0,4829.743589743591,3960.5128205128212,4649.2307692307695,4423.589743589744,4256.410256410257,4613.333333333334,4570.256410256411,4665.128205128206,4597.435897435898,4940.512820512821,4573.846153846154,4458.974358974359,4383.589743589744,4801.025641025642
2972.5388,0.40547347,0.9146694,0.25830418,0.85389006,0,0.0,0.0,0.0,0.0,0.0,0,0,0.0,0.0,0,0,31.0,0.0,0.0,4842.564102564103,3996.410256410257,4620.000000000001,4442.051282051282,4266.666666666667,4595.8974358974365,4535.384615384616,4623.076923076924,4542.051282051282,4906.666666666667,4552.820512820514,4427.179487179487,4358.461538461539,4795.8974358974365
2972.664,0.42338187,0.9061896,0.25558364,0.8174122,0,0.0,0.0,0.0,0.0,0.0,0,0,0.0,0.0,0,0,47.0,0.0,0.0,4798.974358974359,3991.7948717948725,4588.205128205129,4444.102564102564,4280.000000000001,4587.179487179488,4510.256410256411,4592.307692307693,4540.000000000001,4892.820512820514,4529.2307692307695,4384.615384615385,4325.128205128206,4769.2307692307695
2972.664,0.42338187,0.9061896,0.25558364,0.8174122,0,0.0,0.0,0.0,0.0,0.0,0,0,0.0,0.0,0,0,47.0,0.0,0.0,4798.974358974359,3991.7948717948725,4588.205128205129,4444.102564102564,4280.000000000001,4587.179487179488,4510.256410256411,4592.307692307693,4540.000000000001,4892.820512820514,4529.2307692307695,4384.615384615385,4325.128205128206,4769.2307692307695
2973.2896,0.52466846,0.89855784,0.25391728,0.7812513,1,0.0,0.0,0.0,0.0,0.0,0,0,0.0,0.0,0,0,127.0,0.0,398.0,4747.6923076923085,3993.8461538461543,4502.051282051282,4474.871794871796,4278.974358974359,4517.948717948719,4412.307692307693,4396.410256410257,4388.205128205129,4748.717948717949,4401.538461538462,4247.6923076923085,4230.256410256411,4701.025641025642
2973.5398,0.52466846,0.89855784,0.25391728,0.7812513,0,0.0,0.0,0.0,0.0,0.29644933,0,0,0.0,0.0,0,0,30.0,0.0,0.0,4626.153846153847,3953.333333333334,4464.615384615385,4458.974358974359,4280.000000000001,4525.128205128206,4412.307692307693,4361.538461538462,4337.435897435898,4692.307692307693,4333.333333333334,4187.6923076923085,4140.512820512821,4629.2307692307695
2973.79,0.61669743,0.89168924,0.2520179,0.7487255,0,0.0,0.0,0.0,0.0,0.0,0,0,0.0,0.0,0,0,62.0,0.0,0.0,4648.717948717949,3965.6410256410263,4458.974358974359,4461.538461538462,4282.051282051282,4515.8974358974365,4387.179487179487,4335.384615384616,4335.384615384616,4689.2307692307695,4311.794871794872,4168.205128205129,4127.6923076923085,4601.538461538462
2973.79,0.61669743,0.89168924,0.2520179,0.7487255,0,0.0,0.0,0.0,0.0,0.0,0,0,0.0,0.0,0,0,62.0,0.0,0.0,4648.717948717949,3965.6410256410263,4458.974358974359,4461.538461538462,4282.051282051282,4515.8974358974365,4387.179487179487,4335.384615384616,4335.384615384616,4689.2307692307695,4311.794871794872,4168.205128205129,4127.6923076923085,4601.538461538462
2974.1653,0.61571705,0.88550746,0.25385612,0.7194645,0,0.0,0.0,0.0,0.0,0.0,0,0,0.0,0.0,0,0,110.0,0.0,530.0,4580.000000000001,3919.48717948718,4460.512820512821,4443.076923076924,4260.000000000001,4507.179487179488,4388.717948717949,4320.000000000001,4307.6923076923085,4662.564102564103,4302.564102564103,4173.846153846154,4122.564102564103,4571.794871794872
2974.5405,0.61571705,0.88550746,0.25385612,0.7194645,0,0.0,0.0,0.0,0.0,0.0020545092,0,0,0.0,0.0,0,0,29.0,0.0,0.0,4686.666666666667,3738.461538461539,4572.820512820514,4322.564102564103,4132.820512820514,4536.923076923077,4548.717948717949,4597.948717948719,4486.153846153847,4828.205128205129,4445.128205128206,4400.000000000001,4178.974358974359,4631.794871794872
2974.7908,0.6851667,0.8799439,0.26058954,0.6907455,0,0.0,0.0,0.0,0.0,0.01592881,0,0,0.0,0.0,0,0,61.0,0.0,0.0,4993.333333333334,3791.7948717948725,4810.256410256411,4310.769230769231,4081.0256410256416,4593.333333333334,4770.256410256411,5003.589743589744,4731.282051282052,5088.717948717949,4697.948717948719,4743.076923076924,4373.846153846154,4793.333333333334
2975.041,0.6851667,0.8799439,0.26058954,0.6907455,0,0.0,0.0,0.15915641,0.0,0.0,0,0,0.0,0.0,0,0,93.0,0.0,459.0,5232.820512820514,4067.1794871794878,4987.6923076923085,4365.641025641026,4197.948717948719,4593.846153846154,4880.000000000001,5276.923076923078,4899.48717948718,5332.820512820514,4902.051282051283,4965.128205128206,4642.564102564103,4976.410256410257
2975.1663,0.8129467,0.8749367,0.2615719,0.6666071,0,0.0,0.0,0.0,0.0,0.0,0,0,0.0,0.0,0,0,109.0,0.0,459.0,5281.538461538462,4189.2307692307695,4987.179487179488,4377.948717948719,4275.8974358974365,4578.974358974359,4872.820512820514,5289.743589743591,4892.307692307693,5349.2307692307695,4924.102564102564,4964.102564102564,4686.666666666667,5012.820512820514
2975.1663,0.8129467,0.8749367,0.2615719,0.6666071,0,0.0,0.0,0.0,0.0,0.0,0,0,0.0,0.0,0,0,109.0,0.0,459.0,5281.538461538462,4189.2307692307695,4987.179487179488,4377.948717948719,4275.8974358974365,4578.974358974359,4872.820512820514,5289.743589743591,4892.307692307693,5349.2307692307695,4924.102564102564,4964.102564102564,4686.666666666667,5012.820512820514
2975.7917,0.92539304,0.87043023,0.26227936,0.64745045,0,0.0,0.0,0.0,0.0,0.029463729,0,0,0.0,0.0,0,0,60.0,0.0,0.0,4917.948717948719,4188.205128205129,4522.051282051282,4476.923076923077,4329.743589743591,4380.512820512821,4467.6923076923085,4698.461538461539,4424.615384615385,4935.8974358974365,4508.717948717949,4421.538461538462,4355.8974358974365,4861.025641025642
2976.042,0.92539304,0.87043023,0.26227936,0.64745045,0,0.0,0.0,0.0,0.0,0.0,0,0,0.31957507,0.0,0,0,92.0,0.0,486.0,4763.589743589744,4163.589743589744,4395.8974358974365,4535.384615384616,4354.871794871796,4352.820512820514,4297.948717948719,4412.820512820514,4252.820512820514,4751.794871794872,4323.589743589744,4176.410256410257,4197.435897435898,4758.461538461539
2976.2922,1.0,0.8663744,0.25692973,0.63721126,0,0.0,0.0,0.0,0.0,0.0,0,0,0.29811412,0.0,0,0,124.0,0.0,486.0,4523.076923076924,4050.7692307692314,4284.615384615385,4480.000000000001,4318.461538461539,4326.666666666667,4234.871794871796,4215.384615384616,4142.051282051282,4597.948717948719,4187.179487179487,3988.717948717949,4067.692307692308,4649.743589743591
2976.5422,1.0,0.8663744,0.25692973,0.63721126,0,0.0,0.0,0.0,0.0,0.0,0,0,0.0,0.0,0,0,27.0,0.0,0.0,4411.282051282052,3995.8974358974365,4251.794871794872,4450.256410256411,4314.871794871796,4340.512820512821,4185.128205128206,4073.8461538461543,4075.8974358974365,4503.076923076924,4108.717948717949,3912.307692307693,3982.564102564103,4572.820512820514
2976.6675,1.0,0.8627241,0.24999806,0.6339873,0,0.0,0.0,0.0,0.0,0.0,0,0,0.0,0.0,0,0,43.0,0.0,0.0,4420.000000000001,3962.0512820512827,4248.205128205129,4425.128205128206,4293.846153846154,4349.743589743591,4183.589743589744,4044.1025641025644,4052.820512820513,4471.794871794872,4086.1538461538466,3896.410256410257,3972.307692307693,4564.102564102564
2976.6675,1.0,0.8627241,0.24999806,0.6339873,0,0.0,0.0,0.0,0.0,0.0,0,0,0.0,0.0,0,0,43.0,0.0,0.0,4420.000000000001,3962.0512820512827,4248.205128205129,4425.128205128206,4293.846153846154,4349.743589743591,4183.589743589744,4044.1025641025644,4052.820512820513,4471.794871794872,4086.1538461538466,3896.410256410257,3972.307692307693,4564.102564102564
2977.168,1.0,0.8594389,0.24293073,0.6353467,0,0.0,0.0,0.0,0.0,0.0,0,0,0.0,0.0,0,0,107.0,0.0,391.0,4324.615384615385,3900.0000000000005,4306.666666666667,4383.076923076924,4265.641025641026,4418.974358974359,4264.102564102564,4064.1025641025644,4107.6923076923085,4455.384615384616,4052.307692307693,3910.7692307692314,3922.564102564103,4489.2307692307695
2977.168,1.0,0.8594389,0.24293073,0.6353467,0,0.0,0.0,0.0,0.0,0.0,0,0,0.0,0.0,0,0,107.0,0.0,391.0,4324.615384615385,3900.0000000000005,4306.666666666667,4383.076923076924,4265.641025641026,4418.974358974359,4264.102564102564,4064.1025641025644,4107.6923076923085,4455.384615384616,4052.307692307693,3910.7692307692314,3922.564102564103,4489.2307692307695
2977.6682,1.0,0.85648215,0.23657176,0.63988745,0,0.0,0.0,0.0,0.0,0.0,0,0,0.0,0.0,0,0,42.0,0.0,0.0,4355.8974358974365,3889.7435897435903,4355.8974358974365,4373.333333333334,4266.153846153847,4456.923076923077,4318.461538461539,4122.564102564103,4174.871794871796,4509.2307692307695,4108.205128205129,3979.48717948718,3960.0000000000005,4463.076923076924
2977.6682,1.0,0.85648215,0.23657176,0.63988745,0,0.0,0.0,0.0,0.0,0.0,0,0,0.0,0.0,0,0,42.0,0.0,0.0,4355.8974358974365,3889.7435897435903,4355.8974358974365,4373.333333333334,4266.153846153847,4456.923076923077,4318.461538461539,4122.564102564103,4174.871794871796,4509.2307692307695,4108.205128205129,3979.48717948718,3960.0000000000005,4463.076923076924
2978.1687,1.0,0.85382116,0.23089781,0.6439724,0,0.0,0.0,0.0,0.0,0.0,0,0,0.0,0.0,0,0,106.0,0.0,529.0,4386.153846153847,3864.1025641025644,4396.923076923077,4376.410256410257,4246.153846153847,4489.2307692307695,4369.743589743591,4198.974358974359,4248.205128205129,4571.282051282052,4184.102564102564,4053.333333333334,4038.9743589743593,4447.6923076923085
2978.1687,1.0,0.85382116,0.23089781,0.6439724,0,0.0,0.0,0.0,0.0,0.0,0,0,0.0,0.0,0,0,106.0,0.0,529.0,4386.153846153847,3864.1025641025644,4396.923076923077,4376.410256410257,4246.153846153847,4489.2307692307695,4369.743589743591,4198.974358974359,4248.205128205129,4571.282051282052,4184.102564102564,4053.333333333334,4038.9743589743593,4447.6923076923085
2978.6692,1.0,0.8514262,0.2266237,0.64111286,0,0.0,0.0,0.0,0.0,0.0,0,0,0.0,0.0,0,0,41.0,0.0,0.0,4489.743589743591,3864.1025641025644,4435.8974358974365,4389.2307692307695,4213.846153846154,4490.256410256411,4396.410256410257,4258.974358974359,4292.820512820514,4620.000000000001,4258.461538461539,4120.000000000001,4104.615384615385,4475.8974358974365
2978.6692,1.0,0.8514262,0.2266237,0.64111286,0,0.0,0.0,0.0,0.0,0.0,0,0,0.0,0.0,0,0,41.0,0.0,0.0,4489.743589743591,3864.1025641025644,4435.8974358974365,4389.2307692307695,4213.846153846154,4490.256410256411,4396.410256410257,4258.974358974359,4292.820512820514,4620.000000000001,4258.461538461539,4120.000000000001,4104.615384615385,4475.8974358974365
2979.1697,1.0,0.84927076,0.22371824,0.6352194,0,0.0,0.0,0.0,0.0,0.0,0,0,0.0,0.0,0,0,105.0,0.0,469.0,4535.8974358974365,3923.589743589744,4446.666666666667,4409.743589743591,4237.948717948719,4507.6923076923085,4394.358974358975,4263.589743589744,4279.48717948718,4603.589743589744,4235.8974358974365,4107.6923076923085,4041.0256410256416,4457.435897435898
2979.1697,1.0,0.84927076,0.22371824,0.6352194,0,0.0,0.0,0.0,0.0,0.0,0,0,0.0,0.0,0,0,105.0,0.0,469.0,4535.8974358974365,3923.589743589744,4446.666666666667,4409.743589743591,4237.948717948719,4507.6923076923085,4394.358974358975,4263.589743589744,4279.48717948718,4603.589743589744,4235.8974358974365,4107.6923076923085,4041.0256410256416,4457.435897435898
2979.67,0.99334466,0.84733087,0.22308253,0.6299148,0,0.0,0.0,0.0,0.0,0.0,0,0,0.0,0.0,0,0,40.0,0.0,0.0,4520.000000000001,3925.6410256410263,4470.769230769231,4414.871794871796,4240.512820512821,4540.512820512821,4412.820512820514,4311.794871794872,4315.8974358974365,4641.538461538462,4231.282051282052,4146.666666666667,4088.717948717949,4471.282051282052
