timestamp,excitement,frustration,meditation,engagementBoredom,blink,clench,laugh,smile,eyebrow,furrowBrow,lookLeft,lookRight,smirkLeft,smirkRight,winkLeft,winkRight,eeg0,eeg1,eeg2,eeg3,eeg4,eeg5,eeg6,eeg7,eeg8,eeg9,eeg10,eeg11,eeg12,eeg13,eeg14,eeg15,eeg16
2699.8044,0.8446582,0.76887417,0.5398266,0.517189,0,0.0,0.0,0.0,0.0,0.0,0,0,0.0,0.0,0,0,110.0,0.0,530.0,4781.538461538462,4020.0000000000005,4548.717948717949,4081.538461538462,4222.051282051282,4601.025641025642,4456.410256410257,4474.358974358975,4495.8974358974365,4812.307692307693,4370.769230769231,4310.256410256411,4235.8974358974365,4416.410256410257
2699.961,0.9094009,0.7427903,0.5234673,0.5234018,0,0.0,0.0,0.0,0.0,0.0,0,0,0.0,0.0,0,0,1.0,0.0,464.0,4747.6923076923085,3998.9743589743593,4533.333333333334,4109.74358974359,4219.48717948718,4587.179487179488,4453.333333333334,4474.871794871796,4492.820512820514,4798.974358974359,4370.256410256411,4298.974358974359,4221.025641025642,4398.974358974359
2699.961,0.9094009,0.7427903,0.5234673,0.5234018,0,0.0,0.0,0.0,0.0,0.0,0,0,0.0,0.0,0,0,1.0,0.0,464.0,4747.6923076923085,3998.9743589743593,4533.333333333334,4109.74358974359,4219.48717948718,4587.179487179488,4453.333333333334,4474.871794871796,4492.820512820514,4798.974358974359,4370.256410256411,4298.974358974359,4221.025641025642,4398.974358974359
2700.4302,0.8892992,0.8539825,0.5044239,0.5289958,0,0.0,0.0,0.0,0.0,0.0,0,0,0.0,0.0,0,0,61.0,0.0,0.0,4617.948717948719,3933.8461538461543,4521.538461538462,4248.717948717949,4252.820512820514,4558.974358974359,4438.974358974359,4442.051282051282,4452.307692307693,4765.128205128206,4408.717948717949,4311.794871794872,4235.8974358974365,4432.820512820514
2700.4302,0.8892992,0.8539825,0.5044239,0.5289958,0,0.0,0.0,0.0,0.0,0.0,0,0,0.0,0.0,0,0,61.0,0.0,0.0,4617.948717948719,3933.8461538461543,4521.538461538462,4248.717948717949,4252.820512820514,4558.974358974359,4438.974358974359,4442.051282051282,4452.307692307693,4765.128205128206,4408.717948717949,4311.794871794872,4235.8974358974365,4432.820512820514
2701.0557,0.78952813,0.9914986,0.48728654,0.5313229,0,0.0,0.0,0.0,0.0,0.0,0,0,0.0,0.0,0,0,12.0,0.0,504.0,4560.000000000001,3889.2307692307695,4509.2307692307695,4353.846153846154,4198.974358974359,4539.48717948718,4444.615384615385,4426.153846153847,4445.641025641026,4758.461538461539,4422.051282051282,4310.256410256411,4214.358974358975,4426.153846153847
2701.0557,0.78952813,0.9914986,0.48728654,0.5313229,0,0.0,0.0,0.0,0.0,0.0,0,0,0.0,0.0,0,0,12.0,0.0,504.0,4560.000000000001,3889.2307692307695,4509.2307692307695,4353.846153846154,4198.974358974359,4539.48717948718,4444.615384615385,4426.153846153847,4445.641025641026,4758.461538461539,4422.051282051282,4310.256410256411,4214.358974358975,4426.153846153847
2701.431,0.7386237,0.9293788,0.47186202,0.53341746,0,0.0,0.0,0.0,0.0,0.0,0,0,0.0,0.0,0,0,60.0,0.0,0.0,4555.384615384616,3863.076923076924,4518.461538461539,4368.717948717949,4185.128205128206,4550.769230769231,4461.538461538462,4455.384615384616,4442.564102564103,4756.410256410257,4425.641025641026,4336.410256410257,4185.128205128206,4432.307692307693
2701.431,0.7386237,0.9293788,0.47186202,0.53341746,0,0.0,0.0,0.0,0.0,0.0,0,0,0.0,0.0,0,0,60.0,0.0,0.0,4555.384615384616,3863.076923076924,4518.461538461539,4368.717948717949,4185.128205128206,4550.769230769231,4461.538461538462,4455.384615384616,4442.564102564103,4756.410256410257,4425.641025641026,4336.410256410257,4185.128205128206,4432.307692307693
2702.0564,0.70286965,0.9055953,0.4579789,0.5353025,0,0.0,0.0,0.0,0.0,0.0705663,0,0,0.0,0.0,0,0,11.0,0.0,405.0,4766.666666666667,3834.8717948717954,4613.846153846154,4345.128205128206,4111.282051282052,4571.794871794872,4677.435897435898,4718.461538461539,4584.102564102564,4860.512820512821,4568.205128205129,4553.333333333334,4184.102564102564,4509.743589743591
2702.3066,0.70286965,0.9055953,0.4579789,0.5353025,0,0.0,0.0,0.0,0.0,0.49901447,0,0,0.0,0.0,0,0,43.0,0.0,0.0,4995.8974358974365,3818.461538461539,4736.410256410257,4334.358974358975,4007.1794871794878,4514.358974358975,4722.051282051282,4892.307692307693,4622.564102564103,4922.051282051283,4641.538461538462,4691.794871794872,4281.538461538462,4685.641025641026
2702.557,0.82852525,0.8843765,0.44548306,0.53699875,0,0.0,0.0,0.0,0.0,0.40690064,0,0,0.0,0.0,0,0,75.0,0.0,405.0,5105.128205128206,4009.7435897435903,4795.8974358974365,4425.641025641026,4046.666666666667,4481.025641025642,4727.179487179488,4920.512820512821,4592.307692307693,4981.538461538462,4670.256410256411,4673.333333333334,4408.205128205129,4744.102564102564
2702.8071,0.82852525,0.8843765,0.44548306,0.53699875,0,0.0,0.0,0.0,0.0,0.0145127885,0,0,0.0,0.0,1,0,107.0,0.0,405.0,5044.102564102564,4098.461538461539,4643.076923076924,4556.410256410257,4127.179487179487,4430.256410256411,4596.923076923077,4800.512820512821,4543.076923076924,4981.538461538462,4658.974358974359,4504.615384615385,4506.666666666667,4748.205128205129
2703.0574,0.9271445,0.8652796,0.4342357,0.5384322,0,0.0,0.0,0.0,0.0,0.0051071225,0,0,0.0,0.0,0,0,10.0,0.0,530.0,4908.205128205129,4129.2307692307695,4521.025641025642,4594.358974358975,4204.615384615385,4416.410256410257,4391.794871794872,4534.871794871796,4411.794871794872,4857.948717948719,4521.538461538462,4265.128205128206,4423.076923076924,4663.076923076924
2703.3076,0.9271445,0.8652796,0.4342357,0.5384322,0,0.0,0.0,0.0,0.0,0.0,0,0,0.33799908,0.0,0,0,42.0,0.0,0.0,4775.384615384616,4101.025641025642,4427.6923076923085,4591.794871794872,4250.769230769231,4414.871794871796,4231.282051282052,4328.717948717949,4296.923076923077,4735.8974358974365,4384.102564102564,4105.641025641026,4307.6923076923085,4588.717948717949
2703.5579,1.0,0.84809244,0.42411655,0.53724414,0,0.0,0.0,0.0,0.0,0.0,0,0,0.0,0.0,0,0,74.0,0.0,530.0,4678.974358974359,4054.8717948717954,4354.358974358975,4560.000000000001,4294.871794871796,4425.128205128206,4138.974358974359,4191.794871794872,4265.128205128206,4680.000000000001,4260.512820512821,4014.358974358975,4248.205128205129,4554.871794871796
2703.5579,1.0,0.84809244,0.42411655,0.53724414,0,0.0,0.0,0.0,0.0,0.0,0,0,0.0,0.0,0,0,74.0,0.0,530.0,4678.974358974359,4054.8717948717954,4354.358974358975,4560.000000000001,4294.871794871796,4425.128205128206,4138.974358974359,4191.794871794872,4265.128205128206,4680.000000000001,4260.512820512821,4014.358974358975,4248.205128205129,4554.871794871796
2703.933,1.0,0.83262396,0.41741455,0.5324492,0,0.0,0.0,0.0,0.0,0.0,0,0,0.0,0.0,0,0,122.0,0.0,530.0,4553.333333333334,4001.0256410256416,4327.179487179487,4514.358974358975,4321.538461538462,4441.025641025642,4136.410256410257,4105.128205128206,4243.589743589744,4600.512820512821,4212.307692307693,3989.23076923077,4119.48717948718,4503.589743589744
2703.933,1.0,0.83262396,0.41741455,0.5324492,0,0.0,0.0,0.0,0.0,0.0,0,0,0.0,0.0,0,0,122.0,0.0,530.0,4553.333333333334,4001.0256410256416,4327.179487179487,4514.358974358975,4321.538461538462,4441.025641025642,4136.410256410257,4105.128205128206,4243.589743589744,4600.512820512821,4212.307692307693,3989.23076923077,4119.48717948718,4503.589743589744
2704.4336,0.9069765,0.8187023,0.41693473,0.5259346,0,0.0,0.0,0.0,0.0,0.0,0,0,0.0,0.0,0,0,57.0,0.0,0.0,4432.820512820514,3929.7435897435903,4363.076923076924,4475.384615384616,4300.512820512821,4472.820512820514,4234.871794871796,4149.74358974359,4290.769230769231,4602.051282051282,4233.333333333334,4071.7948717948725,4108.205128205129,4442.051282051282
2704.4336,0.9069765,0.8187023,0.41693473,0.5259346,0,0.0,0.0,0.0,0.0,0.0,0,0,0.0,0.0,0,0,57.0,0.0,0.0,4432.820512820514,3929.7435897435903,4363.076923076924,4475.384615384616,4300.512820512821,4472.820512820514,4234.871794871796,4149.74358974359,4290.769230769231,4602.051282051282,4233.333333333334,4071.7948717948725,4108.205128205129,4442.051282051282
2705.0903,0.8961237,0.80617285,0.4107583,0.52007186,1,0.0,0.0,0.0,0.0,0.0,0,0,0.0,0.0,0,0,12.0,0.0,502.0,4450.256410256411,3915.8974358974365,4443.076923076924,4447.179487179487,4300.000000000001,4519.48717948718,4376.923076923077,4252.820512820514,4372.820512820514,4656.923076923077,4263.076923076924,4202.564102564103,4122.564102564103,4454.358974358975
2705.2468,0.8961237,0.80617285,0.4107583,0.52007186,0,0.0,0.0,0.0,0.0,0.0,0,0,0.0,0.0,0,0,32.0,0.0,0.0,4381.538461538462,3895.3846153846157,4445.128205128206,4443.076923076924,4279.48717948718,4544.102564102564,4414.871794871796,4265.641025641026,4364.615384615385,4634.871794871796,4246.153846153847,4200.512820512821,4078.9743589743593,4431.794871794872
2705.5596,0.9361617,0.7948963,0.40564656,0.5134412,0,0.0,0.0,0.0,0.0,0.104910165,0,0,0.0,0.0,0,0,72.0,0.0,502.0,4436.923076923077,3913.333333333334,4490.256410256411,4453.333333333334,4278.974358974359,4556.410256410257,4441.538461538462,4317.948717948719,4395.8974358974365,4677.948717948719,4296.923076923077,4258.461538461539,4131.282051282052,4450.256410256411
2705.8098,0.9361617,0.7948963,0.40564656,0.5134412,0,0.0,0.0,0.0,0.0,0.0,0,0,0.0,0.0,0,0,104.0,0.0,502.0,4443.589743589744,3916.410256410257,4507.179487179488,4447.179487179487,4277.948717948719,4565.641025641026,4463.076923076924,4350.256410256411,4421.538461538462,4693.846153846154,4294.358974358975,4263.076923076924,4124.615384615385,4458.974358974359
2705.9348,0.98273355,0.7847474,0.40260476,0.50735146,0,0.0,0.0,0.0,0.0,0.0,0,0,0.0,0.0,0,0,120.0,0.0,502.0,4458.974358974359,3928.717948717949,4523.589743589744,4462.051282051282,4285.641025641026,4568.717948717949,4474.871794871796,4365.128205128206,4430.256410256411,4705.641025641026,4321.538461538462,4292.820512820514,4140.512820512821,4473.846153846154
2705.9348,0.98273355,0.7847474,0.40260476,0.50735146,0,0.0,0.0,0.0,0.0,0.0,0,0,0.0,0.0,0,0,120.0,0.0,502.0,4458.974358974359,3928.717948717949,4523.589743589744,4462.051282051282,4285.641025641026,4568.717948717949,4474.871794871796,4365.128205128206,4430.256410256411,4705.641025641026,4321.538461538462,4292.820512820514,4140.512820512821,4473.846153846154
2706.4353,0.9493735,0.76585615,0.39141837,0.5023671,0,0.0,0.0,0.0,0.0,0.0,0,0,0.0,0.0,0,0,55.0,0.0,0.0,4463.589743589744,3874.8717948717954,4509.743589743591,4421.025641025642,4231.794871794872,4566.153846153847,4488.205128205129,4400.512820512821,4445.128205128206,4728.205128205129,4356.923076923077,4321.025641025642,4179.48717948718,4474.358974358975
2706.4353,0.9493735,0.76585615,0.39141837,0.5023671,0,0.0,0.0,0.0,0.0,0.0,0,0,0.0,0.0,0,0,55.0,0.0,0.0,4463.589743589744,3874.8717948717954,4509.743589743591,4421.025641025642,4231.794871794872,4566.153846153847,4488.205128205129,4400.512820512821,4445.128205128206,4728.205128205129,4356.923076923077,4321.025641025642,4179.48717948718,4474.358974358975
2706.9355,0.9130329,0.75450104,0.37659928,0.50079167,0,0.0,0.0,0.0,0.0,0.0,0,0,0.0,0.0,0,0,119.0,0.0,402.0,4474.358974358975,3901.538461538462,4524.102564102564,4441.025641025642,4245.128205128206,4568.717948717949,4488.205128205129,4404.102564102564,4429.743589743591,4730.769230769231,4383.076923076924,4331.282051282052,4187.6923076923085,4518.461538461539
2707.311,0.9130329,0.75450104,0.37659928,0.50079167,0,0.0,0.0,0.0,0.0,0.0,1,0,0.0,0.0,0,0,38.0,0.0,0.0,4501.538461538462,3988.205128205129,4533.333333333334,4466.666666666667,4278.461538461539,4552.820512820514,4460.000000000001,4384.615384615385,4412.820512820514,4687.6923076923085,4323.076923076924,4262.564102564103,4083.076923076924,4474.871794871796
2707.5613,0.83586836,0.7374395,0.35999224,0.50325495,0,0.0,0.0,0.0,0.0,0.96157986,1,0,0.0,0.0,0,0,70.0,0.0,536.0,4491.282051282052,3976.9230769230776,4534.871794871796,4460.000000000001,4276.923076923077,4543.589743589744,4448.205128205129,4362.051282051282,4375.8974358974365,4665.641025641026,4325.641025641026,4261.538461538462,4089.23076923077,4457.948717948719
2707.6863,0.83586836,0.7374395,0.35999224,0.50325495,0,0.0,0.0,0.0,0.0,0.0,1,0,0.0,0.0,0,0,86.0,0.0,530.0,4494.871794871796,3971.2820512820517,4520.512820512821,4456.923076923077,4271.794871794872,4553.333333333334,4446.666666666667,4366.153846153847,4398.461538461539,4681.538461538462,4337.435897435898,4255.8974358974365,4092.307692307693,4447.179487179487
2707.9365,0.7391477,0.721162,0.34823695,0.51758534,0,0.0,0.0,0.0,0.0,0.0,1,0,0.0,0.0,0,0,118.0,0.0,530.0,4525.641025641026,3971.2820512820517,4522.564102564103,4458.461538461539,4267.179487179487,4550.256410256411,4456.923076923077,4363.076923076924,4396.923076923077,4687.6923076923085,4341.538461538462,4261.025641025642,4119.48717948718,4460.512820512821
2708.1555,0.7391477,0.721162,0.34823695,0.51758534,0,0.0,0.0,0.0,0.0,0.0,0,0,0.0,0.0,0,0,17.0,0.0,0.0,4476.923076923077,3876.9230769230776,4514.358974358975,4444.615384615385,4256.410256410257,4556.923076923077,4490.769230769231,4440.000000000001,4452.820512820514,4744.615384615386,4411.794871794872,4293.333333333334,4232.820512820514,4505.128205128206
2708.562,0.6784718,0.7013994,0.3392178,0.5304828,0,0.0,0.0,0.0,0.0,0.10698754,0,0,0.0,0.0,0,0,69.0,0.0,562.0,4506.153846153847,3895.3846153846157,4517.948717948719,4448.205128205129,4259.48717948718,4551.282051282052,4464.102564102564,4416.410256410257,4430.256410256411,4719.48717948718,4408.205128205129,4294.358974358975,4219.48717948718,4522.564102564103
2708.8123,0.6784718,0.7013994,0.3392178,0.5304828,0,0.0,0.0,0.0,0.0,0.3665551,0,0,0.0,0.0,0,0,101.0,0.0,473.0,4536.923076923077,3924.1025641025644,4513.846153846154,4460.512820512821,4258.461538461539,4553.333333333334,4457.948717948719,4384.615384615385,4393.333333333334,4682.051282051282,4370.256410256411,4261.025641025642,4167.179487179487,4507.179487179488
2709.0625,0.5704274,0.6882771,0.3317457,0.54787517,0,0.0,0.0,0.0,0.0,0.6368425,0,0,0.0,0.0,0,0,4.0,0.0,555.0,4554.358974358975,3952.307692307693,4522.051282051282,4469.2307692307695,4246.666666666667,4542.564102564103,4441.025641025642,4362.564102564103,4381.025641025642,4670.769230769231,4352.820512820514,4249.2307692307695,4125.128205128206,4506.666666666667
2709.3127,0.5704274,0.6882771,0.3317457,0.54787517,0,0.0,0.0,0.0,0.0,0.5170177,0,0,0.0,0.0,0,0,36.0,0.0,0.0,4698.461538461539,3938.461538461539,4529.2307692307695,4465.128205128206,4247.6923076923085,4545.128205128206,4461.538461538462,4396.923076923077,4416.923076923077,4728.717948717949,4444.615384615385,4314.358974358975,4299.48717948718,4637.948717948719
2709.563,0.55228996,0.72800976,0.34553,0.5635283,0,0.0,0.0,0.0,0.0,0.63834715,0,1,0.0,0.0,0,0,68.0,0.0,555.0,4520.000000000001,3881.0256410256416,4535.8974358974365,4452.307692307693,4250.256410256411,4553.333333333334,4458.974358974359,4382.564102564103,4406.666666666667,4705.641025641026,4400.000000000001,4263.589743589744,4202.564102564103,4517.948717948719
2709.8132,0.55228996,0.72800976,0.34553,0.5635283,0,0.0,0.0,0.0,0.0,0.6484796,0,1,0.0,0.0,0,0,100.0,0.0,502.0,4520.512820512821,3873.333333333334,4525.641025641026,4451.282051282052,4249.74358974359,4567.6923076923085,4464.615384615385,4409.2307692307695,4426.153846153847,4727.6923076923085,4404.102564102564,4265.128205128206,4196.923076923077,4510.769230769231
2710.0632,0.5390385,0.7602535,0.37337932,0.5776159,0,0.0,0.0,0.0,0.0,0.0,0,1,0.0,0.0,0,0,3.0,0.0,543.0,4532.307692307693,3881.0256410256416,4533.846153846154,4445.641025641026,4237.435897435898,4546.153846153847,4454.871794871796,4405.641025641026,4415.384615384616,4721.538461538462,4404.615384615385,4285.641025641026,4192.307692307693,4519.48717948718
2710.0632,0.5390385,0.7602535,0.37337932,0.5776159,0,0.0,0.0,0.0,0.0,0.0,0,1,0.0,0.0,0,0,3.0,0.0,543.0,4532.307692307693,3881.0256410256416,4533.846153846154,4445.641025641026,4237.435897435898,4546.153846153847,4454.871794871796,4405.641025641026,4415.384615384616,4721.538461538462,4404.615384615385,4285.641025641026,4192.307692307693,4519.48717948718
2710.5637,0.46313304,0.7878208,0.4047244,0.5902943,0,0.0,0.0,0.0,0.0,0.01710988,0,1,0.0,0.0,0,0,67.0,0.0,543.0,4643.076923076924,3817.9487179487182,4598.974358974359,4394.871794871796,4169.74358974359,4598.974358974359,4568.205128205129,4555.8974358974365,4488.205128205129,4771.282051282052,4446.153846153847,4397.435897435898,4143.076923076924,4541.538461538462
2710.814,0.46313304,0.7878208,0.4047244,0.5902943,0,0.0,0.0,0.0,0.0,0.30571952,0,1,0.0,0.0,0,0,99.0,0.0,402.0,4728.205128205129,3877.9487179487182,4616.410256410257,4406.666666666667,4166.666666666667,4593.333333333334,4583.589743589744,4587.6923076923085,4500.512820512821,4784.102564102564,4448.205128205129,4408.205128205129,4134.871794871796,4576.410256410257
2711.0642,0.51210946,0.818266,0.44452885,0.59482324,0,0.0,0.0,0.0,0.0,0.30079287,0,1,0.0,0.0,0,0,2.0,0.0,461.0,4778.974358974359,3924.1025641025644,4590.256410256411,4419.48717948718,4197.948717948719,4574.358974358975,4555.8974358974365,4542.564102564103,4460.000000000001,4763.076923076924,4452.820512820514,4377.435897435898,4181.538461538462,4630.769230769231
2711.3145,0.51210946,0.818266,0.44452885,0.59482324,0,0.0,0.0,0.0,0.0,0.044325754,0,1,0.0,0.0,0,0,34.0,0.0,0.0,4782.051282051282,3944.615384615385,4567.6923076923085,4444.102564102564,4243.076923076924,4560.000000000001,4509.743589743591,4510.256410256411,4428.717948717949,4775.384615384616,4456.923076923077,4347.179487179487,4230.769230769231,4655.384615384616
2711.5647,0.48379728,0.79918474,0.48034832,0.59889865,0,0.0,0.0,0.0,0.0,0.011708171,0,1,0.0,0.0,0,0,66.0,0.0,461.0,4720.512820512821,3976.9230769230776,4524.615384615385,4455.8974358974365,4254.358974358975,4524.615384615385,4459.48717948718,4447.6923076923085,4389.2307692307695,4731.282051282052,4405.641025641026,4282.051282051282,4188.717948717949,4614.871794871796
2711.815,0.48379728,0.79918474,0.48034832,0.59889865,0,0.0,0.0,0.0,0.0,0.12225939,0,1,0.0,0.0,0,0,98.0,0.0,530.0,4641.538461538462,3968.717948717949,4470.769230769231,4458.461538461539,4285.641025641026,4522.564102564103,4408.205128205129,4381.538461538462,4369.743589743591,4714.358974358975,4361.025641025642,4215.384615384616,4172.307692307693,4570.256410256411
2712.0652,0.53554815,0.7839483,0.5125793,0.59019077,0,0.0,0.0,0.0,0.0,0.0,0,1,0.0,0.0,0,0,1.0,0.0,467.0,4624.615384615385,3974.8717948717954,4460.000000000001,4460.512820512821,4297.435897435898,4510.256410256411,4376.923076923077,4352.820512820514,4368.205128205129,4707.179487179488,4361.025641025642,4217.948717948719,4197.948717948719,4561.538461538462
2712.0652,0.53554815,0.7839483,0.5125793,0.59019077,0,0.0,0.0,0.0,0.0,0.0,0,1,0.0,0.0,0,0,1.0,0.0,467.0,4624.615384615385,3974.8717948717954,4460.000000000001,4460.512820512821,4297.435897435898,4510.256410256411,4376.923076923077,4352.820512820514,4368.205128205129,4707.179487179488,4361.025641025642,4217.948717948719,4197.948717948719,4561.538461538462
2712.4404,0.52743834,0.7690974,0.5183417,0.57491803,0,0.0,0.0,0.0,0.0,0.0,0,1,0.0,0.0,0,0,49.0,0.0,0.0,4644.102564102564,3903.076923076924,4544.102564102564,4410.256410256411,4196.923076923077,4521.025641025642,4492.820512820514,4477.435897435898,4436.410256410257,4725.641025641026,4429.2307692307695,4333.333333333334,4167.179487179487,4568.717948717949
2712.4404,0.52743834,0.7690974,0.5183417,0.57491803,0,0.0,0.0,0.0,0.0,0.0,0,1,0.0,0.0,0,0,49.0,0.0,0.0,4644.102564102564,3903.076923076924,4544.102564102564,4410.256410256411,4196.923076923077,4521.025641025642,4492.820512820514,4477.435897435898,4436.410256410257,4725.641025641026,4429.2307692307695,4333.333333333334,4167.179487179487,4568.717948717949
2713.066,0.6311416,0.75580317,0.50446904,0.5611725,0,0.0,0.0,0.0,0.0,0.14340834,0,1,0.0,0.0,0,0,0.0,0.0,476.0,5166.666666666667,4031.2820512820517,4836.410256410257,4407.179487179487,4136.923076923077,4465.128205128206,4788.205128205129,4950.769230769231,4586.153846153847,4986.153846153847,4578.461538461539,4623.589743589744,4420.000000000001,4838.461538461539
2713.3162,0.6311416,0.75580317,0.50446904,0.5611725,0,0.0,0.0,0.0,0.0,0.14071126,0,1,0.0,0.0,0,0,32.0,0.0,0.0,5181.025641025642,4135.384615384616,4675.8974358974365,4449.743589743591,4216.923076923077,4431.282051282052,4670.256410256411,4804.615384615386,4486.666666666667,4942.564102564103,4507.6923076923085,4448.205128205129,4426.666666666667,4830.256410256411
2713.5664,0.76540464,0.74383837,0.48769778,0.53983754,0,0.0,0.0,0.0,0.0,0.004618059,0,0,0.0,0.0,0,0,64.0,0.0,476.0,5018.974358974359,4170.769230769231,4517.948717948719,4495.384615384616,4300.000000000001,4396.923076923077,4461.538461538462,4561.025641025642,4361.025641025642,4840.512820512821,4404.615384615385,4251.794871794872,4366.153846153847,4777.948717948719
2713.8167,0.76540464,0.74383837,0.48769778,0.53983754,0,0.0,0.0,0.0,0.0,0.010445121,0,0,0.0,0.0,0,0,96.0,0.0,497.0,4864.102564102564,4149.74358974359,4385.128205128206,4476.923076923077,4345.641025641026,4400.000000000001,4248.717948717949,4336.410256410257,4265.641025641026,4754.871794871796,4322.564102564103,4027.692307692308,4271.794871794872,4689.743589743591
2714.067,0.88355607,0.7330701,0.46574634,0.51191217,0,0.0,0.0,0.0,0.0,0.0,0,0,0.0,0.0,0,0,128.0,0.0,497.0,4724.102564102564,4054.358974358975,4311.282051282052,4446.153846153847,4305.641025641026,4385.641025641026,4140.512820512821,4183.076923076924,4190.256410256411,4642.564102564103,4217.435897435898,3938.9743589743593,4139.48717948718,4578.974358974359
2714.067,0.88355607,0.7330701,0.46574634,0.51191217,0,0.0,0.0,0.0,0.0,0.0,0,0,0.0,0.0,0,0,128.0,0.0,497.0,4724.102564102564,4054.358974358975,4311.282051282052,4446.153846153847,4305.641025641026,4385.641025641026,4140.512820512821,4183.076923076924,4190.256410256411,4642.564102564103,4217.435897435898,3938.9743589743593,4139.48717948718,4578.974358974359
2714.5671,0.93747216,0.7233786,0.44559044,0.49880636,0,0.0,0.0,0.0,0.0,0.0072973296,0,0,0.0,0.0,0,0,63.0,0.0,0.0,4847.179487179488,4012.307692307693,4672.820512820514,4384.102564102564,4092.307692307693,4409.743589743591,4600.512820512821,4710.256410256411,4438.461538461539,4794.358974358975,4500.000000000001,4409.743589743591,4255.384615384616,4595.8974358974365
2714.8174,0.93747216,0.7233786,0.44559044,0.49880636,0,0.0,0.0,0.0,0.0,0.0,0,0,0.0,0.0,0,0,95.0,0.0,402.0,4952.307692307693,4138.974358974359,4703.076923076924,4501.538461538462,4134.871794871796,4424.615384615385,4678.974358974359,4793.333333333334,4496.923076923077,4812.820512820514,4543.589743589744,4433.333333333334,4344.102564102564,4625.128205128206
2714.9426,1.0,0.7146563,0.42744938,0.49990207,0,0.0,0.0,0.0,0.0,0.0,0,0,0.0,0.0,0,0,111.0,0.0,402.0,4971.282051282052,4215.8974358974365,4677.948717948719,4550.256410256411,4171.282051282052,4391.794871794872,4632.307692307693,4750.769230769231,4498.461538461539,4813.333333333334,4576.923076923077,4297.435897435898,4370.769230769231,4651.794871794872
2715.3179,1.0,0.7146563,0.42744938,0.49990207,0,0.0,0.0,0.0,0.0,0.01895368,0,0,0.0,0.0,0,0,30.0,0.0,0.0,4781.025641025642,4187.6923076923085,4446.153846153847,4522.051282051282,4197.435897435898,4337.435897435898,4332.307692307693,4426.153846153847,4333.333333333334,4614.358974358975,4377.435897435898,3773.333333333334,4157.435897435898,4568.717948717949
2715.4429,1.0,0.7068062,0.41112167,0.504891,0,0.0,0.0,0.0,0.0,0.0,0,0,0.0,0.0,0,0,46.0,0.0,0.0,4737.435897435898,4170.769230769231,4382.564102564103,4474.871794871796,4213.333333333334,4338.461538461539,4266.666666666667,4332.307692307693,4317.435897435898,4600.000000000001,4330.256410256411,3721.538461538462,4107.6923076923085,4562.564102564103
2715.4429,1.0,0.7068062,0.41112167,0.504891,0,0.0,0.0,0.0,0.0,0.0,0,0,0.0,0.0,0,0,46.0,0.0,0.0,4737.435897435898,4170.769230769231,4382.564102564103,4474.871794871796,4213.333333333334,4338.461538461539,4266.666666666667,4332.307692307693,4317.435897435898,4600.000000000001,4330.256410256411,3721.538461538462,4107.6923076923085,4562.564102564103
2715.9434,1.0,0.6997411,0.39643034,0.50971,0,0.0,0.0,0.0,0.0,0.0,0,0,0.0,0.0,0,0,110.0,0.0,530.0,4450.256410256411,4063.076923076924,4169.74358974359,4507.179487179488,4308.205128205129,4374.871794871796,4026.666666666667,3954.358974358975,4167.179487179487,4450.256410256411,4099.48717948718,3574.8717948717954,3940.5128205128212,4402.564102564103
2715.9434,1.0,0.6997411,0.39643034,0.50971,0,0.0,0.0,0.0,0.0,0.0,0,0,0.0,0.0,0,0,110.0,0.0,530.0,4450.256410256411,4063.076923076924,4169.74358974359,4507.179487179488,4308.205128205129,4374.871794871796,4026.666666666667,3954.358974358975,4167.179487179487,4450.256410256411,4099.48717948718,3574.8717948717954,3940.5128205128212,4402.564102564103
2716.4438,1.0,0.6933825,0.38827452,0.51404744,0,0.0,0.0,0.0,0.0,0.0,0,0,0.0,0.0,0,0,45.0,0.0,0.0,4229.74358974359,3894.8717948717954,4167.6923076923085,4424.102564102564,4324.615384615385,4398.461538461539,4044.615384615385,3897.435897435898,4177.435897435898,4440.000000000001,3996.410256410257,3748.717948717949,3880.512820512821,4325.641025641026
2716.4438,1.0,0.6933825,0.38827452,0.51404744,0,0.0,0.0,0.0,0.0,0.0,0,0,0.0,0.0,0,0,45.0,0.0,0.0,4229.74358974359,3894.8717948717954,4167.6923076923085,4424.102564102564,4324.615384615385,4398.461538461539,4044.615384615385,3897.435897435898,4177.435897435898,4440.000000000001,3996.410256410257,3748.717948717949,3880.512820512821,4325.641025641026
2716.9443,1.0,0.6876598,0.38093358,0.5179515,0,0.0,0.0,0.0,0.0,0.0,0,0,0.0,0.0,0,0,109.0,0.0,473.0,4220.000000000001,3850.7692307692314,4309.2307692307695,4383.589743589744,4330.769230769231,4494.871794871796,4201.538461538462,4032.820512820513,4281.025641025642,4546.153846153847,4026.1538461538466,4005.6410256410263,3953.333333333334,4287.179487179487
2716.9443,1.0,0.6876598,0.38093358,0.5179515,0,0.0,0.0,0.0,0.0,0.0,0,0,0.0,0.0,0,0,109.0,0.0,473.0,4220.000000000001,3850.7692307692314,4309.2307692307695,4383.589743589744,4330.769230769231,4494.871794871796,4201.538461538462,4032.820512820513,4281.025641025642,4546.153846153847,4026.1538461538466,4005.6410256410263,3953.333333333334,4287.179487179487
2717.4446,1.0,0.68250936,0.37432614,0.5238053,0,0.0,0.0,0.0,0.0,0.0,0,0,0.0,0.0,0,0,44.0,0.0,0.0,4292.307692307693,3845.6410256410263,4443.076923076924,4365.128205128206,4309.2307692307695,4538.974358974359,4355.384615384616,4203.076923076924,4372.307692307693,4655.384615384616,4091.2820512820517,4195.8974358974365,4050.2564102564106,4309.2307692307695
2717.4446,1.0,0.68250936,0.37432614,0.5238053,0,0.0,0.0,0.0,0.0,0.0,0,0,0.0,0.0,0,0,44.0,0.0,0.0,4292.307692307693,3845.6410256410263,4443.076923076924,4365.128205128206,4309.2307692307695,4538.974358974359,4355.384615384616,4203.076923076924,4372.307692307693,4655.384615384616,4091.2820512820517,4195.8974358974365,4050.2564102564106,4309.2307692307695
2717.945,1.0,0.67787397,0.36752763,0.52036095,0,0.0,0.0,0.0,0.0,0.0,0,0,0.0,0.0,0,0,108.0,0.0,502.0,4324.615384615385,3861.0256410256416,4520.512820512821,4370.256410256411,4321.025641025642,4578.974358974359,4442.564102564103,4287.179487179487,4410.769230769231,4713.333333333334,4187.179487179487,4308.717948717949,4120.512820512821,4317.435897435898
2717.945,1.0,0.67787397,0.36752763,0.52036095,0,0.0,0.0,0.0,0.0,0.0,0,0,0.0,0.0,0,0,108.0,0.0,502.0,4324.615384615385,3861.0256410256416,4520.512820512821,4370.256410256411,4321.025641025642,4578.974358974359,4442.564102564103,4287.179487179487,4410.769230769231,4713.333333333334,4187.179487179487,4308.717948717949,4120.512820512821,4317.435897435898
2718.4456,1.0,0.67370206,0.35965663,0.5095213,0,0.0,0.0,0.0,0.0,0.0,0,0,0.0,0.0,0,0,43.0,0.0,0.0,4350.769230769231,3880.512820512821,4557.435897435898,4385.128205128206,4320.512820512821,4601.025641025642,4491.282051282052,4383.076923076924,4462.051282051282,4769.2307692307695,4248.717948717949,4354.871794871796,4168.717948717949,4320.512820512821
2718.4456,1.0,0.67370206,0.35965663,0.5095213,0,0.0,0.0,0.0,0.0,0.0,0,0,0.0,0.0,0,0,43.0,0.0,0.0,4350.769230769231,3880.512820512821,4557.435897435898,4385.128205128206,4320.512820512821,4601.025641025642,4491.282051282052,4383.076923076924,4462.051282051282,4769.2307692307695,4248.717948717949,4354.871794871796,4168.717948717949,4320.512820512821
2718.946,1.0,0.6699474,0.3496651,0.4997665,0,0.0,0.0,0.0,0.0,0.0,0,0,0.0,0.0,0,0,107.0,0.0,408.0,4392.820512820514,3897.9487179487182,4572.307692307693,4387.179487179487,4290.769230769231,4587.179487179488,4494.871794871796,4405.128205128206,4442.564102564103,4764.102564102564,4307.6923076923085,4384.102564102564,4200.000000000001,4371.282051282052
2718.946,1.0,0.6699474,0.3496651,0.4997665,0,0.0,0.0,0.0,0.0,0.0,0,0,0.0,0.0,0,0,107.0,0.0,408.0,4392.820512820514,3897.9487179487182,4572.307692307693,4387.179487179487,4290.769230769231,4587.179487179488,4494.871794871796,4405.128205128206,4442.564102564103,4764.102564102564,4307.6923076923085,4384.102564102564,4200.000000000001,4371.282051282052
2719.4465,0.9600867,0.651148,0.3362408,0.49607396,0,0.0,0.0,0.0,0.0,0.0,0,0,0.0,0.0,0,0,42.0,0.0,0.0,4412.307692307693,3883.076923076924,4569.2307692307695,4412.820512820514,4273.846153846154,4575.8974358974365,4490.256410256411,4411.282051282052,4432.820512820514,4765.641025641026,4345.641025641026,4382.051282051282,4194.871794871796,4366.666666666667
2719.4465,0.9600867,0.651148,0.3362408,0.49607396,0,0.0,0.0,0.0,0.0,0.0,0,0,0.0,0.0,0,0,42.0,0.0,0.0,4412.307692307693,3883.076923076924,4569.2307692307695,4412.820512820514,4273.846153846154,4575.8974358974365,4490.256410256411,4411.282051282052,4432.820512820514,4765.641025641026,4345.641025641026,4382.051282051282,4194.871794871796,4366.666666666667
2720.072,0.8295187,0.6717308,0.3241394,0.49849203,0,0.0,0.0,0.0,0.0,0.84510607,0,0,0.0,0.0,0,0,122.0,0.0,530.0,4509.743589743591,3888.717948717949,4573.333333333334,4433.846153846154,4259.48717948718,4552.307692307693,4487.179487179488,4409.743589743591,4438.974358974359,4757.948717948719,4396.410256410257,4359.48717948718,4196.923076923077,4383.589743589744
2720.3223,0.8295187,0.6717308,0.3241394,0.49849203,0,0.0,0.0,0.0,0.0,0.3629566,0,0,0.0,0.0,0,0,25.0,0.0,0.0,4520.512820512821,3883.589743589744,4553.333333333334,4438.461538461539,4266.153846153847,4572.820512820514,4484.615384615385,4400.000000000001,4443.076923076924,4755.384615384616,4378.974358974359,4329.2307692307695,4180.512820512821,4399.48717948718
2720.5723,0.83780605,0.7117389,0.31324825,0.4978036,0,0.0,0.0,0.0,0.0,0.0,0,0,0.0,0.0,0,0,57.0,0.0,0.0,4553.846153846154,3895.3846153846157,4555.384615384616,4445.128205128206,4256.410256410257,4554.871794871796,4473.846153846154,4397.435897435898,4430.769230769231,4717.435897435898,4390.769230769231,4329.2307692307695,4190.256410256411,4413.846153846154
2720.5723,0.83780605,0.7117389,0.31324825,0.4978036,0,0.0,0.0,0.0,0.0,0.0,0,0,0.0,0.0,0,0,57.0,0.0,0.0,4553.846153846154,3895.3846153846157,4555.384615384616,4445.128205128206,4256.410256410257,4554.871794871796,4473.846153846154,4397.435897435898,4430.769230769231,4717.435897435898,4390.769230769231,4329.2307692307695,4190.256410256411,4413.846153846154
2720.9478,0.80034095,0.751485,0.30118635,0.4988902,0,0.0,0.0,0.0,0.0,0.0,0,0,0.0,0.0,0,0,105.0,0.0,473.0,4560.512820512821,3885.1282051282055,4530.256410256411,4449.2307692307695,4252.307692307693,4566.153846153847,4476.410256410257,4401.025641025642,4428.205128205129,4699.48717948718,4396.923076923077,4296.410256410257,4195.8974358974365,4389.2307692307695
2720.9478,0.80034095,0.751485,0.30118635,0.4988902,0,0.0,0.0,0.0,0.0,0.0,0,0,0.0,0.0,0,0,105.0,0.0,473.0,4560.512820512821,3885.1282051282055,4530.256410256411,4449.2307692307695,4252.307692307693,4566.153846153847,4476.410256410257,4401.025641025642,4428.205128205129,4699.48717948718,4396.923076923077,4296.410256410257,4195.8974358974365,4389.2307692307695
2721.5732,0.7776919,0.7873185,0.29033118,0.5000963,0,0.0,0.0,0.0,0.0,0.022933949,0,0,0.0,0.0,0,0,56.0,0.0,0.0,4915.8974358974365,3651.2820512820517,4787.179487179488,4268.205128205129,4012.307692307693,4522.564102564103,4829.2307692307695,4904.102564102564,4573.846153846154,4826.666666666667,4550.256410256411,4600.000000000001,4140.512820512821,4540.000000000001
2721.8235,0.7776919,0.7873185,0.29033118,0.5000963,0,0.0,0.0,0.0,0.0,0.09633249,0,0,0.0,0.0,0,0,88.0,0.0,495.0,5380.512820512821,3968.717948717949,5052.307692307693,4324.102564102564,4114.358974358975,4546.153846153847,5118.974358974359,5317.435897435898,4752.820512820514,5105.128205128206,4807.6923076923085,4850.256410256411,4490.256410256411,4797.948717948719
2722.0737,0.8943688,0.81956863,0.2824716,0.5011824,0,0.0,0.0,0.0,0.0,0.22049455,0,0,0.0,0.0,0,0,120.0,0.0,495.0,5363.076923076924,4169.74358974359,4872.820512820514,4386.153846153847,4166.153846153847,4428.717948717949,5013.846153846154,5190.256410256411,4633.846153846154,5053.333333333334,4661.025641025642,4671.282051282052,4521.538461538462,4804.615384615386
2722.324,0.8943688,0.81956863,0.2824716,0.5011824,0,0.0,0.0,0.0,0.0,6.6198286E-4,0,0,0.0,0.0,0,0,23.0,0.0,0.0,5213.333333333334,4225.128205128206,4653.846153846154,4463.589743589744,4201.538461538462,4354.358974358975,4657.435897435898,4854.358974358975,4508.205128205129,4936.923076923077,4552.307692307693,4370.256410256411,4461.025641025642,4713.333333333334
2722.5742,0.99704456,0.8485938,0.27725694,0.50045437,0,0.0,0.0,0.0,0.0,0.0013391473,0,0,0.0,0.0,0,0,55.0,0.0,0.0,4985.128205128206,4151.282051282052,4443.076923076924,4472.820512820514,4194.871794871796,4330.256410256411,4415.8974358974365,4554.871794871796,4371.794871794872,4780.512820512821,4429.743589743591,4038.461538461539,4311.794871794872,4597.948717948719
2722.8242,0.99704456,0.8485938,0.27725694,0.50045437,0,0.0,0.0,0.0,0.0,0.0,0,0,0.29907095,0.0,0,0,87.0,0.0,401.0,4793.333333333334,4143.076923076924,4285.641025641026,4519.48717948718,4268.205128205129,4347.6923076923085,4228.205128205129,4300.000000000001,4282.051282051282,4681.538461538462,4349.2307692307695,3799.48717948718,4185.128205128206,4514.358974358975
2722.9495,1.0,0.8747164,0.27132982,0.49979985,0,0.0,0.0,0.0,0.0,0.0,0,0,0.0,0.0,0,0,103.0,0.0,401.0,4736.923076923077,4137.435897435898,4249.2307692307695,4554.358974358975,4321.025641025642,4365.641025641026,4141.538461538462,4183.589743589744,4245.128205128206,4642.564102564103,4318.974358974359,3737.9487179487182,4153.333333333334,4496.923076923077
2722.9495,1.0,0.8747164,0.27132982,0.49979985,0,0.0,0.0,0.0,0.0,0.0,0,0,0.0,0.0,0,0,103.0,0.0,401.0,4736.923076923077,4137.435897435898,4249.2307692307695,4554.358974358975,4321.025641025642,4365.641025641026,4141.538461538462,4183.589743589744,4245.128205128206,4642.564102564103,4318.974358974359,3737.9487179487182,4153.333333333334,4496.923076923077
2723.45,1.0,0.8982268,0.26789492,0.49941155,0,0.0,0.0,0.0,0.0,0.0,0,0,0.0,0.0,0,0,38.0,0.0,0.0,4458.974358974359,3992.820512820513,4167.6923076923085,4508.205128205129,4314.358974358975,4410.256410256411,4017.9487179487182,3941.0256410256416,4157.435897435898,4490.769230769231,4136.410256410257,3702.564102564103,3973.333333333334,4371.794871794872
2723.45,1.0,0.8982268,0.26789492,0.49941155,0,0.0,0.0,0.0,0.0,0.0,0,0,0.0,0.0,0,0,38.0,0.0,0.0,4458.974358974359,3992.820512820513,4167.6923076923085,4508.205128205129,4314.358974358975,4410.256410256411,4017.9487179487182,3941.0256410256416,4157.435897435898,4490.769230769231,4136.410256410257,3702.564102564103,3973.333333333334,4371.794871794872
2723.9502,0.8826296,0.9193861,0.27079758,0.4937174,0,0.0,0.0,0.0,0.0,0.0,0,0,0.0,0.0,0,0,102.0,0.0,527.0,4351.282051282052,3924.1025641025644,4276.410256410257,4414.358974358975,4329.2307692307695,4506.666666666667,4161.538461538462,4030.7692307692314,4254.871794871796,4547.6923076923085,4087.1794871794878,3924.615384615385,4005.1282051282055,4351.282051282052
2723.9502,0.8826296,0.9193861,0.27079758,0.4937174,0,0.0,0.0,0.0,0.0,0.0,0,0,0.0,0.0,0,0,102.0,0.0,527.0,4351.282051282052,3924.1025641025644,4276.410256410257,4414.358974358975,4329.2307692307695,4506.666666666667,4161.538461538462,4030.7692307692314,4254.871794871796,4547.6923076923085,4087.1794871794878,3924.615384615385,4005.1282051282055,4351.282051282052
2724.4507,0.98671407,0.93842953,0.2734108,0.4851284,0,0.0,0.0,0.0,0.0,0.0,0,0,0.0,0.0,0,0,37.0,0.0,0.0,4460.000000000001,3898.461538461539,4404.615384615385,4358.461538461539,4298.461538461539,4523.076923076924,4283.589743589744,4170.769230769231,4332.307692307693,4616.923076923077,4114.358974358975,4102.564102564103,4038.461538461539,4346.666666666667
2724.4507,0.98671407,0.93842953,0.2734108,0.4851284,0,0.0,0.0,0.0,0.0,0.0,0,0,0.0,0.0,0,0,37.0,0.0,0.0,4460.000000000001,3898.461538461539,4404.615384615385,4358.461538461539,4298.461538461539,4523.076923076924,4283.589743589744,4170.769230769231,4332.307692307693,4616.923076923077,4114.358974358975,4102.564102564103,4038.461538461539,4346.666666666667
2724.9512,1.0,0.95556855,0.2689142,0.48162323,0,0.0,0.0,0.0,0.0,0.0,0,0,0.0,0.0,0,0,101.0,0.0,472.0,4475.8974358974365,3877.9487179487182,4498.461538461539,4354.871794871796,4284.102564102564,4572.307692307693,4408.205128205129,4296.923076923077,4414.358974358975,4690.769230769231,4183.076923076924,4250.256410256411,4090.7692307692314,4353.333333333334
2724.9512,1.0,0.95556855,0.2689142,0.48162323,0,0.0,0.0,0.0,0.0,0.0,0,0,0.0,0.0,0,0,101.0,0.0,472.0,4475.8974358974365,3877.9487179487182,4498.461538461539,4354.871794871796,4284.102564102564,4572.307692307693,4408.205128205129,4296.923076923077,4414.358974358975,4690.769230769231,4183.076923076924,4250.256410256411,4090.7692307692314,4353.333333333334
2725.4517,1.0,0.9709937,0.26296872,0.49139372,0,0.0,0.0,0.0,0.0,0.0,0,0,0.0,0.0,0,0,36.0,0.0,0.0,4458.974358974359,3912.307692307693,4564.615384615385,4319.48717948718,4305.641025641026,4615.384615384616,4493.333333333334,4381.538461538462,4462.051282051282,4766.666666666667,4257.948717948719,4352.307692307693,4169.2307692307695,4414.871794871796
2725.4517,1.0,0.9709937,0.26296872,0.49139372,0,0.0,0.0,0.0,0.0,0.0,0,0,0.0,0.0,0,0,36.0,0.0,0.0,4458.974358974359,3912.307692307693,4564.615384615385,4319.48717948718,4305.641025641026,4615.384615384616,4493.333333333334,4381.538461538462,4462.051282051282,4766.666666666667,4257.948717948719,4352.307692307693,4169.2307692307695,4414.871794871796
2725.952,1.0,0.98487633,0.25352535,0.502732,0,0.0,0.0,0.0,0.0,0.0,0,0,0.0,0.0,0,0,100.0,0.0,503.0,4442.051282051282,3966.1538461538466,4602.564102564103,4414.871794871796,4340.512820512821,4610.256410256411,4521.538461538462,4456.923076923077,4510.256410256411,4861.025641025642,4325.641025641026,4397.948717948719,4227.6923076923085,4445.128205128206
2725.952,1.0,0.98487633,0.25352535,0.502732,0,0.0,0.0,0.0,0.0,0.0,0,0,0.0,0.0,0,0,100.0,0.0,503.0,4442.051282051282,3966.1538461538466,4602.564102564103,4414.871794871796,4340.512820512821,4610.256410256411,4521.538461538462,4456.923076923077,4510.256410256411,4861.025641025642,4325.641025641026,4397.948717948719,4227.6923076923085,4445.128205128206
2726.5776,0.97790897,0.9388526,0.242293,0.53195286,0,0.0,0.0,0.2741402,0.0,0.0,0,0,0.0,0.0,0,0,51.0,0.0,0.0,4471.794871794872,3882.564102564103,4597.948717948719,4385.641025641026,4263.589743589744,4571.282051282052,4551.794871794872,4511.282051282052,4506.153846153847,4869.2307692307695,4411.282051282052,4428.717948717949,4218.461538461539,4439.48717948718
2726.8276,0.97790897,0.9388526,0.242293,0.53195286,0,0.0,0.0,0.50252813,0.0,0.0,0,0,0.0,0.0,0,0,83.0,0.0,405.0,4536.410256410257,3894.8717948717954,4591.282051282052,4385.641025641026,4266.666666666667,4572.307692307693,4568.205128205129,4548.717948717949,4540.000000000001,4896.923076923077,4476.923076923077,4461.538461538462,4260.000000000001,4491.794871794872
2726.953,0.9220261,0.8976496,0.2321857,0.5672955,0,0.0,0.0,0.0,0.0,0.0,0,0,0.0,0.0,0,0,99.0,0.0,405.0,4557.435897435898,3894.358974358975,4585.128205128206,4391.282051282052,4244.615384615385,4559.48717948718,4557.435897435898,4540.512820512821,4525.641025641026,4888.205128205129,4487.6923076923085,4473.846153846154,4267.179487179487,4504.102564102564
2726.953,0.9220261,0.8976496,0.2321857,0.5672955,0,0.0,0.0,0.0,0.0,0.0,0,0,0.0,0.0,0,0,99.0,0.0,405.0,4557.435897435898,3894.358974358975,4585.128205128206,4391.282051282052,4244.615384615385,4559.48717948718,4557.435897435898,4540.512820512821,4525.641025641026,4888.205128205129,4487.6923076923085,4473.846153846154,4267.179487179487,4504.102564102564
2727.5784,0.88061255,0.8688018,0.22120042,0.6006821,0,0.0,0.0,1.0,0.0,0.0,0,0,0.0,0.0,0,0,50.0,0.0,0.0,4572.307692307693,4078.9743589743593,4583.589743589744,4500.000000000001,4080.0000000000005,4556.410256410257,4529.2307692307695,4525.128205128206,4507.179487179488,4867.179487179488,4491.794871794872,4424.102564102564,4286.666666666667,4519.48717948718
2727.5784,0.88061255,0.8688018,0.22120042,0.6006821,0,0.0,0.0,1.0,0.0,0.0,0,0,0.0,0.0,0,0,50.0,0.0,0.0,4572.307692307693,4078.9743589743593,4583.589743589744,4500.000000000001,4080.0000000000005,4556.410256410257,4529.2307692307695,4525.128205128206,4507.179487179488,4867.179487179488,4491.794871794872,4424.102564102564,4286.666666666667,4519.48717948718
2727.985,0.96948624,0.85875285,0.21318817,0.63073796,0,0.0,0.0,1.0,0.0,0.0,0,0,0.0,0.0,0,0,102.0,0.0,530.0,4551.282051282052,4072.307692307693,4556.410256410257,4566.666666666667,4337.948717948719,4549.743589743591,4465.641025641026,4471.282051282052,4468.205128205129,4855.8974358974365,4474.358974358975,4365.128205128206,4265.641025641026,4495.8974358974365
2728.329,0.96948624,0.85875285,0.21318817,0.63073796,0,0.0,0.0,0.7414421,0.0,0.0,0,0,0.0,0.0,0,0,17.0,0.0,0.0,4524.615384615385,4058.9743589743593,4540.512820512821,4574.358974358975,4327.6923076923085,4538.974358974359,4442.564102564103,4419.48717948718,4399.48717948718,4755.8974358974365,4427.6923076923085,4310.256410256411,4178.974358974359,4464.102564102564
2728.5793,0.96079916,0.8323331,0.20838824,0.6557396,0,0.0,0.0,0.46455765,0.0,0.0,0,0,0.0,0.0,0,0,49.0,0.0,0.0,4534.358974358975,3978.461538461539,4532.307692307693,4488.717948717949,4205.128205128206,4523.589743589744,4441.538461538462,4374.871794871796,4349.2307692307695,4691.794871794872,4381.025641025642,4264.102564102564,4112.307692307693,4460.512820512821
2728.8296,0.96079916,0.8323331,0.20838824,0.6557396,0,0.0,0.0,0.7427577,0.0,0.0,0,0,0.0,0.0,0,0,81.0,0.0,472.0,4541.538461538462,3940.0000000000005,4527.179487179488,4404.615384615385,4134.871794871796,4522.051282051282,4446.666666666667,4372.307692307693,4344.615384615385,4675.384615384616,4361.025641025642,4248.717948717949,4090.7692307692314,4464.102564102564
2729.0796,0.98214525,0.81100625,0.21298636,0.66259485,0,0.0,0.0,0.0,0.0,0.0,0,0,0.0,0.0,0,0,113.0,0.0,472.0,4568.717948717949,3885.6410256410263,4521.025641025642,4347.6923076923085,4072.307692307693,4508.205128205129,4445.641025641026,4371.282051282052,4340.000000000001,4680.000000000001,4355.8974358974365,4244.615384615385,4111.794871794872,4478.974358974359
2729.0796,0.98214525,0.81100625,0.21298636,0.66259485,0,0.0,0.0,0.0,0.0,0.0,0,0,0.0,0.0,0,0,113.0,0.0,472.0,4568.717948717949,3885.6410256410263,4521.025641025642,4347.6923076923085,4072.307692307693,4508.205128205129,4445.641025641026,4371.282051282052,4340.000000000001,4680.000000000001,4355.8974358974365,4244.615384615385,4111.794871794872,4478.974358974359
2729.455,0.95306,0.79030114,0.22503935,0.651543,0,0.0,0.0,0.0,0.0,0.0,0,0,0.0,0.0,0,0,32.0,0.0,0.0,4532.820512820514,3860.512820512821,4461.538461538462,4341.025641025642,4086.1538461538466,4505.128205128206,4401.538461538462,4335.8974358974365,4345.641025641026,4690.256410256411,4361.538461538462,4214.358974358975,4110.256410256411,4470.769230769231
2729.455,0.95306,0.79030114,0.22503935,0.651543,0,0.0,0.0,0.0,0.0,0.0,0,0,0.0,0.0,0,0,32.0,0.0,0.0,4532.820512820514,3860.512820512821,4461.538461538462,4341.025641025642,4086.1538461538466,4505.128205128206,4401.538461538462,4335.8974358974365,4345.641025641026,4690.256410256411,4361.538461538462,4214.358974358975,4110.256410256411,4470.769230769231
2729.9553,0.9997312,0.78550416,0.23588812,0.64159435,0,0.0,0.0,0.0,0.0,0.0,0,0,0.0,0.0,0,0,96.0,0.0,501.0,4490.256410256411,3854.358974358975,4453.333333333334,4395.384615384616,4154.871794871796,4503.589743589744,4382.564102564103,4321.025641025642,4348.205128205129,4675.384615384616,4373.333333333334,4214.358974358975,4145.128205128206,4489.743589743591
2729.9553,0.9997312,0.78550416,0.23588812,0.64159435,0,0.0,0.0,0.0,0.0,0.0,0,0,0.0,0.0,0,0,96.0,0.0,501.0,4490.256410256411,3854.358974358975,4453.333333333334,4395.384615384616,4154.871794871796,4503.589743589744,4382.564102564103,4321.025641025642,4348.205128205129,4675.384615384616,4373.333333333334,4214.358974358975,4145.128205128206,4489.743589743591
2730.581,0.9894784,0.78126764,0.24565645,0.6326394,0,0.0,0.0,1.0,0.0,0.0,0,0,0.0,0.0,0,1,47.0,0.0,0.0,4550.256410256411,3886.1538461538466,4506.666666666667,4325.641025641026,3632.307692307693,4520.000000000001,4476.410256410257,4414.358974358975,4461.538461538462,4776.923076923077,4496.410256410257,4321.025641025642,4231.282051282052,4526.666666666667
2730.8313,0.9894784,0.78126764,0.24565645,0.6326394,0,0.0,0.0,1.0,0.0,0.0,0,0,0.0,0.0,0,0,79.0,0.0,405.0,4507.179487179488,3902.564102564103,4492.820512820514,4352.307692307693,3918.9743589743593,4554.358974358975,4469.2307692307695,4398.461538461539,4430.769230769231,4735.8974358974365,4434.871794871796,4267.179487179487,4214.358974358975,4511.794871794872
2730.9875,0.93333435,0.77745473,0.25443396,0.6245903,0,0.0,0.0,1.0,0.0,0.0,0,0,0.0,0.0,0,0,99.0,0.0,405.0,4487.6923076923085,3874.8717948717954,4491.282051282052,4343.589743589744,4041.0256410256416,4564.615384615385,4475.384615384616,4410.769230769231,4438.974358974359,4732.307692307693,4428.205128205129,4276.923076923077,4199.48717948718,4520.512820512821
2730.9875,0.93333435,0.77745473,0.25443396,0.6245903,0,0.0,0.0,1.0,0.0,0.0,0,0,0.0,0.0,0,0,99.0,0.0,405.0,4487.6923076923085,3874.8717948717954,4491.282051282052,4343.589743589744,4041.0256410256416,4564.615384615385,4475.384615384616,4410.769230769231,4438.974358974359,4732.307692307693,4428.205128205129,4276.923076923077,4199.48717948718,4520.512820512821
2731.5818,0.8873223,0.7740231,0.26233828,0.61734015,0,0.0,0.0,0.6574354,0.0,0.0,0,0,0.0,0.0,0,0,46.0,0.0,0.0,4674.358974358975,3909.7435897435903,4569.2307692307695,4450.769230769231,4165.128205128206,4601.025641025642,4537.948717948719,4512.820512820514,4535.8974358974365,4825.641025641026,4540.000000000001,4386.153846153847,4302.564102564103,4571.282051282052
2731.832,0.8873223,0.7740231,0.26233828,0.61734015,0,0.0,0.0,0.0,0.0,0.0,0,0,0.0,0.0,0,0,78.0,0.0,532.0,4672.307692307693,3942.0512820512827,4571.794871794872,4467.6923076923085,4197.948717948719,4591.282051282052,4533.333333333334,4524.102564102564,4553.333333333334,4837.435897435898,4555.8974358974365,4407.179487179487,4322.051282051282,4588.717948717949
2731.9573,0.9749304,0.77093464,0.26944897,0.61081874,0,0.0,0.0,0.0,0.0,0.0,0,0,0.0,0.0,0,0,94.0,0.0,532.0,4731.282051282052,3963.589743589744,4591.282051282052,4475.8974358974365,4218.974358974359,4571.794871794872,4525.641025641026,4523.076923076924,4538.461538461539,4825.641025641026,4565.641025641026,4418.974358974359,4326.153846153847,4617.948717948719
2731.9573,0.9749304,0.77093464,0.26944897,0.61081874,0,0.0,0.0,0.0,0.0,0.0,0,0,0.0,0.0,0,0,94.0,0.0,532.0,4731.282051282052,3963.589743589744,4591.282051282052,4475.8974358974365,4218.974358974359,4571.794871794872,4525.641025641026,4523.076923076924,4538.461538461539,4825.641025641026,4565.641025641026,4418.974358974359,4326.153846153847,4617.948717948719
2732.4575,0.9675734,0.8209434,0.27584836,0.6049519,0,0.0,0.0,0.0,0.0,0.0,0,0,0.0,0.0,0,0,29.0,0.0,0.0,4781.538461538462,3880.512820512821,4645.641025641026,4422.564102564103,4137.435897435898,4524.102564102564,4587.6923076923085,4678.974358974359,4622.564102564103,4921.538461538462,4623.589743589744,4543.589743589744,4358.974358974359,4655.8974358974365
2732.4575,0.9675734,0.8209434,0.27584836,0.6049519,0,0.0,0.0,0.0,0.0,0.0,0,0,0.0,0.0,0,0,29.0,0.0,0.0,4781.538461538462,3880.512820512821,4645.641025641026,4422.564102564103,4137.435897435898,4524.102564102564,4587.6923076923085,4678.974358974359,4622.564102564103,4921.538461538462,4623.589743589744,4543.589743589744,4358.974358974359,4655.8974358974365
2732.958,1.0,0.8660514,0.28160957,0.59967136,0,0.0,0.0,0.0,0.0,0.0,0,0,0.0,0.0,0,0,93.0,0.0,470.0,5128.717948717949,4089.7435897435903,4796.923076923077,4491.794871794872,4238.461538461539,4493.846153846154,4661.538461538462,4833.846153846154,4557.435897435898,4909.2307692307695,4617.435897435898,4523.076923076924,4374.871794871796,4763.589743589744
2733.3333,1.0,0.8660514,0.28160957,0.59967136,0,0.0,0.0,0.0,0.0,0.043636046,0,0,0.0,0.0,0,0,12.0,0.0,492.0,5146.153846153847,4215.8974358974365,4706.666666666667,4562.564102564103,4377.435897435898,4489.2307692307695,4530.256410256411,4597.435897435898,4376.410256410257,4787.179487179488,4479.48717948718,4183.589743589744,4350.769230769231,4751.282051282052
2733.5835,1.0,0.9066485,0.28679532,0.59491926,0,0.0,0.0,0.0,0.0,0.0,0,0,0.39867875,0.0,0,0,44.0,0.0,0.0,5024.615384615386,4183.589743589744,4595.8974358974365,4570.769230769231,4410.769230769231,4508.717948717949,4425.641025641026,4423.589743589744,4285.128205128206,4692.307692307693,4377.948717948719,3981.538461538462,4272.820512820514,4718.461538461539
2733.7087,1.0,0.9066485,0.28679532,0.59491926,0,0.0,0.0,0.0,0.0,0.0,0,0,0.0,0.0,0,0,60.0,0.0,0.0,4952.820512820514,4138.461538461539,4533.846153846154,4550.256410256411,4393.846153846154,4497.435897435898,4377.435897435898,4353.333333333334,4256.923076923077,4667.6923076923085,4319.48717948718,3911.2820512820517,4234.871794871796,4691.794871794872
2733.959,1.0,0.9431859,0.2919281,0.590642,0,0.0,0.0,0.0,0.0,0.0,0,0,0.0,0.0,0,0,92.0,0.0,496.0,4791.282051282052,4066.1538461538466,4464.102564102564,4527.179487179488,4394.871794871796,4510.256410256411,4323.589743589744,4264.102564102564,4243.589743589744,4644.102564102564,4278.461538461539,3890.2564102564106,4195.8974358974365,4646.153846153847
2733.959,1.0,0.9431859,0.2919281,0.590642,0,0.0,0.0,0.0,0.0,0.0,0,0,0.0,0.0,0,0,92.0,0.0,496.0,4791.282051282052,4066.1538461538466,4464.102564102564,4527.179487179488,4394.871794871796,4510.256410256411,4323.589743589744,4264.102564102564,4243.589743589744,4644.102564102564,4278.461538461539,3890.2564102564106,4195.8974358974365,4646.153846153847
2734.4592,1.0,0.9760696,0.29795706,0.5867934,0,0.0,0.0,0.0,0.0,0.0,0,0,0.0,0.0,0,0,27.0,0.0,0.0,4566.153846153847,3940.0000000000005,4385.128205128206,4441.538461538462,4326.666666666667,4529.743589743591,4296.410256410257,4216.923076923077,4313.333333333334,4666.666666666667,4283.589743589744,4020.0000000000005,4202.051282051282,4574.358974358975
2734.4592,1.0,0.9760696,0.29795706,0.5867934,0,0.0,0.0,0.0,0.0,0.0,0,0,0.0,0.0,0,0,27.0,0.0,0.0,4566.153846153847,3940.0000000000005,4385.128205128206,4441.538461538462,4326.666666666667,4529.743589743591,4296.410256410257,4216.923076923077,4313.333333333334,4666.666666666667,4283.589743589744,4020.0000000000005,4202.051282051282,4574.358974358975
2734.9597,0.91802794,1.0,0.3033836,0.5878396,0,0.0,0.0,0.0,0.0,0.0,0,0,0.0,0.0,0,0,91.0,0.0,400.0,4494.871794871796,3902.0512820512827,4428.205128205129,4417.948717948719,4336.923076923077,4549.743589743591,4356.410256410257,4249.74358974359,4353.846153846154,4670.256410256411,4292.820512820514,4181.025641025642,4162.564102564103,4535.384615384616
2734.9597,0.91802794,1.0,0.3033836,0.5878396,0,0.0,0.0,0.0,0.0,0.0,0,0,0.0,0.0,0,0,91.0,0.0,400.0,4494.871794871796,3902.0512820512827,4428.205128205129,4417.948717948719,4336.923076923077,4549.743589743591,4356.410256410257,4249.74358974359,4353.846153846154,4670.256410256411,4292.820512820514,4181.025641025642,4162.564102564103,4535.384615384616
2735.4602,0.97838587,1.0,0.30826786,0.59361345,0,0.0,0.0,0.0,0.0,0.0,0,0,0.0,0.0,0,0,26.0,0.0,0.0,4493.333333333334,3883.589743589744,4490.769230769231,4423.589743589744,4313.333333333334,4572.307692307693,4429.2307692307695,4339.48717948718,4430.769230769231,4727.6923076923085,4329.743589743591,4321.025641025642,4174.871794871796,4497.435897435898
2735.4602,0.97838587,1.0,0.30826786,0.59361345,0,0.0,0.0,0.0,0.0,0.0,0,0,0.0,0.0,0,0,26.0,0.0,0.0,4493.333333333334,3883.589743589744,4490.769230769231,4423.589743589744,4313.333333333334,4572.307692307693,4429.2307692307695,4339.48717948718,4430.769230769231,4727.6923076923085,4329.743589743591,4321.025641025642,4174.871794871796,4497.435897435898
2735.9607,0.9412443,1.0,0.31395367,0.5988093,0,0.0,0.0,0.0,0.0,0.0,0,0,0.0,0.0,0,0,90.0,0.0,532.0,4536.923076923077,3928.205128205129,4524.102564102564,4441.025641025642,4295.384615384616,4571.282051282052,4453.333333333334,4360.000000000001,4442.051282051282,4726.666666666667,4311.794871794872,4325.641025641026,4145.641025641026,4502.051282051282
2735.9607,0.9412443,1.0,0.31395367,0.5988093,0,0.0,0.0,0.0,0.0,0.0,0,0,0.0,0.0,0,0,90.0,0.0,532.0,4536.923076923077,3928.205128205129,4524.102564102564,4441.025641025642,4295.384615384616,4571.282051282052,4453.333333333334,4360.000000000001,4442.051282051282,4726.666666666667,4311.794871794872,4325.641025641026,4145.641025641026,4502.051282051282
2736.461,0.8888244,0.9885026,0.32002237,0.597066,0,0.0,0.0,0.0,0.0,0.0,0,0,0.0,0.0,0,0,25.0,0.0,0.0,4552.820512820514,3826.666666666667,4572.307692307693,4363.076923076924,4224.615384615385,4553.333333333334,4520.000000000001,4467.6923076923085,4437.948717948719,4736.923076923077,4351.282051282052,4406.666666666667,4092.307692307693,4477.948717948719
2736.8364,0.8888244,0.9885026,0.32002237,0.597066,0,0.0,0.0,0.17573564,0.0,0.0,0,0,0.0,0.0,0,0,73.0,0.0,483.0,4893.333333333334,3665.1282051282055,4798.974358974359,4260.512820512821,3896.410256410257,4468.717948717949,4826.153846153847,4910.769230769231,4552.307692307693,4854.358974358975,4538.974358974359,4720.512820512821,4168.717948717949,4646.666666666667
2737.0867,0.9872066,0.9278208,0.32638544,0.59197354,0,0.0,0.0,0.08605605,0.0,0.0,0,0,0.0,0.0,0,0,105.0,0.0,466.0,5025.128205128206,3808.205128205129,4760.512820512821,4264.615384615385,3925.1282051282055,4384.615384615385,4845.128205128206,5017.948717948719,4520.512820512821,4887.179487179488,4571.794871794872,4734.871794871796,4267.179487179487,4772.307692307693
2737.3367,0.9872066,0.9278208,0.32638544,0.59197354,0,0.0,0.0,0.0,0.0,0.0,0,0,0.0,0.0,0,0,8.0,0.0,503.0,5040.000000000001,3937.9487179487182,4678.974358974359,4337.948717948719,4055.3846153846157,4408.717948717949,4796.410256410257,4918.461538461539,4492.307692307693,4874.358974358975,4528.205128205129,4586.666666666667,4370.256410256411,4810.256410256411
2737.462,1.0,0.87320715,0.32338133,0.5914967,0,0.0,0.0,0.0,0.0,0.0,0,0,0.0,0.0,0,0,24.0,0.0,0.0,4980.000000000001,3954.8717948717954,4618.461538461539,4394.871794871796,4085.6410256410263,4387.6923076923085,4712.307692307693,4793.846153846154,4427.179487179487,4825.641025641026,4479.48717948718,4482.051282051282,4354.871794871796,4795.8974358974365
2737.462,1.0,0.87320715,0.32338133,0.5914967,0,0.0,0.0,0.0,0.0,0.0,0,0,0.0,0.0,0,0,24.0,0.0,0.0,4980.000000000001,3954.8717948717954,4618.461538461539,4394.871794871796,4085.6410256410263,4387.6923076923085,4712.307692307693,4793.846153846154,4427.179487179487,4825.641025641026,4479.48717948718,4482.051282051282,4354.871794871796,4795.8974358974365
2738.0874,1.0,0.82405484,0.32914126,0.5967759,0,0.0,0.0,0.0,0.0,0.0,0,0,0.0,0.0,0,0,104.0,0.0,499.0,4605.128205128206,3957.9487179487182,4303.589743589744,4527.6923076923085,4268.717948717949,4393.846153846154,4249.2307692307695,4229.2307692307695,4204.615384615385,4575.8974358974365,4216.410256410257,3994.358974358975,4101.025641025642,4617.435897435898
2738.0874,1.0,0.82405484,0.32914126,0.5967759,0,0.0,0.0,0.0,0.0,0.0,0,0,0.0,0.0,0,0,104.0,0.0,499.0,4605.128205128206,3957.9487179487182,4303.589743589744,4527.6923076923085,4268.717948717949,4393.846153846154,4249.2307692307695,4229.2307692307695,4204.615384615385,4575.8974358974365,4216.410256410257,3994.358974358975,4101.025641025642,4617.435897435898
2738.4626,1.0,0.77981776,0.33680823,0.59500676,0,0.0,0.0,0.0,0.0,0.0,0,0,0.0,0.0,0,0,23.0,0.0,0.0,4437.948717948719,3892.820512820513,4225.128205128206,4496.923076923077,4302.051282051282,4445.128205128206,4166.666666666667,4081.0256410256416,4230.256410256411,4555.8974358974365,4161.538461538462,3913.333333333334,4065.6410256410263,4522.564102564103
2738.8381,1.0,0.77981776,0.33680823,0.59500676,0,0.0,0.0,0.0,0.0,0.7290666,0,0,0.0,0.0,0,0,71.0,0.0,482.0,4406.666666666667,3913.333333333334,4274.358974358975,4461.025641025642,4307.179487179487,4506.666666666667,4199.48717948718,4084.1025641025644,4247.179487179487,4576.923076923077,4145.641025641026,3989.7435897435903,4055.3846153846157,4478.974358974359
2739.0884,1.0,0.7400044,0.34370846,0.5989531,0,0.0,0.0,0.0,0.0,0.0,0,0,0.0,0.0,0,0,103.0,0.0,401.0,4421.538461538462,3926.1538461538466,4344.102564102564,4444.615384615385,4317.435897435898,4538.974358974359,4248.717948717949,4141.025641025642,4300.000000000001,4619.48717948718,4176.923076923077,4081.0256410256416,4101.538461538462,4481.538461538462
2739.0884,1.0,0.7400044,0.34370846,0.5989531,0,0.0,0.0,0.0,0.0,0.0,0,0,0.0,0.0,0,0,103.0,0.0,401.0,4421.538461538462,3926.1538461538466,4344.102564102564,4444.615384615385,4317.435897435898,4538.974358974359,4248.717948717949,4141.025641025642,4300.000000000001,4619.48717948718,4176.923076923077,4081.0256410256416,4101.538461538462,4481.538461538462
2739.4636,1.0,0.70417243,0.3499185,0.60922843,0,0.0,0.0,0.0,0.0,0.0,0,0,0.0,0.0,0,0,22.0,0.0,0.0,4448.717948717949,3929.7435897435903,4420.000000000001,4412.820512820514,4312.307692307693,4555.384615384616,4314.358974358975,4201.538461538462,4345.128205128206,4665.128205128206,4263.589743589744,4186.666666666667,4152.307692307693,4503.589743589744
2739.4636,1.0,0.70417243,0.3499185,0.60922843,0,0.0,0.0,0.0,0.0,0.0,0,0,0.0,0.0,0,0,22.0,0.0,0.0,4448.717948717949,3929.7435897435903,4420.000000000001,4412.820512820514,4312.307692307693,4555.384615384616,4314.358974358975,4201.538461538462,4345.128205128206,4665.128205128206,4263.589743589744,4186.666666666667,4152.307692307693,4503.589743589744
2739.964,1.0,0.6719236,0.35078374,0.61847484,0,0.0,0.0,0.0,0.0,0.0,0,0,0.0,0.0,0,0,86.0,0.0,532.0,4478.974358974359,3929.2307692307695,4491.794871794872,4392.820512820514,4312.820512820514,4575.8974358974365,4409.2307692307695,4295.384615384616,4409.743589743591,4709.743589743591,4306.666666666667,4250.769230769231,4171.282051282052,4495.384615384616
2739.964,1.0,0.6719236,0.35078374,0.61847484,0,0.0,0.0,0.0,0.0,0.0,0,0,0.0,0.0,0,0,86.0,0.0,532.0,4478.974358974359,3929.2307692307695,4491.794871794872,4392.820512820514,4312.820512820514,4575.8974358974365,4409.2307692307695,4295.384615384616,4409.743589743591,4709.743589743591,4306.666666666667,4250.769230769231,4171.282051282052,4495.384615384616
2740.4644,0.9773879,0.64289963,0.35156217,0.6248945,0,0.0,0.0,0.0,0.0,0.0,0,0,0.0,0.0,0,0,21.0,0.0,0.0,4505.641025641026,3934.8717948717954,4526.666666666667,4393.846153846154,4307.179487179487,4597.435897435898,4460.512820512821,4369.2307692307695,4457.948717948719,4736.923076923077,4324.615384615385,4283.589743589744,4162.564102564103,4514.871794871796
2740.4644,0.9773879,0.64289963,0.35156217,0.6248945,0,0.0,0.0,0.0,0.0,0.0,0,0,0.0,0.0,0,0,21.0,0.0,0.0,4505.641025641026,3934.8717948717954,4526.666666666667,4393.846153846154,4307.179487179487,4597.435897435898,4460.512820512821,4369.2307692307695,4457.948717948719,4736.923076923077,4324.615384615385,4283.589743589744,4162.564102564103,4514.871794871796
2740.9648,0.91218305,0.6398193,0.3459797,0.63067067,0,0.0,0.0,0.0,0.0,0.0,0,0,0.0,0.0,0,0,85.0,0.0,471.0,4541.025641025642,3923.589743589744,4532.307692307693,4393.333333333334,4283.589743589744,4583.589743589744,4463.589743589744,4402.051282051282,4438.461538461539,4743.589743589744,4329.743589743591,4294.358974358975,4192.307692307693,4488.717948717949
2740.9648,0.91218305,0.6398193,0.3459797,0.63067067,0,0.0,0.0,0.0,0.0,0.0,0,0,0.0,0.0,0,0,85.0,0.0,471.0,4541.025641025642,3923.589743589744,4532.307692307693,4393.333333333334,4283.589743589744,4583.589743589744,4463.589743589744,4402.051282051282,4438.461538461539,4743.589743589744,4329.743589743591,4294.358974358975,4192.307692307693,4488.717948717949
2741.4653,0.85524744,0.6340167,0.3409553,0.63586754,0,0.0,0.0,0.0,0.0,0.0,0,0,0.0,0.0,0,0,20.0,0.0,0.0,4590.256410256411,3929.2307692307695,4550.769230769231,4420.512820512821,4295.384615384616,4583.076923076924,4488.205128205129,4429.743589743591,4460.000000000001,4765.128205128206,4355.384615384616,4307.6923076923085,4187.6923076923085,4487.6923076923085
2741.4653,0.85524744,0.6340167,0.3409553,0.63586754,0,0.0,0.0,0.0,0.0,0.0,0,0,0.0,0.0,0,0,20.0,0.0,0.0,4590.256410256411,3929.2307692307695,4550.769230769231,4420.512820512821,4295.384615384616,4583.076923076924,4488.205128205129,4429.743589743591,4460.000000000001,4765.128205128206,4355.384615384616,4307.6923076923085,4187.6923076923085,4487.6923076923085
2741.9658,0.85963625,0.61339945,0.3364332,0.6405429,0,0.0,0.0,0.0,0.0,0.0,0,0,0.0,0.0,0,0,84.0,0.0,502.0,4596.410256410257,3909.7435897435903,4530.256410256411,4421.025641025642,4271.282051282052,4567.179487179488,4476.410256410257,4426.666666666667,4477.435897435898,4756.923076923077,4364.102564102564,4282.051282051282,4184.102564102564,4488.205128205129
2741.9658,0.85963625,0.61339945,0.3364332,0.6405429,0,0.0,0.0,0.0,0.0,0.0,0,0,0.0,0.0,0,0,84.0,0.0,502.0,4596.410256410257,3909.7435897435903,4530.256410256411,4421.025641025642,4271.282051282052,4567.179487179488,4476.410256410257,4426.666666666667,4477.435897435898,4756.923076923077,4364.102564102564,4282.051282051282,4184.102564102564,4488.205128205129
2742.4663,0.79371315,0.5935801,0.32356346,0.6436984,0,0.0,0.0,0.0,0.0,0.0,0,0,0.0,0.0,0,0,19.0,0.0,0.0,4598.974358974359,3924.615384615385,4537.435897435898,4441.025641025642,4252.820512820514,4568.717948717949,4482.051282051282,4443.589743589744,4468.205128205129,4767.179487179488,4369.2307692307695,4281.538461538462,4183.589743589744,4489.743589743591
2742.4663,0.79371315,0.5935801,0.32356346,0.6436984,0,0.0,0.0,0.0,0.0,0.0,0,0,0.0,0.0,0,0,19.0,0.0,0.0,4598.974358974359,3924.615384615385,4537.435897435898,4441.025641025642,4252.820512820514,4568.717948717949,4482.051282051282,4443.589743589744,4468.205128205129,4767.179487179488,4369.2307692307695,4281.538461538462,4183.589743589744,4489.743589743591
2742.9666,0.74361897,0.58208233,0.3119808,0.64805543,0,0.0,0.0,0.0,0.0,0.0,0,0,0.0,0.0,0,0,83.0,0.0,401.0,4586.666666666667,3908.717948717949,4531.282051282052,4436.410256410257,4251.282051282052,4554.871794871796,4472.820512820514,4441.025641025642,4441.538461538462,4731.282051282052,4386.666666666667,4278.461538461539,4179.48717948718,4486.666666666667
2742.9666,0.74361897,0.58208233,0.3119808,0.64805543,0,0.0,0.0,0.0,0.0,0.0,0,0,0.0,0.0,0,0,83.0,0.0,401.0,4586.666666666667,3908.717948717949,4531.282051282052,4436.410256410257,4251.282051282052,4554.871794871796,4472.820512820514,4441.025641025642,4441.538461538462,4731.282051282052,4386.666666666667,4278.461538461539,4179.48717948718,4486.666666666667
2743.467,0.66880655,0.5712721,0.30668536,0.65693295,0,0.0,0.0,0.0,0.0,0.0,0,0,0.0,0.0,0,0,18.0,0.0,0.0,4597.435897435898,3929.7435897435903,4514.358974358975,4441.538461538462,4229.2307692307695,4553.846153846154,4463.076923076924,4409.743589743591,4409.743589743591,4691.794871794872,4361.538461538462,4248.717948717949,4133.333333333334,4461.025641025642
2743.467,0.66880655,0.5712721,0.30668536,0.65693295,0,0.0,0.0,0.0,0.0,0.0,0,0,0.0,0.0,0,0,18.0,0.0,0.0,4597.435897435898,3929.7435897435903,4514.358974358975,4441.538461538462,4229.2307692307695,4553.846153846154,4463.076923076924,4409.743589743591,4409.743589743591,4691.794871794872,4361.538461538462,4248.717948717949,4133.333333333334,4461.025641025642
2743.9675,0.62677103,0.5600353,0.30648065,0.6610454,0,0.0,0.0,0.0,0.0,0.0,0,0,0.0,0.0,0,0,82.0,0.0,532.0,4591.282051282052,3918.9743589743593,4511.794871794872,4452.307692307693,4240.512820512821,4556.923076923077,4465.641025641026,4404.615384615385,4418.974358974359,4702.564102564103,4373.846153846154,4246.666666666667,4143.076923076924,4493.333333333334
2743.9675,0.62677103,0.5600353,0.30648065,0.6610454,0,0.0,0.0,0.0,0.0,0.0,0,0,0.0,0.0,0,0,82.0,0.0,532.0,4591.282051282052,3918.9743589743593,4511.794871794872,4452.307692307693,4240.512820512821,4556.923076923077,4465.641025641026,4404.615384615385,4418.974358974359,4702.564102564103,4373.846153846154,4246.666666666667,4143.076923076924,4493.333333333334
2744.468,0.5516054,0.54076433,0.2991214,0.664744,0,0.0,0.0,0.0,0.0,0.0,0,0,0.0,0.0,0,0,17.0,0.0,0.0,4603.076923076924,3944.1025641025644,4514.358974358975,4465.128205128206,4257.435897435898,4541.025641025642,4458.461538461539,4391.282051282052,4418.461538461539,4704.102564102564,4370.256410256411,4237.435897435898,4134.358974358975,4486.153846153847
2744.468,0.5516054,0.54076433,0.2991214,0.664744,0,0.0,0.0,0.0,0.0,0.0,0,0,0.0,0.0,0,0,17.0,0.0,0.0,4603.076923076924,3944.1025641025644,4514.358974358975,4465.128205128206,4257.435897435898,4541.025641025642,4458.461538461539,4391.282051282052,4418.461538461539,4704.102564102564,4370.256410256411,4237.435897435898,4134.358974358975,4486.153846153847
2744.9683,0.51494765,0.52122456,0.29249862,0.66807014,0,0.0,0.0,0.0,0.0,0.0,0,0,0.0,0.0,0,0,81.0,0.0,472.0,4681.025641025642,3908.205128205129,4575.8974358974365,4408.717948717949,4181.025641025642,4521.025641025642,4523.589743589744,4524.102564102564,4486.153846153847,4764.102564102564,4431.794871794872,4352.820512820514,4157.435897435898,4525.128205128206
2745.3438,0.51494765,0.52122456,0.29249862,0.66807014,0,0.0,0.0,0.0,0.0,0.0,0,0,0.46576923,0.0,0,0,0.0,0.0,480.0,4836.923076923077,3962.0512820512827,4634.871794871796,4395.384615384616,4168.717948717949,4460.512820512821,4541.538461538462,4623.589743589744,4524.615384615385,4801.538461538462,4488.717948717949,4414.871794871796,4228.205128205129,4620.512820512821
2745.594,0.64481246,0.5368166,0.29045704,0.6710609,0,0.0,0.0,0.0,0.0,0.0,0,0,0.2023088,0.0,0,0,32.0,0.0,0.0,4875.8974358974365,4002.0512820512827,4637.948717948719,4424.615384615385,4170.769230769231,4430.256410256411,4524.615384615385,4596.923076923077,4473.846153846154,4782.051282051282,4483.589743589744,4394.871794871796,4251.282051282052,4630.256410256411
2745.719,0.64481246,0.5368166,0.29045704,0.6710609,0,0.0,0.0,0.0,0.0,0.0,0,0,0.0,0.0,0,0,48.0,0.0,0.0,4868.717948717949,4018.9743589743593,4614.358974358975,4436.410256410257,4197.948717948719,4430.256410256411,4504.102564102564,4572.307692307693,4475.8974358974365,4797.435897435898,4488.717948717949,4369.743589743591,4279.48717948718,4633.846153846154
2745.9692,0.6752895,0.550461,0.28565994,0.66541404,0,0.0,0.0,0.0,0.0,0.0,0,0,0.0,0.0,0,0,80.0,0.0,502.0,4794.871794871796,4002.564102564103,4565.641025641026,4445.128205128206,4238.974358974359,4433.333333333334,4429.2307692307695,4475.384615384616,4407.6923076923085,4744.102564102564,4438.974358974359,4306.666666666667,4248.205128205129,4599.48717948718
2745.9692,0.6752895,0.550461,0.28565994,0.66541404,0,0.0,0.0,0.0,0.0,0.0,0,0,0.0,0.0,0,0,80.0,0.0,502.0,4794.871794871796,4002.564102564103,4565.641025641026,4445.128205128206,4238.974358974359,4433.333333333334,4429.2307692307695,4475.384615384616,4407.6923076923085,4744.102564102564,4438.974358974359,4306.666666666667,4248.205128205129,4599.48717948718
2746.4697,0.7417145,0.5623031,0.2772625,0.6603312,0,0.0,0.0,0.0,0.0,0.0,0,0,0.0,0.0,0,0,15.0,0.0,401.0,4681.538461538462,3995.8974358974365,4493.846153846154,4482.564102564103,4301.025641025642,4505.641025641026,4381.538461538462,4366.153846153847,4397.435897435898,4725.128205128206,4403.589743589744,4227.6923076923085,4234.871794871796,4584.615384615385
2746.4697,0.7417145,0.5623031,0.2772625,0.6603312,0,0.0,0.0,0.0,0.0,0.0,0,0,0.0,0.0,0,0,15.0,0.0,401.0,4681.538461538462,3995.8974358974365,4493.846153846154,4482.564102564103,4301.025641025642,4505.641025641026,4381.538461538462,4366.153846153847,4397.435897435898,4725.128205128206,4403.589743589744,4227.6923076923085,4234.871794871796,4584.615384615385
2746.97,0.80724865,0.557191,0.2691637,0.6596321,0,0.0,0.0,0.0,0.0,0.0,0,0,0.0,0.0,0,0,79.0,0.0,401.0,4553.333333333334,3933.333333333334,4460.512820512821,4470.769230769231,4297.948717948719,4535.8974358974365,4369.743589743591,4300.512820512821,4363.076923076924,4686.666666666667,4351.282051282052,4197.948717948719,4168.205128205129,4553.333333333334
2746.97,0.80724865,0.557191,0.2691637,0.6596321,0,0.0,0.0,0.0,0.0,0.0,0,0,0.0,0.0,0,0,79.0,0.0,401.0,4553.333333333334,3933.333333333334,4460.512820512821,4470.769230769231,4297.948717948719,4535.8974358974365,4369.743589743591,4300.512820512821,4363.076923076924,4686.666666666667,4351.282051282052,4197.948717948719,4168.205128205129,4553.333333333334
2747.4705,0.7644489,0.513631,0.26030752,0.65900135,0,0.0,0.0,0.0,0.0,0.0,0,0,0.0,0.0,0,0,14.0,0.0,532.0,4556.923076923077,3942.564102564103,4473.846153846154,4466.153846153847,4292.307692307693,4566.153846153847,4410.256410256411,4336.410256410257,4394.871794871796,4692.307692307693,4347.6923076923085,4215.384615384616,4167.179487179487,4538.974358974359
2747.4705,0.7644489,0.513631,0.26030752,0.65900135,0,0.0,0.0,0.0,0.0,0.0,0,0,0.0,0.0,0,0,14.0,0.0,532.0,4556.923076923077,3942.564102564103,4473.846153846154,4466.153846153847,4292.307692307693,4566.153846153847,4410.256410256411,4336.410256410257,4394.871794871796,4692.307692307693,4347.6923076923085,4215.384615384616,4167.179487179487,4538.974358974359
2747.971,0.69710803,0.4792801,0.24975741,0.68444437,0,0.0,0.0,0.0,0.0,0.0,0,0,0.0,0.0,0,0,78.0,0.0,532.0,4580.512820512821,3865.6410256410263,4509.2307692307695,4412.307692307693,4234.871794871796,4546.666666666667,4462.051282051282,4397.948717948719,4391.282051282052,4707.179487179488,4361.025641025642,4281.538461538462,4142.051282051282,4526.153846153847
2747.971,0.69710803,0.4792801,0.24975741,0.68444437,0,0.0,0.0,0.0,0.0,0.0,0,0,0.0,0.0,0,0,78.0,0.0,532.0,4580.512820512821,3865.6410256410263,4509.2307692307695,4412.307692307693,4234.871794871796,4546.666666666667,4462.051282051282,4397.948717948719,4391.282051282052,4707.179487179488,4361.025641025642,4281.538461538462,4142.051282051282,4526.153846153847
2748.4714,0.7548004,0.44835764,0.23449148,0.7223803,0,0.0,0.0,0.0,0.0,0.0,0,0,0.0,0.0,0,0,13.0,0.0,469.0,5028.205128205129,3881.0256410256416,4835.384615384616,4391.794871794872,4075.3846153846157,4499.48717948718,4851.282051282052,4971.282051282052,4600.512820512821,4974.871794871796,4620.000000000001,4667.179487179488,4346.153846153847,4729.2307692307695
2748.8467,0.7548004,0.44835764,0.23449148,0.7223803,0,0.0,0.0,0.0,0.0,0.34906656,0,0,0.0,0.0,0,0,61.0,0.0,0.0,5352.820512820514,4229.2307692307695,4812.820512820514,4533.333333333334,4250.769230769231,4485.128205128206,4829.2307692307695,4996.410256410257,4535.384615384616,5062.564102564103,4574.358974358975,4635.8974358974365,4566.666666666667,4893.846153846154
2749.097,0.8742244,0.4205274,0.21979429,0.75649697,0,0.0,0.0,0.0,0.0,0.020720927,0,0,0.0,0.0,0,0,93.0,0.0,466.0,5241.025641025642,4261.025641025642,4662.051282051282,4622.564102564103,4327.179487179487,4460.512820512821,4588.205128205129,4751.282051282052,4410.256410256411,4949.2307692307695,4488.205128205129,4366.666666666667,4522.564102564103,4846.666666666667
2749.3472,0.8742244,0.4205274,0.21979429,0.75649697,0,0.0,0.0,0.0,0.0,0.010034608,0,0,0.0,0.0,0,0,125.0,0.0,466.0,5015.8974358974365,4228.717948717949,4488.205128205129,4600.512820512821,4371.794871794872,4447.179487179487,4406.666666666667,4472.820512820514,4319.48717948718,4821.538461538462,4417.435897435898,4124.615384615385,4381.025641025642,4752.307692307693
2749.4722,0.97931755,0.39548022,0.2065695,0.78716904,0,0.0,0.0,0.0,0.0,0.0,0,0,0.0,0.0,0,0,12.0,0.0,497.0,4919.48717948718,4191.794871794872,4411.282051282052,4604.102564102564,4376.923076923077,4433.333333333334,4317.435897435898,4349.2307692307695,4291.794871794872,4770.256410256411,4351.282051282052,4040.5128205128212,4329.743589743591,4717.435897435898
2749.8477,0.97931755,0.39548022,0.2065695,0.78716904,1,0.0,0.0,0.0,0.0,0.0,0,0,0.0,0.0,0,0,60.0,0.0,0.0,4706.666666666667,4012.820512820513,4264.615384615385,4535.384615384616,4284.615384615385,4408.717948717949,4105.128205128206,4053.8461538461543,4182.051282051282,4564.615384615385,4261.025641025642,3891.7948717948725,4144.102564102564,4651.282051282052
2750.004,1.0,0.3729377,0.19467022,0.80462486,0,0.0,0.0,0.0,0.0,0.0,0,0,0.0,0.0,0,0,80.0,0.0,501.0,4551.282051282052,3957.435897435898,4214.871794871796,4486.153846153847,4286.666666666667,4414.358974358975,4073.333333333334,4000.5128205128212,4167.6923076923085,4531.282051282052,4203.589743589744,3844.615384615385,4058.461538461539,4573.333333333334
2750.348,1.0,0.3729377,0.19467022,0.80462486,0,0.0,0.0,0.0,0.0,0.70977193,0,0,0.0,0.0,0,0,124.0,0.0,501.0,4317.948717948719,3918.9743589743593,4183.589743589744,4427.179487179487,4276.410256410257,4441.538461538462,4104.102564102564,3978.9743589743593,4189.2307692307695,4501.538461538462,4137.948717948719,3815.8974358974365,3962.0512820512827,4442.564102564103
2750.5981,1.0,0.35264948,0.19349506,0.810199,0,0.0,0.0,0.0,0.0,0.2611096,0,0,0.0,0.0,0,0,27.0,0.0,0.0,4290.256410256411,3895.3846153846157,4252.307692307693,4398.974358974359,4254.871794871796,4457.948717948719,4151.794871794872,4018.9743589743593,4204.102564102564,4497.435897435898,4121.538461538462,3894.8717948717954,3943.589743589744,4428.717948717949
2750.8484,1.0,0.35264948,0.19349506,0.810199,0,0.0,0.0,0.0,0.0,0.053927843,0,0,0.0,0.0,0,0,59.0,0.0,0.0,4308.205128205129,3867.1794871794878,4298.461538461539,4370.256410256411,4253.846153846154,4492.307692307693,4216.410256410257,4095.3846153846157,4269.2307692307695,4535.8974358974365,4136.410256410257,3971.2820512820517,3963.589743589744,4411.282051282052
2751.0986,1.0,0.33439007,0.20187873,0.8088786,0,0.0,0.0,0.0,0.0,0.06086028,0,0,0.0,0.0,0,0,91.0,0.0,400.0,4298.461538461539,3846.666666666667,4342.051282051282,4352.820512820514,4250.256410256411,4510.256410256411,4283.076923076924,4150.256410256411,4295.384615384616,4569.743589743591,4158.974358974359,4054.8717948717954,4008.205128205129,4413.333333333334
2751.2236,1.0,0.33439007,0.20187873,0.8088786,0,0.0,0.0,0.0,0.0,0.0,0,0,0.0,0.0,0,0,107.0,0.0,400.0,4336.923076923077,3858.461538461539,4381.538461538462,4350.256410256411,4235.384615384616,4504.615384615385,4302.051282051282,4186.153846153847,4335.8974358974365,4599.48717948718,4195.8974358974365,4110.256410256411,4036.9230769230776,4414.871794871796
2751.599,1.0,0.3179566,0.21561582,0.7963362,0,0.0,0.0,0.0,0.0,0.6830834,0,0,0.0,0.0,0,0,26.0,0.0,0.0,4443.589743589744,3863.589743589744,4448.205128205129,4362.051282051282,4225.128205128206,4550.769230769231,4385.641025641026,4278.974358974359,4392.820512820514,4654.871794871796,4265.641025641026,4217.435897435898,4110.256410256411,4459.48717948718
2751.8494,1.0,0.3179566,0.21561582,0.7963362,0,0.0,0.0,0.0,0.0,0.24695589,0,0,0.0,0.0,0,0,58.0,0.0,0.0,4441.025641025642,3865.1282051282055,4467.6923076923085,4366.153846153847,4248.205128205129,4555.384615384616,4427.6923076923085,4326.666666666667,4416.923076923077,4677.948717948719,4282.564102564103,4248.205128205129,4107.179487179487,4446.666666666667
2752.0994,0.97075385,0.30316648,0.22936009,0.7806415,0,0.0,0.0,0.0,0.0,0.09695585,0,0,0.0,0.0,0,0,90.0,0.0,527.0,4470.769230769231,3878.461538461539,4494.358974358975,4376.923076923077,4253.846153846154,4554.871794871796,4442.564102564103,4342.051282051282,4418.461538461539,4695.384615384616,4301.538461538462,4279.48717948718,4124.102564102564,4441.025641025642
2752.2246,0.97075385,0.30316648,0.22936009,0.7806415,0,0.0,0.0,0.0,0.0,0.0,0,0,0.0,0.0,0,0,106.0,0.0,527.0,4478.461538461539,3894.358974358975,4507.179487179488,4386.153846153847,4261.538461538462,4571.794871794872,4461.025641025642,4367.179487179487,4429.2307692307695,4702.564102564103,4319.48717948718,4297.435897435898,4138.461538461539,4448.717948717949
2752.4749,1.0,0.28985536,0.23886815,0.7728153,0,0.0,0.0,0.0,0.0,0.0,0,0,0.0,0.0,0,0,9.0,0.0,482.0,4472.820512820514,3908.205128205129,4520.000000000001,4397.435897435898,4266.153846153847,4557.435897435898,4460.512820512821,4375.384615384616,4427.179487179487,4708.717948717949,4315.8974358974365,4308.205128205129,4132.307692307693,4444.615384615385
2752.4749,1.0,0.28985536,0.23886815,0.7728153,0,0.0,0.0,0.0,0.0,0.0,0,0,0.0,0.0,0,0,9.0,0.0,482.0,4472.820512820514,3908.205128205129,4520.000000000001,4397.435897435898,4266.153846153847,4557.435897435898,4460.512820512821,4375.384615384616,4427.179487179487,4708.717948717949,4315.8974358974365,4308.205128205129,4132.307692307693,4444.615384615385
2753.1003,0.9639292,0.3463395,0.24585634,0.76443493,0,0.0,0.0,0.0,0.0,0.0,0,0,0.51582015,0.0,0,0,89.0,0.0,474.0,4471.794871794872,3900.5128205128212,4512.820512820514,4412.307692307693,4265.641025641026,4553.333333333334,4469.743589743591,4404.615384615385,4435.384615384616,4714.358974358975,4334.871794871796,4285.128205128206,4149.74358974359,4440.000000000001
2753.3506,0.9639292,0.3463395,0.24585634,0.76443493,0,0.0,0.2890433,0.0,0.0,0.0,0,0,0.0,0.0,0,0,121.0,0.0,474.0,4521.025641025642,3902.0512820512827,4521.538461538462,4421.025641025642,4267.179487179487,4559.48717948718,4476.410256410257,4428.717948717949,4462.564102564103,4744.615384615386,4370.769230769231,4303.589743589744,4181.538461538462,4444.102564102564
2753.6008,0.9207839,0.3580856,0.25214678,0.75689214,0,0.0,0.34775636,0.0,0.0,0.0,0,0,0.0,0.0,0,0,24.0,0.0,0.0,4543.076923076924,3908.717948717949,4517.435897435898,4429.743589743591,4261.538461538462,4550.769230769231,4457.948717948719,4400.512820512821,4443.076923076924,4726.153846153847,4369.2307692307695,4291.282051282052,4162.051282051282,4435.8974358974365
2753.851,0.9207839,0.3580856,0.25214678,0.75689214,0,0.0,0.0,0.0,0.0,0.0,0,0,0.0,0.0,0,0,56.0,0.0,0.0,4550.256410256411,3911.2820512820517,4511.282051282052,4427.6923076923085,4257.435897435898,4547.6923076923085,4457.948717948719,4398.461538461539,4413.846153846154,4703.589743589744,4382.564102564103,4277.948717948719,4155.384615384616,4428.717948717949
2753.976,0.8775678,0.39249897,0.2509253,0.7516559,0,0.0,0.0,0.0,0.0,0.0,0,0,0.0,0.0,0,0,72.0,0.0,503.0,4569.743589743591,3924.1025641025644,4519.48717948718,4441.538461538462,4248.717948717949,4548.205128205129,4458.974358974359,4407.179487179487,4424.615384615385,4730.256410256411,4399.48717948718,4293.333333333334,4181.538461538462,4442.564102564103
2753.976,0.8775678,0.39249897,0.2509253,0.7516559,0,0.0,0.0,0.0,0.0,0.0,0,0,0.0,0.0,0,0,72.0,0.0,503.0,4569.743589743591,3924.1025641025644,4519.48717948718,4441.538461538462,4248.717948717949,4548.205128205129,4458.974358974359,4407.179487179487,4424.615384615385,4730.256410256411,4399.48717948718,4293.333333333334,4181.538461538462,4442.564102564103
2754.4766,0.77893806,0.43170527,0.24766062,0.74694085,0,0.0,0.0,0.0,0.0,0.0,0,0,0.0,0.0,0,0,7.0,0.0,480.0,4617.435897435898,3993.333333333334,4523.589743589744,4408.717948717949,4262.051282051282,4562.051282051282,4457.948717948719,4400.512820512821,4422.564102564103,4724.102564102564,4398.461538461539,4265.128205128206,4166.153846153847,4454.871794871796
2754.4766,0.77893806,0.43170527,0.24766062,0.74694085,0,0.0,0.0,0.0,0.0,0.0,0,0,0.0,0.0,0,0,7.0,0.0,480.0,4617.435897435898,3993.333333333334,4523.589743589744,4408.717948717949,4262.051282051282,4562.051282051282,4457.948717948719,4400.512820512821,4422.564102564103,4724.102564102564,4398.461538461539,4265.128205128206,4166.153846153847,4454.871794871796
2754.977,0.72655636,0.46688983,0.2447238,0.7426948,0,0.0,0.0,0.0,0.0,0.0,0,0,0.0,0.0,0,0,71.0,0.0,480.0,4600.512820512821,3922.0512820512827,4522.051282051282,4413.333333333334,4261.538461538462,4568.205128205129,4492.307692307693,4448.205128205129,4457.948717948719,4771.282051282052,4461.025641025642,4307.179487179487,4232.820512820514,4489.2307692307695
2754.977,0.72655636,0.46688983,0.2447238,0.7426948,0,0.0,0.0,0.0,0.0,0.0,0,0,0.0,0.0,0,0,71.0,0.0,480.0,4600.512820512821,3922.0512820512827,4522.051282051282,4413.333333333334,4261.538461538462,4568.205128205129,4492.307692307693,4448.205128205129,4457.948717948719,4771.282051282052,4461.025641025642,4307.179487179487,4232.820512820514,4489.2307692307695
2755.4773,0.743168,0.5009212,0.24208206,0.7286547,0,0.0,0.0,0.0,0.0,0.0,0,0,0.0,0.0,0,0,6.0,0.0,535.0,4631.282051282052,3945.1282051282055,4522.564102564103,4436.410256410257,4262.051282051282,4561.025641025642,4474.871794871796,4443.076923076924,4462.051282051282,4766.666666666667,4472.307692307693,4312.307692307693,4236.410256410257,4506.153846153847
2755.4773,0.743168,0.5009212,0.24208206,0.7286547,0,0.0,0.0,0.0,0.0,0.0,0,0,0.0,0.0,0,0,6.0,0.0,535.0,4631.282051282052,3945.1282051282055,4522.564102564103,4436.410256410257,4262.051282051282,4561.025641025642,4474.871794871796,4443.076923076924,4462.051282051282,4766.666666666667,4472.307692307693,4312.307692307693,4236.410256410257,4506.153846153847
2756.103,0.7196258,0.5218137,0.2509219,0.7160211,0,0.0,0.0,0.19017439,0.0,0.0,0,0,0.0,0.0,0,0,86.0,0.0,528.0,4601.538461538462,3942.564102564103,4506.153846153847,4448.717948717949,4269.2307692307695,4555.8974358974365,4457.435897435898,4408.717948717949,4422.051282051282,4729.743589743591,4423.589743589744,4262.564102564103,4203.076923076924,4488.205128205129
2756.353,0.7196258,0.5218137,0.2509219,0.7160211,0,0.0,0.0,0.0,0.0,0.0,0,0,0.0,0.0,0,0,118.0,0.0,528.0,4630.769230769231,3960.5128205128212,4490.256410256411,4441.538461538462,4269.2307692307695,4553.846153846154,4447.179487179487,4395.384615384616,4407.6923076923085,4718.974358974359,4402.564102564103,4245.128205128206,4189.74358974359,4506.153846153847
2756.4783,0.6294916,0.5217232,0.27391914,0.700595,0,0.0,0.0,0.0,0.0,0.0,0,0,0.0,0.0,0,0,5.0,0.0,562.0,4657.948717948719,3982.0512820512827,4493.333333333334,4424.102564102564,4258.974358974359,4549.743589743591,4453.333333333334,4407.179487179487,4427.6923076923085,4744.615384615386,4409.2307692307695,4260.000000000001,4206.666666666667,4528.717948717949
2756.4783,0.6294916,0.5217232,0.27391914,0.700595,0,0.0,0.0,0.0,0.0,0.0,0,0,0.0,0.0,0,0,5.0,0.0,562.0,4657.948717948719,3982.0512820512827,4493.333333333334,4424.102564102564,4258.974358974359,4549.743589743591,4453.333333333334,4407.179487179487,4427.6923076923085,4744.615384615386,4409.2307692307695,4260.000000000001,4206.666666666667,4528.717948717949
2756.9788,0.54068804,0.5101856,0.2946172,0.68671376,0,0.0,0.0,0.0,0.0,0.0,0,0,0.0,0.0,0,0,69.0,0.0,562.0,4688.205128205129,3968.717948717949,4497.948717948719,4432.820512820514,4275.8974358974365,4554.358974358975,4443.076923076924,4412.307692307693,4422.051282051282,4735.8974358974365,4413.333333333334,4265.641025641026,4205.128205128206,4547.6923076923085
2756.9788,0.54068804,0.5101856,0.2946172,0.68671376,0,0.0,0.0,0.0,0.0,0.0,0,0,0.0,0.0,0,0,69.0,0.0,562.0,4688.205128205129,3968.717948717949,4497.948717948719,4432.820512820514,4275.8974358974365,4554.358974358975,4443.076923076924,4412.307692307693,4422.051282051282,4735.8974358974365,4413.333333333334,4265.641025641026,4205.128205128206,4547.6923076923085
2757.479,0.5065337,0.5045903,0.31324592,0.6864415,0,0.0,0.0,0.0,0.0,0.0,0,0,0.0,0.0,0,0,4.0,0.0,559.0,4664.102564102564,3951.2820512820517,4505.128205128206,4445.128205128206,4283.076923076924,4553.333333333334,4457.435897435898,4415.8974358974365,4408.205128205129,4728.717948717949,4411.282051282052,4267.6923076923085,4208.717948717949,4556.410256410257
2757.479,0.5065337,0.5045903,0.31324592,0.6864415,0,0.0,0.0,0.0,0.0,0.0,0,0,0.0,0.0,0,0,4.0,0.0,559.0,4664.102564102564,3951.2820512820517,4505.128205128206,4445.128205128206,4283.076923076924,4553.333333333334,4457.435897435898,4415.8974358974365,4408.205128205129,4728.717948717949,4411.282051282052,4267.6923076923085,4208.717948717949,4556.410256410257
2758.1047,0.47585207,0.50659305,0.31851307,0.686194,0,0.0,0.0,0.14924976,0.0,0.0,0,0,0.0,0.0,0,0,84.0,0.0,501.0,4702.564102564103,3952.820512820513,4509.2307692307695,4437.435897435898,4272.820512820514,4568.717948717949,4464.102564102564,4438.974358974359,4408.205128205129,4733.333333333334,4373.333333333334,4248.717948717949,4128.205128205129,4536.923076923077
2758.3547,0.47585207,0.50659305,0.31851307,0.686194,0,0.0,0.0,0.057224292,0.0,0.0,0,0,0.0,0.0,0,0,116.0,0.0,501.0,4687.6923076923085,3878.461538461539,4538.974358974359,4387.179487179487,4241.025641025642,4562.564102564103,4497.948717948719,4484.615384615385,4416.923076923077,4730.256410256411,4372.307692307693,4277.435897435898,4083.076923076924,4540.512820512821
2758.48,0.45487136,0.5086002,0.3087451,0.6859688,0,0.0,0.0,0.0,0.0,0.0,0,0,0.0,0.0,0,0,3.0,0.0,544.0,4705.128205128206,3864.615384615385,4539.48717948718,4368.717948717949,4232.820512820514,4561.025641025642,4503.076923076924,4489.743589743591,4411.282051282052,4740.000000000001,4379.48717948718,4266.666666666667,4086.1538461538466,4553.333333333334
2758.48,0.45487136,0.5086002,0.3087451,0.6859688,0,0.0,0.0,0.0,0.0,0.0,0,0,0.0,0.0,0,0,3.0,0.0,544.0,4705.128205128206,3864.615384615385,4539.48717948718,4368.717948717949,4232.820512820514,4561.025641025642,4503.076923076924,4489.743589743591,4411.282051282052,4740.000000000001,4379.48717948718,4266.666666666667,4086.1538461538466,4553.333333333334
2758.9805,0.5042727,0.51303446,0.29995427,0.678135,0,0.0,0.0,0.0,0.0,0.0,0,0,0.0,0.0,0,0,67.0,0.0,544.0,4749.743589743591,3923.589743589744,4555.384615384616,4391.794871794872,4215.8974358974365,4538.974358974359,4494.871794871796,4485.641025641026,4424.615384615385,4757.435897435898,4415.384615384616,4266.153846153847,4150.769230769231,4612.307692307693
2759.2932,0.5042727,0.51303446,0.29995427,0.678135,1,0.0,0.0,0.0,0.0,0.0,0,0,0.0,0.0,0,0,107.0,0.0,402.0,4766.153846153847,3910.2564102564106,4538.974358974359,4410.769230769231,4205.641025641026,4510.256410256411,4460.000000000001,4461.025641025642,4396.923076923077,4767.179487179488,4432.820512820514,4276.923076923077,4216.410256410257,4606.153846153847
2759.606,0.5071246,0.5351455,0.29204306,0.66329527,0,0.0,0.0,0.0,0.0,0.26290563,0,0,0.0,0.0,0,0,18.0,0.0,0.0,4749.743589743591,3878.9743589743593,4553.846153846154,4401.025641025642,4149.74358974359,4488.205128205129,4509.743589743591,4562.051282051282,4477.948717948719,4800.512820512821,4512.307692307693,4354.871794871796,4296.410256410257,4622.051282051282
2759.8562,0.5071246,0.5351455,0.29204306,0.66329527,0,0.0,0.0,0.0,0.0,0.049399175,0,0,0.0,0.0,0,0,50.0,0.0,0.0,4811.282051282052,3916.410256410257,4584.615384615385,4427.6923076923085,4127.6923076923085,4447.6923076923085,4520.512820512821,4602.051282051282,4517.435897435898,4825.641025641026,4572.820512820514,4425.128205128206,4363.076923076924,4648.717948717949
2760.1064,0.6325003,0.55582285,0.2849236,0.64994055,0,0.0,0.0,0.13393795,0.0,0.0,0,0,0.0,0.0,0,0,82.0,0.0,528.0,4847.6923076923085,3953.333333333334,4583.589743589744,4457.948717948719,4168.717948717949,4443.076923076924,4527.6923076923085,4624.102564102564,4536.923076923077,4829.743589743591,4588.717948717949,4450.256410256411,4373.846153846154,4649.2307692307695
2760.2314,0.6325003,0.55582285,0.2849236,0.64994055,0,0.0,0.0,0.0,0.0,0.0,0,0,0.0,0.0,0,0,98.0,0.0,528.0,4835.384615384616,3947.692307692308,4564.615384615385,4464.615384615385,4201.538461538462,4437.435897435898,4496.410256410257,4598.974358974359,4531.282051282052,4855.8974358974365,4585.128205128206,4443.589743589744,4393.333333333334,4654.871794871796
2760.4817,0.7225062,0.58853585,0.28039283,0.6379218,0,0.0,0.0,0.0,0.0,0.0,0,0,0.0,0.0,0,0,1.0,0.0,474.0,4811.794871794872,3974.358974358975,4528.717948717949,4482.564102564103,4236.923076923077,4445.128205128206,4461.538461538462,4522.564102564103,4460.512820512821,4782.564102564103,4502.564102564103,4365.641025641026,4294.358974358975,4615.8974358974365
2760.4817,0.7225062,0.58853585,0.28039283,0.6379218,0,0.0,0.0,0.0,0.0,0.0,0,0,0.0,0.0,0,0,1.0,0.0,474.0,4811.794871794872,3974.358974358975,4528.717948717949,4482.564102564103,4236.923076923077,4445.128205128206,4461.538461538462,4522.564102564103,4460.512820512821,4782.564102564103,4502.564102564103,4365.641025641026,4294.358974358975,4615.8974358974365
2760.9822,0.71867085,0.60575444,0.27725202,0.63682735,0,0.0,0.0,0.0,0.0,0.0,0,0,0.0,0.0,0,0,65.0,0.0,474.0,4685.128205128206,3978.9743589743593,4486.666666666667,4509.2307692307695,4310.256410256411,4487.6923076923085,4393.846153846154,4370.256410256411,4364.102564102564,4693.333333333334,4363.589743589744,4249.74358974359,4217.948717948719,4587.179487179488
2760.9822,0.71867085,0.60575444,0.27725202,0.63682735,0,0.0,0.0,0.0,0.0,0.0,0,0,0.0,0.0,0,0,65.0,0.0,474.0,4685.128205128206,3978.9743589743593,4486.666666666667,4509.2307692307695,4310.256410256411,4487.6923076923085,4393.846153846154,4370.256410256411,4364.102564102564,4693.333333333334,4363.589743589744,4249.74358974359,4217.948717948719,4587.179487179488
2761.4824,0.7968529,0.5853471,0.27585387,0.6416638,0,0.0,0.0,0.0,0.0,0.0,0,0,0.0,0.0,0,0,0.0,0.0,480.0,4549.2307692307695,3955.8974358974365,4459.48717948718,4491.794871794872,4303.589743589744,4541.538461538462,4383.076923076924,4307.179487179487,4340.512820512821,4658.974358974359,4282.051282051282,4173.333333333334,4167.6923076923085,4537.435897435898
2761.4824,0.7968529,0.5853471,0.27585387,0.6416638,0,0.0,0.0,0.0,0.0,0.0,0,0,0.0,0.0,0,0,0.0,0.0,480.0,4549.2307692307695,3955.8974358974365,4459.48717948718,4491.794871794872,4303.589743589744,4541.538461538462,4383.076923076924,4307.179487179487,4340.512820512821,4658.974358974359,4282.051282051282,4173.333333333334,4167.6923076923085,4537.435897435898
2762.1082,0.84942824,0.5469885,0.2745964,0.6460147,0,0.0,0.0,0.0,0.0,0.005982633,0,0,0.0,0.0,0,0,80.0,0.0,500.0,4608.717948717949,3691.2820512820517,4625.128205128206,4307.6923076923085,4122.051282051282,4517.948717948719,4611.794871794872,4585.641025641026,4370.769230769231,4659.48717948718,4308.717948717949,4373.846153846154,4028.717948717949,4534.871794871796
2762.3584,0.84942824,0.5469885,0.2745964,0.6460147,0,0.0,0.0,0.0,0.0,0.028776078,0,0,0.0,0.0,0,0,112.0,0.0,500.0,4928.717948717949,3796.9230769230776,4831.794871794872,4295.8974358974365,4076.410256410257,4504.102564102564,4862.051282051283,4914.871794871796,4433.333333333334,4809.2307692307695,4386.153846153847,4610.256410256411,4181.025641025642,4656.923076923077
2762.6084,0.9468098,0.5124672,0.27492324,0.6499285,0,0.0,0.0,0.0,0.0,0.0,0,0,0.0,0.0,0,0,15.0,0.0,402.0,5088.717948717949,3986.666666666667,4876.923076923077,4380.512820512821,4129.2307692307695,4460.512820512821,4860.000000000001,4954.871794871796,4414.358974358975,4869.2307692307695,4408.717948717949,4602.051282051282,4361.538461538462,4746.666666666667
2762.6084,0.9468098,0.5124672,0.27492324,0.6499285,0,0.0,0.0,0.0,0.0,0.0,0,0,0.0,0.0,0,0,15.0,0.0,402.0,5088.717948717949,3986.666666666667,4876.923076923077,4380.512820512821,4129.2307692307695,4460.512820512821,4860.000000000001,4954.871794871796,4414.358974358975,4869.2307692307695,4408.717948717949,4602.051282051282,4361.538461538462,4746.666666666667
2762.984,0.9829447,0.481398,0.27753374,0.6526499,0,0.0,0.0,0.0,0.0,0.0,0,0,0.0,0.0,0,0,63.0,0.0,0.0,4900.000000000001,4136.923076923077,4616.923076923077,4505.641025641026,4254.871794871796,4443.076923076924,4678.974358974359,4715.384615384616,4330.769230769231,4808.205128205129,4290.769230769231,4226.666666666667,4325.128205128206,4707.179487179488
2763.3591,0.9829447,0.481398,0.27753374,0.6526499,0,0.0,0.0,0.0,0.0,0.0,0,0,0.18434472,0.0,0,0,111.0,0.0,402.0,4798.974358974359,4264.102564102564,4469.743589743591,4588.205128205129,4391.794871794872,4460.512820512821,4442.051282051282,4415.8974358974365,4300.000000000001,4753.846153846154,4288.205128205129,4045.6410256410263,4314.358974358975,4654.358974358975
2763.6094,1.0,0.45343572,0.28884003,0.6546308,0,0.0,0.0,0.040184163,0.0,0.0,0,0,0.0,0.0,0,0,14.0,0.0,530.0,4612.307692307693,4188.717948717949,4340.000000000001,4608.717948717949,4347.179487179487,4449.743589743591,4257.948717948719,4201.538461538462,4225.128205128206,4659.48717948718,4217.948717948719,3910.2564102564106,4171.282051282052,4551.282051282052
2763.8596,1.0,0.45343572,0.28884003,0.6546308,0,0.0,0.0,0.0,0.0,0.0,0,0,0.0,0.0,0,0,46.0,0.0,0.0,4478.461538461539,4100.512820512821,4246.666666666667,4588.205128205129,4325.128205128206,4444.615384615385,4145.641025641026,4054.358974358975,4167.179487179487,4558.461538461539,4123.589743589744,3831.7948717948725,4052.820512820513,4459.48717948718
2763.9846,1.0,0.42826965,0.30264324,0.6564117,0,0.0,0.0,0.0,0.0,0.0,0,0,0.0,0.0,0,0,62.0,0.0,0.0,4417.435897435898,4006.666666666667,4229.74358974359,4558.461538461539,4248.205128205129,4433.846153846154,4133.333333333334,4050.7692307692314,4189.74358974359,4547.179487179488,4124.102564102564,3849.7435897435903,4017.435897435898,4426.666666666667
2763.9846,1.0,0.42826965,0.30264324,0.6564117,0,0.0,0.0,0.0,0.0,0.0,0,0,0.0,0.0,0,0,62.0,0.0,0.0,4417.435897435898,4006.666666666667,4229.74358974359,4558.461538461539,4248.205128205129,4433.846153846154,4133.333333333334,4050.7692307692314,4189.74358974359,4547.179487179488,4124.102564102564,3849.7435897435903,4017.435897435898,4426.666666666667
2764.485,1.0,0.40562022,0.3081697,0.66885936,0,0.0,0.0,0.0,0.0,0.0,0,0,0.0,0.0,0,0,126.0,0.0,530.0,4429.2307692307695,3925.6410256410263,4369.2307692307695,4488.205128205129,4170.769230769231,4426.153846153847,4215.384615384616,4138.461538461539,4228.205128205129,4540.000000000001,4116.410256410257,4032.307692307693,3956.410256410257,4354.871794871796
2764.485,1.0,0.40562022,0.3081697,0.66885936,0,0.0,0.0,0.0,0.0,0.0,0,0,0.0,0.0,0,0,126.0,0.0,530.0,4429.2307692307695,3925.6410256410263,4369.2307692307695,4488.205128205129,4170.769230769231,4426.153846153847,4215.384615384616,4138.461538461539,4228.205128205129,4540.000000000001,4116.410256410257,4032.307692307693,3956.410256410257,4354.871794871796
2764.9856,1.0,0.3852357,0.31914908,0.68418735,0,0.0,0.0,0.0,0.0,0.0,0,0,0.0,0.0,0,0,61.0,0.0,0.0,4537.435897435898,3969.2307692307695,4461.538461538462,4466.666666666667,4228.717948717949,4463.589743589744,4289.74358974359,4182.564102564103,4249.74358974359,4575.384615384616,4180.000000000001,4135.8974358974365,4051.7948717948725,4373.846153846154
2764.9856,1.0,0.3852357,0.31914908,0.68418735,0,0.0,0.0,0.0,0.0,0.0,0,0,0.0,0.0,0,0,61.0,0.0,0.0,4537.435897435898,3969.2307692307695,4461.538461538462,4466.666666666667,4228.717948717949,4463.589743589744,4289.74358974359,4182.564102564103,4249.74358974359,4575.384615384616,4180.000000000001,4135.8974358974365,4051.7948717948725,4373.846153846154
2765.486,1.0,0.36688966,0.3323009,0.7021546,0,0.0,0.0,0.0,0.0,0.0,0,0,0.0,0.0,0,0,125.0,0.0,473.0,4476.923076923077,3967.692307692308,4443.589743589744,4440.512820512821,4267.179487179487,4511.282051282052,4289.74358974359,4204.102564102564,4299.48717948718,4592.820512820514,4187.6923076923085,4109.74358974359,4037.435897435898,4323.589743589744
2765.486,1.0,0.36688966,0.3323009,0.7021546,0,0.0,0.0,0.0,0.0,0.0,0,0,0.0,0.0,0,0,125.0,0.0,473.0,4476.923076923077,3967.692307692308,4443.589743589744,4440.512820512821,4267.179487179487,4511.282051282052,4289.74358974359,4204.102564102564,4299.48717948718,4592.820512820514,4187.6923076923085,4109.74358974359,4037.435897435898,4323.589743589744
2766.1116,0.97163725,0.35037822,0.3408669,0.7200454,0,0.0,0.0,0.0,0.0,0.115899965,0,0,0.0,0.0,0,0,76.0,0.0,505.0,4475.8974358974365,3911.7948717948725,4450.256410256411,4435.8974358974365,4269.2307692307695,4556.923076923077,4336.410256410257,4286.153846153847,4400.512820512821,4670.256410256411,4246.666666666667,4181.025641025642,4122.564102564103,4309.743589743591
2766.2366,0.97163725,0.35037822,0.3408669,0.7200454,0,0.0,0.0,0.0,0.0,0.0,0,0,0.0,0.0,0,0,92.0,0.0,505.0,4490.769230769231,3914.8717948717954,4464.102564102564,4419.48717948718,4249.2307692307695,4566.666666666667,4360.000000000001,4321.025641025642,4417.435897435898,4683.076923076924,4263.589743589744,4208.717948717949,4136.410256410257,4314.358974358975
2766.4868,1.0,0.3355179,0.343037,0.73804164,0,0.0,0.0,0.0,0.0,0.0,0,0,0.0,0.0,0,0,124.0,0.0,505.0,4493.846153846154,3922.564102564103,4488.717948717949,4406.153846153847,4255.8974358974365,4571.794871794872,4397.435897435898,4349.743589743591,4427.6923076923085,4702.564102564103,4265.128205128206,4240.000000000001,4157.435897435898,4324.615384615385
2766.4868,1.0,0.3355179,0.343037,0.73804164,0,0.0,0.0,0.0,0.0,0.0,0,0,0.0,0.0,0,0,124.0,0.0,505.0,4493.846153846154,3922.564102564103,4488.717948717949,4406.153846153847,4255.8974358974365,4571.794871794872,4397.435897435898,4349.743589743591,4427.6923076923085,4702.564102564103,4265.128205128206,4240.000000000001,4157.435897435898,4324.615384615385
2766.9873,0.99791986,0.36657476,0.33864832,0.7647571,0,0.0,0.0,0.0,0.0,0.0,0,0,0.0,0.0,0,0,59.0,0.0,0.0,4503.076923076924,3913.8461538461543,4509.743589743591,4408.717948717949,4273.333333333334,4574.871794871796,4425.641025641026,4402.564102564103,4445.128205128206,4709.2307692307695,4291.282051282052,4264.102564102564,4138.461538461539,4324.615384615385
2766.9873,0.99791986,0.36657476,0.33864832,0.7647571,0,0.0,0.0,0.0,0.0,0.0,0,0,0.0,0.0,0,0,59.0,0.0,0.0,4503.076923076924,3913.8461538461543,4509.743589743591,4408.717948717949,4273.333333333334,4574.871794871796,4425.641025641026,4402.564102564103,4445.128205128206,4709.2307692307695,4291.282051282052,4264.102564102564,4138.461538461539,4324.615384615385
2767.6128,0.93711305,0.39450786,0.33374092,0.7887724,0,0.0,0.0,0.08388424,0.0,0.0,0,0,0.0,0.0,0,0,10.0,0.0,530.0,4784.615384615386,3715.8974358974365,4748.205128205129,4212.307692307693,4101.538461538462,4534.871794871796,4764.615384615386,4853.333333333334,4595.384615384616,4884.615384615386,4525.641025641026,4633.333333333334,4193.333333333334,4474.871794871796
2767.863,0.93711305,0.39450786,0.33374092,0.7887724,0,0.0,0.0,0.15375721,0.0,0.0,0,0,0.0,0.0,0,0,42.0,0.0,0.0,4995.384615384616,3856.9230769230776,4808.717948717949,4284.615384615385,4115.8974358974365,4507.179487179488,4893.846153846154,5043.076923076924,4637.435897435898,4991.282051282052,4651.794871794872,4784.102564102564,4354.871794871796,4606.666666666667
2767.988,1.0,0.41964766,0.32932425,0.8103535,0,0.0,0.0,0.0,0.0,0.0,0,0,0.0,0.0,0,0,58.0,0.0,0.0,5114.358974358975,3969.2307692307695,4801.025641025642,4341.538461538462,4121.025641025642,4476.410256410257,4860.000000000001,5016.410256410257,4610.769230769231,4988.205128205129,4666.666666666667,4780.512820512821,4444.615384615385,4692.820512820514
2767.988,1.0,0.41964766,0.32932425,0.8103535,0,0.0,0.0,0.0,0.0,0.0,0,0,0.0,0.0,0,0,58.0,0.0,0.0,5114.358974358975,3969.2307692307695,4801.025641025642,4341.538461538462,4121.025641025642,4476.410256410257,4860.000000000001,5016.410256410257,4610.769230769231,4988.205128205129,4666.666666666667,4780.512820512821,4444.615384615385,4692.820512820514
2768.4885,1.0,0.44227347,0.3195528,0.82517207,0,0.0,0.0,0.0,0.0,0.0,0,0,0.0,0.0,0,0,122.0,0.0,530.0,4787.6923076923085,3990.7692307692314,4530.769230769231,4490.769230769231,4202.051282051282,4460.512820512821,4512.307692307693,4646.666666666667,4432.307692307693,4814.871794871796,4478.974358974359,4369.743589743591,4329.2307692307695,4554.871794871796
2768.8638,1.0,0.44227347,0.3195528,0.82517207,0,0.0,0.0,0.0,0.0,0.0,0,0,0.0,0.0,0,0,41.0,0.0,0.0,4578.461538461539,3935.3846153846157,4374.358974358975,4517.435897435898,4193.333333333334,4429.743589743591,4326.666666666667,4360.512820512821,4287.179487179487,4611.282051282052,4279.48717948718,4135.8974358974365,4121.025641025642,4424.615384615385
2769.114,1.0,0.46263668,0.30770525,0.8234484,0,0.0,0.0,0.0,0.0,0.0,0,0,0.0,0.0,0,0,73.0,0.0,481.0,4511.282051282052,3922.0512820512827,4311.282051282052,4521.538461538462,4180.512820512821,4435.384615384616,4247.6923076923085,4229.2307692307695,4255.384615384616,4570.769230769231,4227.6923076923085,4036.9230769230776,4075.3846153846157,4362.051282051282
2769.114,1.0,0.46263668,0.30770525,0.8234484,0,0.0,0.0,0.0,0.0,0.0,0,0,0.0,0.0,0,0,73.0,0.0,481.0,4511.282051282052,3922.0512820512827,4311.282051282052,4521.538461538462,4180.512820512821,4435.384615384616,4247.6923076923085,4229.2307692307695,4255.384615384616,4570.769230769231,4227.6923076923085,4036.9230769230776,4075.3846153846157,4362.051282051282
2769.4895,1.0,0.4809636,0.29704285,0.8201751,0,0.0,0.0,0.0,0.0,0.0,0,0,0.0,0.0,0,0,121.0,0.0,472.0,4426.153846153847,3879.48717948718,4309.2307692307695,4520.000000000001,4198.461538461539,4464.102564102564,4216.923076923077,4150.256410256411,4247.6923076923085,4529.743589743591,4181.538461538462,4001.538461538462,4027.692307692308,4318.461538461539
2769.4895,1.0,0.4809636,0.29704285,0.8201751,0,0.0,0.0,0.0,0.0,0.0,0,0,0.0,0.0,0,0,121.0,0.0,472.0,4426.153846153847,3879.48717948718,4309.2307692307695,4520.000000000001,4198.461538461539,4464.102564102564,4216.923076923077,4150.256410256411,4247.6923076923085,4529.743589743591,4181.538461538462,4001.538461538462,4027.692307692308,4318.461538461539
2769.9897,1.0,0.4974578,0.28525355,0.8172214,0,0.0,0.0,0.0,0.0,0.0,0,0,0.0,0.0,0,0,56.0,0.0,0.0,4382.051282051282,3892.820512820513,4357.435897435898,4503.589743589744,4249.2307692307695,4520.512820512821,4258.461538461539,4154.871794871796,4302.564102564103,4574.871794871796,4183.076923076924,4037.9487179487182,4071.2820512820517,4326.153846153847
2769.9897,1.0,0.4974578,0.28525355,0.8172214,0,0.0,0.0,0.0,0.0,0.0,0,0,0.0,0.0,0,0,56.0,0.0,0.0,4382.051282051282,3892.820512820513,4357.435897435898,4503.589743589744,4249.2307692307695,4520.512820512821,4258.461538461539,4154.871794871796,4302.564102564103,4574.871794871796,4183.076923076924,4037.9487179487182,4071.2820512820517,4326.153846153847
2770.4902,1.0,0.5123026,0.27329388,0.81123316,0,0.0,0.0,0.0,0.0,0.0,0,0,0.0,0.0,0,0,120.0,0.0,502.0,4446.666666666667,3943.076923076924,4460.512820512821,4486.153846153847,4300.512820512821,4563.076923076924,4352.307692307693,4233.333333333334,4373.333333333334,4637.948717948719,4207.179487179487,4138.974358974359,4080.0000000000005,4345.128205128206
2770.4902,1.0,0.5123026,0.27329388,0.81123316,0,0.0,0.0,0.0,0.0,0.0,0,0,0.0,0.0,0,0,120.0,0.0,502.0,4446.666666666667,3943.076923076924,4460.512820512821,4486.153846153847,4300.512820512821,4563.076923076924,4352.307692307693,4233.333333333334,4373.333333333334,4637.948717948719,4207.179487179487,4138.974358974359,4080.0000000000005,4345.128205128206
2770.9907,0.9738987,0.5256629,0.26253122,0.7993137,0,0.0,0.0,0.0,0.0,0.0,0,0,0.0,0.0,0,0,55.0,0.0,0.0,4476.410256410257,3930.2564102564106,4516.410256410257,4439.48717948718,4297.435897435898,4599.48717948718,4430.256410256411,4335.384615384616,4434.871794871796,4704.102564102564,4250.769230769231,4215.8974358974365,4123.589743589744,4374.871794871796
2770.9907,0.9738987,0.5256629,0.26253122,0.7993137,0,0.0,0.0,0.0,0.0,0.0,0,0,0.0,0.0,0,0,55.0,0.0,0.0,4476.410256410257,3930.2564102564106,4516.410256410257,4439.48717948718,4297.435897435898,4599.48717948718,4430.256410256411,4335.384615384616,4434.871794871796,4704.102564102564,4250.769230769231,4215.8974358974365,4123.589743589744,4374.871794871796
2771.4912,0.9435754,0.5376872,0.25284615,0.7819943,0,0.0,0.0,0.0,0.0,0.0,0,0,0.0,0.0,0,0,119.0,0.0,407.0,4489.2307692307695,3940.0000000000005,4543.076923076924,4430.256410256411,4327.6923076923085,4587.6923076923085,4465.128205128206,4381.025641025642,4431.282051282052,4714.871794871796,4297.948717948719,4261.025641025642,4142.564102564103,4399.48717948718
2771.4912,0.9435754,0.5376872,0.25284615,0.7819943,0,0.0,0.0,0.0,0.0,0.0,0,0,0.0,0.0,0,0,119.0,0.0,407.0,4489.2307692307695,3940.0000000000005,4543.076923076924,4430.256410256411,4327.6923076923085,4587.6923076923085,4465.128205128206,4381.025641025642,4431.282051282052,4714.871794871796,4297.948717948719,4261.025641025642,4142.564102564103,4399.48717948718
2771.9915,0.85382617,0.549229,0.2520415,0.76442564,0,0.0,0.0,0.0,0.0,0.0,0,0,0.0,0.0,0,0,54.0,0.0,0.0,4565.128205128206,3944.1025641025644,4558.461538461539,4429.743589743591,4271.282051282052,4565.641025641026,4439.48717948718,4377.435897435898,4440.512820512821,4734.871794871796,4347.179487179487,4295.384615384616,4186.153846153847,4448.205128205129
2771.9915,0.85382617,0.549229,0.2520415,0.76442564,0,0.0,0.0,0.0,0.0,0.0,0,0,0.0,0.0,0,0,54.0,0.0,0.0,4565.128205128206,3944.1025641025644,4558.461538461539,4429.743589743591,4271.282051282052,4565.641025641026,4439.48717948718,4377.435897435898,4440.512820512821,4734.871794871796,4347.179487179487,4295.384615384616,4186.153846153847,4448.205128205129
2772.492,0.8358866,0.5645078,0.25375724,0.7486197,0,0.0,0.0,0.0,0.0,0.0,0,0,0.0,0.0,0,0,118.0,0.0,531.0,4462.051282051282,3882.564102564103,4514.358974358975,4403.589743589744,4245.128205128206,4565.128205128206,4474.358974358975,4393.846153846154,4425.641025641026,4721.025641025642,4319.48717948718,4244.615384615385,4122.051282051282,4394.358974358975
2772.492,0.8358866,0.5645078,0.25375724,0.7486197,0,0.0,0.0,0.0,0.0,0.0,0,0,0.0,0.0,0,0,118.0,0.0,531.0,4462.051282051282,3882.564102564103,4514.358974358975,4403.589743589744,4245.128205128206,4565.128205128206,4474.358974358975,4393.846153846154,4425.641025641026,4721.025641025642,4319.48717948718,4244.615384615385,4122.051282051282,4394.358974358975
2772.9924,0.76193404,0.5786002,0.26274452,0.7343985,0,0.0,0.0,0.0,0.0,0.0,0,0,0.0,0.0,0,0,53.0,0.0,0.0,4511.282051282052,3909.7435897435903,4527.6923076923085,4430.769230769231,4253.333333333334,4542.051282051282,4460.000000000001,4398.974358974359,4401.538461538462,4701.025641025642,4352.820512820514,4266.666666666667,4135.384615384616,4424.102564102564
2772.9924,0.76193404,0.5786002,0.26274452,0.7343985,0,0.0,0.0,0.0,0.0,0.0,0,0,0.0,0.0,0,0,53.0,0.0,0.0,4511.282051282052,3909.7435897435903,4527.6923076923085,4430.769230769231,4253.333333333334,4542.051282051282,4460.000000000001,4398.974358974359,4401.538461538462,4701.025641025642,4352.820512820514,4266.666666666667,4135.384615384616,4424.102564102564
2773.618,0.6941547,0.59868795,0.27831078,0.7149767,0,0.0,0.0,0.0,0.0,0.0,0,0,1.0,0.0,0,0,4.0,0.0,559.0,4549.2307692307695,3878.461538461539,4526.153846153847,4445.641025641026,4256.410256410257,4533.846153846154,4460.512820512821,4414.871794871796,4427.6923076923085,4746.666666666667,4401.025641025642,4296.410256410257,4201.538461538462,4478.461538461539
2773.8682,0.6941547,0.59868795,0.27831078,0.7149767,0,0.0,0.0,0.0,0.0,0.3014745,0,0,0.0,0.0,0,0,36.0,0.0,0.0,4573.846153846154,3920.0000000000005,4525.128205128206,4459.48717948718,4259.48717948718,4540.512820512821,4460.512820512821,4415.8974358974365,4418.974358974359,4726.666666666667,4371.282051282052,4265.641025641026,4151.282051282052,4462.051282051282
2774.1184,0.6443109,0.67232466,0.29700425,0.70134574,0,0.0,0.0,0.0,0.0,0.0,0,0,0.0,0.0,0,0,68.0,0.0,559.0,4588.205128205129,3917.435897435898,4523.076923076924,4459.48717948718,4265.128205128206,4543.589743589744,4454.358974358975,4400.512820512821,4409.743589743591,4718.974358974359,4366.153846153847,4262.564102564103,4156.410256410257,4471.794871794872
2774.3687,0.6443109,0.67232466,0.29700425,0.70134574,0,0.0,0.0,0.0,0.0,0.0,0,0,0.70939577,0.0,0,0,100.0,0.0,502.0,4571.282051282052,3930.2564102564106,4520.512820512821,4470.256410256411,4276.410256410257,4554.871794871796,4456.410256410257,4411.282051282052,4416.923076923077,4734.358974358975,4381.538461538462,4263.076923076924,4173.333333333334,4469.2307692307695
2774.4937,0.6233788,0.7170851,0.32198474,0.6964744,0,0.0,0.0,0.0,0.0,0.0,0,0,0.0,0.0,0,0,116.0,0.0,502.0,4552.820512820514,3914.358974358975,4505.641025641026,4461.538461538462,4282.564102564103,4556.410256410257,4458.974358974359,4410.256410256411,4411.794871794872,4713.333333333334,4367.179487179487,4247.179487179487,4146.666666666667,4457.948717948719
2774.4937,0.6233788,0.7170851,0.32198474,0.6964744,0,0.0,0.0,0.0,0.0,0.0,0,0,0.0,0.0,0,0,116.0,0.0,502.0,4552.820512820514,3914.358974358975,4505.641025641026,4461.538461538462,4282.564102564103,4556.410256410257,4458.974358974359,4410.256410256411,4411.794871794872,4713.333333333334,4367.179487179487,4247.179487179487,4146.666666666667,4457.948717948719
2774.9941,0.6208342,0.7217388,0.35341457,0.6920889,0,0.0,0.0,0.0,0.0,0.0,0,0,0.0,0.0,0,0,51.0,0.0,0.0,4603.589743589744,3938.9743589743593,4509.2307692307695,4465.128205128206,4278.461538461539,4566.666666666667,4460.512820512821,4429.743589743591,4429.2307692307695,4747.179487179488,4394.358974358975,4264.615384615385,4183.076923076924,4489.743589743591
2774.9941,0.6208342,0.7217388,0.35341457,0.6920889,0,0.0,0.0,0.0,0.0,0.0,0,0,0.0,0.0,0,0,51.0,0.0,0.0,4603.589743589744,3938.9743589743593,4509.2307692307695,4465.128205128206,4278.461538461539,4566.666666666667,4460.512820512821,4429.743589743591,4429.2307692307695,4747.179487179488,4394.358974358975,4264.615384615385,4183.076923076924,4489.743589743591
2775.4946,0.6535044,0.7238183,0.381701,0.6778524,0,0.0,0.0,0.0,0.0,0.0,0,0,0.0,0.0,0,0,115.0,0.0,407.0,4624.102564102564,3935.8974358974365,4505.128205128206,4465.128205128206,4260.512820512821,4566.153846153847,4454.358974358975,4421.538461538462,4432.307692307693,4746.153846153847,4376.410256410257,4250.769230769231,4166.153846153847,4492.820512820514
2775.4946,0.6535044,0.7238183,0.381701,0.6778524,0,0.0,0.0,0.0,0.0,0.0,0,0,0.0,0.0,0,0,115.0,0.0,407.0,4624.102564102564,3935.8974358974365,4505.128205128206,4465.128205128206,4260.512820512821,4566.153846153847,4454.358974358975,4421.538461538462,4432.307692307693,4746.153846153847,4376.410256410257,4250.769230769231,4166.153846153847,4492.820512820514
2775.995,0.6446942,0.7220317,0.40041608,0.6650408,0,0.0,0.0,0.0,0.0,0.0,0,0,0.0,0.0,0,0,50.0,0.0,0.0,4641.538461538462,3952.820512820513,4505.641025641026,4469.2307692307695,4258.974358974359,4555.8974358974365,4443.589743589744,4395.384615384616,4411.282051282052,4708.205128205129,4370.256410256411,4252.820512820514,4160.000000000001,4494.358974358975
2775.995,0.6446942,0.7220317,0.40041608,0.6650408,0,0.0,0.0,0.0,0.0,0.0,0,0,0.0,0.0,0,0,50.0,0.0,0.0,4641.538461538462,3952.820512820513,4505.641025641026,4469.2307692307695,4258.974358974359,4555.8974358974365,4443.589743589744,4395.384615384616,4411.282051282052,4708.205128205129,4370.256410256411,4252.820512820514,4160.000000000001,4494.358974358975
2776.4954,0.59913844,0.7128918,0.39821658,0.66782725,0,0.0,0.0,0.0,0.0,0.0,0,0,0.0,0.0,0,0,114.0,0.0,531.0,4634.358974358975,3942.0512820512827,4508.717948717949,4466.666666666667,4258.461538461539,4567.179487179488,4457.435897435898,4410.256410256411,4394.358974358975,4718.461538461539,4367.179487179487,4256.410256410257,4171.282051282052,4484.102564102564
2776.4954,0.59913844,0.7128918,0.39821658,0.66782725,0,0.0,0.0,0.0,0.0,0.0,0,0,0.0,0.0,0,0,114.0,0.0,531.0,4634.358974358975,3942.0512820512827,4508.717948717949,4466.666666666667,4258.461538461539,4567.179487179488,4457.435897435898,4410.256410256411,4394.358974358975,4718.461538461539,4367.179487179487,4256.410256410257,4171.282051282052,4484.102564102564
2776.9958,0.58446825,0.7120003,0.38342112,0.6730888,0,0.0,0.0,0.0,0.0,0.0,0,0,0.0,0.0,0,0,49.0,0.0,0.0,4645.641025641026,3925.1282051282055,4489.743589743591,4447.179487179487,4235.8974358974365,4551.794871794872,4430.256410256411,4410.256410256411,4387.179487179487,4724.102564102564,4377.435897435898,4249.2307692307695,4188.717948717949,4491.794871794872
2776.9958,0.58446825,0.7120003,0.38342112,0.6730888,0,0.0,0.0,0.0,0.0,0.0,0,0,0.0,0.0,0,0,49.0,0.0,0.0,4645.641025641026,3925.1282051282055,4489.743589743591,4447.179487179487,4235.8974358974365,4551.794871794872,4430.256410256411,4410.256410256411,4387.179487179487,4724.102564102564,4377.435897435898,4249.2307692307695,4188.717948717949,4491.794871794872
2777.6213,0.55021167,0.7263604,0.36674047,0.67506546,0,0.0,0.0,0.0,0.0,0.0,0,0,0.38052925,0.0,0,0,0.0,0.0,482.0,4608.717948717949,3912.307692307693,4487.179487179488,4440.512820512821,4234.871794871796,4541.025641025642,4408.205128205129,4383.076923076924,4377.948717948719,4716.923076923077,4375.384615384616,4243.589743589744,4174.871794871796,4488.205128205129
2777.8716,0.55021167,0.7263604,0.36674047,0.67506546,0,0.0,0.0,0.0,0.0,0.0,0,0,0.0,0.0,0,0,32.0,0.0,0.0,4598.974358974359,3907.1794871794878,4487.6923076923085,4443.589743589744,4234.871794871796,4552.307692307693,4427.179487179487,4394.358974358975,4378.974358974359,4724.615384615386,4373.846153846154,4246.153846153847,4185.128205128206,4503.589743589744
2777.9968,0.51617646,0.72349805,0.3494438,0.67684186,0,0.0,0.0,0.0,0.0,0.0,0,0,0.0,0.0,0,0,48.0,0.0,0.0,4613.846153846154,3911.2820512820517,4487.179487179488,4444.102564102564,4247.6923076923085,4552.820512820514,4429.2307692307695,4396.923076923077,4385.641025641026,4730.769230769231,4378.461538461539,4247.179487179487,4180.512820512821,4523.589743589744
2777.9968,0.51617646,0.72349805,0.3494438,0.67684186,0,0.0,0.0,0.0,0.0,0.0,0,0,0.0,0.0,0,0,48.0,0.0,0.0,4613.846153846154,3911.2820512820517,4487.179487179488,4444.102564102564,4247.6923076923085,4552.820512820514,4429.2307692307695,4396.923076923077,4385.641025641026,4730.769230769231,4378.461538461539,4247.179487179487,4180.512820512821,4523.589743589744
2778.497,0.47418976,0.7265942,0.3302508,0.68451595,0,0.0,0.0,0.0,0.0,0.0,0,0,0.0,0.0,0,0,112.0,0.0,502.0,4615.8974358974365,3908.717948717949,4502.564102564103,4443.589743589744,4225.641025641026,4550.769230769231,4436.410256410257,4402.051282051282,4402.051282051282,4747.179487179488,4401.538461538462,4270.769230769231,4211.282051282052,4539.48717948718
2778.497,0.47418976,0.7265942,0.3302508,0.68451595,0,0.0,0.0,0.0,0.0,0.0,0,0,0.0,0.0,0,0,112.0,0.0,502.0,4615.8974358974365,3908.717948717949,4502.564102564103,4443.589743589744,4225.641025641026,4550.769230769231,4436.410256410257,4402.051282051282,4402.051282051282,4747.179487179488,4401.538461538462,4270.769230769231,4211.282051282052,4539.48717948718
2778.9976,0.4169136,0.72564846,0.31297716,0.6914179,0,0.0,0.0,0.0,0.0,0.0,0,0,0.0,0.0,0,0,47.0,0.0,0.0,4635.384615384616,3928.717948717949,4497.948717948719,4454.358974358975,4266.666666666667,4565.641025641026,4442.051282051282,4413.333333333334,4412.307692307693,4748.205128205129,4410.769230769231,4264.102564102564,4227.179487179487,4556.923076923077
2779.3728,0.4169136,0.72564846,0.31297716,0.6914179,0,0.0,0.0,0.0,0.0,0.0,0,0,0.0,0.0,0,0,95.0,0.0,405.0,4617.435897435898,3904.615384615385,4496.923076923077,4444.615384615385,4271.794871794872,4567.179487179488,4446.153846153847,4424.102564102564,4410.769230769231,4738.461538461539,4397.948717948719,4269.74358974359,4196.923076923077,4553.846153846154
2779.498,0.38955507,0.7059651,0.29743123,0.6979682,0,0.0,0.0,0.0,0.0,0.0,0,0,0.0,0.0,0,0,111.0,0.0,405.0,4651.794871794872,3943.076923076924,4504.102564102564,4456.923076923077,4268.717948717949,4572.307692307693,4459.48717948718,4429.743589743591,4400.000000000001,4718.461538461539,4357.435897435898,4239.48717948718,4137.948717948719,4542.051282051282
2779.8733,0.38955507,0.7059651,0.29743123,0.6979682,0,0.0,0.0,0.0,0.0,0.18342236,0,0,0.0,0.0,0,0,30.0,0.0,0.0,4652.820512820514,3925.6410256410263,4511.794871794872,4451.282051282052,4253.333333333334,4555.8974358974365,4447.6923076923085,4423.589743589744,4412.307692307693,4735.8974358974365,4413.846153846154,4281.025641025642,4214.871794871796,4585.128205128206
2780.1235,0.35285705,0.70161146,0.28193173,0.71089906,0,0.0,0.0,0.3740041,0.0,0.0,0,0,0.0,0.0,0,0,62.0,0.0,0.0,4666.666666666667,3928.717948717949,4510.256410256411,4452.307692307693,4265.641025641026,4570.256410256411,4460.512820512821,4447.6923076923085,4432.307692307693,4752.307692307693,4411.282051282052,4280.000000000001,4205.128205128206,4583.589743589744
2780.3738,0.35285705,0.70161146,0.28193173,0.71089906,0,0.0,0.0,0.16791725,0.0,0.0,0,0,0.0,0.0,0,0,94.0,0.0,531.0,4677.435897435898,3935.3846153846157,4521.025641025642,4450.769230769231,4260.000000000001,4569.2307692307695,4475.384615384616,4448.205128205129,4441.025641025642,4746.153846153847,4427.6923076923085,4296.410256410257,4196.923076923077,4589.743589743591
2780.4988,0.39966506,0.68613696,0.26996735,0.7225276,0,0.0,0.0,0.0,0.0,0.0,0,0,0.0,0.0,0,0,110.0,0.0,531.0,4695.8974358974365,3929.2307692307695,4515.8974358974365,4445.128205128206,4244.102564102564,4564.102564102564,4458.461538461539,4427.179487179487,4413.846153846154,4745.641025641026,4428.205128205129,4291.794871794872,4233.846153846154,4627.6923076923085
2780.4988,0.39966506,0.68613696,0.26996735,0.7225276,0,0.0,0.0,0.0,0.0,0.0,0,0,0.0,0.0,0,0,110.0,0.0,531.0,4695.8974358974365,3929.2307692307695,4515.8974358974365,4445.128205128206,4244.102564102564,4564.102564102564,4458.461538461539,4427.179487179487,4413.846153846154,4745.641025641026,4428.205128205129,4291.794871794872,4233.846153846154,4627.6923076923085
2780.9993,0.3584563,0.66993326,0.26188478,0.73298347,0,0.0,0.0,0.0,0.0,0.0,0,0,0.0,0.0,0,0,45.0,0.0,0.0,4733.333333333334,3974.8717948717954,4515.8974358974365,4458.461538461539,4278.461538461539,4557.435897435898,4462.051282051282,4413.846153846154,4390.256410256411,4706.153846153847,4376.410256410257,4264.102564102564,4150.256410256411,4614.358974358975
2781.3745,0.3584563,0.66993326,0.26188478,0.73298347,0,0.0,0.0,0.20704521,0.0,0.0,0,0,0.0,0.0,0,0,93.0,0.0,473.0,4706.666666666667,3958.9743589743593,4512.820512820514,4459.48717948718,4289.74358974359,4572.307692307693,4460.512820512821,4421.025641025642,4426.153846153847,4735.8974358974365,4395.384615384616,4266.153846153847,4189.74358974359,4637.435897435898
2781.4998,0.3595746,0.65396893,0.26642126,0.7382257,0,0.0,0.0,0.0,0.0,0.0,0,0,0.0,0.0,0,0,109.0,0.0,473.0,4695.384615384616,3955.3846153846157,4520.000000000001,4458.974358974359,4278.461538461539,4573.333333333334,4463.589743589744,4429.743589743591,4430.769230769231,4736.410256410257,4401.025641025642,4271.794871794872,4192.820512820514,4619.48717948718
2781.4998,0.3595746,0.65396893,0.26642126,0.7382257,0,0.0,0.0,0.0,0.0,0.0,0,0,0.0,0.0,0,0,109.0,0.0,473.0,4695.384615384616,3955.3846153846157,4520.000000000001,4458.974358974359,4278.461538461539,4573.333333333334,4463.589743589744,4429.743589743591,4430.769230769231,4736.410256410257,4401.025641025642,4271.794871794872,4192.820512820514,4619.48717948718
2782.1252,0.31267545,0.6384506,0.2811583,0.73898387,0,0.0,0.0,0.0,0.0,0.0,0,0,1.0,0.0,0,0,60.0,0.0,0.0,4711.282051282052,3980.0000000000005,4510.256410256411,4467.179487179487,4293.333333333334,4560.000000000001,4443.076923076924,4385.128205128206,4409.743589743591,4719.48717948718,4388.205128205129,4256.410256410257,4202.051282051282,4625.641025641026
2782.3755,0.31267545,0.6384506,0.2811583,0.73898387,0,0.0,0.0,0.0,0.0,0.0,0,0,0.0,0.0,0,0,92.0,0.0,502.0,4699.48717948718,3971.2820512820517,4525.641025641026,4469.743589743591,4272.307692307693,4555.384615384616,4448.717948717949,4392.820512820514,4410.256410256411,4720.512820512821,4390.769230769231,4265.128205128206,4197.948717948719,4605.641025641026
2782.5005,0.3423812,0.61714035,0.29789478,0.73966086,0,0.0,0.0,0.0,0.0,0.0,0,0,0.0,0.0,0,0,108.0,0.0,502.0,4706.153846153847,3955.3846153846157,4516.923076923077,4456.923076923077,4266.153846153847,4554.358974358975,4463.589743589744,4424.615384615385,4413.846153846154,4732.820512820514,4386.153846153847,4270.769230769231,4189.74358974359,4601.025641025642
2782.5005,0.3423812,0.61714035,0.29789478,0.73966086,0,0.0,0.0,0.0,0.0,0.0,0,0,0.0,0.0,0,0,108.0,0.0,502.0,4706.153846153847,3955.3846153846157,4516.923076923077,4456.923076923077,4266.153846153847,4554.358974358975,4463.589743589744,4424.615384615385,4413.846153846154,4732.820512820514,4386.153846153847,4270.769230769231,4189.74358974359,4601.025641025642
2783.1262,0.3223524,0.59568006,0.31295803,0.7402648,0,0.0,0.0,0.09245081,0.0,0.0,0,0,0.0,0.0,0,0,59.0,0.0,0.0,4892.820512820514,3942.0512820512827,4602.051282051282,4393.846153846154,4188.205128205129,4529.2307692307695,4587.179487179488,4602.051282051282,4444.102564102564,4769.743589743591,4419.48717948718,4374.871794871796,4199.48717948718,4661.025641025642
2783.3765,0.3223524,0.59568006,0.31295803,0.7402648,0,0.0,0.0,0.0,0.0,0.47056872,0,0,0.0,0.0,0,0,91.0,0.0,403.0,4935.384615384616,3974.358974358975,4584.615384615385,4405.128205128206,4189.74358974359,4491.794871794872,4570.769230769231,4596.410256410257,4417.435897435898,4775.384615384616,4410.256410256411,4346.666666666667,4233.846153846154,4674.871794871796
