timestamp,excitement,frustration,meditation,engagementBoredom,blink,clench,laugh,smile,eyebrow,furrowBrow,lookLeft,lookRight,smirkLeft,smirkRight,winkLeft,winkRight,eeg0,eeg1,eeg2,eeg3,eeg4,eeg5,eeg6,eeg7,eeg8,eeg9,eeg10,eeg11,eeg12,eeg13,eeg14,eeg15,eeg16
2466.0881,0.83494294,0.5746377,0.41081053,0.6014359,0,0.0,0.0,0.0,0.0,0.7034269,0,0,0.0,0.0,1,0,21.0,0.0,0.0,4013.8461538461543,3806.666666666667,4570.256410256411,4335.384615384616,4059.48717948718,4606.153846153847,4510.256410256411,4410.769230769231,4463.589743589744,4814.871794871796,4198.461538461539,4481.538461538462,4057.9487179487182,4156.923076923077
2466.3384,0.8549371,0.57355917,0.403049,0.59650856,0,0.0,0.0,0.0,0.0,0.4379925,0,0,0.0,0.0,0,0,53.0,0.0,0.0,4014.8717948717954,3745.1282051282055,4554.358974358975,4338.461538461539,4087.692307692308,4585.641025641026,4476.410256410257,4381.025641025642,4380.512820512821,4744.615384615386,4153.846153846154,4433.846153846154,4017.435897435898,4161.025641025642
2466.5884,0.8549371,0.57355917,0.403049,0.59650856,0,0.0,0.0,0.0,0.0,1.0,0,0,0.0,0.0,0,0,85.0,0.0,477.0,4167.6923076923085,3781.538461538462,4595.384615384616,4380.512820512821,4153.333333333334,4593.846153846154,4487.6923076923085,4393.846153846154,4372.820512820514,4758.461538461539,4185.641025641026,4440.000000000001,4041.0256410256416,4197.948717948719
2466.7136,0.9553374,0.5725885,0.39606526,0.5920749,0,0.0,0.0,0.0,0.0,1.0,0,0,0.0,0.0,0,0,101.0,0.0,477.0,4185.128205128206,3799.48717948718,4609.743589743591,4396.923076923077,4170.256410256411,4585.128205128206,4493.846153846154,4420.000000000001,4381.538461538462,4761.538461538462,4214.871794871796,4461.025641025642,4054.358974358975,4216.923076923077
2467.0889,0.9553374,0.5725885,0.39606526,0.5920749,0,0.0,0.0,0.0,0.0,0.0,0,0,0.0,0.0,1,0,20.0,0.0,0.0,4165.128205128206,3754.358974358975,4600.512820512821,4402.051282051282,4216.923076923077,4540.000000000001,4487.179487179488,4394.358974358975,4320.000000000001,4702.564102564103,4167.6923076923085,4391.794871794872,3971.2820512820517,4218.974358974359
2467.3079,1.0,0.5717149,0.38978034,0.5880849,0,0.0,0.0,0.0,0.0,0.0,0,0,0.0,0.0,0,0,48.0,0.0,0.0,4250.256410256411,3742.564102564103,4604.102564102564,4417.948717948719,4202.051282051282,4539.48717948718,4475.8974358974365,4396.410256410257,4308.205128205129,4706.153846153847,4198.461538461539,4396.923076923077,4021.0256410256416,4263.076923076924
2467.5894,1.0,0.5717149,0.38978034,0.5880849,0,0.0,0.0,0.0,0.0,0.42385194,0,0,0.0,0.0,0,0,84.0,0.0,499.0,4198.974358974359,3765.1282051282055,4625.128205128206,4430.256410256411,4215.384615384616,4550.769230769231,4507.6923076923085,4429.2307692307695,4369.2307692307695,4732.307692307693,4245.128205128206,4413.846153846154,4068.205128205129,4302.564102564103
2467.8396,1.0,0.57092863,0.38412413,0.584494,0,0.0,0.0,0.0,0.0,0.3166813,0,0,0.0,0.0,0,0,116.0,0.0,499.0,4165.128205128206,3773.8461538461543,4643.589743589744,4455.384615384616,4206.666666666667,4547.6923076923085,4513.846153846154,4482.051282051282,4377.948717948719,4748.205128205129,4274.871794871796,4409.2307692307695,4066.1538461538466,4298.461538461539
2468.0898,1.0,0.57092863,0.38412413,0.584494,0,0.0,0.0,0.0,0.0,0.2350723,0,0,0.0,0.0,0,0,19.0,0.0,0.0,4060.5128205128212,3756.9230769230776,4681.538461538462,4473.846153846154,4193.333333333334,4566.153846153847,4574.871794871796,4587.6923076923085,4470.769230769231,4843.589743589744,4428.717948717949,4492.820512820514,4172.307692307693,4233.846153846154
2468.34,0.9342147,0.57022107,0.37903476,0.5812629,0,0.0,0.0,0.0,0.0,0.8225873,0,1,0.0,0.0,0,0,51.0,0.0,0.0,4144.615384615385,3832.307692307693,4704.102564102564,4491.282051282052,4217.948717948719,4576.410256410257,4583.589743589744,4609.2307692307695,4596.923076923077,4918.461538461539,4477.948717948719,4541.538461538462,4201.538461538462,4345.128205128206
2468.59,0.9342147,0.57022107,0.37903476,0.5812629,0,0.0,0.0,0.0,0.0,0.19784376,0,0,0.0,0.0,0,0,83.0,0.0,418.0,4127.179487179487,3824.615384615385,4682.051282051282,4496.923076923077,4210.256410256411,4569.2307692307695,4573.846153846154,4609.2307692307695,4601.025641025642,4919.48717948718,4509.743589743591,4543.076923076924,4224.102564102564,4360.512820512821
2468.8403,0.9623312,0.5695842,0.3813875,0.58399886,0,0.0,0.0,0.0,0.0,0.43960738,0,0,0.0,0.0,0,0,115.0,0.0,418.0,4232.820512820514,3838.9743589743593,4647.179487179488,4489.743589743591,4215.8974358974365,4544.102564102564,4545.641025641026,4589.2307692307695,4611.282051282052,4900.512820512821,4510.256410256411,4522.051282051282,4200.000000000001,4383.589743589744
2469.0906,0.9623312,0.5695842,0.3813875,0.58399886,0,0.0,0.0,0.0,0.0,0.5307574,0,0,0.0,0.0,0,0,18.0,0.0,0.0,4255.384615384616,3850.2564102564106,4615.384615384616,4474.358974358975,4235.8974358974365,4546.153846153847,4516.923076923077,4552.307692307693,4609.743589743591,4876.410256410257,4477.435897435898,4476.923076923077,4171.282051282052,4405.128205128206
2469.3408,0.98086095,0.56901103,0.39305258,0.5958994,0,0.0,0.0,0.0,0.0,0.13221416,0,0,0.0,0.0,0,0,50.0,0.0,0.0,4266.153846153847,3846.666666666667,4596.410256410257,4472.820512820514,4259.48717948718,4541.538461538462,4477.435897435898,4484.102564102564,4553.846153846154,4802.564102564103,4421.025641025642,4411.282051282052,4117.435897435898,4383.589743589744
2469.591,0.98086095,0.56901103,0.39305258,0.5958994,0,0.0,0.0,0.0,0.0,0.36504883,0,0,0.0,0.0,0,0,82.0,0.0,535.0,4346.666666666667,3837.435897435898,4568.205128205129,4473.846153846154,4266.153846153847,4529.743589743591,4466.666666666667,4447.6923076923085,4550.769230769231,4782.051282051282,4408.717948717949,4363.076923076924,4085.1282051282055,4406.666666666667
2469.8413,0.8779849,0.56849515,0.4046327,0.6093807,0,0.0,0.0,0.0,0.0,0.51072264,0,0,0.0,0.0,0,0,114.0,0.0,535.0,4388.717948717949,3870.7692307692314,4570.769230769231,4475.384615384616,4317.948717948719,4525.128205128206,4440.000000000001,4414.358974358975,4510.256410256411,4749.2307692307695,4382.564102564103,4351.794871794872,4085.1282051282055,4445.128205128206
2470.0916,0.8779849,0.56849515,0.4046327,0.6093807,0,0.0,0.0,0.0,0.0,0.3543628,0,0,0.0,0.0,0,0,17.0,0.0,0.0,4437.948717948719,3962.0512820512827,4580.512820512821,4491.282051282052,4310.769230769231,4518.974358974359,4424.615384615385,4340.000000000001,4437.435897435898,4643.589743589744,4261.538461538462,4261.025641025642,3892.307692307693,4395.384615384616
2470.3418,0.8573674,0.5680309,0.41505343,0.6215122,0,0.0,0.0,0.0,0.0,1.0,0,1,0.0,0.0,0,0,49.0,0.0,0.0,4493.846153846154,3895.3846153846157,4529.2307692307695,4468.717948717949,4284.102564102564,4506.153846153847,4390.256410256411,4328.205128205129,4425.641025641026,4642.051282051282,4261.538461538462,4232.307692307693,3898.461538461539,4385.128205128206
2470.592,0.8573674,0.5680309,0.41505343,0.6215122,0,0.0,0.0,0.0,0.0,0.89099497,0,0,0.0,0.0,0,0,81.0,0.0,475.0,4567.179487179488,3802.564102564103,4542.564102564103,4459.48717948718,4245.641025641026,4492.307692307693,4408.205128205129,4377.948717948719,4476.410256410257,4720.512820512821,4393.333333333334,4323.076923076924,4137.948717948719,4547.179487179488
2470.842,0.907304,0.8007814,0.42443058,0.6324282,0,0.0,0.0,0.0,0.0,0.5210424,0,0,0.0,0.0,0,0,113.0,0.0,475.0,4396.923076923077,3831.2820512820517,4551.282051282052,4458.461538461539,4278.974358974359,4521.025641025642,4442.564102564103,4390.769230769231,4393.846153846154,4684.615384615386,4371.794871794872,4295.8974358974365,4062.0512820512827,4467.6923076923085
2471.0923,0.907304,0.8007814,0.42443058,0.6324282,0,0.0,0.0,0.0,0.0,0.23049134,0,0,0.0,0.0,0,0,16.0,0.0,0.0,4356.923076923077,3727.1794871794878,4542.564102564103,4437.435897435898,4235.8974358974365,4487.6923076923085,4459.48717948718,4440.000000000001,4420.000000000001,4696.923076923077,4418.974358974359,4323.076923076924,4041.0256410256416,4421.538461538462
2471.3425,0.84771025,1.0,0.44078523,0.63829964,0,0.0,0.0,0.0,0.0,0.011094348,0,0,0.0,0.0,0,0,48.0,0.0,0.0,4584.102564102564,3575.3846153846157,4665.641025641026,4454.871794871796,4102.564102564103,4511.794871794872,4676.923076923077,4901.025641025642,4702.564102564103,4974.358974358975,4722.051282051282,4624.102564102564,4172.307692307693,4487.179487179488
2471.5928,0.84771025,1.0,0.44078523,0.63829964,0,0.0,0.0,0.0,0.0,0.053649943,0,0,0.0,0.0,0,1,80.0,0.0,484.0,5091.282051282052,3873.333333333334,4888.205128205129,4565.128205128206,4167.6923076923085,4554.871794871796,4967.6923076923085,5469.743589743591,5067.6923076923085,5370.769230769231,5118.974358974359,5028.205128205129,4438.461538461539,4634.358974358975
2471.843,0.955985,1.0,0.4681129,0.641823,0,0.0,0.0,0.0,0.0,0.2922176,0,0,0.0,0.0,0,1,112.0,0.0,484.0,5323.076923076924,4155.8974358974365,4561.025641025642,4501.025641025642,4246.153846153847,4396.410256410257,4818.974358974359,5390.256410256411,4940.512820512821,5257.435897435898,4976.410256410257,4787.179487179488,4331.282051282052,4664.102564102564
2472.0933,0.955985,1.0,0.4681129,0.641823,0,0.0,0.0,0.0,0.117267035,0.0,0,0,0.0,0.0,0,0,15.0,0.0,405.0,5222.051282051283,4265.128205128206,4291.282051282052,4434.358974358975,4336.410256410257,4304.615384615385,4584.615384615385,5005.641025641026,4684.615384615386,4988.205128205129,4640.512820512821,4429.743589743591,4186.153846153847,4577.948717948719
2472.3435,1.0,1.0,0.48011518,0.639222,0,0.0,0.0,0.0,0.0,0.021712119,0,0,0.0,0.0,0,0,47.0,0.0,0.0,5008.205128205129,4233.333333333334,4164.615384615385,4368.717948717949,4278.974358974359,4353.846153846154,4436.410256410257,4683.589743589744,4539.48717948718,4772.307692307693,4532.820512820514,4166.153846153847,4102.564102564103,4573.846153846154
2472.5938,1.0,1.0,0.48011518,0.639222,0,0.0,0.0,0.0,0.0,0.11980097,0,0,0.0,0.0,0,0,79.0,0.0,405.0,5041.538461538462,4232.307692307693,4162.051282051282,4379.48717948718,4333.846153846154,4495.384615384616,4413.333333333334,4491.282051282052,4562.051282051282,4789.2307692307695,4509.2307692307695,4053.333333333334,4250.769230769231,4892.307692307693
2472.8438,1.0,1.0,0.48315918,0.6313828,0,0.0,0.0,0.0,0.0,0.06765241,0,0,0.0,0.0,0,0,111.0,0.0,405.0,4925.641025641026,4210.769230769231,4135.384615384616,4385.128205128206,4325.641025641026,4510.256410256411,4280.512820512821,4178.974358974359,4421.025641025642,4639.48717948718,4368.717948717949,3885.6410256410263,4095.3846153846157,4802.564102564103
2473.094,1.0,1.0,0.48315918,0.6313828,0,0.0,0.0,0.0,0.0,0.031684946,0,0,0.0,0.0,0,0,14.0,0.0,535.0,4796.923076923077,4213.846153846154,4243.589743589744,4409.2307692307695,4300.000000000001,4573.846153846154,4280.512820512821,4057.435897435898,4420.512820512821,4632.307692307693,4345.641025641026,3911.7948717948725,4091.7948717948725,4732.820512820514
2473.3442,1.0,1.0,0.48561785,0.62345725,0,0.0,0.0,0.0,0.0,0.11654243,0,0,0.0,0.0,0,0,46.0,0.0,0.0,4595.8974358974365,4106.153846153847,4251.282051282052,4367.6923076923085,4233.846153846154,4500.000000000001,4214.871794871796,3904.615384615385,4266.666666666667,4466.153846153847,4148.717948717949,3831.7948717948725,3880.512820512821,4616.410256410257
2473.5945,1.0,1.0,0.48561785,0.62345725,0,0.0,0.0,0.0,0.0,0.41809678,0,0,0.0,0.0,0,0,78.0,0.0,535.0,4486.666666666667,3984.1025641025644,4350.256410256411,4362.051282051282,4204.615384615385,4511.794871794872,4293.846153846154,3999.48717948718,4323.076923076924,4539.48717948718,4200.512820512821,3973.8461538461543,3960.5128205128212,4600.000000000001
2473.8447,1.0,1.0,0.47036505,0.61632574,0,0.0,0.0,0.0,0.0,0.19397576,0,0,0.0,0.0,0,0,110.0,0.0,535.0,4677.948717948719,4098.974358974359,4511.282051282052,4401.025641025642,4133.333333333334,4457.435897435898,4357.948717948719,4144.615384615385,4372.820512820514,4553.333333333334,4228.205128205129,4164.102564102564,3962.0512820512827,4650.769230769231
2474.095,1.0,1.0,0.47036505,0.61632574,0,0.0,0.0,0.0,0.0,0.1979129,0,0,0.0,0.0,0,0,13.0,0.0,474.0,4399.48717948718,3960.0000000000005,4522.564102564103,4386.666666666667,4125.641025641026,4418.974358974359,4374.358974358975,4228.717948717949,4374.871794871796,4593.846153846154,4246.666666666667,4232.307692307693,3991.7948717948725,4588.717948717949
2474.3452,1.0,1.0,0.4566365,0.609907,0,0.0,0.0,0.0,0.0,0.3182681,0,0,0.0,0.0,0,0,45.0,0.0,0.0,4357.435897435898,3949.2307692307695,4556.923076923077,4397.948717948719,4155.8974358974365,4446.153846153847,4325.128205128206,4285.128205128206,4382.051282051282,4635.384615384616,4294.358974358975,4296.923076923077,4071.2820512820517,4547.179487179488
2474.5955,1.0,1.0,0.4566365,0.609907,0,0.0,0.0,0.0,0.0,0.22400296,0,0,0.0,0.0,0,0,77.0,0.0,474.0,4535.8974358974365,3978.461538461539,4566.666666666667,4408.717948717949,4202.564102564103,4461.538461538462,4326.153846153847,4263.076923076924,4337.948717948719,4586.666666666667,4297.435897435898,4329.2307692307695,4146.666666666667,4602.051282051282
2474.8457,1.0,1.0,0.4442797,0.6041297,0,0.0,0.0,0.0,0.0,0.7112272,0,0,0.0,0.0,0,0,109.0,0.0,474.0,4577.435897435898,4025.1282051282055,4628.717948717949,4450.256410256411,4397.948717948719,4612.307692307693,4412.307692307693,4356.410256410257,4441.025641025642,4663.076923076924,4366.153846153847,4390.256410256411,4180.000000000001,4577.435897435898
2475.0957,1.0,1.0,0.4442797,0.6041297,0,0.0,0.0,0.0,0.0,0.1897036,0,0,0.0,0.0,0,0,12.0,0.0,500.0,4547.6923076923085,3960.5128205128212,4521.538461538462,4447.179487179487,4407.179487179487,4617.435897435898,4393.333333333334,4297.435897435898,4366.153846153847,4601.538461538462,4261.025641025642,4320.000000000001,4097.948717948719,4550.256410256411
2475.221,1.0,1.0,0.4529252,0.5989297,0,0.0,0.0,0.0,0.0,0.0,0,0,0.0,0.0,0,0,28.0,0.0,0.0,4589.2307692307695,3941.0256410256416,4539.48717948718,4449.2307692307695,4392.820512820514,4614.358974358975,4406.153846153847,4306.153846153847,4382.564102564103,4608.717948717949,4267.6923076923085,4327.6923076923085,4105.641025641026,4547.179487179488
2475.221,1.0,1.0,0.4529252,0.5989297,0,0.0,0.0,0.0,0.0,0.0,0,0,0.0,0.0,0,0,28.0,0.0,0.0,4589.2307692307695,3941.0256410256416,4539.48717948718,4449.2307692307695,4392.820512820514,4614.358974358975,4406.153846153847,4306.153846153847,4382.564102564103,4608.717948717949,4267.6923076923085,4327.6923076923085,4105.641025641026,4547.179487179488
2475.7527,1.0,1.0,0.48056528,0.59424937,1,0.0,0.0,0.0,0.0,0.0,0,0,0.0,0.0,0,0,96.0,0.0,500.0,4841.025641025642,4032.820512820513,4638.974358974359,4441.538461538462,4505.641025641026,4729.2307692307695,4510.769230769231,4425.128205128206,4452.820512820514,4691.794871794872,4342.051282051282,4422.564102564103,4223.589743589744,4609.743589743591
2476.0967,1.0,1.0,0.48056528,0.59424937,0,0.0,0.0,0.0,0.0,1.0,0,0,0.0,0.0,0,0,11.0,0.0,405.0,5044.615384615386,4121.538461538462,4615.8974358974365,4470.769230769231,4536.410256410257,4760.000000000001,4581.025641025642,4502.051282051282,4474.871794871796,4768.205128205129,4444.102564102564,4477.435897435898,4341.025641025642,4670.256410256411
2476.2217,1.0,1.0,0.5092427,0.5887588,0,0.0,0.0,0.0,0.0,1.0,0,0,0.0,0.0,0,0,27.0,0.0,0.0,5055.8974358974365,4088.205128205129,4621.025641025642,4476.410256410257,4509.2307692307695,4728.717948717949,4566.153846153847,4471.794871794872,4428.205128205129,4749.2307692307695,4434.358974358975,4460.000000000001,4325.128205128206,4692.820512820514
2476.2217,1.0,1.0,0.5092427,0.5887588,0,0.0,0.0,0.0,0.0,1.0,0,0,0.0,0.0,0,0,27.0,0.0,0.0,5055.8974358974365,4088.205128205129,4621.025641025642,4476.410256410257,4509.2307692307695,4728.717948717949,4566.153846153847,4471.794871794872,4428.205128205129,4749.2307692307695,4434.358974358975,4460.000000000001,4325.128205128206,4692.820512820514
2476.8474,1.0,1.0,0.53504485,0.58024347,0,0.0,0.0,0.0,0.0,0.0,0,0,0.0,0.0,0,0,107.0,0.0,405.0,4996.410256410257,4060.5128205128212,4717.948717948719,4512.307692307693,4424.615384615385,4648.717948717949,4552.307692307693,4457.435897435898,4487.179487179488,4800.512820512821,4472.307692307693,4446.666666666667,4355.8974358974365,4761.538461538462
2476.8474,1.0,1.0,0.53504485,0.58024347,0,0.0,0.0,0.0,0.0,0.0,0,0,0.0,0.0,0,0,107.0,0.0,405.0,4996.410256410257,4060.5128205128212,4717.948717948719,4512.307692307693,4424.615384615385,4648.717948717949,4552.307692307693,4457.435897435898,4487.179487179488,4800.512820512821,4472.307692307693,4446.666666666667,4355.8974358974365,4761.538461538462
2477.2227,0.93951756,1.0,0.5544505,0.57257944,0,0.0,0.0,0.0,0.0,0.0,0,0,0.0,0.0,0,0,26.0,0.0,0.0,4961.538461538462,4053.8461538461543,4732.307692307693,4604.615384615385,4374.871794871796,4626.153846153847,4535.8974358974365,4459.48717948718,4568.205128205129,4830.256410256411,4527.6923076923085,4453.333333333334,4383.076923076924,4755.384615384616
2477.598,0.93951756,1.0,0.5544505,0.57257944,0,0.0,0.0,0.0,0.0,0.6793494,0,0,0.0,0.0,0,0,74.0,0.0,535.0,4992.307692307693,3972.307692307693,4603.589743589744,4529.2307692307695,4346.666666666667,4552.307692307693,4494.358974358975,4370.256410256411,4472.820512820514,4735.8974358974365,4342.564102564103,4395.8974358974365,4272.820512820514,4810.256410256411
2477.7231,0.96732515,1.0,0.5616607,0.5656816,0,0.0,0.0,0.0,0.0,1.0,0,0,0.0,0.0,0,0,90.0,0.0,535.0,4922.564102564103,3946.666666666667,4587.179487179488,4507.179487179488,4354.358974358975,4522.564102564103,4460.512820512821,4362.564102564103,4456.923076923077,4726.666666666667,4306.666666666667,4383.076923076924,4249.2307692307695,4804.615384615386
2477.7231,0.96732515,1.0,0.5616607,0.5656816,0,0.0,0.0,0.0,0.0,1.0,0,0,0.0,0.0,0,0,90.0,0.0,535.0,4922.564102564103,3946.666666666667,4587.179487179488,4507.179487179488,4354.358974358975,4522.564102564103,4460.512820512821,4362.564102564103,4456.923076923077,4726.666666666667,4306.666666666667,4383.076923076924,4249.2307692307695,4804.615384615386
2478.3486,1.0,1.0,0.54301846,0.55836135,0,0.0,0.0,0.0,0.0,0.0,0,0,0.0,0.0,0,0,41.0,0.0,0.0,4784.615384615386,3897.9487179487182,4586.153846153847,4478.974358974359,4269.74358974359,4504.615384615385,4475.8974358974365,4333.846153846154,4380.512820512821,4696.410256410257,4263.589743589744,4345.641025641026,4139.48717948718,4751.794871794872
2478.3486,1.0,1.0,0.54301846,0.55836135,0,0.0,0.0,0.0,0.0,0.0,0,0,0.0,0.0,0,0,41.0,0.0,0.0,4784.615384615386,3897.9487179487182,4586.153846153847,4478.974358974359,4269.74358974359,4504.615384615385,4475.8974358974365,4333.846153846154,4380.512820512821,4696.410256410257,4263.589743589744,4345.641025641026,4139.48717948718,4751.794871794872
2478.7239,1.0,1.0,0.5141786,0.55177313,0,0.0,0.0,0.0,0.0,0.0,0,0,0.0,0.0,0,0,89.0,0.0,475.0,4758.974358974359,3885.1282051282055,4584.615384615385,4470.769230769231,4261.538461538462,4493.333333333334,4490.256410256411,4309.743589743591,4278.461538461539,4611.282051282052,4215.8974358974365,4265.641025641026,4017.435897435898,4704.615384615386
2478.7239,1.0,1.0,0.5141786,0.55177313,0,0.0,0.0,0.0,0.0,0.0,0,0,0.0,0.0,0,0,89.0,0.0,475.0,4758.974358974359,3885.1282051282055,4584.615384615385,4470.769230769231,4261.538461538462,4493.333333333334,4490.256410256411,4309.743589743591,4278.461538461539,4611.282051282052,4215.8974358974365,4265.641025641026,4017.435897435898,4704.615384615386
2479.2244,0.95124197,1.0,0.48822322,0.54584366,0,0.0,0.0,0.0,0.0,0.0,0,0,0.0,0.0,0,0,24.0,0.0,0.0,4618.974358974359,3921.538461538462,4586.153846153847,4462.564102564103,4282.051282051282,4500.000000000001,4480.000000000001,4281.538461538462,4233.846153846154,4606.153846153847,4218.974358974359,4188.717948717949,4074.8717948717954,4692.307692307693
2479.2244,0.95124197,1.0,0.48822322,0.54584366,0,0.0,0.0,0.0,0.0,0.0,0,0,0.0,0.0,0,0,24.0,0.0,0.0,4618.974358974359,3921.538461538462,4586.153846153847,4462.564102564103,4282.051282051282,4500.000000000001,4480.000000000001,4281.538461538462,4233.846153846154,4606.153846153847,4218.974358974359,4188.717948717949,4074.8717948717954,4692.307692307693
2479.7249,0.9481435,1.0,0.4632487,0.5363767,0,0.0,0.0,0.0,0.0,0.0,0,0,0.0,0.0,0,0,88.0,0.0,501.0,4543.589743589744,3909.2307692307695,4569.2307692307695,4474.358974358975,4292.820512820514,4522.051282051282,4485.128205128206,4341.025641025642,4316.923076923077,4707.6923076923085,4309.743589743591,4216.410256410257,4215.8974358974365,4695.8974358974365
2479.7249,0.9481435,1.0,0.4632487,0.5363767,0,0.0,0.0,0.0,0.0,0.0,0,0,0.0,0.0,0,0,88.0,0.0,501.0,4543.589743589744,3909.2307692307695,4569.2307692307695,4474.358974358975,4292.820512820514,4522.051282051282,4485.128205128206,4341.025641025642,4316.923076923077,4707.6923076923085,4309.743589743591,4216.410256410257,4215.8974358974365,4695.8974358974365
2480.225,1.0,1.0,0.4407712,0.52785677,0,0.0,0.0,0.0,0.0,0.0,0,0,0.0,0.0,0,0,23.0,0.0,0.0,4585.128205128206,3924.1025641025644,4574.358974358975,4473.333333333334,4288.205128205129,4523.589743589744,4489.743589743591,4372.820512820514,4335.8974358974365,4760.512820512821,4377.435897435898,4295.8974358974365,4278.461538461539,4702.051282051282
2480.225,1.0,1.0,0.4407712,0.52785677,0,0.0,0.0,0.0,0.0,0.0,0,0,0.0,0.0,0,0,23.0,0.0,0.0,4585.128205128206,3924.1025641025644,4574.358974358975,4473.333333333334,4288.205128205129,4523.589743589744,4489.743589743591,4372.820512820514,4335.8974358974365,4760.512820512821,4377.435897435898,4295.8974358974365,4278.461538461539,4702.051282051282
2480.7256,0.9443357,1.0,0.4233371,0.52018917,0,0.0,0.0,0.0,0.0,0.0,0,0,0.0,0.0,0,0,87.0,0.0,405.0,4567.6923076923085,3912.307692307693,4569.743589743591,4473.333333333334,4301.025641025642,4539.48717948718,4510.769230769231,4398.461538461539,4343.076923076924,4770.256410256411,4389.2307692307695,4333.333333333334,4261.538461538462,4663.076923076924
2480.7256,0.9443357,1.0,0.4233371,0.52018917,0,0.0,0.0,0.0,0.0,0.0,0,0,0.0,0.0,0,0,87.0,0.0,405.0,4567.6923076923085,3912.307692307693,4569.743589743591,4473.333333333334,4301.025641025642,4539.48717948718,4510.769230769231,4398.461538461539,4343.076923076924,4770.256410256411,4389.2307692307695,4333.333333333334,4261.538461538462,4663.076923076924
2481.226,0.97967815,1.0,0.40926093,0.5023366,0,0.0,0.0,0.0,0.0,0.0,0,0,0.0,0.0,0,0,22.0,0.0,0.0,4574.358974358975,3947.1794871794878,4584.102564102564,4467.179487179487,4292.820512820514,4553.846153846154,4523.076923076924,4422.051282051282,4382.051282051282,4788.205128205129,4410.769230769231,4364.102564102564,4274.871794871796,4663.076923076924
2481.6013,0.97967815,1.0,0.40926093,0.5023366,0,0.0,0.0,0.0,0.0,0.0047603683,0,0,0.0,0.0,0,0,70.0,0.0,535.0,4585.128205128206,3836.9230769230776,4650.769230769231,4473.846153846154,4255.8974358974365,4537.435897435898,4626.153846153847,4569.2307692307695,4425.128205128206,4809.2307692307695,4475.384615384616,4490.769230769231,4195.8974358974365,4649.743589743591
2481.8516,0.9195026,1.0,0.3949761,0.486271,0,0.0,0.0,0.0,0.0,0.0014340541,0,0,0.0,0.0,0,0,102.0,0.0,535.0,4845.641025641026,3777.435897435898,4808.205128205129,4514.871794871796,4214.871794871796,4545.641025641026,4957.435897435898,4995.384615384616,4578.461538461539,4924.615384615386,4643.076923076924,4727.6923076923085,4166.666666666667,4797.435897435898
2482.1018,0.9195026,1.0,0.3949761,0.486271,0,0.0,0.0,0.0,0.0,0.029077915,0,0,0.0,0.0,0,0,5.0,0.0,565.0,5209.2307692307695,4076.410256410257,4974.358974358975,4586.666666666667,4299.48717948718,4488.717948717949,5177.948717948719,5346.153846153847,4669.743589743591,5055.384615384616,4806.666666666667,4920.000000000001,4362.564102564103,5037.948717948719
2482.352,1.0,1.0,0.37926805,0.49359637,0,0.0,0.0,0.0,0.0,0.37795568,0,0,0.0,0.0,0,0,37.0,0.0,0.0,5261.025641025642,4333.846153846154,4663.589743589744,4529.743589743591,4331.794871794872,4411.794871794872,5006.153846153847,5207.6923076923085,4602.564102564103,5019.48717948718,4656.410256410257,4633.333333333334,4513.846153846154,5103.589743589744
2482.6023,1.0,1.0,0.37926805,0.49359637,0,0.0,0.0,0.0,0.0,0.024060583,0,0,0.0,0.0,0,0,69.0,0.0,568.0,4909.2307692307695,4291.794871794872,4360.000000000001,4447.179487179487,4263.589743589744,4280.000000000001,4569.2307692307695,4743.589743589744,4358.461538461539,4767.179487179488,4373.333333333334,4184.615384615385,4362.564102564103,4934.871794871796
2482.8525,1.0,1.0,0.36398685,0.5177453,0,0.0,0.0,0.0,0.0,0.0094714025,0,0,0.0,0.0,0,0,101.0,0.0,472.0,4734.358974358975,4214.871794871796,4201.025641025642,4417.948717948719,4355.384615384616,4294.358974358975,4355.384615384616,4410.769230769231,4247.6923076923085,4629.2307692307695,4359.48717948718,3854.358974358975,4211.794871794872,4776.410256410257
2483.1028,1.0,1.0,0.36398685,0.5177453,0,0.0,0.0,0.0,0.0,0.0,0,0,0.0,0.0,0,0,4.0,0.0,560.0,4600.512820512821,4182.564102564103,4110.769230769231,4390.256410256411,4406.153846153847,4332.820512820514,4150.256410256411,4119.48717948718,4151.282051282052,4522.051282051282,4291.282051282052,3636.410256410257,4107.6923076923085,4688.717948717949
2483.2278,1.0,0.99017334,0.3530852,0.53670514,0,0.0,0.0,0.0,0.0,0.0,0,0,0.0,0.0,0,0,20.0,0.0,0.0,4567.6923076923085,4162.051282051282,4088.717948717949,4386.666666666667,4430.769230769231,4375.384615384616,4089.23076923077,3992.820512820513,4109.2307692307695,4500.512820512821,4265.641025641026,3573.333333333334,4072.820512820513,4655.384615384616
2483.2278,1.0,0.99017334,0.3530852,0.53670514,0,0.0,0.0,0.0,0.0,0.0,0,0,0.0,0.0,0,0,20.0,0.0,0.0,4567.6923076923085,4162.051282051282,4088.717948717949,4386.666666666667,4430.769230769231,4375.384615384616,4089.23076923077,3992.820512820513,4109.2307692307695,4500.512820512821,4265.641025641026,3573.333333333334,4072.820512820513,4655.384615384616
2483.8533,1.0,0.94330025,0.34855086,0.5537692,0,0.0,0.0,0.0,0.0,0.25933272,0,0,0.0,0.0,1,0,100.0,0.0,500.0,4459.48717948718,4047.1794871794878,4122.051282051282,4354.871794871796,4391.794871794872,4507.179487179488,4080.5128205128212,3831.2820512820517,4053.8461538461543,4447.6923076923085,4154.358974358975,3668.717948717949,3973.333333333334,4510.769230769231
2484.1035,1.0,0.94330025,0.34855086,0.5537692,0,0.0,0.0,0.0,0.0,0.3987826,0,0,0.0,0.0,0,0,3.0,0.0,549.0,4381.538461538462,3990.7692307692314,4219.48717948718,4349.2307692307695,4378.974358974359,4557.948717948719,4152.307692307693,3901.0256410256416,4121.538461538462,4508.205128205129,4152.820512820514,3807.1794871794878,4002.0512820512827,4505.641025641026
2484.3538,0.8612139,0.90111446,0.34333277,0.5691267,0,0.0,0.0,0.0,0.0,0.23526198,0,0,0.0,0.0,0,0,35.0,0.0,0.0,4411.794871794872,3981.538461538462,4322.051282051282,4376.410256410257,4374.358974358975,4602.051282051282,4228.717948717949,3992.820512820513,4188.717948717949,4556.923076923077,4176.923076923077,3973.8461538461543,4052.820512820513,4479.48717948718
2484.604,0.8612139,0.90111446,0.34333277,0.5691267,0,0.0,0.0,0.0,0.0,0.083952986,0,0,0.0,0.0,0,0,67.0,0.0,549.0,4403.589743589744,3946.666666666667,4417.435897435898,4391.282051282052,4328.205128205129,4613.846153846154,4308.717948717949,4082.0512820512827,4245.641025641026,4606.666666666667,4175.384615384616,4104.102564102564,4076.410256410257,4473.846153846154
2484.8542,0.9678682,0.86314726,0.34655768,0.58294815,0,0.0,0.0,0.0,0.0,0.078674756,0,0,0.0,0.0,0,0,99.0,0.0,402.0,4340.000000000001,3879.48717948718,4490.769230769231,4406.666666666667,4311.282051282052,4613.846153846154,4394.358974358975,4203.076923076924,4298.974358974359,4638.974358974359,4176.410256410257,4208.717948717949,4052.307692307693,4444.615384615385
2485.1045,0.9678682,0.86314726,0.34655768,0.58294815,0,0.0,0.0,0.0,0.0,0.01934374,0,0,0.0,0.0,0,0,2.0,0.0,470.0,4413.333333333334,3762.564102564103,4602.051282051282,4423.589743589744,4269.74358974359,4631.794871794872,4560.000000000001,4427.179487179487,4370.769230769231,4674.871794871796,4232.307692307693,4390.256410256411,3943.589743589744,4446.153846153847
2485.3545,0.92428744,0.8289768,0.34945992,0.5870966,0,0.0,0.0,0.0,0.0,0.010947746,0,0,0.0,0.0,0,0,34.0,0.0,0.0,4678.461538461539,3791.2820512820517,4725.641025641026,4466.666666666667,4253.333333333334,4625.128205128206,4848.205128205129,4790.256410256411,4508.717948717949,4805.641025641026,4413.333333333334,4561.538461538462,4044.1025641025644,4608.205128205129
2485.6047,0.92428744,0.8289768,0.34945992,0.5870966,0,0.0,0.0,0.0,0.0,0.045019705,0,0,0.0,0.0,0,0,66.0,0.0,468.0,4872.820512820514,3992.307692307693,4755.384615384616,4514.871794871796,4328.205128205129,4596.410256410257,4894.358974358975,4911.794871794872,4529.2307692307695,4859.48717948718,4505.641025641026,4556.410256410257,4263.076923076924,4700.000000000001
2485.855,1.0,0.7982234,0.3520717,0.5731699,0,0.0,0.0,0.0,0.0,0.061054427,0,0,0.0,0.0,0,0,98.0,0.0,535.0,4865.128205128206,4060.0000000000005,4586.666666666667,4498.461538461539,4264.102564102564,4487.6923076923085,4690.256410256411,4704.615384615386,4429.743589743591,4764.615384615386,4455.384615384616,4278.461538461539,4288.205128205129,4638.974358974359
2486.1052,1.0,0.7982234,0.3520717,0.5731699,0,0.0,0.0,0.0,0.0,0.0068209837,0,0,0.0,0.0,0,0,1.0,0.0,424.0,4782.051282051282,4060.5128205128212,4456.923076923077,4479.48717948718,4256.923076923077,4461.538461538462,4505.641025641026,4474.871794871796,4324.615384615385,4650.256410256411,4404.615384615385,4054.8717948717954,4226.153846153847,4569.743589743591
2486.2305,1.0,0.7705453,0.35238305,0.5543744,0,0.0,0.0,0.0,0.0,0.0,0,0,0.0,0.0,0,0,17.0,0.0,0.0,4721.538461538462,4044.1025641025644,4374.358974358975,4457.948717948719,4286.666666666667,4468.205128205129,4408.205128205129,4365.128205128206,4280.000000000001,4606.153846153847,4384.102564102564,3932.307692307693,4187.179487179487,4524.102564102564
2486.6057,1.0,0.7705453,0.35238305,0.5543744,0,0.0,0.0,0.0,0.0,0.0071119997,0,0,0.0,0.0,0,0,65.0,0.0,424.0,4552.307692307693,4054.358974358975,4275.384615384616,4426.666666666667,4320.000000000001,4491.794871794872,4230.256410256411,4089.23076923077,4198.974358974359,4553.333333333334,4328.205128205129,3731.2820512820517,4125.641025641026,4464.102564102564
2486.7307,0.99278957,0.74563503,0.34834397,0.5374584,0,0.0,0.0,0.0,0.0,0.0,0,0,0.0,0.0,0,0,81.0,0.0,475.0,4490.256410256411,4036.410256410257,4261.025641025642,4419.48717948718,4335.384615384616,4516.923076923077,4189.74358974359,4040.5128205128212,4201.025641025642,4551.794871794872,4295.8974358974365,3722.0512820512827,4104.102564102564,4446.153846153847
2487.1062,0.99278957,0.74563503,0.34834397,0.5374584,0,0.0,0.0,0.0,0.0,0.0,0,0,0.0,0.0,0,0,0.0,0.0,475.0,4378.461538461539,3941.0256410256416,4327.6923076923085,4403.076923076924,4300.000000000001,4551.794871794872,4198.974358974359,4053.8461538461543,4201.538461538462,4569.2307692307695,4232.307692307693,3883.589743589744,4035.8974358974365,4383.076923076924
2487.3564,1.0,0.72321576,0.34057578,0.5222344,0,0.0,0.0,0.0,0.0,0.022207575,0,0,0.0,0.0,0,0,32.0,0.0,0.0,4388.717948717949,3786.666666666667,4461.025641025642,4405.128205128206,4190.769230769231,4581.025641025642,4385.128205128206,4261.025641025642,4231.794871794872,4583.076923076924,4243.076923076924,4086.666666666667,3955.3846153846157,4350.769230769231
2487.6064,1.0,0.72321576,0.34057578,0.5222344,0,0.0,0.0,0.0,0.0,8.4288383E-4,0,0,0.0,0.0,0,0,64.0,0.0,473.0,4485.641025641026,3741.0256410256416,4601.025641025642,4441.025641025642,4125.128205128206,4607.179487179488,4671.794871794872,4551.282051282052,4282.051282051282,4620.512820512821,4278.461538461539,4288.205128205129,3976.410256410257,4397.948717948719
2487.7317,1.0,0.70303845,0.328425,0.5286143,0,0.0,0.0,0.0,0.0,0.0,0,0,0.0,0.0,0,0,80.0,0.0,503.0,4555.8974358974365,3823.076923076924,4636.923076923077,4456.923076923077,4135.384615384616,4614.871794871796,4718.461538461539,4611.282051282052,4303.589743589744,4643.076923076924,4335.8974358974365,4350.769230769231,4066.666666666667,4457.435897435898
2487.982,1.0,0.70303845,0.328425,0.5286143,0,0.0,0.0,0.0,0.0,0.0,0,0,0.0,0.0,0,0,112.0,0.0,503.0,4633.333333333334,3958.461538461539,4600.512820512821,4488.205128205129,4185.128205128206,4599.48717948718,4673.846153846154,4601.025641025642,4346.666666666667,4685.128205128206,4406.666666666667,4308.717948717949,4187.6923076923085,4520.512820512821
2488.3572,1.0,0.6848788,0.31086856,0.550742,0,0.0,0.0,0.0,0.0,2.29824E-4,0,0,0.0,0.0,0,0,31.0,0.0,0.0,4557.948717948719,4044.615384615385,4472.307692307693,4482.051282051282,4274.871794871796,4568.205128205129,4482.564102564103,4385.641025641026,4273.846153846154,4594.871794871796,4384.102564102564,4099.48717948718,4163.589743589744,4473.846153846154
2488.6074,1.0,0.6848788,0.31086856,0.550742,0,0.0,0.0,0.0,0.0,0.003213621,0,0,0.0,0.0,0,0,63.0,0.0,0.0,4515.384615384616,4067.1794871794878,4402.564102564103,4460.000000000001,4361.538461538462,4588.205128205129,4378.461538461539,4265.128205128206,4254.358974358975,4616.410256410257,4364.102564102564,4017.435897435898,4165.128205128206,4451.794871794872
2488.8577,0.99436,0.66853523,0.29506811,0.57065684,0,0.0,0.0,0.0,0.0,0.0,0,0,0.0,0.0,0,0,95.0,0.0,410.0,4488.717948717949,4056.410256410257,4365.641025641026,4447.179487179487,4374.358974358975,4568.717948717949,4270.769230769231,4140.512820512821,4250.256410256411,4627.179487179488,4311.794871794872,3998.461538461539,4154.871794871796,4423.589743589744
2488.9827,0.99436,0.66853523,0.29506811,0.57065684,0,0.0,0.0,0.0,0.0,0.0,0,0,0.0,0.0,0,0,111.0,0.0,410.0,4493.846153846154,4049.7435897435903,4375.384615384616,4433.846153846154,4386.666666666667,4576.410256410257,4257.948717948719,4124.102564102564,4268.205128205129,4646.666666666667,4295.8974358974365,4013.333333333334,4132.820512820514,4412.307692307693
2489.233,1.0,0.65382594,0.2808484,0.5885798,0,0.0,0.0,0.0,0.0,0.0,0,0,0.0,0.0,0,0,14.0,0.0,535.0,4492.820512820514,4022.564102564103,4398.461538461539,4427.6923076923085,4382.051282051282,4577.435897435898,4249.74358974359,4134.871794871796,4302.051282051282,4663.589743589744,4245.641025641026,4095.3846153846157,4124.102564102564,4400.512820512821
2489.233,1.0,0.65382594,0.2808484,0.5885798,0,0.0,0.0,0.0,0.0,0.0,0,0,0.0,0.0,0,0,14.0,0.0,535.0,4492.820512820514,4022.564102564103,4398.461538461539,4427.6923076923085,4382.051282051282,4577.435897435898,4249.74358974359,4134.871794871796,4302.051282051282,4663.589743589744,4245.641025641026,4095.3846153846157,4124.102564102564,4400.512820512821
2489.7334,1.0,0.6405876,0.26786968,0.6080173,0,0.0,0.0,0.0,0.0,0.0,0,0,0.0,0.0,0,0,78.0,0.0,535.0,4584.615384615385,3958.461538461539,4536.410256410257,4435.384615384616,4341.538461538462,4590.769230769231,4372.820512820514,4317.948717948719,4457.948717948719,4807.179487179488,4292.307692307693,4371.282051282052,4228.205128205129,4441.538461538462
2490.1086,1.0,0.6405876,0.26786968,0.6080173,0,0.0,0.0,0.0,0.0,0.0,0,0,0.0,0.0,0,0,126.0,0.0,535.0,4576.410256410257,3945.6410256410263,4610.769230769231,4449.2307692307695,4324.102564102564,4601.025641025642,4473.333333333334,4477.435897435898,4544.102564102564,4911.282051282052,4350.769230769231,4526.666666666667,4300.000000000001,4489.743589743591
2490.234,0.99791574,0.64328843,0.2561584,0.61841613,0,0.0,0.0,0.0,0.0,0.0,0,0,0.0,0.0,0,0,13.0,0.0,475.0,4598.461538461539,3944.615384615385,4618.974358974359,4449.743589743591,4309.2307692307695,4598.974358974359,4492.307692307693,4506.666666666667,4564.102564102564,4928.717948717949,4369.2307692307695,4569.743589743591,4314.871794871796,4495.384615384616
2490.234,0.99791574,0.64328843,0.2561584,0.61841613,0,0.0,0.0,0.0,0.0,0.0,0,0,0.0,0.0,0,0,13.0,0.0,475.0,4598.461538461539,3944.615384615385,4618.974358974359,4449.743589743591,4309.2307692307695,4598.974358974359,4492.307692307693,4506.666666666667,4564.102564102564,4928.717948717949,4369.2307692307695,4569.743589743591,4314.871794871796,4495.384615384616
2490.7341,1.0,0.6493803,0.24561973,0.6223073,0,0.0,0.0,0.0,0.0,0.0,0,0,0.0,0.0,0,0,77.0,0.0,475.0,4511.282051282052,3932.820512820513,4617.435897435898,4452.307692307693,4294.358974358975,4583.589743589744,4476.923076923077,4478.461538461539,4513.333333333334,4869.2307692307695,4310.256410256411,4540.000000000001,4262.564102564103,4470.256410256411
2490.7341,1.0,0.6493803,0.24561973,0.6223073,0,0.0,0.0,0.0,0.0,0.0,0,0,0.0,0.0,0,0,77.0,0.0,475.0,4511.282051282052,3932.820512820513,4617.435897435898,4452.307692307693,4294.358974358975,4583.589743589744,4476.923076923077,4478.461538461539,4513.333333333334,4869.2307692307695,4310.256410256411,4540.000000000001,4262.564102564103,4470.256410256411
2491.2346,1.0,0.65529865,0.23777525,0.62326753,0,0.0,0.0,0.0,0.0,0.0,0,0,0.0,0.0,0,0,12.0,0.0,503.0,4479.48717948718,3877.9487179487182,4598.461538461539,4456.410256410257,4282.051282051282,4585.128205128206,4460.512820512821,4414.358974358975,4421.025641025642,4777.435897435898,4254.871794871796,4461.538461538462,4182.564102564103,4415.8974358974365
2491.2346,1.0,0.65529865,0.23777525,0.62326753,0,0.0,0.0,0.0,0.0,0.0,0,0,0.0,0.0,0,0,12.0,0.0,503.0,4479.48717948718,3877.9487179487182,4598.461538461539,4456.410256410257,4282.051282051282,4585.128205128206,4460.512820512821,4414.358974358975,4421.025641025642,4777.435897435898,4254.871794871796,4461.538461538462,4182.564102564103,4415.8974358974365
2491.735,0.9952191,0.6272368,0.23071699,0.6250322,0,0.0,0.0,0.0,0.0,0.0,0,0,0.0,0.0,0,0,76.0,0.0,503.0,4518.974358974359,3861.0256410256416,4611.282051282052,4473.333333333334,4245.128205128206,4588.205128205129,4469.743589743591,4419.48717948718,4396.410256410257,4754.358974358975,4287.179487179487,4434.871794871796,4166.666666666667,4411.794871794872
2491.735,0.9952191,0.6272368,0.23071699,0.6250322,0,0.0,0.0,0.0,0.0,0.0,0,0,0.0,0.0,0,0,76.0,0.0,503.0,4518.974358974359,3861.0256410256416,4611.282051282052,4473.333333333334,4245.128205128206,4588.205128205129,4469.743589743591,4419.48717948718,4396.410256410257,4754.358974358975,4287.179487179487,4434.871794871796,4166.666666666667,4411.794871794872
2492.2356,0.9562644,0.6570443,0.22395165,0.6304296,0,0.0,0.0,0.0,0.0,0.0,0,0,0.0,0.0,0,0,11.0,0.0,410.0,4591.282051282052,3860.0000000000005,4607.6923076923085,4489.743589743591,4243.076923076924,4578.974358974359,4479.48717948718,4413.846153846154,4381.538461538462,4749.2307692307695,4365.641025641026,4398.461538461539,4168.717948717949,4441.025641025642
2492.2356,0.9562644,0.6570443,0.22395165,0.6304296,0,0.0,0.0,0.0,0.0,0.0,0,0,0.0,0.0,0,0,11.0,0.0,410.0,4591.282051282052,3860.0000000000005,4607.6923076923085,4489.743589743591,4243.076923076924,4578.974358974359,4479.48717948718,4413.846153846154,4381.538461538462,4749.2307692307695,4365.641025641026,4398.461538461539,4168.717948717949,4441.025641025642
2492.7358,0.92092526,0.7120548,0.21786492,0.6314748,0,0.0,0.0,0.0,0.0,0.0,0,0,0.0,0.0,0,0,75.0,0.0,410.0,4646.666666666667,3881.538461538462,4616.923076923077,4495.384615384616,4244.102564102564,4574.358974358975,4492.820512820514,4442.051282051282,4414.358974358975,4778.974358974359,4416.923076923077,4412.820512820514,4214.871794871796,4489.2307692307695
2492.7358,0.92092526,0.7120548,0.21786492,0.6314748,0,0.0,0.0,0.0,0.0,0.0,0,0,0.0,0.0,0,0,75.0,0.0,410.0,4646.666666666667,3881.538461538462,4616.923076923077,4495.384615384616,4244.102564102564,4574.358974358975,4492.820512820514,4442.051282051282,4414.358974358975,4778.974358974359,4416.923076923077,4412.820512820514,4214.871794871796,4489.2307692307695
2493.2363,0.83023864,0.7597061,0.21536332,0.6309981,0,0.0,0.0,0.0,0.0,0.0,0,0,0.0,0.0,0,0,10.0,0.0,535.0,4624.615384615385,3857.435897435898,4604.102564102564,4490.769230769231,4229.74358974359,4556.923076923077,4489.743589743591,4434.358974358975,4373.846153846154,4751.794871794872,4411.794871794872,4397.435897435898,4200.000000000001,4496.923076923077
2493.6118,0.83023864,0.7597061,0.21536332,0.6309981,0,0.0,0.0,0.0,0.0,0.58317345,0,0,0.0,0.0,0,0,35.0,0.0,0.0,4631.794871794872,3865.6410256410263,4593.333333333334,4485.641025641026,4232.820512820514,4556.923076923077,4488.717948717949,4417.948717948719,4357.435897435898,4749.743589743591,4412.307692307693,4388.717948717949,4211.794871794872,4505.641025641026
2493.8618,0.74630284,0.81338114,0.21311389,0.63145435,0,0.0,0.0,0.0,0.0,0.0,0,0,0.0,0.0,0,0,90.0,0.0,535.0,4566.153846153847,3849.2307692307695,4579.48717948718,4475.8974358974365,4220.000000000001,4534.358974358975,4478.461538461539,4431.794871794872,4372.307692307693,4752.307692307693,4413.846153846154,4413.333333333334,4217.435897435898,4571.794871794872
2493.8618,0.74630284,0.81338114,0.21311389,0.63145435,0,0.0,0.0,0.0,0.0,0.0,0,0,0.0,0.0,0,0,90.0,0.0,535.0,4566.153846153847,3849.2307692307695,4579.48717948718,4475.8974358974365,4220.000000000001,4534.358974358975,4478.461538461539,4431.794871794872,4372.307692307693,4752.307692307693,4413.846153846154,4413.333333333334,4217.435897435898,4571.794871794872
2494.3623,0.69955397,0.8354642,0.21106517,0.6318638,0,0.0,0.0,0.0,0.0,1.0,0,0,0.0,0.0,0,0,23.0,0.0,0.0,4650.769230769231,3847.1794871794878,4553.333333333334,4462.051282051282,4204.102564102564,4508.205128205129,4460.000000000001,4391.282051282052,4343.076923076924,4708.205128205129,4396.923076923077,4364.102564102564,4185.128205128206,4550.769230769231
2494.6125,0.69955397,0.8354642,0.21106517,0.6318638,0,0.0,0.0,0.0,0.0,0.047900964,0,0,0.0,0.0,0,0,55.0,0.0,0.0,4663.589743589744,3815.3846153846157,4572.307692307693,4460.000000000001,4203.076923076924,4491.794871794872,4475.8974358974365,4430.256410256411,4382.051282051282,4743.589743589744,4434.871794871796,4390.769230769231,4184.615384615385,4553.333333333334
2494.8628,0.6192684,0.8181296,0.2083643,0.6301236,0,0.0,0.0,0.0,0.0,0.021422515,0,0,0.0,0.0,0,0,89.0,0.0,475.0,4805.641025641026,3789.2307692307695,4602.051282051282,4457.435897435898,4153.846153846154,4461.025641025642,4573.846153846154,4601.025641025642,4510.769230769231,4848.205128205129,4541.538461538462,4500.512820512821,4205.641025641026,4619.48717948718
2495.0193,0.6192684,0.8181296,0.2083643,0.6301236,1,0.0,0.0,0.0,0.0,0.15019917,0,0,0.0,0.0,0,0,109.0,0.0,475.0,4900.000000000001,3790.7692307692314,4637.948717948719,4469.2307692307695,4136.923076923077,4460.000000000001,4681.538461538462,4766.153846153847,4626.666666666667,4962.564102564103,4653.846153846154,4598.974358974359,4269.2307692307695,4674.358974358975
2495.238,0.7549562,0.80263543,0.20966463,0.62506413,0,0.0,0.0,0.0,0.0,0.0,0,0,0.0,0.0,0,0,8.0,0.0,501.0,5016.923076923077,3898.9743589743593,4651.794871794872,4479.48717948718,4194.871794871796,4406.666666666667,4736.923076923077,4917.435897435898,4731.282051282052,5070.769230769231,4765.128205128206,4673.333333333334,4369.2307692307695,4783.589743589744
2495.238,0.7549562,0.80263543,0.20966463,0.62506413,0,0.0,0.0,0.0,0.0,0.0,0,0,0.0,0.0,0,0,8.0,0.0,501.0,5016.923076923077,3898.9743589743593,4651.794871794872,4479.48717948718,4194.871794871796,4406.666666666667,4736.923076923077,4917.435897435898,4731.282051282052,5070.769230769231,4765.128205128206,4673.333333333334,4369.2307692307695,4783.589743589744
2495.8635,0.8673713,0.7886907,0.21123512,0.6153936,0,0.0,0.0,0.0,0.0,0.0,0,0,0.0,0.0,0,0,82.0,0.0,535.0,5064.102564102564,4028.717948717949,4422.564102564103,4462.051282051282,4290.256410256411,4408.717948717949,4537.948717948719,4732.307692307693,4601.538461538462,4983.589743589744,4694.871794871796,4482.051282051282,4381.538461538462,4782.051282051282
2495.8635,0.8673713,0.7886907,0.21123512,0.6153936,0,0.0,0.0,0.0,0.0,0.0,0,0,0.0,0.0,0,0,88.0,0.0,489.0,5043.589743589744,4015.8974358974365,4416.923076923077,4457.435897435898,4285.641025641026,4412.307692307693,4518.974358974359,4694.871794871796,4569.2307692307695,4940.512820512821,4662.051282051282,4452.820512820514,4356.410256410257,4753.846153846154
2496.239,0.9732867,0.7761404,0.21277374,0.6066899,0,0.0,0.0,0.0,0.0,0.0,0,0,0.0,0.0,0,0,7.0,0.0,471.0,4826.666666666667,3867.692307692308,4421.538461538462,4440.512820512821,4122.564102564103,4399.48717948718,4443.589743589744,4533.846153846154,4368.717948717949,4731.282051282052,4537.435897435898,4340.000000000001,4246.153846153847,4626.666666666667
2496.239,0.9732867,0.7761404,0.21277374,0.6066899,0,0.0,0.0,0.0,0.0,0.0,0,0,0.0,0.0,0,0,7.0,0.0,471.0,4826.666666666667,3867.692307692308,4421.538461538462,4440.512820512821,4122.564102564103,4399.48717948718,4443.589743589744,4533.846153846154,4368.717948717949,4731.282051282052,4537.435897435898,4340.000000000001,4246.153846153847,4626.666666666667
2496.8645,1.0,0.76484513,0.2141603,0.5988563,0,0.0,0.0,0.0,0.0,0.09419477,0,0,0.0,0.0,0,0,86.0,0.0,535.0,4573.846153846154,3873.333333333334,4411.282051282052,4424.615384615385,4072.307692307693,4407.179487179487,4256.410256410257,4257.435897435898,4139.48717948718,4490.256410256411,4280.512820512821,4129.74358974359,4111.282051282052,4527.6923076923085
2497.1147,1.0,0.76484513,0.2141603,0.5988563,0,0.0,0.0,0.0,0.0,0.040828902,0,0,0.0,0.0,0,0,116.0,0.0,493.0,4544.102564102564,3878.9743589743593,4390.769230769231,4408.717948717949,4123.076923076924,4421.538461538462,4206.153846153847,4158.974358974359,4103.076923076924,4460.512820512821,4203.076923076924,4062.564102564103,4082.564102564103,4508.717948717949
2497.2397,1.0,0.75467944,0.21540998,0.6031333,0,0.0,0.0,0.0,0.0,0.0,0,0,0.0,0.0,0,0,6.0,0.0,537.0,4483.589743589744,3877.9487179487182,4386.666666666667,4416.923076923077,4179.48717948718,4442.051282051282,4199.48717948718,4127.179487179487,4104.102564102564,4470.769230769231,4193.333333333334,4045.1282051282055,4093.333333333334,4505.128205128206
2497.2397,1.0,0.75467944,0.21540998,0.6031333,0,0.0,0.0,0.0,0.0,0.0,0,0,0.0,0.0,0,0,6.0,0.0,537.0,4483.589743589744,3877.9487179487182,4386.666666666667,4416.923076923077,4179.48717948718,4442.051282051282,4199.48717948718,4127.179487179487,4104.102564102564,4470.769230769231,4193.333333333334,4045.1282051282055,4093.333333333334,4505.128205128206
2497.7402,1.0,0.74553025,0.21605258,0.6160427,0,0.0,0.0,0.0,0.0,0.0,0,0,0.0,0.0,0,0,70.0,0.0,537.0,4402.051282051282,3925.1282051282055,4426.666666666667,4427.6923076923085,4305.641025641026,4522.051282051282,4232.307692307693,4152.307692307693,4202.564102564103,4568.717948717949,4203.589743589744,4060.0000000000005,4092.820512820513,4487.6923076923085
2497.7402,1.0,0.74553025,0.21605258,0.6160427,0,0.0,0.0,0.0,0.0,0.0,0,0,0.0,0.0,0,0,70.0,0.0,537.0,4402.051282051282,3925.1282051282055,4426.666666666667,4427.6923076923085,4305.641025641026,4522.051282051282,4232.307692307693,4152.307692307693,4202.564102564103,4568.717948717949,4203.589743589744,4060.0000000000005,4092.820512820513,4487.6923076923085
2498.2407,1.0,0.73729604,0.21605784,0.63519245,0,0.0,0.0,0.0,0.0,0.0,0,0,0.0,0.0,0,0,5.0,0.0,568.0,4473.333333333334,3954.8717948717954,4485.641025641026,4432.307692307693,4342.564102564103,4560.000000000001,4310.769230769231,4211.282051282052,4292.307692307693,4637.435897435898,4237.435897435898,4140.000000000001,4128.205128205129,4462.051282051282
2498.2407,1.0,0.73729604,0.21605784,0.63519245,0,0.0,0.0,0.0,0.0,0.0,0,0,0.0,0.0,0,0,5.0,0.0,568.0,4473.333333333334,3954.8717948717954,4485.641025641026,4432.307692307693,4342.564102564103,4560.000000000001,4310.769230769231,4211.282051282052,4292.307692307693,4637.435897435898,4237.435897435898,4140.000000000001,4128.205128205129,4462.051282051282
2498.7412,0.97005814,0.7298852,0.21398577,0.6567806,0,0.0,0.0,0.0,0.0,0.0,0,0,0.0,0.0,0,0,69.0,0.0,568.0,4517.435897435898,3945.6410256410263,4517.948717948719,4384.615384615385,4331.282051282052,4586.666666666667,4382.564102564103,4269.74358974359,4342.564102564103,4680.512820512821,4246.666666666667,4206.153846153847,4112.307692307693,4432.307692307693
2498.7412,0.97005814,0.7298852,0.21398577,0.6567806,0,0.0,0.0,0.0,0.0,0.0,0,0,0.0,0.0,0,0,69.0,0.0,568.0,4517.435897435898,3945.6410256410263,4517.948717948719,4384.615384615385,4331.282051282052,4586.666666666667,4382.564102564103,4269.74358974359,4342.564102564103,4680.512820512821,4246.666666666667,4206.153846153847,4112.307692307693,4432.307692307693
2499.2415,0.9628839,0.72321546,0.21212292,0.676203,1,0.0,0.0,0.0,0.0,0.0,0,0,0.0,0.0,0,0,4.0,0.0,560.0,4588.205128205129,3910.2564102564106,4581.538461538462,4411.794871794872,4280.512820512821,4568.717948717949,4427.179487179487,4331.794871794872,4318.974358974359,4716.923076923077,4320.000000000001,4310.256410256411,4202.051282051282,4509.743589743591
2499.4917,0.9628839,0.72321546,0.21212292,0.676203,0,0.0,0.0,0.0,0.0,0.33440563,0,0,0.0,0.0,0,0,36.0,0.0,0.0,4537.435897435898,3880.512820512821,4570.769230769231,4420.512820512821,4272.820512820514,4577.948717948719,4460.000000000001,4370.256410256411,4305.128205128206,4720.000000000001,4318.461538461539,4295.384615384616,4186.666666666667,4507.179487179488
2499.742,0.8720952,0.79792136,0.21252748,0.6893174,0,0.0,0.0,0.0,0.0,0.48226863,0,0,0.0,0.0,0,0,68.0,0.0,560.0,4484.615384615385,3893.333333333334,4540.000000000001,4410.256410256411,4264.102564102564,4561.025641025642,4460.000000000001,4366.666666666667,4292.307692307693,4702.051282051282,4321.025641025642,4296.410256410257,4173.333333333334,4498.461538461539
2499.9922,0.8720952,0.79792136,0.21252748,0.6893174,0,0.0,0.0,0.0,0.0,0.30256572,0,0,0.0,0.0,0,0,100.0,0.0,501.0,4463.589743589744,3876.9230769230776,4550.256410256411,4420.000000000001,4258.974358974359,4556.410256410257,4457.948717948719,4373.333333333334,4301.538461538462,4722.051282051282,4338.974358974359,4310.256410256411,4174.358974358975,4492.307692307693
2500.2424,0.80287874,0.8631628,0.21563299,0.6891399,0,0.0,0.0,0.0,0.0,0.0,0,0,0.0,0.0,0,0,3.0,0.0,549.0,4456.923076923077,3865.6410256410263,4537.948717948719,4425.128205128206,4247.6923076923085,4551.794871794872,4460.000000000001,4392.307692307693,4326.666666666667,4733.846153846154,4342.051282051282,4316.410256410257,4187.179487179487,4505.641025641026
2500.2424,0.80287874,0.8631628,0.21563299,0.6891399,0,0.0,0.0,0.0,0.0,0.0,0,0,0.0,0.0,0,0,3.0,0.0,549.0,4456.923076923077,3865.6410256410263,4537.948717948719,4425.128205128206,4247.6923076923085,4551.794871794872,4460.000000000001,4392.307692307693,4326.666666666667,4733.846153846154,4342.051282051282,4316.410256410257,4187.179487179487,4505.641025641026
2500.743,0.7786921,0.8856277,0.21884461,0.6841222,0,0.0,0.0,0.0,0.0,0.0,0,0,0.0,0.0,0,0,67.0,0.0,549.0,4548.205128205129,3810.7692307692314,4578.974358974359,4438.974358974359,4227.179487179487,4573.333333333334,4538.461538461539,4497.948717948719,4392.820512820514,4787.6923076923085,4421.538461538462,4394.358974358975,4171.794871794872,4519.48717948718
2500.9932,0.7786921,0.8856277,0.21884461,0.6841222,0,0.0,0.0,0.0,0.0,0.1185876,0,0,0.0,0.0,0,0,99.0,0.0,405.0,4641.025641025642,3815.8974358974365,4561.025641025642,4443.589743589744,4234.871794871796,4574.871794871796,4578.461538461539,4570.256410256411,4442.051282051282,4844.102564102564,4475.8974358974365,4412.820512820514,4229.2307692307695,4557.948717948719
2501.2432,0.895249,0.88555837,0.22173664,0.6793141,0,0.0,0.0,0.0,0.0,0.0,0,0,0.0,0.0,0,0,2.0,0.0,466.0,4677.435897435898,3819.48717948718,4576.410256410257,4460.512820512821,4251.794871794872,4553.846153846154,4600.512820512821,4617.948717948719,4431.282051282052,4818.974358974359,4489.2307692307695,4426.666666666667,4182.564102564103,4564.102564102564
2501.2432,0.895249,0.88555837,0.22173664,0.6793141,0,0.0,0.0,0.0,0.0,0.0,0,0,0.0,0.0,0,0,2.0,0.0,466.0,4677.435897435898,3819.48717948718,4576.410256410257,4460.512820512821,4251.794871794872,4553.846153846154,4600.512820512821,4617.948717948719,4431.282051282052,4818.974358974359,4489.2307692307695,4426.666666666667,4182.564102564103,4564.102564102564
2501.7437,0.93745434,0.88566095,0.22491299,0.6683235,0,0.0,0.0,0.0,0.0,0.0,0,0,0.0,0.0,0,0,66.0,0.0,461.0,5100.512820512821,4085.1282051282055,4781.538461538462,4538.974358974359,4243.589743589744,4433.333333333334,4780.000000000001,4816.923076923077,4294.871794871796,4753.333333333334,4603.076923076924,4493.846153846154,4226.666666666667,4736.923076923077
2501.994,0.93745434,0.88566095,0.22491299,0.6683235,0,0.0,0.0,0.0,0.0,0.2294948,0,0,0.0,0.0,0,0,98.0,0.0,535.0,5129.2307692307695,4263.076923076924,4687.179487179488,4529.743589743591,4297.435897435898,4406.666666666667,4653.333333333334,4648.717948717949,4156.923076923077,4633.333333333334,4468.205128205129,4319.48717948718,4229.74358974359,4749.2307692307695
2502.2441,1.0,0.8857533,0.22949085,0.64576674,0,0.0,0.0,0.0,0.0,0.026455518,0,0,0.0,0.0,0,0,1.0,0.0,427.0,5069.743589743591,4242.564102564103,4537.948717948719,4493.846153846154,4288.205128205129,4344.615384615385,4413.333333333334,4356.923076923077,4035.3846153846157,4506.666666666667,4240.000000000001,4072.820512820513,4208.205128205129,4706.666666666667
2502.4944,1.0,0.8857533,0.22949085,0.64576674,0,0.0,0.0,0.0,0.0,0.004753595,0,0,0.0,0.0,0,0,33.0,0.0,0.0,4855.8974358974365,4137.948717948719,4416.923076923077,4457.435897435898,4270.769230769231,4323.589743589744,4248.205128205129,4094.8717948717954,3974.8717948717954,4429.2307692307695,4155.8974358974365,3880.512820512821,4126.153846153847,4616.410256410257
2502.7446,1.0,0.8858363,0.2330535,0.64190525,0,0.0,0.0,0.0,0.0,0.16220024,0,0,0.0,0.0,0,0,65.0,0.0,427.0,4617.948717948719,4058.9743589743593,4330.256410256411,4422.564102564103,4263.076923076924,4352.307692307693,4145.641025641026,3976.9230769230776,3980.0000000000005,4426.666666666667,4129.2307692307695,3790.2564102564106,4074.358974358975,4569.2307692307695
2502.8696,1.0,0.8858363,0.2330535,0.64190525,0,0.0,0.0,0.0,0.0,0.0,0,0,0.0,0.0,0,0,81.0,0.0,477.0,4612.820512820514,4052.820512820513,4312.307692307693,4404.615384615385,4260.000000000001,4372.820512820514,4103.076923076924,3924.615384615385,3991.7948717948725,4417.948717948719,4128.205128205129,3781.538461538462,4078.461538461539,4591.282051282052
2503.2449,1.0,0.8859111,0.23626125,0.6453842,0,0.0,0.0,0.0,0.0,0.6656371,0,0,0.0,0.0,0,0,0.0,0.0,474.0,4373.333333333334,3878.461538461539,4260.512820512821,4360.512820512821,4245.128205128206,4456.923076923077,4123.076923076924,3950.2564102564106,4111.794871794872,4512.820512820514,4138.461538461539,3816.9230769230776,4048.205128205129,4476.410256410257
2503.495,1.0,0.8859111,0.23626125,0.6453842,0,0.0,0.0,0.0,0.0,0.29539633,0,0,0.0,0.0,0,0,32.0,0.0,0.0,4321.538461538462,3824.1025641025644,4326.153846153847,4377.948717948719,4205.128205128206,4476.923076923077,4186.666666666667,4031.7948717948725,4168.205128205129,4554.871794871796,4161.538461538462,3929.2307692307695,4024.615384615385,4429.2307692307695
2503.7454,1.0,0.8859784,0.24057476,0.65141284,0,0.0,0.0,0.0,0.017274937,0.0,0,0,0.0,0.0,0,0,64.0,0.0,474.0,4380.000000000001,3682.564102564103,4445.128205128206,4387.6923076923085,4152.820512820514,4517.435897435898,4427.6923076923085,4291.282051282052,4259.48717948718,4602.564102564103,4215.8974358974365,4102.051282051282,3924.1025641025644,4410.769230769231
2503.9956,1.0,0.8859784,0.24057476,0.65141284,0,0.0,0.0,0.0,0.0,0.006233915,0,0,0.0,0.0,0,0,96.0,0.0,503.0,4648.717948717949,3723.076923076924,4585.641025641026,4443.589743589744,4111.282051282052,4507.6923076923085,4753.333333333334,4660.512820512821,4397.435897435898,4737.435897435898,4362.051282051282,4311.282051282052,4021.0256410256416,4531.794871794872
2504.2458,1.0,0.88603896,0.24785803,0.63863426,0,0.0,0.0,0.0,0.0,0.03581809,0,0,0.0,0.0,0,0,128.0,0.0,503.0,4783.589743589744,3886.666666666667,4573.333333333334,4469.743589743591,4130.769230769231,4490.256410256411,4801.538461538462,4734.871794871796,4407.179487179487,4751.282051282052,4345.641025641026,4285.641025641026,4138.974358974359,4607.6923076923085
2504.496,1.0,0.88603896,0.24785803,0.63863426,0,0.0,0.0,0.0,0.0,0.09758468,0,0,0.0,0.0,0,0,31.0,0.0,0.0,4809.743589743591,4003.076923076924,4443.589743589744,4462.051282051282,4139.48717948718,4437.948717948719,4664.615384615386,4592.307692307693,4354.871794871796,4691.794871794872,4279.48717948718,4057.435897435898,4175.8974358974365,4553.846153846154
2504.7463,1.0,0.88609344,0.26185244,0.62713385,0,0.0,0.0,0.0,0.0,0.0038766337,0,0,0.0,0.0,0,0,63.0,0.0,0.0,4658.974358974359,4008.717948717949,4291.794871794872,4418.974358974359,4182.051282051282,4431.794871794872,4506.153846153847,4381.025641025642,4279.48717948718,4585.641025641026,4264.102564102564,3848.717948717949,4082.0512820512827,4462.051282051282
2504.9966,1.0,0.88609344,0.26185244,0.62713385,0,0.0,0.0,0.0,0.0,0.03246943,0,0,0.0,0.0,0,0,95.0,0.0,406.0,4523.589743589744,4035.3846153846157,4230.769230769231,4409.743589743591,4264.102564102564,4462.051282051282,4358.974358974359,4218.974358974359,4248.717948717949,4553.846153846154,4264.615384615385,3717.435897435898,4029.23076923077,4363.589743589744
2505.2468,1.0,0.8861425,0.2744482,0.62112945,0,0.0,0.0,0.0,0.0,0.0,0,0,0.0,0.0,0,0,127.0,0.0,406.0,4453.846153846154,4006.666666666667,4178.461538461539,4390.769230769231,4288.205128205129,4476.410256410257,4218.461538461539,4059.48717948718,4208.717948717949,4538.461538461539,4240.000000000001,3687.1794871794878,4025.1282051282055,4331.282051282052
2505.2468,1.0,0.8861425,0.2744482,0.62112945,0,0.0,0.0,0.0,0.0,0.0,0,0,0.0,0.0,0,0,127.0,0.0,406.0,4453.846153846154,4006.666666666667,4178.461538461539,4390.769230769231,4288.205128205129,4476.410256410257,4218.461538461539,4059.48717948718,4208.717948717949,4538.461538461539,4240.000000000001,3687.1794871794878,4025.1282051282055,4331.282051282052
2505.747,1.0,0.88618666,0.28578502,0.59673434,0,0.0,0.0,0.0,0.0,0.0,0,0,0.0,0.0,0,0,62.0,0.0,0.0,4298.974358974359,3922.0512820512827,4237.435897435898,4365.641025641026,4261.025641025642,4503.589743589744,4151.794871794872,3987.692307692308,4228.717948717949,4551.282051282052,4194.871794871796,3835.8974358974365,3994.358974358975,4232.307692307693
2505.747,1.0,0.88618666,0.28578502,0.59673434,0,0.0,0.0,0.0,0.0,0.0,0,0,0.0,0.0,0,0,62.0,0.0,0.0,4298.974358974359,3922.0512820512827,4237.435897435898,4365.641025641026,4261.025641025642,4503.589743589744,4151.794871794872,3987.692307692308,4228.717948717949,4551.282051282052,4194.871794871796,3835.8974358974365,3994.358974358975,4232.307692307693
2506.2476,1.0,0.88622636,0.28892452,0.5747788,0,0.0,0.0,0.0,0.0,0.0,0,0,0.0,0.0,0,0,126.0,0.0,535.0,4346.153846153847,3878.9743589743593,4397.435897435898,4389.2307692307695,4265.641025641026,4553.333333333334,4263.589743589744,4151.282051282052,4336.923076923077,4644.615384615385,4203.076923076924,4124.102564102564,4090.7692307692314,4236.923076923077
2506.2476,1.0,0.88622636,0.28892452,0.5747788,0,0.0,0.0,0.0,0.0,0.0,0,0,0.0,0.0,0,0,126.0,0.0,535.0,4346.153846153847,3878.9743589743593,4397.435897435898,4389.2307692307695,4265.641025641026,4553.333333333334,4263.589743589744,4151.282051282052,4336.923076923077,4644.615384615385,4203.076923076924,4124.102564102564,4090.7692307692314,4236.923076923077
2506.748,0.9944065,0.8862621,0.28363785,0.55501866,0,0.0,0.0,0.0,0.0,0.039155576,0,0,0.0,0.0,0,0,61.0,0.0,0.0,4364.615384615385,3862.564102564103,4513.846153846154,4409.743589743591,4262.051282051282,4572.307692307693,4385.128205128206,4319.48717948718,4411.282051282052,4714.358974358975,4230.769230769231,4328.205128205129,4139.48717948718,4249.2307692307695
2506.9983,0.9944065,0.8862621,0.28363785,0.55501866,0,0.0,0.0,0.0,0.0,0.06486137,0,0,0.0,0.0,0,0,93.0,0.0,478.0,4424.615384615385,3863.589743589744,4555.8974358974365,4424.102564102564,4281.538461538462,4585.641025641026,4428.205128205129,4367.6923076923085,4430.769230769231,4755.384615384616,4257.948717948719,4391.282051282052,4158.974358974359,4262.564102564103
2507.2485,1.0,0.8862943,0.2728141,0.5539294,0,0.0,0.0,0.0,0.0,0.0,0,0,0.0,0.0,0,0,125.0,0.0,478.0,4473.333333333334,3870.2564102564106,4584.615384615385,4435.8974358974365,4283.589743589744,4582.564102564103,4445.128205128206,4382.051282051282,4456.923076923077,4764.102564102564,4273.846153846154,4412.820512820514,4185.128205128206,4268.205128205129
2507.3735,1.0,0.8862943,0.2728141,0.5539294,0,0.0,0.0,0.0,0.0,1.0,0,0,0.0,0.0,0,0,12.0,0.0,503.0,4539.48717948718,3912.307692307693,4591.282051282052,4444.615384615385,4280.000000000001,4585.128205128206,4448.717948717949,4390.256410256411,4443.076923076924,4750.256410256411,4248.717948717949,4399.48717948718,4133.846153846154,4265.128205128206
2507.7488,0.91349685,0.8863233,0.26307374,0.5680945,0,0.0,0.0,0.0,0.0,0.11768741,0,0,0.0,0.0,0,0,60.0,0.0,0.0,4538.974358974359,3894.8717948717954,4597.948717948719,4456.410256410257,4267.6923076923085,4575.8974358974365,4461.538461538462,4411.282051282052,4429.743589743591,4758.461538461539,4293.333333333334,4406.153846153847,4154.358974358975,4280.512820512821
2507.874,0.91349685,0.8863233,0.26307374,0.5680945,0,0.0,0.0,0.0,0.0,0.0,0,0,0.0,0.0,0,0,76.0,0.0,503.0,4517.948717948719,3881.538461538462,4601.025641025642,4460.000000000001,4261.025641025642,4585.641025641026,4476.923076923077,4426.153846153847,4426.153846153847,4763.589743589744,4307.6923076923085,4413.846153846154,4146.666666666667,4273.333333333334
2508.2493,0.8968032,0.90098643,0.25478098,0.5816026,0,0.0,0.0,0.0,0.0,0.34170932,0,0,0.0,0.0,0,0,124.0,0.0,503.0,4542.564102564103,3860.512820512821,4610.256410256411,4468.717948717949,4248.205128205129,4570.256410256411,4475.384615384616,4440.512820512821,4445.641025641026,4797.435897435898,4380.512820512821,4442.564102564103,4242.564102564103,4321.025641025642
2508.3745,0.8968032,0.90098643,0.25478098,0.5816026,0,0.0,0.0,0.0,0.0,0.0,0,0,0.0,0.0,0,0,11.0,0.0,416.0,4518.974358974359,3864.615384615385,4615.384615384616,4472.307692307693,4249.2307692307695,4577.948717948719,4490.256410256411,4462.564102564103,4457.948717948719,4803.076923076924,4395.384615384616,4444.615384615385,4249.2307692307695,4344.102564102564
2508.7498,0.8571163,0.91165286,0.24904382,0.5937592,0,0.0,0.0,0.0,0.0,0.0,0,0,0.0,0.0,0,0,59.0,0.0,0.0,4510.256410256411,3888.205128205129,4606.666666666667,4469.743589743591,4261.025641025642,4570.769230769231,4493.846153846154,4467.179487179487,4442.564102564103,4783.076923076924,4413.333333333334,4421.025641025642,4226.153846153847,4378.974358974359
2508.7498,0.8571163,0.91165286,0.24904382,0.5937592,0,0.0,0.0,0.0,0.0,0.0,0,0,0.0,0.0,0,0,59.0,0.0,0.0,4510.256410256411,3888.205128205129,4606.666666666667,4469.743589743591,4261.025641025642,4570.769230769231,4493.846153846154,4467.179487179487,4442.564102564103,4783.076923076924,4413.333333333334,4421.025641025642,4226.153846153847,4378.974358974359
2509.2502,0.8646534,0.90485555,0.2438818,0.60393924,0,0.0,0.0,0.0,0.0,0.70245093,0,0,0.0,0.0,0,0,123.0,0.0,416.0,4559.48717948718,3872.820512820513,4571.282051282052,4458.974358974359,4247.6923076923085,4553.333333333334,4486.666666666667,4454.358974358975,4436.410256410257,4768.205128205129,4433.846153846154,4384.102564102564,4231.282051282052,4397.435897435898
2509.5002,0.8646534,0.90485555,0.2438818,0.60393924,0,0.0,0.0,0.0,0.0,0.0,0,0,0.0,0.0,0,0,26.0,0.0,0.0,4538.461538461539,3880.0000000000005,4587.6923076923085,4477.948717948719,4255.384615384616,4559.48717948718,4490.256410256411,4452.820512820514,4439.48717948718,4777.435897435898,4444.615384615385,4395.8974358974365,4238.461538461539,4433.846153846154
2509.7505,0.8278939,0.8698645,0.2413977,0.6100898,0,0.0,0.0,0.0,0.0,0.0,0,0,0.0,0.0,0,0,58.0,0.0,0.0,4571.282051282052,3880.0000000000005,4572.820512820514,4472.820512820514,4254.358974358975,4550.256410256411,4470.769230769231,4427.6923076923085,4400.000000000001,4773.846153846154,4444.102564102564,4373.333333333334,4229.74358974359,4461.538461538462
2509.7505,0.8278939,0.8698645,0.2413977,0.6100898,0,0.0,0.0,0.0,0.0,0.0,0,0,0.0,0.0,0,0,58.0,0.0,0.0,4571.282051282052,3880.0000000000005,4572.820512820514,4472.820512820514,4254.358974358975,4550.256410256411,4470.769230769231,4427.6923076923085,4400.000000000001,4773.846153846154,4444.102564102564,4373.333333333334,4229.74358974359,4461.538461538462
2510.3135,0.7801249,0.8279204,0.23916347,0.61601096,1,0.0,0.0,0.0,0.0,0.0,0,0,0.0,0.0,0,0,1.0,0.0,429.0,4641.025641025642,3911.7948717948725,4586.666666666667,4477.435897435898,4231.794871794872,4529.743589743591,4463.076923076924,4434.358974358975,4401.538461538462,4776.923076923077,4476.410256410257,4385.128205128206,4268.205128205129,4524.615384615385
2510.5637,0.7801249,0.8279204,0.23916347,0.61601096,1,0.0,0.0,0.0,0.0,0.0,0,0,0.0,0.0,0,0,33.0,0.0,0.0,4661.025641025642,3881.538461538462,4570.256410256411,4464.102564102564,4233.846153846154,4538.461538461539,4478.461538461539,4457.435897435898,4394.871794871796,4756.923076923077,4455.384615384616,4358.974358974359,4228.717948717949,4498.461538461539
2510.7515,0.76826745,0.9295368,0.24130462,0.62372637,0,0.0,0.0,0.0,0.0,0.0,0,0,0.0,0.0,0,0,57.0,0.0,0.0,4584.102564102564,3875.8974358974365,4553.846153846154,4460.512820512821,4232.820512820514,4539.48717948718,4481.025641025642,4457.948717948719,4395.8974358974365,4762.051282051282,4449.743589743591,4347.179487179487,4204.615384615385,4480.000000000001
2510.7515,0.76826745,0.9295368,0.24130462,0.62372637,0,0.0,0.0,0.0,0.0,0.0,0,0,0.0,0.0,0,0,57.0,0.0,0.0,4584.102564102564,3875.8974358974365,4553.846153846154,4460.512820512821,4232.820512820514,4539.48717948718,4481.025641025642,4457.948717948719,4395.8974358974365,4762.051282051282,4449.743589743591,4347.179487179487,4204.615384615385,4480.000000000001
2511.252,0.7551088,1.0,0.25229624,0.623835,0,0.0,0.0,0.0,0.0,0.0,0,0,0.0,0.0,0,0,121.0,0.0,478.0,4601.025641025642,3865.6410256410263,4550.256410256411,4455.384615384616,4230.256410256411,4526.153846153847,4462.051282051282,4428.205128205129,4378.974358974359,4737.435897435898,4432.820512820514,4326.666666666667,4171.282051282052,4482.051282051282
2511.252,0.7551088,1.0,0.25229624,0.623835,0,0.0,0.0,0.0,0.0,0.0,0,0,0.0,0.0,0,0,121.0,0.0,478.0,4601.025641025642,3865.6410256410263,4550.256410256411,4455.384615384616,4230.256410256411,4526.153846153847,4462.051282051282,4428.205128205129,4378.974358974359,4737.435897435898,4432.820512820514,4326.666666666667,4171.282051282052,4482.051282051282
2511.7522,0.7590623,1.0,0.26338854,0.6149708,0,0.0,0.0,0.0,0.0,0.010582487,0,0,0.0,0.0,0,0,56.0,0.0,0.0,4642.051282051282,3732.307692307693,4647.6923076923085,4466.666666666667,4103.076923076924,4513.846153846154,4659.48717948718,4585.641025641026,4275.384615384616,4603.076923076924,4356.923076923077,4341.025641025642,3878.9743589743593,4470.256410256411
2512.0024,0.7590623,1.0,0.26338854,0.6149708,0,0.0,0.0,0.0,0.0,0.037444778,0,0,0.0,0.0,0,0,88.0,0.0,503.0,4935.8974358974365,3833.8461538461543,4749.2307692307695,4507.6923076923085,4122.051282051282,4487.6923076923085,4888.717948717949,4814.871794871796,4314.358974358975,4706.666666666667,4457.948717948719,4384.615384615385,4001.0256410256416,4632.820512820514
2512.2527,0.87797475,1.0,0.271524,0.5894845,0,0.0,0.0,0.0,0.0,0.2545512,0,0,0.0,0.0,0,0,120.0,0.0,503.0,5202.564102564103,4126.666666666667,4812.307692307693,4566.666666666667,4249.2307692307695,4458.461538461539,4971.282051282052,4978.974358974359,4423.076923076924,4901.538461538462,4514.358974358975,4464.102564102564,4356.923076923077,4830.769230769231
2512.503,0.87797475,1.0,0.271524,0.5894845,0,0.0,0.0,0.0,0.0,0.05173267,0,0,0.0,0.0,0,0,23.0,0.0,0.0,5191.794871794872,4312.820512820514,4630.256410256411,4538.461538461539,4362.051282051282,4480.512820512821,4792.307692307693,4925.641025641026,4438.461538461539,4941.538461538462,4429.2307692307695,4342.051282051282,4460.512820512821,4858.461538461539
2512.7532,0.97247094,1.0,0.27887908,0.5648563,0,0.0,0.0,0.0,0.0,6.5399456E-4,0,0,0.0,0.0,0,0,55.0,0.0,0.0,5086.153846153847,4325.641025641026,4480.512820512821,4511.794871794872,4393.333333333334,4452.820512820514,4512.820512820514,4681.538461538462,4387.179487179487,4880.000000000001,4376.410256410257,4141.538461538462,4418.461538461539,4771.794871794872
2513.0034,0.97247094,1.0,0.27887908,0.5648563,0,0.0,0.0,0.0,0.0,0.002934341,0,0,0.0,0.0,0,0,87.0,0.0,403.0,4873.846153846154,4253.846153846154,4338.461538461539,4467.179487179487,4376.923076923077,4425.128205128206,4292.307692307693,4407.179487179487,4290.769230769231,4751.282051282052,4328.717948717949,3929.2307692307695,4289.2307692307695,4672.820512820514
2513.2537,1.0,1.0,0.29207036,0.5411545,0,0.0,0.0,0.0,0.0,0.027464487,0,0,0.0,0.0,0,0,119.0,0.0,403.0,4669.743589743591,4137.435897435898,4249.2307692307695,4415.8974358974365,4330.256410256411,4412.307692307693,4137.948717948719,4203.589743589744,4235.384615384616,4671.794871794872,4312.820512820514,3848.205128205129,4217.948717948719,4594.871794871796
2513.504,1.0,1.0,0.29207036,0.5411545,0,0.0,0.0,0.0,0.0,0.1301564,0,0,0.0,0.0,0,0,22.0,0.0,0.0,4554.871794871796,4014.8717948717954,4217.948717948719,4387.179487179487,4295.384615384616,4412.307692307693,4074.358974358975,4091.2820512820517,4183.589743589744,4598.974358974359,4261.538461538462,3853.8461538461543,4137.948717948719,4506.666666666667
2513.754,1.0,1.0,0.303943,0.51982313,0,0.0,0.0,0.0,0.0,0.5368416,0,0,0.0,0.0,0,0,54.0,0.0,0.0,4439.48717948718,3940.0000000000005,4252.820512820514,4369.743589743591,4252.307692307693,4416.923076923077,4074.8717948717954,4072.307692307693,4187.6923076923085,4572.820512820514,4183.589743589744,3924.1025641025644,4092.307692307693,4445.128205128206
2514.0042,1.0,1.0,0.303943,0.51982313,0,0.0,0.0,0.0,0.0,0.4567986,0,0,0.0,0.0,0,0,86.0,0.0,535.0,4405.128205128206,3878.461538461539,4307.179487179487,4372.820512820514,4237.435897435898,4460.512820512821,4122.051282051282,4088.205128205129,4225.641025641026,4577.948717948719,4176.410256410257,4005.6410256410263,4081.538461538462,4423.589743589744
2514.2544,1.0,1.0,0.31109765,0.52398175,0,0.0,0.0,0.0,0.0,0.05890978,0,0,0.0,0.0,0,0,118.0,0.0,535.0,4447.6923076923085,3864.615384615385,4370.769230769231,4382.051282051282,4226.666666666667,4482.564102564103,4201.025641025642,4151.794871794872,4252.820512820514,4595.384615384616,4169.2307692307695,4103.076923076924,4070.2564102564106,4411.282051282052
2514.5046,1.0,1.0,0.31109765,0.52398175,0,0.0,0.0,0.0,0.0,0.07358423,0,0,0.0,0.0,0,0,21.0,0.0,0.0,4440.512820512821,3857.9487179487182,4441.025641025642,4393.333333333334,4220.512820512821,4490.256410256411,4261.025641025642,4196.923076923077,4262.051282051282,4610.256410256411,4178.974358974359,4194.871794871796,4088.205128205129,4411.282051282052
2514.755,1.0,1.0,0.312813,0.529921,0,0.0,0.0,0.0,0.0,0.0,0,0,0.0,0.0,0,0,53.0,0.0,0.0,4420.000000000001,3861.0256410256416,4488.717948717949,4407.179487179487,4225.641025641026,4510.256410256411,4309.743589743591,4244.615384615385,4284.615384615385,4616.410256410257,4184.102564102564,4260.000000000001,4089.7435897435903,4411.794871794872
2515.0051,1.0,1.0,0.312813,0.529921,0,0.0,0.0,0.0,0.0,0.15576531,0,0,0.0,0.0,0,0,85.0,0.0,478.0,4396.410256410257,3846.666666666667,4510.769230769231,4413.333333333334,4228.717948717949,4535.8974358974365,4364.102564102564,4305.128205128206,4340.512820512821,4670.256410256411,4230.769230769231,4310.769230769231,4133.333333333334,4410.256410256411
2515.2554,1.0,1.0,0.31435713,0.5380322,0,0.0,0.0,0.0,0.0,0.032930754,0,0,0.0,0.0,0,0,117.0,0.0,478.0,4403.076923076924,3854.358974358975,4535.8974358974365,4428.205128205129,4241.025641025642,4553.846153846154,4401.538461538462,4339.48717948718,4170.769230769231,4700.512820512821,4247.179487179487,4334.871794871796,4143.589743589744,4414.358974358975
2515.5056,1.0,1.0,0.31435713,0.5380322,0,0.0,0.0,0.0,0.0,0.018545164,0,0,0.0,0.0,0,0,20.0,0.0,0.0,4416.410256410257,3868.205128205129,4568.717948717949,4441.538461538462,4238.974358974359,4553.333333333334,4427.6923076923085,4377.435897435898,4122.051282051282,4701.538461538462,4265.128205128206,4368.205128205129,4141.025641025642,4431.794871794872
2515.7559,1.0,1.0,0.32114506,0.5453323,0,0.0,0.0,0.0,0.0,0.0,0,0,0.0,0.0,0,0,52.0,0.0,0.0,4456.410256410257,3857.9487179487182,4563.076923076924,4445.641025641026,4237.948717948719,4570.769230769231,4472.307692307693,4412.820512820514,4134.358974358975,4735.384615384616,4298.974358974359,4371.282051282052,4158.974358974359,4428.717948717949
2515.7559,1.0,1.0,0.32114506,0.5453323,0,0.0,0.0,0.0,0.0,0.0,0,0,0.0,0.0,0,0,52.0,0.0,0.0,4456.410256410257,3857.9487179487182,4563.076923076924,4445.641025641026,4237.948717948719,4570.769230769231,4472.307692307693,4412.820512820514,4134.358974358975,4735.384615384616,4298.974358974359,4371.282051282052,4158.974358974359,4428.717948717949
2516.256,1.0,1.0,0.32022005,0.55378366,0,0.0,0.0,0.0,0.0,0.0,0,0,0.0,0.0,0,0,116.0,0.0,503.0,4548.717948717949,3862.564102564103,4569.743589743591,4456.410256410257,4234.358974358975,4544.615384615385,4471.282051282052,4411.282051282052,4134.358974358975,4729.2307692307695,4325.128205128206,4373.333333333334,4184.102564102564,4433.333333333334
2516.5063,1.0,1.0,0.32022005,0.55378366,0,0.0,0.0,0.0,0.0,0.7895991,0,0,0.0,0.0,0,0,19.0,0.0,0.0,4547.6923076923085,3841.538461538462,4567.6923076923085,4458.461538461539,4230.769230769231,4552.820512820514,4477.435897435898,4426.153846153847,4163.589743589744,4749.2307692307695,4376.923076923077,4380.512820512821,4230.769230769231,4430.769230769231
2516.7566,0.93936807,1.0,0.31259423,0.5688771,0,0.0,0.0,0.0,0.0,0.0,0,0,0.0,0.0,0,0,51.0,0.0,0.0,4561.025641025642,3885.1282051282055,4570.256410256411,4456.923076923077,4218.974358974359,4539.48717948718,4471.794871794872,4409.743589743591,4162.051282051282,4709.743589743591,4371.282051282052,4357.948717948719,4168.205128205129,4411.794871794872
2517.0068,0.93936807,1.0,0.31259423,0.5688771,0,0.0,0.0,0.0,0.0,0.23322834,0,0,0.0,0.0,0,0,83.0,0.0,408.0,4539.48717948718,3870.2564102564106,4569.743589743591,4454.871794871796,4230.769230769231,4536.923076923077,4475.384615384616,4430.769230769231,4203.589743589744,4730.769230769231,4399.48717948718,4357.948717948719,4168.717948717949,4428.717948717949
2517.257,0.8513937,1.0,0.30502996,0.58166015,0,0.0,0.0,0.0,0.0,0.020989267,0,0,0.0,0.0,0,0,115.0,0.0,408.0,4520.512820512821,3796.9230769230776,4589.2307692307695,4451.282051282052,4167.179487179487,4522.051282051282,4517.948717948719,4487.6923076923085,4222.564102564103,4708.717948717949,4421.025641025642,4385.641025641026,4092.820512820513,4409.743589743591
2517.5073,0.8513937,1.0,0.30502996,0.58166015,0,0.0,0.0,0.0,0.0,0.012600256,0,0,0.0,0.0,0,0,18.0,0.0,0.0,4657.435897435898,3730.7692307692314,4636.410256410257,4455.8974358974365,4114.358974358975,4505.641025641026,4649.2307692307695,4643.589743589744,4263.076923076924,4708.205128205129,4488.717948717949,4408.717948717949,4051.7948717948725,4471.282051282052
2517.7576,0.9394137,1.0,0.30807558,0.58647627,0,0.0,0.0,0.0,0.0,0.11110379,0,0,0.0,0.0,0,0,50.0,0.0,0.0,4936.923076923077,3934.358974358975,4749.743589743591,4513.333333333334,4175.8974358974365,4477.948717948719,4826.153846153847,4848.205128205129,4325.128205128206,4809.743589743591,4657.435897435898,4477.948717948719,4262.564102564103,4672.820512820514
2518.0076,0.9394137,1.0,0.30807558,0.58647627,0,0.0,0.0,0.0,0.0,1.0,0,0,0.0,0.0,0,0,82.0,0.0,535.0,5151.282051282052,4194.358974358975,4676.410256410257,4532.820512820514,4279.48717948718,4459.48717948718,4825.641025641026,4885.128205128206,4346.153846153847,4880.000000000001,4707.179487179488,4469.743589743591,4474.871794871796,4810.256410256411
2518.2578,1.0,1.0,0.3110237,0.5883806,0,0.0,0.0,0.0,0.0,0.041016042,0,0,0.0,0.0,0,0,114.0,0.0,535.0,5182.051282051283,4335.384615384616,4587.179487179488,4526.153846153847,4372.820512820514,4457.948717948719,4642.051282051282,4719.48717948718,4320.000000000001,4843.076923076924,4669.2307692307695,4318.461538461539,4522.564102564103,4813.333333333334
2518.508,1.0,1.0,0.3110237,0.5883806,0,0.0,0.0,0.0,0.0,0.0,0,0,0.0,0.0,0,0,17.0,0.0,0.0,5014.871794871796,4422.564102564103,4454.871794871796,4494.358974358975,4381.025641025642,4452.820512820514,4445.641025641026,4482.564102564103,4262.051282051282,4751.794871794872,4507.6923076923085,4126.666666666667,4433.333333333334,4716.923076923077
2518.7583,1.0,1.0,0.30464783,0.5900939,0,0.0,0.0,0.0,0.0,0.0042582317,0,0,0.0,0.0,0,0,49.0,0.0,0.0,4990.769230769231,4492.307692307693,4369.743589743591,4528.205128205129,4377.435897435898,4434.358974358975,4286.153846153847,4278.974358974359,4242.051282051282,4733.846153846154,4413.846153846154,4005.6410256410263,4660.000000000001,4685.128205128206
2519.0085,1.0,1.0,0.30464783,0.5900939,0,0.0,0.0,0.0,0.0,0.01393907,0,0,0.0,0.0,0,0,81.0,0.0,478.0,4880.000000000001,4410.256410256411,4280.000000000001,4459.48717948718,4257.948717948719,4443.589743589744,4186.153846153847,4109.2307692307695,4151.282051282052,4630.769230769231,4310.769230769231,3911.7948717948725,4596.410256410257,4717.948717948719
2519.2588,1.0,1.0,0.30765203,0.58028,0,0.0,0.0,0.0,0.0,1.0,0,0,0.0,0.0,0,0,113.0,0.0,478.0,4702.051282051282,4152.307692307693,4306.153846153847,4454.358974358975,4244.102564102564,4473.333333333334,4200.000000000001,4118.461538461539,4202.051282051282,4664.615384615386,4246.153846153847,3953.333333333334,4567.6923076923085,4923.589743589744
2519.509,1.0,1.0,0.30765203,0.58028,0,0.0,0.0,0.0,0.0,0.2867093,0,0,0.0,0.0,0,0,16.0,0.0,0.0,4658.461538461539,4005.6410256410263,4350.769230769231,4425.641025641026,4244.615384615385,4489.2307692307695,4248.717948717949,4189.74358974359,4264.102564102564,4698.461538461539,4232.307692307693,4048.205128205129,4353.846153846154,4870.256410256411
2519.7593,1.0,1.0,0.32094383,0.5714472,0,0.0,0.0,0.0,0.0,0.021619508,0,0,0.0,0.0,0,0,48.0,0.0,0.0,4589.743589743591,3847.692307692308,4448.205128205129,4408.717948717949,4170.256410256411,4476.923076923077,4416.410256410257,4397.948717948719,4323.589743589744,4731.282051282052,4268.205128205129,4186.153846153847,4133.846153846154,4807.179487179488
2520.0093,1.0,1.0,0.32094383,0.5714472,0,0.0,0.0,0.0,0.0,0.0023750134,0,0,0.0,0.0,0,0,80.0,0.0,499.0,4773.846153846154,3897.9487179487182,4697.435897435898,4482.564102564103,4190.769230769231,4461.538461538462,4735.384615384616,4821.025641025642,4497.435897435898,4928.717948717949,4530.769230769231,4508.717948717949,4133.333333333334,4909.2307692307695
2520.2595,1.0,1.0,0.33359283,0.56349754,0,0.0,0.0,0.0,0.0,0.022193737,0,0,0.0,0.0,0,0,112.0,0.0,499.0,4937.435897435898,4061.0256410256416,4755.8974358974365,4523.076923076924,4209.2307692307695,4387.6923076923085,4783.076923076924,4930.769230769231,4523.076923076924,4963.076923076924,4569.743589743591,4570.769230769231,4217.948717948719,4974.871794871796
2520.5098,1.0,1.0,0.33359283,0.56349754,0,0.0,0.0,0.0,0.0,0.05154148,0,0,0.0,0.0,0,0,15.0,0.0,401.0,4812.820512820514,4060.5128205128212,4639.48717948718,4485.641025641026,4249.2307692307695,4364.615384615385,4617.948717948719,4741.538461538462,4442.051282051282,4850.256410256411,4458.461538461539,4303.589743589744,4147.179487179487,4913.846153846154
2520.76,1.0,1.0,0.3449769,0.5592008,0,0.0,0.0,0.0,0.0,0.0,0,0,0.2389831,0.0,0,0,47.0,0.0,0.0,4698.461538461539,4041.0256410256416,4510.769230769231,4472.307692307693,4268.717948717949,4397.435897435898,4457.948717948719,4524.615384615385,4414.358974358975,4776.410256410257,4449.743589743591,4028.205128205129,4114.871794871796,4811.282051282052
2520.8853,1.0,1.0,0.3449769,0.5592008,0,0.0,0.0,0.0,0.0,0.0,0,0,0.0,0.0,0,0,63.0,0.0,0.0,4678.461538461539,4014.358974358975,4442.564102564103,4449.743589743591,4273.846153846154,4394.871794871796,4370.256410256411,4399.48717948718,4360.000000000001,4695.384615384616,4418.461538461539,3940.0000000000005,4065.1282051282055,4755.8974358974365
2521.2917,1.0,1.0,0.35090438,0.5629268,0,0.0,0.0,0.0,0.0,0.0,0,0,0.0,0.0,0,0,115.0,0.0,401.0,4492.820512820514,4006.666666666667,4282.051282051282,4401.538461538462,4310.256410256411,4446.153846153847,4171.794871794872,4084.1025641025644,4499.48717948718,4605.641025641026,4325.641025641026,3668.717948717949,3924.1025641025644,4578.974358974359
2521.5107,1.0,1.0,0.35090438,0.5629268,0,0.0,0.19993642,0.0,0.0,0.0,0,0,0.0,0.0,0,0,14.0,0.0,532.0,4395.8974358974365,3941.0256410256416,4227.6923076923085,4367.6923076923085,4287.6923076923085,4476.410256410257,4102.051282051282,3977.9487179487182,4383.076923076924,4538.461538461539,4246.666666666667,3630.7692307692314,3850.2564102564106,4463.589743589744
2521.7922,1.0,1.0,0.3562391,0.56628025,0,0.0,0.19612406,0.0,0.0,0.0,0,0,0.0,0.0,0,0,50.0,0.0,0.0,4382.051282051282,3874.8717948717954,4231.282051282052,4335.8974358974365,4219.48717948718,4497.435897435898,4076.9230769230776,3933.333333333334,4290.769230769231,4487.6923076923085,4153.333333333334,3698.9743589743593,3800.0000000000005,4380.000000000001
2521.886,1.0,1.0,0.3562391,0.56628025,0,0.0,0.0,0.0,0.0,0.0,0,0,0.0,0.0,0,0,62.0,0.0,0.0,4350.769230769231,3829.7435897435903,4232.307692307693,4330.769230769231,4210.769230769231,4509.743589743591,4098.974358974359,3944.615384615385,4288.717948717949,4492.307692307693,4128.205128205129,3721.0256410256416,3791.7948717948725,4344.615384615385
2522.2612,1.0,1.0,0.35501787,0.56929636,0,0.0,0.0,0.0,0.0,0.16763665,0,0,0.0,0.0,0,0,110.0,0.0,532.0,4228.717948717949,3767.692307692308,4347.179487179487,4335.384615384616,4198.461538461539,4546.153846153847,4204.102564102564,4080.0000000000005,4314.358974358975,4548.717948717949,4100.512820512821,3997.9487179487182,3800.0000000000005,4304.615384615385
2522.5115,1.0,1.0,0.35501787,0.56929636,0,0.0,0.0,0.0,0.0,0.08654702,0,0,0.0,0.0,0,0,13.0,0.0,476.0,4278.461538461539,3758.461538461539,4381.025641025642,4321.538461538462,4193.333333333334,4568.205128205129,4282.051282051282,4172.307692307693,4345.641025641026,4603.076923076924,4095.3846153846157,4137.948717948719,3895.8974358974365,4284.102564102564
2522.7617,1.0,1.0,0.35284638,0.5675886,0,0.0,0.0,0.0,0.0,0.1115674,0,0,0.0,0.0,0,0,45.0,0.0,0.0,4334.358974358975,3799.48717948718,4436.923076923077,4332.820512820514,4244.615384615385,4583.076923076924,4351.282051282052,4249.74358974359,4358.461538461539,4628.717948717949,4112.820512820514,4249.2307692307695,3955.3846153846157,4283.076923076924
2522.887,1.0,1.0,0.35284638,0.5675886,0,0.0,0.0,0.0,0.0,0.0,0,0,0.0,0.0,0,0,61.0,0.0,0.0,4341.025641025642,3797.435897435898,4461.538461538462,4327.179487179487,4238.974358974359,4605.641025641026,4391.282051282052,4284.102564102564,4369.2307692307695,4653.846153846154,4135.8974358974365,4301.538461538462,3976.410256410257,4262.051282051282
2523.2622,1.0,1.0,0.3508918,0.56605154,0,0.0,0.0,0.0,0.0,0.030647337,0,0,0.0,0.0,0,0,109.0,0.0,476.0,4438.461538461539,3787.1794871794878,4567.6923076923085,4346.666666666667,4202.051282051282,4618.974358974359,4511.282051282052,4491.282051282052,4491.794871794872,4814.871794871796,4277.948717948719,4432.307692307693,4109.2307692307695,4302.564102564103
2523.5125,1.0,1.0,0.3508918,0.56605154,0,0.0,0.0,0.0,0.0,0.0,0,0,0.0,0.0,0,0,12.0,0.0,503.0,4511.794871794872,3838.9743589743593,4635.384615384616,4375.8974358974365,4191.282051282052,4640.000000000001,4602.564102564103,4661.025641025642,4615.384615384616,4927.6923076923085,4416.923076923077,4640.512820512821,4219.48717948718,4360.000000000001
2523.7627,1.0,1.0,0.34913212,0.56466794,0,0.0,0.0,0.0,0.0,0.0,0,0,0.0,0.0,0,0,44.0,0.0,0.0,4537.948717948719,3916.9230769230776,4633.846153846154,4389.2307692307695,4205.128205128206,4616.923076923077,4601.025641025642,4701.025641025642,4639.48717948718,4965.641025641026,4461.025641025642,4647.6923076923085,4270.769230769231,4394.358974358975
2523.7627,1.0,1.0,0.34913212,0.56466794,0,0.0,0.0,0.0,0.0,0.0,0,0,0.0,0.0,0,0,44.0,0.0,0.0,4537.948717948719,3916.9230769230776,4633.846153846154,4389.2307692307695,4205.128205128206,4616.923076923077,4601.025641025642,4701.025641025642,4639.48717948718,4965.641025641026,4461.025641025642,4647.6923076923085,4270.769230769231,4394.358974358975
2524.357,0.85357565,1.0,0.3475482,0.563423,0,0.0,0.0,0.0,0.0,0.19597057,0,0,0.0,0.0,0,0,120.0,0.0,503.0,4552.307692307693,3939.48717948718,4525.641025641026,4300.512820512821,4278.974358974359,4565.641025641026,4457.435897435898,4463.076923076924,4419.48717948718,4789.2307692307695,4318.461538461539,4427.6923076923085,4161.538461538462,4343.589743589744
2524.5132,0.85357565,1.0,0.3475482,0.563423,0,0.0,0.0,0.0,0.0,0.26916647,0,0,0.0,0.0,0,0,11.0,0.0,409.0,4525.641025641026,3927.1794871794878,4497.948717948719,4256.410256410257,4279.48717948718,4553.333333333334,4423.589743589744,4397.948717948719,4342.051282051282,4730.769230769231,4265.641025641026,4362.564102564103,4117.435897435898,4311.282051282052
2524.7634,0.90035236,1.0,0.34612277,0.58678085,0,0.0,0.0,0.0,0.0,0.027450968,0,0,0.0,0.0,0,0,43.0,0.0,0.0,4486.153846153847,3928.205128205129,4487.6923076923085,4217.948717948719,4322.564102564103,4573.333333333334,4412.820512820514,4360.000000000001,4302.051282051282,4689.743589743591,4251.794871794872,4323.076923076924,4093.333333333334,4277.435897435898
2524.8887,0.90035236,1.0,0.34612277,0.58678085,0,0.0,0.0,0.0,0.0,0.0,0,0,0.0,0.0,0,0,59.0,0.0,0.0,4508.205128205129,3927.1794871794878,4484.102564102564,4199.48717948718,4314.358974358975,4578.461538461539,4428.205128205129,4357.435897435898,4303.589743589744,4687.6923076923085,4239.48717948718,4291.282051282052,4076.9230769230776,4266.153846153847
2525.264,0.89156955,1.0,0.34484026,0.6078017,0,0.0,0.0,0.0,0.0,0.0,0,0,0.0,0.0,0,0,107.0,0.0,414.0,4821.538461538462,3946.666666666667,4518.461538461539,4204.615384615385,4347.179487179487,4573.333333333334,4446.666666666667,4366.153846153847,4282.564102564103,4675.384615384616,4250.769230769231,4288.717948717949,4104.102564102564,4293.846153846154
2525.264,0.89156955,1.0,0.34484026,0.6078017,0,0.0,0.0,0.0,0.0,0.0,0,0,0.0,0.0,0,0,107.0,0.0,414.0,4821.538461538462,3946.666666666667,4518.461538461539,4204.615384615385,4347.179487179487,4573.333333333334,4446.666666666667,4366.153846153847,4282.564102564103,4675.384615384616,4250.769230769231,4288.717948717949,4104.102564102564,4293.846153846154
2525.7644,0.9635113,1.0,0.34442195,0.62671816,0,0.0,0.0,0.0,0.0,1.0,0,0,0.0,0.0,0,0,42.0,0.0,0.0,5685.641025641026,3933.333333333334,4520.512820512821,4240.512820512821,4246.666666666667,4490.256410256411,4505.641025641026,4468.205128205129,4344.615384615385,4739.48717948718,4361.025641025642,4306.153846153847,4188.717948717949,4606.153846153847
2525.7644,0.9635113,1.0,0.34442195,0.62671816,0,0.0,0.0,0.0,0.0,1.0,0,0,0.0,0.0,0,0,42.0,0.0,0.0,5685.641025641026,3933.333333333334,4520.512820512821,4240.512820512821,4246.666666666667,4490.256410256411,4505.641025641026,4468.205128205129,4344.615384615385,4739.48717948718,4361.025641025642,4306.153846153847,4188.717948717949,4606.153846153847
2526.265,1.0,1.0,0.3452769,0.64267546,0,0.0,0.0,0.0,0.0,0.57454497,0,0,0.0,0.0,0,0,106.0,0.0,534.0,6053.846153846154,3957.9487179487182,4489.743589743591,4282.564102564103,4223.076923076924,4475.8974358974365,4456.923076923077,4446.666666666667,4365.641025641026,4765.128205128206,4457.435897435898,4294.871794871796,4277.435897435898,4843.076923076924
2526.515,1.0,1.0,0.3452769,0.64267546,0,0.0,0.0,0.0,0.0,0.63409245,0,0,0.0,0.0,0,0,9.0,0.0,490.0,5833.846153846154,3955.8974358974365,4464.615384615385,4288.717948717949,4207.179487179487,4489.2307692307695,4429.743589743591,4409.743589743591,4341.538461538462,4730.769230769231,4429.743589743591,4258.461538461539,4231.282051282052,4827.179487179488
2526.7651,0.99408007,1.0,0.34729418,0.6172801,0,0.0,0.0,0.0,0.0,1.0,0,0,0.0,0.0,0,0,41.0,0.0,0.0,5496.410256410257,3945.1282051282055,4441.538461538462,4283.589743589744,4280.512820512821,4511.794871794872,4412.820512820514,4368.205128205129,4329.743589743591,4711.282051282052,4378.974358974359,4218.974358974359,4185.641025641026,4796.923076923077
2526.7651,0.99408007,1.0,0.34729418,0.6172801,0,0.0,0.0,0.0,0.0,1.0,0,0,0.0,0.0,0,0,41.0,0.0,0.0,5496.410256410257,3945.1282051282055,4441.538461538462,4283.589743589744,4280.512820512821,4511.794871794872,4412.820512820514,4368.205128205129,4329.743589743591,4711.282051282052,4378.974358974359,4218.974358974359,4185.641025641026,4796.923076923077
2527.2656,1.0,1.0,0.34910953,0.594425,0,0.0,0.0,0.0,0.0,1.0,0,0,0.0,0.0,0,0,105.0,0.0,474.0,5260.512820512821,3944.1025641025644,4456.923076923077,4246.666666666667,4320.512820512821,4581.538461538462,4415.8974358974365,4363.589743589744,4329.743589743591,4674.871794871796,4376.410256410257,4174.871794871796,4169.74358974359,4787.6923076923085
2527.2656,1.0,1.0,0.34910953,0.594425,0,0.0,0.0,0.0,0.0,1.0,0,0,0.0,0.0,0,0,105.0,0.0,474.0,5260.512820512821,3944.1025641025644,4456.923076923077,4246.666666666667,4320.512820512821,4581.538461538462,4415.8974358974365,4363.589743589744,4329.743589743591,4674.871794871796,4376.410256410257,4174.871794871796,4169.74358974359,4787.6923076923085
2527.766,0.9125348,1.0,0.35074314,0.56870776,0,0.0,0.0,0.0,0.0,1.0,0,0,0.0,0.0,0,0,40.0,0.0,0.0,5055.384615384616,3907.1794871794878,4514.871794871796,4278.461538461539,4291.794871794872,4601.025641025642,4475.8974358974365,4430.256410256411,4377.435897435898,4704.615384615386,4401.025641025642,4316.923076923077,4152.307692307693,4776.923076923077
2528.0164,0.9125348,1.0,0.35074314,0.56870776,0,0.0,0.0,0.0,0.0,0.18560284,0,0,0.0,0.0,0,0,72.0,0.0,505.0,5006.666666666667,3853.8461538461543,4555.8974358974365,4295.384615384616,4257.435897435898,4603.589743589744,4528.717948717949,4523.589743589744,4455.8974358974365,4784.615384615386,4468.205128205129,4393.333333333334,4215.384615384616,4827.179487179488
2528.2666,0.84896827,1.0,0.3492154,0.5455621,0,0.0,0.0,0.0,0.0,0.4259049,0,0,0.0,0.0,0,0,104.0,0.0,503.0,4647.6923076923085,3785.1282051282055,4572.307692307693,4299.48717948718,4201.538461538462,4595.8974358974365,4608.205128205129,4651.282051282052,4562.564102564103,4887.6923076923085,4528.205128205129,4490.256410256411,4245.641025641026,4838.461538461539
2528.5166,0.84896827,1.0,0.3492154,0.5455621,0,0.0,0.0,0.0,0.0,1.0,0,0,0.0,0.0,0,0,7.0,0.0,479.0,4522.564102564103,3822.0512820512827,4570.769230769231,4323.076923076924,4225.641025641026,4582.564102564103,4610.769230769231,4669.2307692307695,4585.641025641026,4923.076923076924,4535.8974358974365,4488.717948717949,4261.025641025642,4809.743589743591
2528.7668,0.8751218,1.0,0.34859285,0.53934216,0,0.0,0.0,0.0,0.0,0.1613105,0,0,0.0,0.0,0,0,39.0,0.0,0.0,4581.025641025642,3905.1282051282055,4566.153846153847,4359.48717948718,4254.871794871796,4588.717948717949,4590.769230769231,4654.871794871796,4573.333333333334,4913.846153846154,4536.410256410257,4473.846153846154,4274.358974358975,4809.743589743591
2529.017,0.8751218,1.0,0.34859285,0.53934216,0,0.0,0.0,0.0,0.0,0.15912592,0,0,0.0,0.0,0,0,71.0,0.0,479.0,4489.2307692307695,3941.0256410256416,4555.384615384616,4368.717948717949,4278.974358974359,4589.2307692307695,4555.384615384616,4600.000000000001,4521.538461538462,4874.358974358975,4505.641025641026,4436.410256410257,4248.205128205129,4762.564102564103
2529.2673,0.9801071,1.0,0.34642208,0.55331826,0,0.0,0.0,0.0,0.0,0.28532732,0,0,0.0,0.0,0,0,103.0,0.0,399.0,4463.589743589744,3920.0000000000005,4549.2307692307695,4355.8974358974365,4270.769230769231,4576.923076923077,4542.051282051282,4556.410256410257,4443.076923076924,4783.589743589744,4449.743589743591,4397.948717948719,4146.666666666667,4700.512820512821
2529.5176,0.9801071,1.0,0.34642208,0.55331826,0,0.0,0.0,0.0,0.0,1.0,0,0,0.0,0.0,0,0,6.0,0.0,535.0,4768.717948717949,3937.9487179487182,4538.461538461539,4362.051282051282,4238.974358974359,4554.871794871796,4553.846153846154,4565.128205128206,4391.794871794872,4716.410256410257,4403.076923076924,4342.564102564103,4057.9487179487182,4672.820512820514
2529.799,0.95504785,1.0,0.3440971,0.56656826,0,0.0,0.0,0.0,0.0,1.0,0,0,0.0,0.0,0,0,42.0,0.0,0.0,7768.71794871795,4774.871794871796,4402.564102564103,4547.6923076923085,4069.7435897435903,4340.512820512821,4472.307692307693,4454.358974358975,4198.974358974359,4610.256410256411,4268.717948717949,4138.461538461539,5238.461538461539,7768.71794871795
2529.799,0.95504785,1.0,0.3440971,0.56656826,0,0.0,0.0,0.0,0.0,1.0,0,0,0.0,0.0,0,0,42.0,0.0,0.0,7768.71794871795,4774.871794871796,4402.564102564103,4547.6923076923085,4069.7435897435903,4340.512820512821,4472.307692307693,4454.358974358975,4198.974358974359,4610.256410256411,4268.717948717949,4138.461538461539,5238.461538461539,7768.71794871795
2530.2996,1.0,1.0,0.34302074,0.57849324,0,0.0,0.0,0.0,0.0,1.0,0,0,0.0,0.0,0,0,106.0,0.0,511.0,7597.948717948719,4557.435897435898,4661.025641025642,4589.2307692307695,4308.205128205129,4625.128205128206,4672.820512820514,4540.000000000001,4437.948717948719,4844.102564102564,4493.846153846154,4397.948717948719,4244.615384615385,6528.717948717949
2530.5183,1.0,1.0,0.34302074,0.57849324,0,0.0,0.0,0.0,0.0,1.0,0,0,0.0,0.0,0,0,5.0,0.0,565.0,6503.076923076924,4546.153846153847,4689.2307692307695,4536.923076923077,4254.871794871796,4615.8974358974365,4697.948717948719,4520.512820512821,4476.923076923077,4852.820512820514,4486.153846153847,4401.025641025642,4253.846153846154,5977.435897435898
2530.7998,0.9400618,1.0,0.34205198,0.5892257,0,0.0,0.0,0.0,0.0,1.0,0,0,0.0,0.0,0,0,41.0,0.0,0.0,5729.2307692307695,4401.025641025642,4764.102564102564,4516.923076923077,4302.051282051282,4561.025641025642,4762.564102564103,4590.256410256411,4447.179487179487,4856.923076923077,4460.000000000001,4446.666666666667,4249.74358974359,5669.2307692307695
2531.0188,0.9400618,1.0,0.34205198,0.5892257,0,0.0,0.0,0.0,0.0,0.68230957,0,0,0.0,0.0,0,0,69.0,0.0,565.0,5246.666666666667,4321.538461538462,4780.000000000001,4514.871794871796,4262.051282051282,4553.333333333334,4794.871794871796,4651.282051282052,4344.102564102564,4763.589743589744,4426.153846153847,4395.384615384616,4180.512820512821,5462.051282051283
2531.269,1.0,1.0,0.34117904,0.585523,0,0.0,0.0,0.0,0.0,0.7541272,0,0,0.0,0.0,0,0,101.0,0.0,475.0,4903.589743589744,4295.8974358974365,4714.871794871796,4516.923076923077,4298.974358974359,4475.384615384616,4717.948717948719,4535.8974358974365,4138.974358974359,4531.794871794872,4192.307692307693,4187.6923076923085,4092.820512820513,5267.179487179488
2531.3943,1.0,1.0,0.34117904,0.585523,0,0.0,0.0,0.0,0.0,1.0,0,0,0.0,0.0,0,0,117.0,0.0,475.0,4771.282051282052,4272.820512820514,4696.410256410257,4516.923076923077,4272.307692307693,4466.666666666667,4716.923076923077,4516.410256410257,4131.282051282052,4532.820512820514,4132.307692307693,4162.564102564103,4121.025641025642,5198.974358974359
2531.7695,0.99560297,0.9651856,0.34039328,0.5821903,0,0.0,0.0,0.0,0.0,1.0,0,0,0.0,0.0,0,0,36.0,0.0,0.0,4417.948717948719,4152.820512820514,4715.384615384616,4481.025641025642,4080.0000000000005,4391.282051282052,4768.205128205129,4663.589743589744,4433.846153846154,4786.666666666667,4479.48717948718,4185.641025641026,4298.461538461539,5069.2307692307695
2532.0198,0.99560297,0.9651856,0.34039328,0.5821903,0,0.0,0.0,0.0,0.0,0.42552555,0,0,0.0,0.0,0,0,68.0,0.0,562.0,4303.076923076924,4180.512820512821,4701.025641025642,4511.282051282052,4111.794871794872,4394.358974358975,4662.564102564103,4698.974358974359,4605.641025641026,4928.205128205129,4666.666666666667,4150.769230769231,4424.615384615385,5038.461538461539
2532.27,0.94540524,0.88742286,0.33968598,0.57919055,0,0.0,0.0,0.0,0.0,0.0,0,0,0.0,0.0,0,0,100.0,0.0,493.0,4136.923076923077,4109.2307692307695,4557.948717948719,4509.743589743591,4173.846153846154,4394.871794871796,4476.410256410257,4571.794871794872,4609.2307692307695,4911.794871794872,4696.410256410257,3981.0256410256416,4361.025641025642,4905.641025641026
2532.27,0.94540524,0.88742286,0.33968598,0.57919055,0,0.0,0.0,0.0,0.0,0.0,0,0,0.0,0.0,0,0,100.0,0.0,493.0,4136.923076923077,4109.2307692307695,4557.948717948719,4509.743589743591,4173.846153846154,4394.871794871796,4476.410256410257,4571.794871794872,4609.2307692307695,4911.794871794872,4696.410256410257,3981.0256410256416,4361.025641025642,4905.641025641026
2532.7703,1.0,0.81743646,0.33904943,0.5764909,0,0.0,0.0,0.0,0.0,0.0,0,0,0.0,0.0,0,0,35.0,0.0,0.0,3793.8461538461543,3974.8717948717954,4297.435897435898,4416.410256410257,4222.051282051282,4398.461538461539,4123.589743589744,4143.076923076924,4386.153846153847,4736.923076923077,4435.8974358974365,3657.435897435898,4021.0256410256416,4615.384615384616
2532.7703,1.0,0.81743646,0.33904943,0.5764909,0,0.0,0.0,0.0,0.0,0.0,0,0,0.0,0.0,0,0,35.0,0.0,0.0,3793.8461538461543,3974.8717948717954,4297.435897435898,4416.410256410257,4222.051282051282,4398.461538461539,4123.589743589744,4143.076923076924,4386.153846153847,4736.923076923077,4435.8974358974365,3657.435897435898,4021.0256410256416,4615.384615384616
2533.2708,1.0,0.7544487,0.3384767,0.57406163,0,0.0,0.0,0.0,0.0,0.0,0,0,0.0,0.0,0,0,99.0,0.0,401.0,3547.692307692308,3764.615384615385,4214.358974358975,4354.871794871796,4247.6923076923085,4464.615384615385,3988.205128205129,3873.8461538461543,4202.564102564103,4525.128205128206,4153.846153846154,3643.0769230769233,3733.8461538461543,4342.564102564103
2533.2708,1.0,0.7544487,0.3384767,0.57406163,0,0.0,0.0,0.0,0.0,0.0,0,0,0.0,0.0,0,0,99.0,0.0,401.0,3547.692307692308,3764.615384615385,4214.358974358975,4354.871794871796,4247.6923076923085,4464.615384615385,3988.205128205129,3873.8461538461543,4202.564102564103,4525.128205128206,4153.846153846154,3643.0769230769233,3733.8461538461543,4342.564102564103
2533.7712,1.0,0.6977597,0.33938995,0.5759628,0,0.0,0.0,0.0,0.0,0.0,0,0,0.0,0.0,1,0,34.0,0.0,0.0,3602.564102564103,3635.3846153846157,4305.128205128206,4316.923076923077,4240.000000000001,4520.512820512821,4116.410256410257,3972.820512820513,4202.051282051282,4505.641025641026,4080.5128205128212,3860.0000000000005,3717.435897435898,4193.333333333334
2534.0527,1.0,0.6977597,0.33938995,0.5759628,0,0.0,0.0,0.0,0.0,0.114533044,0,0,0.0,0.0,0,0,70.0,0.0,539.0,3645.6410256410263,3568.717948717949,4412.307692307693,4247.6923076923085,4151.282051282052,4570.769230769231,4274.871794871796,4148.717948717949,4292.307692307693,4581.538461538462,4126.153846153847,4159.48717948718,3750.2564102564106,4154.358974358975
2534.2717,0.98195624,0.6467396,0.34241804,0.58822936,0,0.0,0.0,0.0,0.0,0.01042832,0,0,0.0,0.0,0,0,98.0,0.0,532.0,3796.9230769230776,3465.1282051282055,4538.974358974359,4248.205128205129,4043.589743589744,4542.564102564103,4485.128205128206,4472.820512820514,4494.871794871796,4748.205128205129,4293.333333333334,4436.410256410257,3854.358974358975,4203.076923076924
2534.522,0.98195624,0.6467396,0.34241804,0.58822936,0,0.0,0.0,0.0,0.0,0.0,0,0,0.2766302,0.0,0,0,1.0,0.0,439.0,4051.7948717948725,3541.538461538462,4688.717948717949,4312.307692307693,4044.1025641025644,4490.769230769231,4702.564102564103,4843.589743589744,4716.923076923077,4987.6923076923085,4554.871794871796,4733.333333333334,4104.615384615385,4302.564102564103
2534.772,1.0,0.60082155,0.34932932,0.6113882,0,0.0,0.0,0.0,0.0,0.0,0,0,0.23031153,0.0,0,0,33.0,0.0,0.0,4173.846153846154,3692.820512820513,4685.641025641026,4387.179487179487,4137.948717948719,4489.2307692307695,4703.076923076924,4908.717948717949,4710.769230769231,5020.512820512821,4606.666666666667,4735.8974358974365,4185.641025641026,4326.666666666667
2535.0222,1.0,0.60082155,0.34932932,0.6113882,0,0.0,0.0,0.0,0.0,0.032945544,0,0,0.0,0.0,0,0,65.0,0.0,439.0,4167.179487179487,3791.2820512820517,4627.179487179488,4426.666666666667,4178.461538461539,4478.974358974359,4586.666666666667,4761.538461538462,4551.794871794872,4928.205128205129,4552.820512820514,4595.384615384616,4167.6923076923085,4292.820512820514
2535.2725,1.0,0.5594953,0.3596659,0.6322285,0,0.0,0.0,0.0,0.0,0.0,0,0,0.0,0.0,0,0,97.0,0.0,469.0,4150.769230769231,3776.9230769230776,4585.128205128206,4459.48717948718,4187.6923076923085,4482.051282051282,4489.743589743591,4607.179487179488,4438.974358974359,4835.384615384616,4488.205128205129,4372.307692307693,4090.7692307692314,4230.256410256411
2535.2725,1.0,0.5594953,0.3596659,0.6322285,0,0.0,0.0,0.0,0.0,0.0,0,0,0.0,0.0,0,0,97.0,0.0,469.0,4150.769230769231,3776.9230769230776,4585.128205128206,4459.48717948718,4187.6923076923085,4482.051282051282,4489.743589743591,4607.179487179488,4438.974358974359,4835.384615384616,4488.205128205129,4372.307692307693,4090.7692307692314,4230.256410256411
2535.773,1.0,0.5223016,0.37457675,0.65087885,0,0.0,0.0,0.0,0.0,0.0,0,0,0.0,0.0,0,0,32.0,0.0,0.0,4303.076923076924,3842.564102564103,4651.282051282052,4526.153846153847,4231.794871794872,4584.615384615385,4591.794871794872,4641.538461538462,4523.589743589744,4924.615384615386,4610.256410256411,4454.871794871796,4190.256410256411,4280.512820512821
2535.773,1.0,0.5223016,0.37457675,0.65087885,0,0.0,0.0,0.0,0.0,0.0,0,0,0.0,0.0,0,0,32.0,0.0,0.0,4303.076923076924,3842.564102564103,4651.282051282052,4526.153846153847,4231.794871794872,4584.615384615385,4591.794871794872,4641.538461538462,4523.589743589744,4924.615384615386,4610.256410256411,4454.871794871796,4190.256410256411,4280.512820512821
2536.2734,1.0,0.48882735,0.39616817,0.6676588,0,0.0,0.0,0.0,0.0,0.0,0,0,0.0,0.0,0,0,96.0,0.0,495.0,4188.205128205129,3817.9487179487182,4500.512820512821,4510.256410256411,4286.666666666667,4602.051282051282,4410.769230769231,4384.102564102564,4433.333333333334,4763.589743589744,4511.282051282052,4108.205128205129,4155.8974358974365,4215.384615384616
2536.2734,1.0,0.48882735,0.39616817,0.6676588,0,0.0,0.0,0.0,0.0,0.0,0,0,0.0,0.0,0,0,96.0,0.0,495.0,4188.205128205129,3817.9487179487182,4500.512820512821,4510.256410256411,4286.666666666667,4602.051282051282,4410.769230769231,4384.102564102564,4433.333333333334,4763.589743589744,4511.282051282052,4108.205128205129,4155.8974358974365,4215.384615384616
2536.7737,1.0,0.45870048,0.41559905,0.6814417,0,0.0,0.0,0.0,0.0,0.0,0,0,0.0,0.0,0,0,31.0,0.0,0.0,3989.23076923077,3704.615384615385,4377.435897435898,4365.128205128206,4298.974358974359,4590.769230769231,4215.384615384616,4090.2564102564106,4266.153846153847,4595.8974358974365,4260.512820512821,4006.666666666667,3906.1538461538466,4086.1538461538466
2536.7737,1.0,0.45870048,0.41559905,0.6814417,0,0.0,0.0,0.0,0.0,0.0,0,0,0.0,0.0,0,0,31.0,0.0,0.0,3989.23076923077,3704.615384615385,4377.435897435898,4365.128205128206,4298.974358974359,4590.769230769231,4215.384615384616,4090.2564102564106,4266.153846153847,4595.8974358974365,4260.512820512821,4006.666666666667,3906.1538461538466,4086.1538461538466
2537.2742,1.0,0.43158633,0.43308496,0.6938392,0,0.0,0.0,0.0,0.0,0.0,0,0,0.0,0.0,0,0,95.0,0.0,414.0,3997.435897435898,3546.1538461538466,4542.564102564103,4329.743589743591,4131.282051282052,4506.153846153847,4441.538461538462,4247.6923076923085,4183.589743589744,4480.000000000001,4147.6923076923085,4124.615384615385,3722.564102564103,3971.2820512820517
2537.4932,1.0,0.43158633,0.43308496,0.6938392,1,0.0,0.0,0.0,0.0,0.0,0,0,0.0,0.0,0,0,123.0,0.0,414.0,4121.025641025642,3597.435897435898,4610.256410256411,4346.153846153847,4106.666666666667,4524.102564102564,4572.820512820514,4355.8974358974365,4229.2307692307695,4532.307692307693,4229.74358974359,4267.179487179487,3844.615384615385,4010.2564102564106
2537.7747,1.0,0.40718356,0.44401023,0.6988724,0,0.0,0.0,0.0,0.0,0.0,0,0,0.0,0.0,0,0,30.0,0.0,0.0,4129.74358974359,3664.1025641025644,4601.025641025642,4373.333333333334,4192.820512820514,4529.2307692307695,4553.846153846154,4334.358974358975,4255.8974358974365,4572.820512820514,4263.589743589744,4213.846153846154,3914.358974358975,4034.8717948717954
2537.7747,1.0,0.40718356,0.44401023,0.6988724,0,0.0,0.0,0.0,0.0,0.0,0,0,0.0,0.0,0,0,30.0,0.0,0.0,4129.74358974359,3664.1025641025644,4601.025641025642,4373.333333333334,4192.820512820514,4529.2307692307695,4553.846153846154,4334.358974358975,4255.8974358974365,4572.820512820514,4263.589743589744,4213.846153846154,3914.358974358975,4034.8717948717954
2538.2751,1.0,0.3852211,0.4538406,0.70038384,0,0.0,0.0,0.0,0.0,0.0,0,0,0.0,0.0,0,0,94.0,0.0,534.0,4122.564102564103,3663.589743589744,4518.461538461539,4385.128205128206,4254.358974358975,4548.717948717949,4446.666666666667,4227.6923076923085,4305.641025641026,4658.461538461539,4272.307692307693,4177.435897435898,3971.2820512820517,4047.692307692308
2538.2751,1.0,0.3852211,0.4538406,0.70038384,0,0.0,0.0,0.0,0.0,0.0,0,0,0.0,0.0,0,0,94.0,0.0,534.0,4122.564102564103,3663.589743589744,4518.461538461539,4385.128205128206,4254.358974358975,4548.717948717949,4446.666666666667,4227.6923076923085,4305.641025641026,4658.461538461539,4272.307692307693,4177.435897435898,3971.2820512820517,4047.692307692308
2538.7756,0.9748705,0.36545485,0.4626854,0.70018417,0,0.0,0.0,0.0,0.0,0.0,0,0,0.0,0.0,0,0,29.0,0.0,0.0,4125.641025641026,3649.2307692307695,4494.358974358975,4377.948717948719,4246.666666666667,4592.820512820514,4368.205128205129,4218.974358974359,4358.974358974359,4736.410256410257,4245.641025641026,4252.307692307693,3995.3846153846157,4078.461538461539
2538.7756,0.9748705,0.36545485,0.4626854,0.70018417,0,0.0,0.0,0.0,0.0,0.0,0,0,0.0,0.0,0,0,29.0,0.0,0.0,4125.641025641026,3649.2307692307695,4494.358974358975,4377.948717948719,4246.666666666667,4592.820512820514,4368.205128205129,4218.974358974359,4358.974358974359,4736.410256410257,4245.641025641026,4252.307692307693,3995.3846153846157,4078.461538461539
2539.276,1.0,0.34766525,0.47387356,0.69831836,0,0.0,0.0,0.0,0.0,0.0,0,0,0.0,0.0,0,0,93.0,0.0,478.0,4130.256410256411,3668.205128205129,4549.2307692307695,4377.435897435898,4244.102564102564,4637.948717948719,4447.179487179487,4346.153846153847,4416.923076923077,4797.948717948719,4229.74358974359,4323.076923076924,4036.410256410257,4102.564102564103
2539.276,1.0,0.34766525,0.47387356,0.69831836,0,0.0,0.0,0.0,0.0,0.0,0,0,0.0,0.0,0,0,93.0,0.0,478.0,4130.256410256411,3668.205128205129,4549.2307692307695,4377.435897435898,4244.102564102564,4637.948717948719,4447.179487179487,4346.153846153847,4416.923076923077,4797.948717948719,4229.74358974359,4323.076923076924,4036.410256410257,4102.564102564103
2539.8076,1.0,0.501554,0.48483276,0.694861,0,0.0,0.0,0.0,0.0,0.0,0,0,0.0,0.0,0,0,32.0,0.0,0.0,4364.102564102564,3711.2820512820517,4601.538461538462,4396.410256410257,4247.179487179487,4646.666666666667,4506.153846153847,4412.820512820514,4447.6923076923085,4839.48717948718,4271.794871794872,4492.307692307693,4110.769230769231,4202.564102564103
2539.8076,1.0,0.501554,0.48483276,0.694861,0,0.0,0.0,0.0,0.0,0.0,0,0,0.0,0.0,0,0,32.0,0.0,0.0,4364.102564102564,3711.2820512820517,4601.538461538462,4396.410256410257,4247.179487179487,4646.666666666667,4506.153846153847,4412.820512820514,4447.6923076923085,4839.48717948718,4271.794871794872,4492.307692307693,4110.769230769231,4202.564102564103
2540.2769,1.0,0.67413956,0.4946923,0.6910183,0,0.0,0.0,0.0,0.0,0.0,0,0,0.0,0.0,0,0,92.0,0.0,500.0,4342.051282051282,3691.794871794872,4609.743589743591,4430.256410256411,4254.358974358975,4617.435897435898,4509.2307692307695,4464.615384615385,4448.205128205129,4868.205128205129,4273.333333333334,4454.358974358975,4095.3846153846157,4193.846153846154
2540.2769,1.0,0.67413956,0.4946923,0.6910183,0,0.0,0.0,0.0,0.0,0.0,0,0,0.0,0.0,0,0,92.0,0.0,500.0,4342.051282051282,3691.794871794872,4609.743589743591,4430.256410256411,4254.358974358975,4617.435897435898,4509.2307692307695,4464.615384615385,4448.205128205129,4868.205128205129,4273.333333333334,4454.358974358975,4095.3846153846157,4193.846153846154
2540.7773,0.98013765,0.9691166,0.51426405,0.68755823,0,0.0,0.0,0.0,0.0,0.0,0,0,0.0,0.0,0,0,27.0,0.0,0.0,4506.666666666667,3745.1282051282055,4646.153846153847,4424.615384615385,4251.794871794872,4587.6923076923085,4534.358974358975,4477.948717948719,4445.128205128206,4862.051282051283,4330.769230769231,4423.076923076924,4142.564102564103,4251.794871794872
2541.0273,0.98013765,0.9691166,0.51426405,0.68755823,0,0.0,0.0,0.0,0.0,0.053256746,0,0,0.0,0.0,0,0,59.0,0.0,0.0,4596.923076923077,3625.1282051282055,4728.205128205129,4401.538461538462,4158.461538461539,4541.025641025642,4665.641025641026,4761.538461538462,4684.102564102564,5105.641025641026,4570.256410256411,4737.435897435898,4374.871794871796,4381.538461538462
2541.2776,1.0,1.0,0.5246891,0.6844426,0,0.0,0.0,0.0,0.0,0.0024021228,0,0,0.0,0.0,0,0,91.0,0.0,411.0,4888.205128205129,3751.2820512820517,4941.025641025642,4452.820512820514,4136.410256410257,4488.717948717949,4915.384615384616,5366.153846153847,5215.8974358974365,5633.333333333334,5088.717948717949,5282.564102564103,4844.102564102564,4683.589743589744
2541.5278,1.0,1.0,0.5246891,0.6844426,0,0.0,0.0,0.0,0.0,0.0,0,0,0.0,0.0,0,0,123.0,0.0,411.0,5142.564102564103,4196.410256410257,4970.256410256411,4547.179487179488,4252.820512820514,4503.076923076924,4926.666666666667,5659.487179487181,5499.487179487181,5910.256410256411,5409.2307692307695,5552.820512820514,5176.923076923077,4904.102564102564
2541.778,1.0,1.0,0.5340664,0.68163675,0,0.0,0.0,0.0,0.0,0.0,0,0,0.0,0.0,0,0,26.0,0.0,0.0,4984.615384615386,4285.641025641026,4715.384615384616,4535.8974358974365,4240.512820512821,4405.128205128206,4664.102564102564,5388.717948717949,5227.6923076923085,5664.102564102564,5203.589743589744,5282.564102564103,4977.948717948719,4808.717948717949
2541.778,1.0,1.0,0.5340664,0.68163675,0,0.0,0.0,0.0,0.0,0.0,0,0,0.0,0.0,0,0,26.0,0.0,0.0,4984.615384615386,4285.641025641026,4715.384615384616,4535.8974358974365,4240.512820512821,4405.128205128206,4664.102564102564,5388.717948717949,5227.6923076923085,5664.102564102564,5203.589743589744,5282.564102564103,4977.948717948719,4808.717948717949
2542.2786,1.0,1.0,0.5425004,0.6870147,0,0.0,0.0,0.0,0.0,0.0,0,0,0.0,0.0,0,0,90.0,0.0,513.0,4596.410256410257,4163.589743589744,4334.358974358975,4521.538461538462,4273.333333333334,4404.615384615385,4248.717948717949,4586.153846153847,4487.6923076923085,4938.974358974359,4587.6923076923085,4563.589743589744,4414.358974358975,4553.333333333334
2542.2786,1.0,1.0,0.5425004,0.6870147,0,0.0,0.0,0.0,0.0,0.0,0,0,0.0,0.0,0,0,90.0,0.0,513.0,4596.410256410257,4163.589743589744,4334.358974358975,4521.538461538462,4273.333333333334,4404.615384615385,4248.717948717949,4586.153846153847,4487.6923076923085,4938.974358974359,4587.6923076923085,4563.589743589744,4414.358974358975,4553.333333333334
2542.779,1.0,1.0,0.5507081,0.70246434,0,0.0,0.0,0.0,0.0,0.0,0,0,0.0,0.0,0,0,25.0,0.0,0.0,4274.871794871796,3955.3846153846157,4185.128205128206,4458.974358974359,4317.948717948719,4474.358974358975,4093.333333333334,3969.7435897435903,3926.1538461538466,4323.589743589744,4042.564102564103,3900.0000000000005,3895.3846153846157,4290.256410256411
2542.779,1.0,1.0,0.5507081,0.70246434,0,0.0,0.0,0.0,0.0,0.0,0,0,0.0,0.0,0,0,25.0,0.0,0.0,4274.871794871796,3955.3846153846157,4185.128205128206,4458.974358974359,4317.948717948719,4474.358974358975,4093.333333333334,3969.7435897435903,3926.1538461538466,4323.589743589744,4042.564102564103,3900.0000000000005,3895.3846153846157,4290.256410256411
2543.2793,1.0,1.0,0.5580891,0.71635884,0,0.0,0.0,0.0,0.0,0.0,0,0,0.0,0.0,0,0,89.0,0.0,471.0,4215.8974358974365,3896.9230769230776,4296.923076923077,4412.307692307693,4266.666666666667,4537.948717948719,4188.205128205129,3881.0256410256416,3764.615384615385,4254.871794871796,3932.307692307693,3860.0000000000005,3819.48717948718,4231.794871794872
2543.2793,1.0,1.0,0.5580891,0.71635884,0,0.0,0.0,0.0,0.0,0.0,0,0,0.0,0.0,0,0,89.0,0.0,471.0,4215.8974358974365,3896.9230769230776,4296.923076923077,4412.307692307693,4266.666666666667,4537.948717948719,4188.205128205129,3881.0256410256416,3764.615384615385,4254.871794871796,3932.307692307693,3860.0000000000005,3819.48717948718,4231.794871794872
2543.7798,1.0,1.0,0.5558453,0.72958994,0,0.0,0.0,0.0,0.0,0.0,0,0,0.0,0.0,0,0,24.0,0.0,0.0,4210.769230769231,3882.0512820512827,4430.256410256411,4391.794871794872,4254.871794871796,4586.153846153847,4333.333333333334,4012.307692307693,3864.1025641025644,4372.820512820514,4002.564102564103,3954.358974358975,3910.7692307692314,4261.538461538462
2543.7798,1.0,1.0,0.5558453,0.72958994,0,0.0,0.0,0.0,0.0,0.0,0,0,0.0,0.0,0,0,24.0,0.0,0.0,4210.769230769231,3882.0512820512827,4430.256410256411,4391.794871794872,4254.871794871796,4586.153846153847,4333.333333333334,4012.307692307693,3864.1025641025644,4372.820512820514,4002.564102564103,3954.358974358975,3910.7692307692314,4261.538461538462
2544.2803,1.0,1.0,0.5513725,0.73835886,0,0.0,0.0,0.0,0.0,0.0,0,0,0.0,0.0,0,0,88.0,0.0,497.0,4308.717948717949,3895.8974358974365,4520.000000000001,4392.307692307693,4250.256410256411,4584.615384615385,4428.205128205129,4187.6923076923085,4046.666666666667,4507.179487179488,4141.025641025642,4086.666666666667,4036.9230769230776,4273.333333333334
2544.2803,1.0,1.0,0.5513725,0.73835886,0,0.0,0.0,0.0,0.0,0.0,0,0,0.0,0.0,0,0,88.0,0.0,497.0,4308.717948717949,3895.8974358974365,4520.000000000001,4392.307692307693,4250.256410256411,4584.615384615385,4428.205128205129,4187.6923076923085,4046.666666666667,4507.179487179488,4141.025641025642,4086.666666666667,4036.9230769230776,4273.333333333334
2544.7808,1.0,1.0,0.5437306,0.74630857,0,0.0,0.0,0.0,0.0,0.0,0,0,0.0,0.0,0,0,23.0,0.0,0.0,4327.179487179487,3927.1794871794878,4563.076923076924,4397.435897435898,4240.512820512821,4588.717948717949,4474.871794871796,4350.769230769231,4202.051282051282,4631.282051282052,4261.538461538462,4197.948717948719,4145.128205128206,4300.512820512821
2545.0623,1.0,1.0,0.5437306,0.74630857,0,0.0,0.0,0.0,0.0,0.0,0,0,0.0,0.0,1,0,59.0,0.0,0.0,4399.48717948718,3998.461538461539,4576.410256410257,4413.333333333334,4268.717948717949,4588.205128205129,4477.948717948719,4380.000000000001,4241.025641025642,4666.666666666667,4281.025641025642,4207.179487179487,4162.051282051282,4292.307692307693
2545.281,0.96916205,1.0,0.52559024,0.75257474,0,0.0,0.0,0.0,0.0,0.0,0,0,0.0,0.0,1,0,87.0,0.0,411.0,4450.769230769231,3977.435897435898,4574.358974358975,4410.769230769231,4265.641025641026,4589.2307692307695,4472.820512820514,4391.282051282052,4285.128205128206,4711.282051282052,4312.307692307693,4231.794871794872,4173.333333333334,4302.051282051282
2545.375,0.96916205,1.0,0.52559024,0.75257474,0,0.0,0.0,0.0,0.0,0.0,0,0,0.0,0.0,0,0,99.0,0.0,411.0,4443.076923076924,3954.358974358975,4565.641025641026,4409.2307692307695,4267.6923076923085,4601.025641025642,4491.794871794872,4400.512820512821,4310.769230769231,4708.205128205129,4324.615384615385,4232.307692307693,4198.461538461539,4306.666666666667
2545.7815,0.88831335,1.0,0.49520928,0.7564148,0,0.0,0.0,0.0,0.0,0.0,0,0,0.0,0.0,0,0,22.0,0.0,0.0,4393.333333333334,3895.3846153846157,4569.743589743591,4399.48717948718,4228.205128205129,4556.410256410257,4497.435897435898,4462.051282051282,4343.076923076924,4748.205128205129,4396.410256410257,4295.384615384616,4281.025641025642,4368.205128205129
2546.0317,0.88831335,1.0,0.49520928,0.7564148,0,0.0,0.0,0.0,0.0,0.17615107,0,0,0.0,0.0,0,0,54.0,0.0,0.0,4340.000000000001,3836.410256410257,4598.974358974359,4389.2307692307695,4185.641025641026,4524.102564102564,4560.000000000001,4557.435897435898,4378.974358974359,4797.948717948719,4469.743589743591,4389.743589743591,4318.974358974359,4366.153846153847
2546.282,0.92610544,1.0,0.47858933,0.7571979,0,0.0,0.0,0.0,0.0,0.036918025,0,0,0.0,0.0,0,0,86.0,0.0,532.0,4648.205128205129,3847.1794871794878,4729.743589743591,4400.512820512821,4155.8974358974365,4456.410256410257,4678.461538461539,4768.717948717949,4475.384615384616,4889.2307692307695,4533.846153846154,4554.871794871796,4321.538461538462,4483.589743589744
2546.5322,0.92610544,1.0,0.47858933,0.7571979,0,0.0,0.0,0.0,0.0,0.31847042,0,0,0.0,0.0,0,0,118.0,0.0,532.0,4842.564102564103,4018.461538461539,4848.717948717949,4464.102564102564,4223.589743589744,4455.8974358974365,4748.717948717949,4934.358974358975,4452.307692307693,4921.538461538462,4543.076923076924,4538.974358974359,4277.435897435898,4542.051282051282
2546.7825,0.9928835,1.0,0.46363044,0.75789547,0,0.0,0.0,0.0,0.0,0.24121267,0,0,0.0,0.0,0,0,21.0,0.0,0.0,4918.974358974359,4251.794871794872,4785.128205128206,4513.846153846154,4359.48717948718,4488.205128205129,4670.256410256411,4832.820512820514,4316.410256410257,4853.333333333334,4354.358974358975,4448.205128205129,4342.564102564103,4563.076923076924
2547.0327,0.9928835,1.0,0.46363044,0.75789547,0,0.0,0.0,0.0,0.0,0.0072892755,0,0,0.0,0.0,0,0,53.0,0.0,0.0,4796.923076923077,4273.846153846154,4585.128205128206,4495.384615384616,4347.6923076923085,4418.461538461539,4439.48717948718,4457.948717948719,4095.8974358974365,4631.282051282052,4217.948717948719,4107.6923076923085,4201.538461538462,4444.615384615385
2547.2827,1.0,1.0,0.45395055,0.75872445,0,0.0,0.0,0.0,0.0,0.0016755784,0,0,0.0,0.0,0,0,85.0,0.0,474.0,4645.128205128206,4278.461538461539,4434.358974358975,4478.974358974359,4326.666666666667,4428.205128205129,4280.000000000001,4177.948717948719,3989.23076923077,4487.179487179488,4157.948717948719,3804.1025641025644,4125.641025641026,4373.846153846154
2547.533,1.0,1.0,0.45395055,0.75872445,0,0.0,0.0,0.0,0.0,0.0,0,0,0.0,0.0,0,0,117.0,0.0,474.0,4462.051282051282,4169.74358974359,4317.948717948719,4447.6923076923085,4316.923076923077,4411.794871794872,4177.948717948719,4001.538461538462,3940.0000000000005,4383.589743589744,4106.153846153847,3634.358974358975,4029.7435897435903,4295.384615384616
2547.7832,1.0,1.0,0.46348372,0.75061584,0,0.0,0.0,0.0,0.0,0.0,0,0,0.0,0.0,0,0,20.0,0.0,0.0,4397.948717948719,4076.9230769230776,4261.538461538462,4416.410256410257,4271.282051282052,4425.641025641026,4147.179487179487,3960.5128205128212,4014.8717948717954,4409.743589743591,4162.051282051282,3632.820512820513,4047.1794871794878,4262.051282051282
2547.7832,1.0,1.0,0.46348372,0.75061584,0,0.0,0.0,0.0,0.0,0.0,0,0,0.0,0.0,0,0,20.0,0.0,0.0,4397.948717948719,4076.9230769230776,4261.538461538462,4416.410256410257,4271.282051282052,4425.641025641026,4147.179487179487,3960.5128205128212,4014.8717948717954,4409.743589743591,4162.051282051282,3632.820512820513,4047.1794871794878,4262.051282051282
2548.2837,0.93875927,1.0,0.47284603,0.73644274,0,0.0,0.0,0.0,0.0,0.21797395,0,0,0.0,0.0,0,0,84.0,0.0,502.0,4329.2307692307695,3996.410256410257,4309.743589743591,4394.358974358975,4250.256410256411,4489.2307692307695,4231.282051282052,4093.8461538461543,4202.051282051282,4526.153846153847,4262.051282051282,3883.589743589744,4129.2307692307695,4252.307692307693
2548.534,0.93875927,1.0,0.47284603,0.73644274,0,0.0,0.0,0.0,0.0,0.06910821,0,0,0.0,0.0,0,0,116.0,0.0,502.0,4328.205128205129,3940.5128205128212,4348.717948717949,4384.102564102564,4235.8974358974365,4508.717948717949,4287.179487179487,4198.461538461539,4280.000000000001,4587.6923076923085,4293.333333333334,4031.2820512820517,4165.641025641026,4265.128205128206
2548.7842,1.0,1.0,0.48126897,0.7355693,0,0.0,0.0,0.0,0.0,0.0,0,0,0.0,0.0,0,0,19.0,0.0,0.0,4331.794871794872,3937.435897435898,4403.076923076924,4385.641025641026,4238.974358974359,4526.153846153847,4362.051282051282,4298.974358974359,4404.102564102564,4660.000000000001,4333.846153846154,4172.307692307693,4203.076923076924,4304.102564102564
2548.7842,1.0,1.0,0.48126897,0.7355693,0,0.0,0.0,0.0,0.0,0.0,0,0,0.0,0.0,0,0,19.0,0.0,0.0,4331.794871794872,3937.435897435898,4403.076923076924,4385.641025641026,4238.974358974359,4526.153846153847,4362.051282051282,4298.974358974359,4404.102564102564,4660.000000000001,4333.846153846154,4172.307692307693,4203.076923076924,4304.102564102564
2549.2847,1.0,1.0,0.48844552,0.7339416,0,0.0,0.0,0.0,0.0,0.0,0,0,0.0,0.0,0,0,83.0,0.0,413.0,4394.871794871796,3866.1538461538466,4502.564102564103,4386.666666666667,4235.384615384616,4503.589743589744,4458.974358974359,4472.307692307693,4422.564102564103,4729.2307692307695,4362.051282051282,4360.512820512821,4231.282051282052,4358.974358974359
2549.2847,1.0,1.0,0.48844552,0.7339416,0,0.0,0.0,0.0,0.0,0.0,0,0,0.0,0.0,0,0,83.0,0.0,413.0,4394.871794871796,3866.1538461538466,4502.564102564103,4386.666666666667,4235.384615384616,4503.589743589744,4458.974358974359,4472.307692307693,4422.564102564103,4729.2307692307695,4362.051282051282,4360.512820512821,4231.282051282052,4358.974358974359
2549.785,1.0,1.0,0.48443392,0.7205945,0,0.0,0.0,0.0,0.0,0.3294355,0,0,0.0,0.0,0,0,18.0,0.0,0.0,4504.102564102564,3990.2564102564106,4539.48717948718,4426.153846153847,4278.974358974359,4509.2307692307695,4475.384615384616,4497.435897435898,4350.769230769231,4729.2307692307695,4357.435897435898,4393.846153846154,4238.461538461539,4429.2307692307695
2550.0352,1.0,1.0,0.48443392,0.7205945,0,0.0,0.0,0.0,0.0,0.08617023,0,0,0.0,0.0,0,0,50.0,0.0,0.0,4491.794871794872,3960.0000000000005,4525.128205128206,4426.153846153847,4279.48717948718,4534.358974358975,4458.974358974359,4488.717948717949,4316.410256410257,4711.794871794872,4316.410256410257,4359.48717948718,4192.307692307693,4405.641025641026
2550.2854,0.9494782,1.0,0.46595824,0.70858437,0,0.0,0.0,0.0,0.0,0.20334037,0,0,0.0,0.0,0,0,82.0,0.0,532.0,4523.076923076924,4005.6410256410263,4511.282051282052,4431.282051282052,4275.8974358974365,4529.743589743591,4426.153846153847,4442.564102564103,4294.358974358975,4703.589743589744,4304.102564102564,4327.6923076923085,4185.641025641026,4397.435897435898
