timestamp,excitement,frustration,meditation,engagementBoredom,blink,clench,laugh,smile,eyebrow,furrowBrow,lookLeft,lookRight,smirkLeft,smirkRight,winkLeft,winkRight,eeg0,eeg1,eeg2,eeg3,eeg4,eeg5,eeg6,eeg7,eeg8,eeg9,eeg10,eeg11,eeg12,eeg13,eeg14,eeg15,eeg16
3114.0354,0.76976717,0.5045941,0.38985467,0.83918405,0,0.0,0.0,0.0,0.0,0.0,0,0,0.0,0.37593278,0,0,69.0,0.0,557.0,4652.820512820514,3879.48717948718,4490.256410256411,4387.6923076923085,4232.820512820514,4532.307692307693,4443.589743589744,4378.461538461539,4355.384615384616,4661.538461538462,4299.48717948718,4234.871794871796,4129.2307692307695,4370.256410256411
3114.2856,0.6842494,0.5261264,0.39758366,0.8381918,0,0.0,0.0,0.037097443,0.0,0.0,0,0,0.0,0.0,0,0,101.0,0.0,471.0,4655.8974358974365,3889.7435897435903,4476.923076923077,4342.051282051282,4212.307692307693,4539.48717948718,4410.256410256411,4388.717948717949,4375.8974358974365,4675.8974358974365,4313.333333333334,4253.846153846154,4149.74358974359,4371.282051282052
3114.411,0.6842494,0.5261264,0.39758366,0.8381918,0,0.0,0.0,0.0,0.0,0.0,0,0,0.0,0.0,0,0,117.0,0.0,471.0,4663.076923076924,3891.2820512820517,4485.128205128206,4354.358974358975,4216.923076923077,4546.666666666667,4420.000000000001,4377.948717948719,4369.743589743591,4677.435897435898,4324.102564102564,4283.076923076924,4163.076923076924,4383.589743589744
3114.7861,0.64350533,0.55286294,0.39846295,0.84605825,0,0.0,0.0,0.0,0.0,0.0,0,0,0.0,0.0,0,0,36.0,0.0,0.0,4633.846153846154,3891.2820512820517,4500.512820512821,4353.333333333334,4209.74358974359,4554.871794871796,4425.641025641026,4392.307692307693,4382.051282051282,4695.384615384616,4318.461538461539,4280.512820512821,4162.051282051282,4383.589743589744
3115.0364,0.64350533,0.55286294,0.39846295,0.84605825,1,0.0,0.0,0.0,0.0,0.0,0,0,0.0,0.69644827,0,0,68.0,0.0,558.0,4616.923076923077,3891.7948717948725,4493.333333333334,4350.769230769231,4186.666666666667,4544.615384615385,4450.256410256411,4413.333333333334,4373.846153846154,4694.871794871796,4357.435897435898,4298.461538461539,4181.538461538462,4392.307692307693
3115.2866,0.591983,0.5769351,0.39406842,0.8481737,0,0.0,0.0,0.0,0.0,0.08562698,0,0,0.0,0.0,0,0,100.0,0.0,505.0,4651.794871794872,3767.692307692308,4664.102564102564,4277.435897435898,4085.6410256410263,4555.384615384616,4572.820512820514,4578.974358974359,4447.6923076923085,4753.333333333334,4398.974358974359,4472.307692307693,4212.820512820514,4446.666666666667
3115.5369,0.591983,0.5769351,0.39406842,0.8481737,0,0.0,0.0,0.0,0.0,0.016305499,0,0,0.0,0.0,0,0,3.0,0.0,541.0,5057.948717948719,3792.820512820513,5007.179487179488,4294.871794871796,3964.1025641025644,4579.48717948718,4930.769230769231,5062.564102564103,4611.282051282052,5040.512820512821,4694.358974358975,4949.743589743591,4479.48717948718,4665.128205128206
3115.787,0.730945,0.59860003,0.39011255,0.84129614,0,0.0,0.0,0.18933655,0.0,0.0,0,0,0.0,0.0,0,0,35.0,0.0,0.0,5455.384615384616,4141.538461538462,5219.487179487181,4417.948717948719,4080.5128205128212,4637.435897435898,5181.538461538462,5408.717948717949,4686.666666666667,5272.820512820514,4904.102564102564,5315.8974358974365,4845.641025641026,4844.102564102564
3116.0374,0.730945,0.59860003,0.39011255,0.84129614,0,0.0,0.0,0.0,0.0,0.0,0,0,0.22522826,0.0,0,0,67.0,0.0,541.0,5441.538461538462,4336.923076923077,5165.641025641026,4573.846153846154,4216.410256410257,4630.256410256411,5050.769230769231,5320.512820512821,4657.435897435898,5299.487179487181,4862.051282051283,5150.769230769231,4860.512820512821,4893.846153846154
3116.2874,0.8532316,0.6180985,0.3865515,0.8351022,0,0.0,0.0,0.0,0.0,0.0,0,0,0.23100264,0.0,0,0,99.0,0.0,396.0,5286.666666666667,4337.435897435898,4935.8974358974365,4631.794871794872,4257.948717948719,4552.820512820514,4793.333333333334,5024.102564102564,4583.589743589744,5146.666666666667,4760.512820512821,4573.333333333334,4750.256410256411,4845.641025641026
3116.5376,0.8532316,0.6180985,0.3865515,0.8351022,0,0.0,0.0,0.0,0.0,0.0,0,0,0.42829812,0.0,0,0,2.0,0.0,437.0,5110.769230769231,4336.923076923077,4707.179487179488,4707.179487179488,4336.923076923077,4528.205128205129,4572.820512820514,4718.461538461539,4465.128205128206,4948.205128205129,4534.871794871796,4167.179487179487,4553.333333333334,4758.461538461539
3116.7878,0.9608438,0.6356471,0.3886386,0.8251447,0,0.0,0.0,0.0,0.0,0.0,0,0,0.5754236,0.0,0,0,34.0,0.0,0.0,4872.307692307693,4301.025641025642,4482.051282051282,4768.717948717949,4410.769230769231,4535.384615384616,4355.8974358974365,4410.256410256411,4317.435897435898,4733.333333333334,4323.076923076924,3892.307692307693,4287.6923076923085,4631.282051282052
3117.038,0.9608438,0.6356471,0.3886386,0.8251447,0,0.0,0.0,0.17773493,0.0,0.0,0,0,0.0,0.0,0,0,66.0,0.0,446.0,4696.410256410257,4203.589743589744,4306.153846153847,4732.307692307693,4396.923076923077,4508.205128205129,4217.948717948719,4155.384615384616,4188.205128205129,4557.435897435898,4187.6923076923085,3752.307692307693,4093.333333333334,4503.589743589744
3117.2883,1.0,0.6514409,0.3981412,0.81618285,0,0.0,0.0,0.16074136,0.0,0.0,0,0,0.0,0.0,0,0,98.0,0.0,525.0,4550.256410256411,4109.74358974359,4204.615384615385,4653.333333333334,4390.256410256411,4491.794871794872,4149.2307692307695,4015.3846153846157,4138.461538461539,4457.948717948719,4078.461538461539,3703.076923076924,3962.0512820512827,4430.256410256411
3117.4133,1.0,0.6514409,0.3981412,0.81618285,0,0.0,0.0,0.0,0.0,0.0,0,0,0.0,0.0,0,0,114.0,0.0,525.0,4501.025641025642,4058.461538461539,4190.256410256411,4614.358974358975,4368.205128205129,4475.384615384616,4134.358974358975,3977.9487179487182,4133.333333333334,4442.564102564103,4035.8974358974365,3716.9230769230776,3910.2564102564106,4394.358974358975
3117.7888,1.0,0.66565526,0.40669242,0.8081162,0,0.0,0.0,0.0,0.0,0.15680592,0,0,0.0,0.0,0,0,33.0,0.0,0.0,4414.358974358975,3953.333333333334,4219.48717948718,4523.076923076924,4342.051282051282,4493.333333333334,4186.153846153847,4010.2564102564106,4187.6923076923085,4460.512820512821,4012.820512820513,3801.0256410256416,3891.7948717948725,4348.717948717949
3118.039,1.0,0.66565526,0.40669242,0.8081162,0,0.0,0.0,0.0,0.0,0.03872456,0,0,0.0,0.0,0,0,65.0,0.0,479.0,4432.820512820514,3940.0000000000005,4263.076923076924,4475.8974358974365,4336.923076923077,4524.102564102564,4252.307692307693,4107.6923076923085,4251.282051282052,4499.48717948718,4021.0256410256416,3892.307692307693,3882.0512820512827,4335.8974358974365
3118.289,1.0,0.6784482,0.4143872,0.7993293,0,0.0,0.0,0.0,0.0,0.099658765,0,0,0.0,0.0,0,0,97.0,0.0,468.0,4410.256410256411,3890.2564102564106,4337.435897435898,4441.025641025642,4324.615384615385,4556.923076923077,4305.641025641026,4159.48717948718,4297.435897435898,4546.666666666667,4076.9230769230776,3958.461538461539,3925.6410256410263,4322.564102564103
3118.5393,1.0,0.6784482,0.4143872,0.7993293,0,0.0,0.0,0.0,0.0,0.0,0,0,0.67180824,0.0,0,0,0.0,0.0,486.0,4385.641025641026,3871.2820512820517,4380.000000000001,4412.820512820514,4304.615384615385,4553.333333333334,4342.051282051282,4201.538461538462,4318.974358974359,4579.48717948718,4157.435897435898,4017.435897435898,3973.8461538461543,4341.538461538462
3118.7896,1.0,0.68996185,0.41813713,0.798373,0,0.0,0.0,0.0,0.0,0.15381181,0,0,0.0,0.0,0,0,32.0,0.0,0.0,4378.974358974359,3872.307692307693,4431.794871794872,4396.410256410257,4306.153846153847,4571.282051282052,4376.923076923077,4245.641025641026,4334.871794871796,4601.025641025642,4169.2307692307695,4074.8717948717954,3992.820512820513,4334.358974358975
3119.0398,1.0,0.68996185,0.41813713,0.798373,0,0.0,0.0,0.0,0.0,0.0,0,0,0.20282438,0.0,0,0,64.0,0.0,486.0,4395.8974358974365,3843.076923076924,4437.435897435898,4370.256410256411,4268.717948717949,4574.358974358975,4410.256410256411,4289.2307692307695,4368.717948717949,4640.000000000001,4217.435897435898,4118.461538461539,4016.410256410257,4337.435897435898
3119.29,1.0,0.7003242,0.40896666,0.80109596,0,0.0,0.0,0.0,0.0,0.0,0,0,0.0,0.0,0,0,96.0,0.0,508.0,4456.923076923077,3872.307692307693,4477.948717948719,4381.538461538462,4266.666666666667,4571.794871794872,4424.102564102564,4322.564102564103,4378.461538461539,4671.794871794872,4295.8974358974365,4183.076923076924,4074.8717948717954,4350.769230769231
3119.29,1.0,0.7003242,0.40896666,0.80109596,0,0.0,0.0,0.0,0.0,0.0,0,0,0.0,0.0,0,0,96.0,0.0,508.0,4456.923076923077,3872.307692307693,4477.948717948719,4381.538461538462,4266.666666666667,4571.794871794872,4424.102564102564,4322.564102564103,4378.461538461539,4671.794871794872,4295.8974358974365,4183.076923076924,4074.8717948717954,4350.769230769231
3119.7905,1.0,0.7096502,0.3878025,0.81665784,0,0.0,0.0,0.0,0.0,0.0,0,0,0.0,0.0,0,0,31.0,0.0,0.0,4516.923076923077,3883.076923076924,4520.000000000001,4393.846153846154,4263.076923076924,4601.025641025642,4475.384615384616,4394.871794871796,4403.589743589744,4711.282051282052,4363.076923076924,4260.512820512821,4125.641025641026,4400.000000000001
3120.0408,1.0,0.7096502,0.3878025,0.81665784,0,0.0,0.0,0.0,0.0,0.0,0,0,0.0,1.0,0,0,63.0,0.0,0.0,4555.8974358974365,3884.615384615385,4521.538461538462,4391.282051282052,4253.333333333334,4588.717948717949,4475.8974358974365,4414.358974358975,4423.589743589744,4733.333333333334,4370.256410256411,4263.589743589744,4149.2307692307695,4397.435897435898
3120.2908,0.99622256,0.7180436,0.3666643,0.82789254,0,0.0,0.0,0.0,0.0,0.0,0,0,0.0,0.0,0,0,95.0,0.0,403.0,4540.000000000001,3877.435897435898,4518.974358974359,4378.974358974359,4253.846153846154,4586.666666666667,4461.538461538462,4397.948717948719,4398.461538461539,4715.384615384616,4353.333333333334,4254.871794871796,4136.923076923077,4389.743589743591
3120.2908,0.99622256,0.7180436,0.3666643,0.82789254,0,0.0,0.0,0.0,0.0,0.0,0,0,0.0,0.0,0,0,95.0,0.0,403.0,4540.000000000001,3877.435897435898,4518.974358974359,4378.974358974359,4253.846153846154,4586.666666666667,4461.538461538462,4397.948717948719,4398.461538461539,4715.384615384616,4353.333333333334,4254.871794871796,4136.923076923077,4389.743589743591
3120.7913,0.90259767,0.7051727,0.3460773,0.82402045,0,0.0,0.0,0.5807247,0.0,0.0,0,0,0.0,0.0,0,0,30.0,0.0,0.0,4553.333333333334,3871.7948717948725,4521.538461538462,4367.179487179487,4213.846153846154,4566.666666666667,4462.564102564103,4395.384615384616,4390.256410256411,4705.128205128206,4353.333333333334,4293.333333333334,4153.333333333334,4436.923076923077
3121.0415,0.90259767,0.7051727,0.3460773,0.82402045,0,0.0,0.0,0.09526683,0.0,0.0,0,0,0.0,0.0,0,0,62.0,0.0,0.0,4547.179487179488,3845.6410256410263,4537.435897435898,4376.923076923077,4218.974358974359,4559.48717948718,4449.743589743591,4416.923076923077,4397.435897435898,4723.589743589744,4367.179487179487,4311.282051282052,4198.974358974359,4467.179487179487
3121.2917,0.8025637,0.6873123,0.32564792,0.8337155,0,0.0,0.0,0.0,0.0,0.0,0,0,0.0,0.2925831,0,0,94.0,0.0,526.0,4557.435897435898,3860.0000000000005,4539.48717948718,4376.923076923077,4188.205128205129,4536.923076923077,4458.461538461539,4394.871794871796,4382.051282051282,4710.256410256411,4376.923076923077,4309.2307692307695,4187.6923076923085,4474.358974358975
3121.542,0.8025637,0.6873123,0.32564792,0.8337155,0,0.0,0.0,0.0,0.0,0.0,0,0,0.0,0.22599646,0,0,126.0,0.0,526.0,4507.179487179488,3845.6410256410263,4539.48717948718,4362.051282051282,4184.615384615385,4535.8974358974365,4449.743589743591,4383.589743589744,4378.461538461539,4704.615384615386,4353.333333333334,4290.256410256411,4152.307692307693,4447.6923076923085
3121.7922,0.7778737,0.67090714,0.30173293,0.8519849,0,0.0,0.0,0.0,0.0,0.43190134,0,0,0.0,0.0,0,0,29.0,0.0,0.0,4504.102564102564,3864.1025641025644,4526.153846153847,4366.153846153847,4215.8974358974365,4541.538461538462,4430.769230769231,4383.589743589744,4382.051282051282,4701.025641025642,4349.743589743591,4277.435897435898,4156.410256410257,4443.589743589744
3122.0425,0.7778737,0.67090714,0.30173293,0.8519849,0,0.0,0.0,0.0,0.0,0.0,0,0,0.0,0.0,0,0,61.0,0.0,0.0,4548.205128205129,3942.564102564103,4530.256410256411,4392.307692307693,4217.948717948719,4540.512820512821,4439.48717948718,4364.102564102564,4346.153846153847,4649.2307692307695,4287.6923076923085,4240.000000000001,4073.8461538461543,4423.589743589744
3122.2927,0.7041592,0.6472096,0.28021002,0.8683887,0,0.0,0.0,0.0,0.0,0.35658565,0,0,0.0,0.0,0,0,93.0,0.0,471.0,4518.461538461539,3916.410256410257,4512.307692307693,4397.948717948719,4198.461538461539,4537.948717948719,4425.128205128206,4373.333333333334,4353.333333333334,4661.025641025642,4294.358974358975,4227.179487179487,4101.538461538462,4425.128205128206
3122.5427,0.7041592,0.6472096,0.28021002,0.8683887,0,0.0,0.0,0.0,0.0,0.043243166,0,0,0.0,0.0,0,0,125.0,0.0,471.0,4540.512820512821,3920.5128205128212,4520.512820512821,4405.641025641026,4212.820512820514,4543.076923076924,4407.6923076923085,4378.974358974359,4351.794871794872,4664.102564102564,4296.410256410257,4234.871794871796,4122.051282051282,4442.564102564103
3122.793,0.6566091,0.6246519,0.26637068,0.87242216,0,0.0,0.0,0.18739279,0.0,0.0,0,0,0.0,0.0,0,0,28.0,0.0,0.0,4554.358974358975,3916.9230769230776,4520.000000000001,4414.871794871796,4203.076923076924,4538.974358974359,4429.2307692307695,4387.179487179487,4355.8974358974365,4668.205128205129,4300.512820512821,4241.025641025642,4138.974358974359,4443.076923076924
3123.0432,0.6566091,0.6246519,0.26637068,0.87242216,0,0.0,0.0,0.32334137,0.0,0.0,0,0,0.0,0.0,0,0,60.0,0.0,0.0,4570.769230769231,3913.333333333334,4524.102564102564,4431.282051282052,4201.025641025642,4535.8974358974365,4425.128205128206,4382.051282051282,4355.8974358974365,4661.538461538462,4327.6923076923085,4245.128205128206,4147.179487179487,4456.923076923077
3123.2935,0.5838081,0.6072267,0.25660774,0.87602985,0,0.0,0.0,0.0,0.0,0.0,0,0,0.0,0.0,0,0,92.0,0.0,505.0,4587.6923076923085,3916.9230769230776,4522.564102564103,4427.179487179487,4189.74358974359,4539.48717948718,4437.435897435898,4388.717948717949,4358.461538461539,4668.205128205129,4307.6923076923085,4249.2307692307695,4140.512820512821,4453.846153846154
3123.2935,0.5838081,0.6072267,0.25660774,0.87602985,0,0.0,0.0,0.0,0.0,0.0,0,0,0.0,0.0,0,0,92.0,0.0,505.0,4587.6923076923085,3916.9230769230776,4522.564102564103,4427.179487179487,4189.74358974359,4539.48717948718,4437.435897435898,4388.717948717949,4358.461538461539,4668.205128205129,4307.6923076923085,4249.2307692307695,4140.512820512821,4453.846153846154
3123.794,0.52160704,0.5946266,0.24837781,0.87925446,0,0.0,0.0,0.0,0.0,0.0,0,0,0.0,0.0,0,0,27.0,0.0,0.0,4570.256410256411,3894.8717948717954,4505.128205128206,4405.641025641026,4202.564102564103,4540.512820512821,4444.615384615385,4381.538461538462,4360.512820512821,4670.769230769231,4322.564102564103,4232.820512820514,4156.410256410257,4472.307692307693
3123.794,0.52160704,0.5946266,0.24837781,0.87925446,0,0.0,0.0,0.0,0.0,0.0,0,0,0.0,0.0,0,0,27.0,0.0,0.0,4570.256410256411,3894.8717948717954,4505.128205128206,4405.641025641026,4202.564102564103,4540.512820512821,4444.615384615385,4381.538461538462,4360.512820512821,4670.769230769231,4322.564102564103,4232.820512820514,4156.410256410257,4472.307692307693
3124.2944,0.50496596,0.5810155,0.24097241,0.8645195,0,0.0,0.0,0.0,0.0,0.0,0,0,0.0,0.0,0,0,91.0,0.0,403.0,4628.205128205129,3881.0256410256416,4504.102564102564,4416.923076923077,4189.2307692307695,4548.205128205129,4445.641025641026,4394.358974358975,4359.48717948718,4668.205128205129,4330.256410256411,4246.153846153847,4149.74358974359,4487.6923076923085
3124.2944,0.50496596,0.5810155,0.24097241,0.8645195,0,0.0,0.0,0.0,0.0,0.0,0,0,0.0,0.0,0,0,91.0,0.0,403.0,4628.205128205129,3881.0256410256416,4504.102564102564,4416.923076923077,4189.2307692307695,4548.205128205129,4445.641025641026,4394.358974358975,4359.48717948718,4668.205128205129,4330.256410256411,4246.153846153847,4149.74358974359,4487.6923076923085
3124.7947,0.41593203,0.567844,0.23502445,0.8512631,0,0.0,0.0,0.0,0.0,0.0,0,0,0.0,0.0,0,0,26.0,0.0,0.0,4678.974358974359,3833.333333333334,4564.615384615385,4410.769230769231,4172.307692307693,4571.282051282052,4518.974358974359,4488.717948717949,4346.153846153847,4646.666666666667,4315.8974358974365,4323.076923076924,4120.512820512821,4545.128205128206
3125.045,0.41593203,0.567844,0.23502445,0.8512631,0,0.0,0.0,0.0,0.0,0.0,0,0,0.10104459,0.0,0,0,58.0,0.0,0.0,4723.076923076924,3876.9230769230776,4575.384615384616,4440.512820512821,4197.435897435898,4572.307692307693,4533.846153846154,4481.025641025642,4310.256410256411,4631.282051282052,4265.128205128206,4309.2307692307695,4109.74358974359,4555.8974358974365
3125.2952,0.44490278,0.5650265,0.22562785,0.8393357,0,0.0,0.0,0.0,0.0,0.0,0,0,0.44356737,0.0,0,0,90.0,0.0,530.0,4730.256410256411,3927.692307692308,4569.743589743591,4447.6923076923085,4221.025641025642,4571.282051282052,4510.256410256411,4478.461538461539,4313.333333333334,4633.333333333334,4233.333333333334,4296.410256410257,4124.615384615385,4556.410256410257
3125.5454,0.44490278,0.5650265,0.22562785,0.8393357,0,0.0,0.0,0.0,0.0,0.0,0,0,0.11248338,0.0,0,0,122.0,0.0,530.0,4768.717948717949,3922.564102564103,4543.589743589744,4449.2307692307695,4216.923076923077,4552.820512820514,4488.205128205129,4460.512820512821,4309.2307692307695,4641.538461538462,4242.051282051282,4280.512820512821,4164.615384615385,4585.128205128206
3125.7957,0.47461376,0.570042,0.2171731,0.83033365,0,0.0,0.0,0.0,0.0,0.0,0,0,0.13866429,0.0,0,0,25.0,0.0,0.0,4748.205128205129,3935.3846153846157,4522.051282051282,4458.461538461539,4234.871794871796,4536.923076923077,4440.000000000001,4402.051282051282,4304.615384615385,4662.564102564103,4283.076923076924,4246.153846153847,4196.923076923077,4586.153846153847
3126.046,0.47461376,0.570042,0.2171731,0.83033365,0,0.0,0.0,0.0,0.0,0.0,0,0,0.25605732,0.0,0,0,57.0,0.0,0.0,4703.589743589744,3933.8461538461543,4510.769230769231,4463.076923076924,4254.358974358975,4538.974358974359,4417.948717948719,4393.846153846154,4343.589743589744,4704.102564102564,4318.461538461539,4227.179487179487,4223.589743589744,4586.153846153847
3126.2961,0.46707994,0.5701088,0.20956616,0.82833004,0,0.0,0.0,0.0,0.0,0.0,0,0,0.0,0.0,0,0,89.0,0.0,471.0,4689.2307692307695,3938.461538461539,4497.948717948719,4461.025641025642,4247.179487179487,4540.512820512821,4427.6923076923085,4398.461538461539,4382.051282051282,4728.205128205129,4369.743589743591,4222.564102564103,4254.358974358975,4581.025641025642
3126.2961,0.46707994,0.5701088,0.20956616,0.82833004,0,0.0,0.0,0.0,0.0,0.0,0,0,0.0,0.0,0,0,89.0,0.0,471.0,4689.2307692307695,3938.461538461539,4497.948717948719,4461.025641025642,4247.179487179487,4540.512820512821,4427.6923076923085,4398.461538461539,4382.051282051282,4728.205128205129,4369.743589743591,4222.564102564103,4254.358974358975,4581.025641025642
3126.7964,0.53408825,0.5627652,0.20327282,0.8274516,0,0.0,0.0,0.0,0.0,0.0,0,0,0.0,0.0,0,0,24.0,0.0,0.0,4652.820512820514,3904.1025641025644,4470.769230769231,4444.102564102564,4242.564102564103,4541.538461538462,4413.846153846154,4368.717948717949,4358.461538461539,4742.051282051282,4375.8974358974365,4213.846153846154,4214.358974358975,4567.6923076923085
3127.0466,0.53408825,0.5627652,0.20327282,0.8274516,0,0.0,0.0,0.0,0.0,0.0,0,0,0.0,0.0,0,0,56.0,0.0,0.0,4632.820512820514,3908.717948717949,4476.923076923077,4431.794871794872,4215.384615384616,4538.974358974359,4421.538461538462,4370.769230769231,4380.000000000001,4748.205128205129,4394.358974358975,4215.384615384616,4211.282051282052,4572.307692307693
3127.2969,0.50262785,0.54132694,0.19761139,0.83223313,0,0.0,0.0,0.0,0.0,0.0,0,0,0.0,0.0,0,0,88.0,0.0,505.0,4647.6923076923085,3925.1282051282055,4500.512820512821,4426.666666666667,4236.923076923077,4535.8974358974365,4427.179487179487,4385.128205128206,4385.128205128206,4742.564102564103,4398.974358974359,4232.307692307693,4215.8974358974365,4569.2307692307695
3127.2969,0.50262785,0.54132694,0.19761139,0.83223313,0,0.0,0.0,0.0,0.0,0.0,0,0,0.0,0.0,0,0,88.0,0.0,505.0,4647.6923076923085,3925.1282051282055,4500.512820512821,4426.666666666667,4236.923076923077,4535.8974358974365,4427.179487179487,4385.128205128206,4385.128205128206,4742.564102564103,4398.974358974359,4232.307692307693,4215.8974358974365,4569.2307692307695
3127.7974,0.48641825,0.51535046,0.18837866,0.8372134,0,0.0,0.0,0.0,0.0,0.0,0,0,0.1816292,0.0,0,0,23.0,0.0,0.0,4601.538461538462,3909.7435897435903,4484.102564102564,4424.102564102564,4217.435897435898,4540.000000000001,4428.205128205129,4388.717948717949,4368.717948717949,4706.153846153847,4380.000000000001,4214.871794871796,4175.8974358974365,4566.153846153847
3127.9224,0.48641825,0.51535046,0.18837866,0.8372134,0,0.0,0.0,0.0,0.0,0.0,0,0,0.0,0.0,0,0,39.0,0.0,0.0,4614.358974358975,3915.3846153846157,4481.538461538462,4426.153846153847,4220.512820512821,4541.025641025642,4435.8974358974365,4406.153846153847,4398.974358974359,4735.8974358974365,4380.512820512821,4228.717948717949,4183.076923076924,4565.128205128206
3128.2979,0.42190936,0.51019424,0.18209971,0.8360987,0,0.0,0.0,0.0,0.0,0.0,0,0,0.0,0.0,0,0,87.0,0.0,400.0,4623.076923076924,3909.7435897435903,4474.358974358975,4420.000000000001,4226.666666666667,4542.564102564103,4435.8974358974365,4397.948717948719,4343.076923076924,4715.384615384616,4370.769230769231,4225.128205128206,4155.8974358974365,4564.102564102564
3128.2979,0.42190936,0.51019424,0.18209971,0.8360987,0,0.0,0.0,0.0,0.0,0.0,0,0,0.0,0.0,0,0,87.0,0.0,400.0,4623.076923076924,3909.7435897435903,4474.358974358975,4420.000000000001,4226.666666666667,4542.564102564103,4435.8974358974365,4397.948717948719,4343.076923076924,4715.384615384616,4370.769230769231,4225.128205128206,4155.8974358974365,4564.102564102564
3128.798,0.38787523,0.5213567,0.17247608,0.8350849,0,0.0,0.0,0.0,0.0,0.0,0,0,0.0,0.0,0,0,22.0,0.0,0.0,4645.128205128206,3924.615384615385,4474.871794871796,4427.179487179487,4235.384615384616,4542.051282051282,4431.282051282052,4380.000000000001,4327.179487179487,4701.538461538462,4366.666666666667,4215.384615384616,4153.846153846154,4569.743589743591
3129.0483,0.38787523,0.5213567,0.17247608,0.8350849,0,0.0,0.0,0.0,0.0,0.4791539,0,0,0.0,0.0,0,0,54.0,0.0,0.0,4702.564102564103,3930.7692307692314,4490.769230769231,4433.846153846154,4236.923076923077,4554.871794871796,4438.974358974359,4388.205128205129,4336.923076923077,4704.102564102564,4375.384615384616,4235.384615384616,4171.794871794872,4570.769230769231
3129.2986,0.32961753,0.53929466,0.1627654,0.8346905,0,0.0,0.0,0.0,0.0,0.37274238,0,0,0.0,0.0,0,0,86.0,0.0,530.0,4696.923076923077,3941.0256410256416,4488.717948717949,4446.153846153847,4227.179487179487,4540.512820512821,4425.641025641026,4376.410256410257,4325.128205128206,4707.6923076923085,4362.051282051282,4231.282051282052,4170.256410256411,4560.000000000001
3129.5488,0.32961753,0.53929466,0.1627654,0.8346905,0,0.0,0.0,0.0,0.0,0.0,0,0,0.4098869,0.0,0,0,118.0,0.0,530.0,4648.717948717949,3933.8461538461543,4488.205128205129,4433.333333333334,4222.051282051282,4539.48717948718,4441.025641025642,4400.512820512821,4335.8974358974365,4701.025641025642,4359.48717948718,4232.820512820514,4167.179487179487,4554.871794871796
3129.799,0.27477643,0.546535,0.15403008,0.8409894,0,0.0,0.0,0.0,0.0,0.0,0,0,0.35606682,0.0,0,0,21.0,0.0,0.0,4651.794871794872,3932.820512820513,4488.205128205129,4433.846153846154,4230.256410256411,4545.641025641026,4443.076923076924,4387.179487179487,4326.666666666667,4705.128205128206,4363.076923076924,4239.48717948718,4170.769230769231,4586.153846153847
3130.0493,0.27477643,0.546535,0.15403008,0.8409894,0,0.0,0.0,0.0,0.0,0.0,0,0,0.41542083,0.0,0,0,53.0,0.0,0.0,4650.769230769231,3946.1538461538466,4488.205128205129,4432.307692307693,4216.923076923077,4545.641025641026,4440.512820512821,4389.743589743591,4314.871794871796,4700.512820512821,4371.282051282052,4232.820512820514,4183.076923076924,4588.717948717949
3130.2996,0.2553519,0.54542786,0.14545839,0.8466382,0,0.0,0.0,0.0,0.0,0.0,0,0,0.64420265,0.0,0,0,85.0,0.0,471.0,4660.512820512821,3926.666666666667,4488.205128205129,4422.051282051282,4251.282051282052,4552.820512820514,4441.538461538462,4387.179487179487,4312.820512820514,4706.153846153847,4369.2307692307695,4231.794871794872,4164.615384615385,4581.025641025642
3130.5498,0.2553519,0.54542786,0.14545839,0.8466382,0,0.0,0.0,0.0,0.0,0.0,0,0,0.58140147,0.0,0,0,117.0,0.0,471.0,4684.102564102564,3927.1794871794878,4476.923076923077,4420.512820512821,4224.615384615385,4544.102564102564,4442.051282051282,4394.358974358975,4329.743589743591,4710.769230769231,4362.051282051282,4209.74358974359,4172.307692307693,4593.846153846154
3130.7998,0.2149937,0.5571429,0.1377487,0.8471554,0,0.0,0.0,0.0,0.0,0.0,0,0,0.0,0.0,0,0,20.0,0.0,0.0,4726.666666666667,3930.7692307692314,4485.641025641026,4430.256410256411,4214.871794871796,4541.538461538462,4453.846153846154,4398.974358974359,4341.025641025642,4698.974358974359,4352.307692307693,4222.564102564103,4153.846153846154,4599.48717948718
3130.7998,0.2149937,0.5571429,0.1377487,0.8471554,0,0.0,0.0,0.0,0.0,0.0,0,0,0.0,0.0,0,0,20.0,0.0,0.0,4726.666666666667,3930.7692307692314,4485.641025641026,4430.256410256411,4214.871794871796,4541.538461538462,4453.846153846154,4398.974358974359,4341.025641025642,4698.974358974359,4352.307692307693,4222.564102564103,4153.846153846154,4599.48717948718
3131.3003,0.23562205,0.5538739,0.13081498,0.84760714,0,0.0,0.0,0.0,0.0,0.0,0,0,0.0,0.0,0,0,84.0,0.0,504.0,4697.948717948719,3899.48717948718,4489.743589743591,4427.179487179487,4231.794871794872,4546.666666666667,4425.641025641026,4382.564102564103,4372.820512820514,4735.384615384616,4415.8974358974365,4235.8974358974365,4268.717948717949,4653.333333333334
3131.5505,0.23562205,0.5538739,0.13081498,0.84760714,0,0.0,0.0,0.45193532,0.0,0.0,0,1,0.0,0.0,0,0,116.0,0.0,504.0,4657.435897435898,3882.0512820512827,4488.205128205129,4419.48717948718,4212.307692307693,4543.076923076924,4440.000000000001,4392.820512820514,4371.794871794872,4721.025641025642,4388.205128205129,4243.589743589744,4242.564102564103,4629.743589743591
3131.8008,0.22619893,0.5526743,0.12726802,0.8492778,0,0.0,0.0,0.29348907,0.0,0.0,0,1,0.0,0.0,0,0,19.0,0.0,0.0,4606.666666666667,3883.076923076924,4491.794871794872,4424.102564102564,4241.538461538462,4556.410256410257,4445.128205128206,4397.435897435898,4384.102564102564,4719.48717948718,4381.538461538462,4231.794871794872,4229.2307692307695,4613.333333333334
3132.051,0.22619893,0.5526743,0.12726802,0.8492778,0,0.0,0.0,0.0,0.0,0.0,0,1,0.0,0.0,0,0,51.0,0.0,0.0,4613.846153846154,3911.2820512820517,4489.743589743591,4425.641025641026,4240.000000000001,4552.307692307693,4438.461538461539,4398.974358974359,4377.948717948719,4721.538461538462,4364.102564102564,4234.358974358975,4204.615384615385,4619.48717948718
3132.3013,0.18779828,0.551589,0.12818284,0.8591771,0,0.0,0.0,0.0,0.0,0.0,0,1,0.0,0.0,0,0,83.0,0.0,398.0,4627.6923076923085,3925.1282051282055,4490.769230769231,4431.794871794872,4217.435897435898,4539.48717948718,4432.820512820514,4378.974358974359,4357.435897435898,4705.641025641026,4361.538461538462,4235.384615384616,4197.435897435898,4627.179487179488
3132.3013,0.18779828,0.551589,0.12818284,0.8591771,0,0.0,0.0,0.0,0.0,0.0,0,1,0.0,0.0,0,0,83.0,0.0,398.0,4627.6923076923085,3925.1282051282055,4490.769230769231,4431.794871794872,4217.435897435898,4539.48717948718,4432.820512820514,4378.974358974359,4357.435897435898,4705.641025641026,4361.538461538462,4235.384615384616,4197.435897435898,4627.179487179488
3132.8018,0.1984451,0.5325936,0.13824742,0.8652331,0,0.0,0.0,0.0,0.0,0.0,0,1,0.0,0.0,0,0,18.0,0.0,0.0,4643.589743589744,3927.1794871794878,4501.025641025642,4444.615384615385,4235.384615384616,4554.871794871796,4382.564102564103,4401.538461538462,4378.461538461539,4722.051282051282,4373.846153846154,4254.871794871796,4203.076923076924,4633.333333333334
3132.8018,0.1984451,0.5325936,0.13824742,0.8652331,0,0.0,0.0,0.0,0.0,0.0,0,1,0.0,0.0,0,0,18.0,0.0,0.0,4643.589743589744,3927.1794871794878,4501.025641025642,4444.615384615385,4235.384615384616,4554.871794871796,4382.564102564103,4401.538461538462,4378.461538461539,4722.051282051282,4373.846153846154,4254.871794871796,4203.076923076924,4633.333333333334
3133.302,0.17682637,0.5227173,0.15710504,0.8596212,0,0.0,0.0,0.0,0.0,0.0,0,1,0.0,0.0,0,0,82.0,0.0,530.0,4710.256410256411,3929.7435897435903,4508.205128205129,4446.666666666667,4234.871794871796,4552.820512820514,4427.6923076923085,4388.717948717949,4381.025641025642,4702.564102564103,4371.282051282052,4238.461538461539,4201.538461538462,4623.076923076924
3133.5522,0.17682637,0.5227173,0.15710504,0.8596212,0,0.0,0.0,0.0,0.0,0.30566955,0,0,0.0,0.0,0,0,114.0,0.0,530.0,4737.948717948719,3926.1538461538466,4505.641025641026,4442.564102564103,4235.384615384616,4553.846153846154,4443.076923076924,4413.333333333334,4396.410256410257,4732.820512820514,4387.6923076923085,4263.589743589744,4251.282051282052,4655.384615384616
3133.8025,0.19801006,0.5277711,0.17407759,0.8550683,0,0.0,0.0,0.0,0.0,0.08668513,0,0,0.0,0.0,0,0,17.0,0.0,0.0,4725.641025641026,3934.358974358975,4538.974358974359,4452.307692307693,4246.666666666667,4554.871794871796,4442.051282051282,4410.256410256411,4396.923076923077,4723.589743589744,4402.051282051282,4264.615384615385,4223.076923076924,4659.48717948718
3134.0527,0.19801006,0.5277711,0.17407759,0.8550683,0,0.0,0.0,0.0,0.0,0.86998487,0,0,0.0,0.0,0,0,49.0,0.0,0.0,4665.641025641026,3911.2820512820517,4535.8974358974365,4444.615384615385,4247.179487179487,4556.923076923077,4443.589743589744,4413.846153846154,4396.410256410257,4715.384615384616,4434.358974358975,4259.48717948718,4232.820512820514,4637.435897435898
3134.303,0.16321793,0.52169985,0.19181928,0.8614909,0,0.0,0.0,0.0,0.0,0.45813856,0,0,0.0,0.0,0,0,81.0,0.0,471.0,4681.538461538462,3939.48717948718,4523.076923076924,4444.615384615385,4250.769230769231,4552.820512820514,4436.410256410257,4398.974358974359,4382.564102564103,4712.820512820514,4406.666666666667,4245.128205128206,4219.48717948718,4627.179487179488
3134.5532,0.16321793,0.52169985,0.19181928,0.8614909,0,0.0,0.0,0.0,0.0,0.6229304,0,0,0.0,0.0,0,0,113.0,0.0,471.0,4707.179487179488,3938.461538461539,4507.6923076923085,4445.128205128206,4242.051282051282,4551.282051282052,4428.205128205129,4388.205128205129,4376.923076923077,4709.743589743591,4389.2307692307695,4235.8974358974365,4211.794871794872,4615.8974358974365
3134.8035,0.15982033,0.5222077,0.21928771,0.86205083,0,0.0,0.0,0.0,0.0,0.0,0,0,0.0,0.0,0,0,16.0,0.0,0.0,4693.846153846154,3923.589743589744,4510.769230769231,4443.076923076924,4247.6923076923085,4543.589743589744,4426.666666666667,4388.717948717949,4375.384615384616,4694.871794871796,4378.974358974359,4248.717948717949,4190.769230769231,4628.717948717949
3134.8035,0.15982033,0.5222077,0.21928771,0.86205083,0,0.0,0.0,0.0,0.0,0.0,0,0,0.0,0.0,0,0,16.0,0.0,0.0,4693.846153846154,3923.589743589744,4510.769230769231,4443.076923076924,4247.6923076923085,4543.589743589744,4426.666666666667,4388.717948717949,4375.384615384616,4694.871794871796,4378.974358974359,4248.717948717949,4190.769230769231,4628.717948717949
3135.3037,0.13222024,0.503285,0.23278049,0.8553159,0,0.0,0.0,0.0,0.0,0.0,0,0,0.0,0.0,0,0,80.0,0.0,504.0,4649.743589743591,3958.461538461539,4507.6923076923085,4457.435897435898,4249.74358974359,4558.461538461539,4444.615384615385,4413.846153846154,4396.923076923077,4712.307692307693,4390.769230769231,4244.615384615385,4193.846153846154,4624.615384615385
3135.554,0.13222024,0.503285,0.23278049,0.8553159,0,0.0,0.0,0.0,0.0,0.3093766,0,0,0.0,0.0,0,0,112.0,0.0,504.0,4678.461538461539,3961.0256410256416,4507.6923076923085,4457.948717948719,4249.74358974359,4555.384615384616,4430.769230769231,4392.307692307693,4386.153846153847,4705.641025641026,4382.564102564103,4233.333333333334,4203.589743589744,4662.564102564103
3135.8042,0.10132844,0.4898291,0.24372591,0.8398402,0,0.0,0.0,0.0,0.0,0.2500066,0,0,0.0,0.0,0,0,15.0,0.0,398.0,4655.8974358974365,3944.1025641025644,4506.153846153847,4446.153846153847,4241.538461538462,4552.820512820514,4439.48717948718,4392.820512820514,4392.820512820514,4696.923076923077,4358.461538461539,4237.435897435898,4172.307692307693,4621.538461538462
3136.0544,0.10132844,0.4898291,0.24372591,0.8398402,0,0.0,0.0,0.0,0.0,0.18947776,0,0,0.0,0.0,0,0,47.0,0.0,0.0,4649.2307692307695,3958.461538461539,4500.512820512821,4448.205128205129,4262.564102564103,4560.512820512821,4431.282051282052,4387.6923076923085,4391.282051282052,4712.307692307693,4363.076923076924,4237.435897435898,4193.846153846154,4630.256410256411
3136.3047,0.08317643,0.49397266,0.25253305,0.82715505,0,0.0,0.0,0.0,0.0,0.16539367,0,0,0.0,0.0,0,0,79.0,0.0,398.0,4670.769230769231,3945.6410256410263,4503.589743589744,4446.666666666667,4249.2307692307695,4549.743589743591,4427.179487179487,4388.717948717949,4394.871794871796,4714.871794871796,4355.8974358974365,4236.410256410257,4191.282051282052,4654.871794871796
3136.555,0.08317643,0.49397266,0.25253305,0.82715505,0,0.0,0.0,0.0,0.0,0.27584085,0,0,0.0,0.0,0,0,111.0,0.0,398.0,4641.538461538462,3940.0000000000005,4488.205128205129,4442.051282051282,4248.205128205129,4552.307692307693,4443.076923076924,4391.794871794872,4383.589743589744,4706.666666666667,4362.564102564103,4232.307692307693,4191.794871794872,4656.923076923077
3136.8052,0.06809257,0.5012212,0.26046044,0.8210651,0,0.0,0.0,0.0,0.0,0.08859297,0,0,0.0,0.0,0,0,14.0,0.0,530.0,4655.384615384616,3913.8461538461543,4497.948717948719,4423.076923076924,4238.461538461539,4545.641025641026,4443.589743589744,4412.307692307693,4403.589743589744,4723.589743589744,4376.923076923077,4264.102564102564,4200.512820512821,4646.666666666667
3137.0552,0.06809257,0.5012212,0.26046044,0.8210651,0,0.0,0.0,0.0,0.0,0.027930573,0,0,0.0,0.0,0,0,46.0,0.0,0.0,4712.307692307693,3881.538461538462,4535.384615384616,4391.282051282052,4221.025641025642,4555.8974358974365,4490.769230769231,4475.384615384616,4446.666666666667,4766.666666666667,4440.000000000001,4318.974358974359,4232.307692307693,4680.512820512821
3137.3054,0.12367615,0.52054745,0.26643658,0.81558025,0,0.0,0.0,0.0,0.0,0.028107837,0,0,0.0,0.0,0,0,78.0,0.0,530.0,4788.205128205129,3858.9743589743593,4580.000000000001,4356.923076923077,4200.000000000001,4582.051282051282,4563.076923076924,4575.384615384616,4536.923076923077,4858.461538461539,4522.051282051282,4412.307692307693,4332.307692307693,4702.564102564103
3137.5557,0.12367615,0.52054745,0.26643658,0.81558025,0,0.0,0.0,0.0,0.0,0.35362735,0,0,0.0,0.0,0,0,110.0,0.0,530.0,5054.871794871796,3930.7692307692314,4701.025641025642,4380.512820512821,4153.846153846154,4585.128205128206,4638.974358974359,4702.564102564103,4588.205128205129,4906.666666666667,4601.538461538462,4568.717948717949,4418.974358974359,4822.564102564103
3137.806,0.31883505,0.5379456,0.26339987,0.8190462,0,0.0,0.0,0.0,0.0,0.1506991,0,0,0.0,0.0,0,0,13.0,0.0,461.0,5063.589743589744,3992.307692307693,4752.820512820514,4399.48717948718,4170.769230769231,4629.743589743591,4729.2307692307695,4858.461538461539,4669.2307692307695,5016.923076923077,4623.589743589744,4676.410256410257,4474.358974358975,4835.384615384616
3138.0562,0.31883505,0.5379456,0.26339987,0.8190462,0,0.0,0.0,0.0,0.0,0.08688396,0,0,0.0,0.0,0,0,45.0,0.0,0.0,5149.743589743591,4093.333333333334,4829.743589743591,4474.358974358975,4209.74358974359,4622.051282051282,4768.205128205129,4911.282051282052,4667.179487179488,5073.333333333334,4650.256410256411,4738.461538461539,4540.512820512821,4895.8974358974365
3138.3064,0.49057484,0.553604,0.2584471,0.8398451,0,0.0,0.0,0.0,0.0,0.024417203,0,0,0.0,0.0,0,0,77.0,0.0,453.0,5232.820512820514,4157.948717948719,4937.948717948719,4467.6923076923085,4203.589743589744,4632.307692307693,4888.205128205129,5052.307692307693,4707.179487179488,5166.153846153847,4709.2307692307695,4873.333333333334,4654.871794871796,4975.8974358974365
3138.4314,0.49057484,0.553604,0.2584471,0.8398451,0,0.0,0.0,0.0,0.0,0.0,0,0,0.0,0.0,0,0,93.0,0.0,453.0,5313.846153846154,4213.846153846154,4996.410256410257,4475.384615384616,4211.282051282052,4639.48717948718,4914.871794871796,5118.461538461539,4718.974358974359,5217.435897435898,4781.538461538462,4960.512820512821,4685.641025641026,5032.820512820514
3138.807,0.64170593,0.5676966,0.26202193,0.8585257,0,0.0,0.0,0.0,0.0,0.0,0,0,0.0,0.0,0,0,12.0,0.0,494.0,5171.794871794872,4293.333333333334,4797.948717948719,4525.641025641026,4235.384615384616,4557.948717948719,4780.512820512821,4989.743589743591,4568.205128205129,5149.743589743591,4673.846153846154,4827.179487179488,4634.871794871796,4984.102564102564
3138.807,0.64170593,0.5676966,0.26202193,0.8585257,0,0.0,0.0,0.0,0.0,0.0,0,0,0.0,0.0,0,0,12.0,0.0,494.0,5171.794871794872,4293.333333333334,4797.948717948719,4525.641025641026,4235.384615384616,4557.948717948719,4780.512820512821,4989.743589743591,4568.205128205129,5149.743589743591,4673.846153846154,4827.179487179488,4634.871794871796,4984.102564102564
3139.3071,0.7747012,0.58037984,0.26166236,0.8752972,0,0.0,0.0,0.0,0.0,0.0,0,0,0.40359566,0.0,0,0,76.0,0.0,494.0,4906.153846153847,4189.2307692307695,4538.461538461539,4589.2307692307695,4274.358974358975,4393.846153846154,4414.358974358975,4489.743589743591,4278.461538461539,4806.666666666667,4416.923076923077,4370.256410256411,4329.743589743591,4831.794871794872
3139.5574,0.7747012,0.58037984,0.26166236,0.8752972,0,0.0,0.0,0.0,0.0,0.035897054,0,0,0.0,0.0,0,0,108.0,0.0,494.0,4680.512820512821,4082.564102564103,4376.410256410257,4592.820512820514,4293.846153846154,4348.717948717949,4282.051282051282,4246.153846153847,4152.820512820514,4643.076923076924,4297.435897435898,4117.435897435898,4172.820512820514,4734.358974358975
3139.8076,0.8917371,0.59179485,0.26133984,0.8755546,0,0.0,0.0,0.0,0.0,0.0,0,0,0.0,0.0,0,0,11.0,0.0,391.0,4578.461538461539,4046.666666666667,4320.512820512821,4587.179487179488,4344.102564102564,4350.769230769231,4230.769230769231,4121.538461538462,4104.102564102564,4537.435897435898,4180.512820512821,4021.0256410256416,4074.8717948717954,4676.410256410257
3140.0579,0.8917371,0.59179485,0.26133984,0.8755546,0,0.0,0.0,0.0,0.0,0.0,0,0,0.0,0.0,0,0,43.0,0.0,0.0,4474.871794871796,3987.1794871794878,4292.307692307693,4557.435897435898,4326.666666666667,4337.948717948719,4180.512820512821,4034.8717948717954,4076.9230769230776,4485.128205128206,4104.102564102564,3933.8461538461543,3993.8461538461543,4599.48717948718
3140.308,0.9947287,0.6020683,0.2635021,0.8626039,0,0.0,0.0,0.0,0.0,0.0,0,0,0.0,0.0,0,0,75.0,0.0,391.0,4421.025641025642,3939.48717948718,4292.820512820514,4513.846153846154,4354.871794871796,4374.871794871796,4204.102564102564,4053.333333333334,4122.564102564103,4487.6923076923085,4109.2307692307695,3926.666666666667,3981.538461538462,4576.410256410257
3140.5583,0.9947287,0.6020683,0.2635021,0.8626039,0,0.0,0.0,0.0,0.0,0.14595717,0,0,0.0,0.0,0,0,107.0,0.0,391.0,4453.333333333334,3918.9743589743593,4309.743589743591,4488.717948717949,4326.153846153847,4400.000000000001,4217.948717948719,4050.7692307692314,4135.384615384616,4472.307692307693,4125.128205128206,3926.1538461538466,3972.820512820513,4546.666666666667
3140.8086,1.0,0.6113144,0.26544908,0.850951,0,0.0,0.0,0.0,0.0,0.0,0,0,0.38125032,0.0,0,0,10.0,0.0,524.0,4436.923076923077,3890.7692307692314,4333.333333333334,4459.48717948718,4325.128205128206,4430.769230769231,4250.256410256411,4090.2564102564106,4171.282051282052,4492.820512820514,4141.025641025642,3956.410256410257,3952.820512820513,4520.512820512821
3141.0588,1.0,0.6113144,0.26544908,0.850951,0,0.0,0.0,0.0,0.0,0.0,0,0,0.22794797,0.0,0,0,42.0,0.0,0.0,4493.333333333334,3956.410256410257,4369.743589743591,4456.410256410257,4313.846153846154,4429.743589743591,4277.435897435898,4123.589743589744,4195.8974358974365,4508.205128205129,4172.820512820514,3992.307692307693,4001.0256410256416,4542.051282051282
3141.3088,1.0,0.6196359,0.26661193,0.84046465,0,0.0,0.0,0.0,0.0,0.0,0,0,0.3837555,0.0,0,0,74.0,0.0,524.0,4405.128205128206,3878.9743589743593,4382.564102564103,4429.2307692307695,4299.48717948718,4476.410256410257,4342.564102564103,4215.8974358974365,4288.205128205129,4584.615384615385,4217.435897435898,4031.2820512820517,4020.0000000000005,4493.333333333334
3141.559,1.0,0.6196359,0.26661193,0.84046465,0,0.0,0.0,0.0,0.0,0.2272559,0,0,0.0,0.0,0,0,106.0,0.0,524.0,4428.205128205129,3877.9487179487182,4396.923076923077,4415.8974358974365,4291.794871794872,4485.641025641026,4341.538461538462,4229.74358974359,4291.794871794872,4584.615384615385,4234.358974358975,4055.8974358974365,4044.615384615385,4485.641025641026
3141.8093,1.0,0.62712526,0.2664637,0.84010315,0,0.0,0.0,0.0,0.0,0.34497935,0,0,0.0,0.0,0,0,9.0,0.0,480.0,4465.128205128206,3903.589743589744,4413.333333333334,4420.000000000001,4299.48717948718,4506.666666666667,4359.48717948718,4249.2307692307695,4317.435897435898,4624.102564102564,4263.589743589744,4104.102564102564,4076.410256410257,4494.358974358975
3142.0596,1.0,0.62712526,0.2664637,0.84010315,0,0.0,0.0,0.0,0.0,0.0,0,0,0.5767158,0.0,0,0,41.0,0.0,0.0,4474.358974358975,3879.48717948718,4442.564102564103,4414.871794871796,4271.794871794872,4523.589743589744,4390.769230769231,4284.102564102564,4348.717948717949,4640.000000000001,4285.641025641026,4123.589743589744,4116.923076923077,4505.641025641026
3142.3098,1.0,0.63386565,0.26633123,0.839766,0,0.0,0.0,0.0,0.0,0.0,0,0,0.0,0.0,0,0,73.0,0.0,480.0,4456.410256410257,3884.1025641025644,4441.538461538462,4381.538461538462,4255.8974358974365,4516.410256410257,4380.000000000001,4294.358974358975,4355.384615384616,4644.615384615385,4263.589743589744,4120.512820512821,4122.564102564103,4497.435897435898
3142.3098,1.0,0.63386565,0.26633123,0.839766,0,0.0,0.0,0.0,0.0,0.0,0,0,0.0,0.0,0,0,73.0,0.0,480.0,4456.410256410257,3884.1025641025644,4441.538461538462,4381.538461538462,4255.8974358974365,4516.410256410257,4380.000000000001,4294.358974358975,4355.384615384616,4644.615384615385,4263.589743589744,4120.512820512821,4122.564102564103,4497.435897435898
3142.8103,0.92812544,0.63993204,0.26278633,0.83945084,0,0.0,0.0,0.0,0.0,0.0,0,0,0.0,0.0,0,0,8.0,0.0,505.0,4528.717948717949,3883.076923076924,4494.871794871796,4348.717948717949,4212.820512820514,4531.282051282052,4434.358974358975,4376.410256410257,4388.717948717949,4654.871794871796,4265.128205128206,4181.538461538462,4019.48717948718,4463.589743589744
3142.8103,0.92812544,0.63993204,0.26278633,0.83945084,0,0.0,0.0,0.0,0.0,0.0,0,0,0.0,0.0,0,0,8.0,0.0,505.0,4528.717948717949,3883.076923076924,4494.871794871796,4348.717948717949,4212.820512820514,4531.282051282052,4434.358974358975,4376.410256410257,4388.717948717949,4654.871794871796,4265.128205128206,4181.538461538462,4019.48717948718,4463.589743589744
3143.3108,0.98786485,0.6633561,0.25959706,0.84662694,0,0.0,0.0,0.0,0.0,0.0,0,0,0.0,0.0,0,0,72.0,0.0,505.0,4613.846153846154,3907.692307692308,4511.794871794872,4331.282051282052,4221.538461538462,4537.948717948719,4471.794871794872,4437.435897435898,4383.076923076924,4656.410256410257,4292.307692307693,4232.820512820514,4067.1794871794878,4458.461538461539
3143.3108,0.98786485,0.6633561,0.25959706,0.84662694,0,0.0,0.0,0.0,0.0,0.0,0,0,0.0,0.0,0,0,72.0,0.0,505.0,4613.846153846154,3907.692307692308,4511.794871794872,4331.282051282052,4221.538461538462,4537.948717948719,4471.794871794872,4437.435897435898,4383.076923076924,4656.410256410257,4292.307692307693,4232.820512820514,4067.1794871794878,4458.461538461539
3143.811,1.0,0.6844658,0.26015538,0.84699225,0,0.0,0.0,0.12796256,0.0,0.0,0,0,0.0,0.0,0,0,7.0,0.0,467.0,4968.205128205129,3713.333333333334,4916.410256410257,4240.512820512821,4003.589743589744,4581.025641025642,4917.948717948719,5012.820512820514,4570.256410256411,4941.538461538462,4558.974358974359,4818.974358974359,4331.282051282052,4663.589743589744
3144.0613,1.0,0.6844658,0.26015538,0.84699225,0,0.0,0.0,0.15479305,0.0,0.0,0,0,0.0,0.0,0,0,39.0,0.0,0.0,5287.179487179488,4102.564102564103,5215.384615384616,4375.8974358974365,4109.2307692307695,4693.846153846154,5183.589743589744,5451.282051282052,4765.641025641026,5273.846153846154,4898.461538461539,5241.538461538462,4769.2307692307695,4876.923076923077
3144.3115,1.0,0.70346457,0.26325774,0.84056824,0,0.0,0.0,0.0,0.0,0.0,0,0,0.40727037,0.0,0,0,71.0,0.0,453.0,5342.564102564103,4345.641025641026,5165.641025641026,4546.666666666667,4134.358974358975,4585.641025641026,5117.948717948719,5360.000000000001,4683.589743589744,5287.179487179488,4900.000000000001,5104.102564102564,4861.538461538462,4927.6923076923085
3144.5618,1.0,0.70346457,0.26325774,0.84056824,0,0.0,0.0,0.0,0.0,0.0,0,0,0.20552117,0.0,0,0,103.0,0.0,391.0,5219.487179487181,4385.641025641026,4946.666666666667,4624.615384615385,4191.794871794872,4524.615384615385,4816.923076923077,5097.435897435898,4523.589743589744,5130.769230769231,4781.538461538462,4524.102564102564,4672.307692307693,4862.564102564103
3144.8433,1.0,0.7205634,0.26920784,0.8323385,0,0.0,0.0,0.0,0.0,0.0,0,0,0.42748806,0.0,0,0,10.0,0.0,513.0,5062.564102564103,4375.384615384616,4729.743589743591,4669.743589743591,4262.051282051282,4470.769230769231,4589.743589743591,4776.410256410257,4401.025641025642,4922.564102564103,4537.435897435898,4210.769230769231,4461.025641025642,4736.410256410257
3145.0623,1.0,0.7205634,0.26920784,0.8323385,0,0.0,0.0,0.0,0.0,0.0,0,0,0.49721277,0.0,0,0,38.0,0.0,0.0,4909.2307692307695,4310.769230769231,4547.6923076923085,4713.333333333334,4326.666666666667,4453.846153846154,4458.461538461539,4529.2307692307695,4336.923076923077,4812.820512820514,4404.102564102564,3903.589743589744,4354.358974358975,4660.000000000001
3145.3125,1.0,0.73595244,0.27562866,0.82482547,0,0.0,0.0,0.0,0.0,0.0,0,0,0.44553408,0.0,0,0,70.0,0.0,535.0,4658.461538461539,4221.025641025642,4323.076923076924,4726.153846153847,4368.205128205129,4422.564102564103,4233.846153846154,4224.102564102564,4206.153846153847,4634.358974358975,4206.153846153847,3689.2307692307695,4163.076923076924,4509.2307692307695
3145.5625,1.0,0.73595244,0.27562866,0.82482547,0,0.0,0.0,0.0,0.0,0.0,0,0,0.44562653,0.0,0,0,102.0,0.0,523.0,4506.666666666667,4121.025641025642,4200.000000000001,4674.871794871796,4362.051282051282,4390.256410256411,4112.820512820514,3985.6410256410263,4096.410256410257,4469.2307692307695,4053.8461538461543,3602.0512820512827,3993.333333333334,4396.410256410257
3145.8127,1.0,0.7498025,0.2814081,0.807403,0,0.0,0.0,0.0,0.0,0.0,0,0,0.36885497,0.0,0,0,5.0,0.0,560.0,4519.48717948718,4128.205128205129,4180.000000000001,4647.179487179488,4340.512820512821,4365.641025641026,4043.589743589744,3891.7948717948725,4030.7692307692314,4361.025641025642,3942.0512820512827,3601.538461538462,3833.333333333334,4311.794871794872
3146.063,1.0,0.7498025,0.2814081,0.807403,0,0.0,0.0,0.0,0.0,0.37896973,0,0,0.0,0.0,0,0,37.0,0.0,0.0,4347.179487179487,4025.1282051282055,4175.384615384616,4583.589743589744,4348.717948717949,4403.589743589744,4090.7692307692314,3910.2564102564106,4062.564102564103,4355.384615384616,3940.5128205128212,3670.7692307692314,3823.589743589744,4251.794871794872
3146.3132,1.0,0.7622676,0.28661028,0.7818149,0,0.0,0.0,0.0,0.0,0.30631733,0,0,0.0,0.0,0,0,69.0,0.0,560.0,4306.153846153847,3955.8974358974365,4198.974358974359,4530.769230769231,4332.307692307693,4428.205128205129,4141.025641025642,3960.0000000000005,4136.923076923077,4418.974358974359,3977.9487179487182,3735.3846153846157,3855.3846153846157,4220.000000000001
3146.5635,1.0,0.7622676,0.28661028,0.7818149,0,0.0,0.0,0.0,0.0,0.107422024,0,0,0.0,0.0,0,0,101.0,0.0,469.0,4309.2307692307695,3908.717948717949,4250.256410256411,4476.923076923077,4330.769230769231,4456.410256410257,4193.846153846154,4003.589743589744,4180.000000000001,4461.025641025642,4011.2820512820517,3842.564102564103,3910.7692307692314,4224.102564102564
3146.8137,1.0,0.77348614,0.29129288,0.75879675,0,0.0,0.0,0.0,0.0,0.080832005,0,0,0.0,0.0,0,0,4.0,0.0,558.0,4273.333333333334,3874.8717948717954,4291.282051282052,4432.307692307693,4311.282051282052,4466.153846153847,4245.128205128206,4062.564102564103,4214.871794871796,4491.282051282052,4039.48717948718,3891.2820512820517,3944.615384615385,4208.205128205129
3147.064,1.0,0.77348614,0.29129288,0.75879675,0,0.0,0.0,0.0,0.0,0.0,0,0,0.2620572,0.0,0,0,36.0,0.0,0.0,4312.307692307693,3866.666666666667,4333.333333333334,4411.282051282052,4297.435897435898,4490.769230769231,4287.179487179487,4147.179487179487,4277.948717948719,4557.948717948719,4098.461538461539,3970.2564102564106,4001.538461538462,4214.358974358975
3147.3142,1.0,0.78358287,0.29550773,0.73808825,0,0.0,0.0,0.0,0.0,0.0,0,0,0.5629411,0.0,0,0,68.0,0.0,558.0,4337.948717948719,3865.6410256410263,4323.589743589744,4393.333333333334,4314.871794871796,4509.743589743591,4330.769230769231,4184.615384615385,4310.769230769231,4597.948717948719,4142.564102564103,4049.23076923077,4036.9230769230776,4214.871794871796
3147.4392,1.0,0.78358287,0.29550773,0.73808825,0,0.0,0.0,0.0,0.0,0.0,0,0,0.0,0.0,0,0,84.0,0.0,503.0,4352.820512820514,3851.7948717948725,4343.076923076924,4395.384615384616,4301.538461538462,4520.000000000001,4341.538461538462,4216.923076923077,4329.2307692307695,4616.923076923077,4178.461538461539,4098.461538461539,4062.564102564103,4215.8974358974365
3147.8145,0.9987306,0.7926699,0.29930085,0.72618836,0,0.0,0.0,0.0,0.0,0.0,0,0,0.0,0.0,0,0,3.0,0.0,543.0,4426.153846153847,3850.7692307692314,4394.358974358975,4382.051282051282,4294.358974358975,4547.179487179488,4360.000000000001,4275.8974358974365,4389.2307692307695,4649.743589743591,4258.974358974359,4180.000000000001,4100.512820512821,4246.153846153847
3147.8145,0.9987306,0.7926699,0.29930085,0.72618836,0,0.0,0.0,0.0,0.0,0.0,0,0,0.0,0.0,0,0,3.0,0.0,543.0,4426.153846153847,3850.7692307692314,4394.358974358975,4382.051282051282,4294.358974358975,4547.179487179488,4360.000000000001,4275.8974358974365,4389.2307692307695,4649.743589743591,4258.974358974359,4180.000000000001,4100.512820512821,4246.153846153847
3148.315,1.0,0.80084825,0.30271357,0.724909,0,0.0,0.0,0.0,0.0,0.0,0,0,0.0,0.0,0,0,67.0,0.0,543.0,4451.282051282052,3855.3846153846157,4442.051282051282,4393.333333333334,4272.307692307693,4552.307692307693,4398.461538461539,4342.564102564103,4426.666666666667,4697.435897435898,4341.025641025642,4259.48717948718,4142.564102564103,4269.74358974359
3148.315,1.0,0.80084825,0.30271357,0.724909,0,0.0,0.0,0.0,0.0,0.0,0,0,0.0,0.0,0,0,67.0,0.0,543.0,4451.282051282052,3855.3846153846157,4442.051282051282,4393.333333333334,4272.307692307693,4552.307692307693,4398.461538461539,4342.564102564103,4426.666666666667,4697.435897435898,4341.025641025642,4259.48717948718,4142.564102564103,4269.74358974359
3148.8154,0.93972516,0.8082087,0.31076503,0.73477346,0,0.0,0.0,0.0,0.0,0.0,0,0,0.0,0.0,0,0,2.0,0.0,461.0,4453.333333333334,3865.6410256410263,4446.153846153847,4395.384615384616,4266.153846153847,4554.358974358975,4413.846153846154,4346.153846153847,4403.076923076924,4697.948717948719,4336.923076923077,4245.641025641026,4128.717948717949,4282.051282051282
3148.8154,0.93972516,0.8082087,0.31076503,0.73477346,0,0.0,0.0,0.0,0.0,0.0,0,0,0.0,0.0,0,0,2.0,0.0,461.0,4453.333333333334,3865.6410256410263,4446.153846153847,4395.384615384616,4266.153846153847,4554.358974358975,4413.846153846154,4346.153846153847,4403.076923076924,4697.948717948719,4336.923076923077,4245.641025641026,4128.717948717949,4282.051282051282
3149.316,0.8760474,0.80905485,0.32296354,0.7537777,0,0.0,0.0,0.0,0.0,0.19830966,0,0,0.0,0.0,0,0,66.0,0.0,461.0,4478.461538461539,3838.9743589743593,4473.846153846154,4372.820512820514,4229.2307692307695,4545.128205128206,4413.846153846154,4364.615384615385,4394.358974358975,4694.871794871796,4378.461538461539,4278.461538461539,4153.333333333334,4327.6923076923085
3149.441,0.8760474,0.80905485,0.32296354,0.7537777,0,0.0,0.0,0.0,0.0,0.0,0,0,0.0,0.0,0,0,82.0,0.0,529.0,4488.205128205129,3878.9743589743593,4465.128205128206,4389.743589743591,4242.051282051282,4541.025641025642,4397.948717948719,4336.410256410257,4370.769230769231,4671.794871794872,4337.948717948719,4236.923076923077,4085.6410256410263,4312.307692307693
3149.8162,0.8018838,0.79628694,0.3278986,0.7708644,0,0.0,0.0,0.48200813,0.0,0.0,0,0,0.0,0.0,0,0,1.0,0.0,486.0,4500.000000000001,3848.205128205129,4487.179487179488,4378.461538461539,4228.717948717949,4555.384615384616,4434.358974358975,4396.923076923077,4407.179487179487,4701.025641025642,4405.641025641026,4289.2307692307695,4198.461538461539,4364.615384615385
3150.0664,0.8018838,0.79628694,0.3278986,0.7708644,0,0.0,0.0,0.24060017,0.0,0.0,0,0,0.0,0.0,0,0,33.0,0.0,0.0,4523.076923076924,3858.9743589743593,4486.153846153847,4383.589743589744,4250.769230769231,4569.2307692307695,4446.153846153847,4396.923076923077,4426.153846153847,4726.153846153847,4380.512820512821,4283.589743589744,4173.333333333334,4374.871794871796
3150.3167,0.7051672,0.7738453,0.33167037,0.7787746,0,0.0,0.0,0.0,0.0,0.0,0,0,0.0,0.0,0,0,65.0,0.0,486.0,4562.564102564103,3895.8974358974365,4488.205128205129,4409.2307692307695,4225.641025641026,4556.410256410257,4435.384615384616,4377.948717948719,4400.512820512821,4701.538461538462,4358.461538461539,4264.615384615385,4155.384615384616,4353.333333333334
3150.3167,0.7051672,0.7738453,0.33167037,0.7787746,0,0.0,0.0,0.0,0.0,0.0,0,0,0.0,0.0,0,0,65.0,0.0,486.0,4562.564102564103,3895.8974358974365,4488.205128205129,4409.2307692307695,4225.641025641026,4556.410256410257,4435.384615384616,4377.948717948719,4400.512820512821,4701.538461538462,4358.461538461539,4264.615384615385,4155.384615384616,4353.333333333334
3150.8171,0.6126106,0.7646937,0.34108123,0.7858811,0,0.0,0.0,0.0,0.0,0.0,0,0,0.0,0.0,0,0,0.0,0.0,489.0,4557.948717948719,3910.2564102564106,4490.256410256411,4409.2307692307695,4234.358974358975,4566.666666666667,4426.666666666667,4377.435897435898,4389.2307692307695,4690.256410256411,4355.384615384616,4250.769230769231,4164.615384615385,4366.153846153847
3150.8171,0.6126106,0.7646937,0.34108123,0.7858811,0,0.0,0.0,0.0,0.0,0.0,0,0,0.0,0.0,0,0,0.0,0.0,489.0,4557.948717948719,3910.2564102564106,4490.256410256411,4409.2307692307695,4234.358974358975,4566.666666666667,4426.666666666667,4377.435897435898,4389.2307692307695,4690.256410256411,4355.384615384616,4250.769230769231,4164.615384615385,4366.153846153847
3151.3176,0.58819056,0.75973326,0.35025012,0.8005585,0,0.0,0.0,0.0,0.0,0.0,0,0,0.0,0.0,0,0,64.0,0.0,489.0,4559.48717948718,3892.307692307693,4472.307692307693,4411.282051282052,4234.358974358975,4560.000000000001,4415.384615384616,4370.769230769231,4387.6923076923085,4692.820512820514,4364.615384615385,4234.358974358975,4184.615384615385,4395.384615384616
3151.3176,0.58819056,0.75973326,0.35025012,0.8005585,0,0.0,0.0,0.0,0.0,0.0,0,0,0.0,0.0,0,0,64.0,0.0,489.0,4559.48717948718,3892.307692307693,4472.307692307693,4411.282051282052,4234.358974358975,4560.000000000001,4415.384615384616,4370.769230769231,4387.6923076923085,4692.820512820514,4364.615384615385,4234.358974358975,4184.615384615385,4395.384615384616
3151.8179,0.5267493,0.7457955,0.35780257,0.8152306,0,0.0,0.0,0.0,0.0,0.34490278,0,0,0.0,0.0,0,0,128.0,0.0,503.0,4567.6923076923085,3944.615384615385,4484.615384615385,4436.923076923077,4224.615384615385,4550.769230769231,4406.666666666667,4353.333333333334,4374.358974358975,4654.358974358975,4301.025641025642,4212.820512820514,4108.717948717949,4403.589743589744
3152.068,0.5267493,0.7457955,0.35780257,0.8152306,0,0.0,0.0,0.0,0.0,0.23383163,0,0,0.0,0.0,0,0,31.0,0.0,0.0,4576.923076923077,3958.461538461539,4474.871794871796,4437.435897435898,4231.282051282052,4562.051282051282,4415.8974358974365,4369.2307692307695,4385.641025641026,4667.179487179488,4326.666666666667,4217.435897435898,4143.076923076924,4427.179487179487
3152.3184,0.51113117,0.7235982,0.35363093,0.82841057,0,0.0,0.0,0.0,0.0,0.0,0,0,0.0,0.0,0,0,63.0,0.0,0.0,4575.384615384616,3948.717948717949,4489.2307692307695,4433.333333333334,4240.000000000001,4569.743589743591,4427.6923076923085,4376.923076923077,4398.974358974359,4676.923076923077,4340.000000000001,4218.974358974359,4138.974358974359,4447.6923076923085
3152.3184,0.51113117,0.7235982,0.35363093,0.82841057,0,0.0,0.0,0.0,0.0,0.0,0,0,0.0,0.0,0,0,63.0,0.0,0.0,4575.384615384616,3948.717948717949,4489.2307692307695,4433.333333333334,4240.000000000001,4569.743589743591,4427.6923076923085,4376.923076923077,4398.974358974359,4676.923076923077,4340.000000000001,4218.974358974359,4138.974358974359,4447.6923076923085
3152.8188,0.5498939,0.70140207,0.36382797,0.8295083,0,0.0,0.0,0.0,0.0,0.0,0,0,0.0,0.0,0,0,127.0,0.0,405.0,4653.846153846154,3981.0256410256416,4501.025641025642,4452.307692307693,4247.6923076923085,4569.2307692307695,4424.615384615385,4371.794871794872,4370.256410256411,4657.435897435898,4328.205128205129,4221.025641025642,4135.8974358974365,4466.153846153847
3153.069,0.5498939,0.70140207,0.36382797,0.8295083,0,0.0,0.0,0.0,0.0,0.41948688,0,0,0.0,0.0,0,0,30.0,0.0,0.0,4572.307692307693,3942.564102564103,4493.333333333334,4437.435897435898,4261.025641025642,4581.538461538462,4444.102564102564,4396.410256410257,4406.666666666667,4688.717948717949,4351.282051282052,4222.564102564103,4153.333333333334,4449.743589743591
3153.3193,0.4904889,0.69041073,0.36675653,0.8297759,0,0.0,0.0,0.0,0.0,0.5297079,0,0,0.0,0.0,0,0,62.0,0.0,0.0,4554.871794871796,3922.0512820512827,4481.025641025642,4427.6923076923085,4214.871794871796,4564.102564102564,4414.871794871796,4382.564102564103,4411.794871794872,4685.641025641026,4354.871794871796,4223.076923076924,4166.153846153847,4455.384615384616
3153.5696,0.4904889,0.69041073,0.36675653,0.8297759,0,0.0,0.0,0.0,0.0,0.0,0,0,0.0,0.0,0,0,94.0,0.0,529.0,4569.2307692307695,3923.589743589744,4492.307692307693,4429.743589743591,4238.461538461539,4558.974358974359,4427.179487179487,4393.333333333334,4402.564102564103,4685.641025641026,4349.743589743591,4243.076923076924,4172.820512820514,4466.153846153847
3153.8198,0.4882909,0.695431,0.35484168,0.83483124,0,0.0,0.0,0.0,0.0,0.0,0,0,0.0,0.0,0,0,126.0,0.0,529.0,4558.461538461539,3920.0000000000005,4494.358974358975,4432.307692307693,4235.384615384616,4567.179487179488,4428.717948717949,4395.8974358974365,4411.794871794872,4701.538461538462,4360.000000000001,4237.948717948719,4178.461538461539,4476.410256410257
3153.8198,0.4882909,0.695431,0.35484168,0.83483124,0,0.0,0.0,0.0,0.0,0.0,0,0,0.0,0.0,0,0,126.0,0.0,529.0,4558.461538461539,3920.0000000000005,4494.358974358975,4432.307692307693,4235.384615384616,4567.179487179488,4428.717948717949,4395.8974358974365,4411.794871794872,4701.538461538462,4360.000000000001,4237.948717948719,4178.461538461539,4476.410256410257
3154.32,0.43674645,0.7014999,0.33551863,0.8396941,0,0.0,0.0,0.0,0.0,0.0,0,0,0.0,0.0,0,0,61.0,0.0,0.0,4600.000000000001,3912.307692307693,4492.820512820514,4431.282051282052,4229.74358974359,4568.205128205129,4426.153846153847,4395.8974358974365,4406.666666666667,4690.769230769231,4362.051282051282,4237.948717948719,4179.48717948718,4476.923076923077
3154.32,0.43674645,0.7014999,0.33551863,0.8396941,0,0.0,0.0,0.0,0.0,0.0,0,0,0.0,0.0,0,0,61.0,0.0,0.0,4600.000000000001,3912.307692307693,4492.820512820514,4431.282051282052,4229.74358974359,4568.205128205129,4426.153846153847,4395.8974358974365,4406.666666666667,4690.769230769231,4362.051282051282,4237.948717948719,4179.48717948718,4476.923076923077
3154.8206,0.36759543,0.7318773,0.31812787,0.8429676,1,0.0,0.0,0.0,0.0,0.90596616,0,0,0.0,0.0,0,0,125.0,0.0,470.0,4662.564102564103,3910.2564102564106,4509.2307692307695,4444.102564102564,4235.384615384616,4564.102564102564,4428.205128205129,4407.6923076923085,4406.666666666667,4696.923076923077,4378.461538461539,4254.358974358975,4215.8974358974365,4506.666666666667
3155.0708,0.36759543,0.7318773,0.31812787,0.8429676,0,0.0,0.0,0.0,0.0,0.56383556,0,0,0.0,0.0,0,0,28.0,0.0,0.0,4606.666666666667,3892.820512820513,4486.666666666667,4426.153846153847,4231.794871794872,4570.769230769231,4427.179487179487,4412.820512820514,4418.461538461539,4719.48717948718,4384.615384615385,4244.615384615385,4241.538461538462,4518.461538461539
3155.321,0.36505926,0.7345645,0.30666277,0.84409386,0,0.0,0.0,0.0,0.0,0.8363987,0,0,0.0,0.0,0,0,60.0,0.0,0.0,4621.025641025642,3917.435897435898,4477.435897435898,4436.410256410257,4236.923076923077,4557.948717948719,4416.410256410257,4384.102564102564,4394.871794871796,4700.512820512821,4373.846153846154,4246.666666666667,4198.974358974359,4529.743589743591
3155.5713,0.36505926,0.7345645,0.30666277,0.84409386,0,0.0,0.0,0.0,0.0,0.48109233,0,0,0.0,0.0,0,0,92.0,0.0,503.0,4600.512820512821,3877.435897435898,4477.948717948719,4429.2307692307695,4229.74358974359,4571.282051282052,4445.641025641026,4429.743589743591,4447.6923076923085,4753.333333333334,4439.48717948718,4288.205128205129,4285.641025641026,4588.717948717949
3155.8215,0.38065153,0.75169116,0.29209033,0.8485014,0,0.0,0.0,0.0,0.0,0.5103354,0,0,0.0,0.0,0,0,124.0,0.0,503.0,4676.923076923077,3981.0256410256416,4503.589743589744,4460.512820512821,4249.74358974359,4554.871794871796,4412.820512820514,4370.256410256411,4370.256410256411,4672.820512820514,4336.923076923077,4234.358974358975,4146.153846153847,4545.641025641026
3156.0715,0.38065153,0.75169116,0.29209033,0.8485014,0,0.0,0.0,0.0,0.0,0.61246365,1,0,0.0,0.0,0,0,27.0,0.0,0.0,4657.948717948719,3951.2820512820517,4506.153846153847,4457.948717948719,4257.948717948719,4556.923076923077,4421.025641025642,4389.2307692307695,4388.717948717949,4698.974358974359,4361.025641025642,4242.564102564103,4172.307692307693,4547.6923076923085
3156.3218,0.3922015,0.83437824,0.27897584,0.85533583,0,0.0,0.0,0.0,0.0,0.12202362,1,0,0.0,0.0,0,0,59.0,0.0,0.0,4634.871794871796,3938.461538461539,4497.948717948719,4451.282051282052,4242.051282051282,4557.948717948719,4425.128205128206,4381.025641025642,4379.48717948718,4695.384615384616,4366.666666666667,4238.974358974359,4180.000000000001,4546.666666666667
3156.572,0.3922015,0.83437824,0.27897584,0.85533583,0,0.0,0.0,0.0,0.0,0.101649635,1,0,0.0,0.0,0,0,91.0,0.0,401.0,4661.025641025642,3944.1025641025644,4507.6923076923085,4457.948717948719,4239.48717948718,4560.512820512821,4429.743589743591,4390.256410256411,4387.6923076923085,4704.615384615386,4379.48717948718,4249.74358974359,4187.179487179487,4538.461538461539
3156.8223,0.39257795,0.8333414,0.27531552,0.86451125,0,0.0,0.0,0.2249399,0.0,0.0,1,0,0.0,0.0,0,0,123.0,0.0,401.0,4628.205128205129,3927.1794871794878,4500.000000000001,4442.564102564103,4248.717948717949,4568.717948717949,4427.6923076923085,4398.974358974359,4409.2307692307695,4726.666666666667,4381.538461538462,4250.769230769231,4187.179487179487,4541.538461538462
3156.9475,0.39257795,0.8333414,0.27531552,0.86451125,0,0.0,0.0,0.0,0.0,0.0,1,0,0.0,0.0,0,0,10.0,0.0,529.0,4647.179487179488,3929.2307692307695,4507.6923076923085,4441.538461538462,4225.641025641026,4552.820512820514,4426.666666666667,4396.923076923077,4397.948717948719,4714.358974358975,4380.512820512821,4242.564102564103,4182.564102564103,4538.974358974359
3157.3228,0.38629153,0.82774055,0.2841922,0.8741384,0,0.0,0.0,0.0,0.0,0.0,1,0,0.0,0.0,0,0,58.0,0.0,0.0,4653.333333333334,3934.8717948717954,4507.6923076923085,4444.102564102564,4254.358974358975,4568.717948717949,4442.564102564103,4392.820512820514,4396.410256410257,4712.820512820514,4392.820512820514,4233.333333333334,4187.6923076923085,4552.307692307693
3157.3228,0.38629153,0.82774055,0.2841922,0.8741384,0,0.0,0.0,0.0,0.0,0.0,1,0,0.0,0.0,0,0,58.0,0.0,0.0,4653.333333333334,3934.8717948717954,4507.6923076923085,4444.102564102564,4254.358974358975,4568.717948717949,4442.564102564103,4392.820512820514,4396.410256410257,4712.820512820514,4392.820512820514,4233.333333333334,4187.6923076923085,4552.307692307693
3157.8232,0.39959925,0.8021105,0.29218182,0.8827719,0,0.0,0.0,0.0,0.0,0.20347568,1,0,0.0,0.0,0,0,122.0,0.0,529.0,4633.333333333334,3873.333333333334,4498.974358974359,4422.051282051282,4254.358974358975,4586.153846153847,4463.076923076924,4438.461538461539,4446.666666666667,4764.615384615386,4453.333333333334,4264.102564102564,4280.000000000001,4597.948717948719
3158.0732,0.39959925,0.8021105,0.29218182,0.8827719,0,0.0,0.0,0.0,0.0,0.20485903,1,0,0.0,0.0,0,0,25.0,0.0,0.0,4621.538461538462,3892.820512820513,4491.794871794872,4425.128205128206,4253.333333333334,4573.333333333334,4455.384615384616,4419.48717948718,4423.076923076924,4732.307692307693,4443.589743589744,4254.871794871796,4251.794871794872,4589.2307692307695
3158.3235,0.4340495,0.7701518,0.29694673,0.8905107,0,0.0,0.0,0.0,0.0,0.0,1,0,0.0,0.0,0,0,57.0,0.0,0.0,4644.102564102564,3887.692307692308,4511.282051282052,4415.384615384616,4240.000000000001,4556.923076923077,4444.102564102564,4410.256410256411,4395.384615384616,4716.923076923077,4409.2307692307695,4255.384615384616,4207.179487179487,4587.6923076923085
3158.3235,0.4340495,0.7701518,0.29694673,0.8905107,0,0.0,0.0,0.0,0.0,0.0,1,0,0.0,0.0,0,0,57.0,0.0,0.0,4644.102564102564,3887.692307692308,4511.282051282052,4415.384615384616,4240.000000000001,4556.923076923077,4444.102564102564,4410.256410256411,4395.384615384616,4716.923076923077,4409.2307692307695,4255.384615384616,4207.179487179487,4587.6923076923085
3158.824,0.4637853,0.76584965,0.31420416,0.8950469,0,0.0,0.0,0.0,0.0,0.0,0,0,0.0,0.0,0,0,121.0,0.0,471.0,4734.358974358975,3909.2307692307695,4553.846153846154,4408.717948717949,4234.871794871796,4556.410256410257,4478.974358974359,4458.461538461539,4426.153846153847,4745.128205128206,4449.743589743591,4317.435897435898,4217.948717948719,4618.461538461539
3158.824,0.4637853,0.76584965,0.31420416,0.8950469,0,0.0,0.0,0.0,0.0,0.0,0,0,0.0,0.0,0,0,121.0,0.0,471.0,4734.358974358975,3909.2307692307695,4553.846153846154,4408.717948717949,4234.871794871796,4556.410256410257,4478.974358974359,4458.461538461539,4426.153846153847,4745.128205128206,4449.743589743591,4317.435897435898,4217.948717948719,4618.461538461539
3159.3245,0.44468737,0.8024187,0.32728007,0.8962113,0,0.0,0.0,0.0,0.0,0.34205198,0,0,0.0,0.0,1,0,56.0,0.0,0.0,4714.358974358975,3949.7435897435903,4538.974358974359,4429.2307692307695,4231.794871794872,4553.846153846154,4458.974358974359,4429.743589743591,4420.000000000001,4734.358974358975,4412.307692307693,4290.769230769231,4197.948717948719,4617.435897435898
3159.5747,0.44468737,0.8024187,0.32728007,0.8962113,0,0.0,0.0,0.0,0.0,1.0,0,0,0.0,0.0,0,0,88.0,0.0,503.0,4635.8974358974365,3920.5128205128212,4511.794871794872,4429.743589743591,4241.538461538462,4570.769230769231,4470.769230769231,4433.333333333334,4441.538461538462,4753.846153846154,4400.512820512821,4254.871794871796,4202.564102564103,4602.051282051282
3159.825,0.40521893,0.8125179,0.3277328,0.89340717,0,0.0,0.0,0.0,0.0,0.5432341,0,0,0.0,0.0,0,0,120.0,0.0,503.0,4667.6923076923085,3913.8461538461543,4495.384615384616,4437.435897435898,4228.205128205129,4563.589743589744,4442.564102564103,4398.461538461539,4409.743589743591,4724.102564102564,4380.512820512821,4247.179487179487,4201.025641025642,4603.076923076924
3160.0752,0.40521893,0.8125179,0.3277328,0.89340717,0,0.0,0.0,0.0,0.0,0.0,0,0,0.0,0.0,0,0,23.0,0.0,0.0,4675.384615384616,3928.717948717949,4501.538461538462,4450.256410256411,4249.74358974359,4553.333333333334,4437.435897435898,4395.384615384616,4397.435897435898,4714.358974358975,4373.333333333334,4229.74358974359,4198.461538461539,4598.461538461539
3160.3252,0.38201836,0.8446795,0.32814035,0.8874102,0,0.0,0.0,0.0,0.0,0.0,0,0,0.0,0.0,0,0,55.0,0.0,0.0,4703.589743589744,3986.1538461538466,4509.2307692307695,4474.358974358975,4264.615384615385,4540.512820512821,4407.179487179487,4351.794871794872,4355.384615384616,4678.461538461539,4331.794871794872,4207.6923076923085,4147.6923076923085,4593.333333333334
3160.5754,0.38201836,0.8446795,0.32814035,0.8874102,0,0.0,0.0,0.0,0.0,0.44268388,0,0,0.0,0.0,0,0,87.0,0.0,399.0,4687.6923076923085,3978.461538461539,4505.641025641026,4476.923076923077,4265.641025641026,4556.410256410257,4412.820512820514,4374.358974358975,4373.846153846154,4684.615384615386,4344.615384615385,4215.384615384616,4153.846153846154,4600.512820512821
3160.8257,0.4007511,0.86143595,0.3350763,0.8830302,0,0.0,0.0,0.0,0.0,0.0,0,0,0.0,0.0,0,0,119.0,0.0,399.0,4670.769230769231,3958.461538461539,4492.820512820514,4470.256410256411,4255.8974358974365,4554.358974358975,4406.153846153847,4362.564102564103,4376.923076923077,4696.923076923077,4338.461538461539,4206.153846153847,4163.076923076924,4583.589743589744
3160.8257,0.4007511,0.86143595,0.3350763,0.8830302,0,0.0,0.0,0.0,0.0,0.0,0,0,0.0,0.0,0,0,119.0,0.0,399.0,4670.769230769231,3958.461538461539,4492.820512820514,4470.256410256411,4255.8974358974365,4554.358974358975,4406.153846153847,4362.564102564103,4376.923076923077,4696.923076923077,4338.461538461539,4206.153846153847,4163.076923076924,4583.589743589744
3161.3262,0.38147035,0.8296828,0.34298626,0.87640405,0,0.0,0.0,0.0,0.0,0.0,0,0,0.0,0.0,0,0,54.0,0.0,0.0,4694.358974358975,3942.0512820512827,4478.461538461539,4451.794871794872,4254.358974358975,4557.435897435898,4410.769230769231,4376.410256410257,4397.948717948719,4731.794871794872,4385.641025641026,4213.846153846154,4243.076923076924,4622.051282051282
3161.5764,0.38147035,0.8296828,0.34298626,0.87640405,0,0.0,0.0,0.0,0.0,0.40663773,0,0,0.0,0.0,0,0,86.0,0.0,529.0,4707.6923076923085,3925.1282051282055,4489.743589743591,4441.538461538462,4250.769230769231,4538.461538461539,4410.769230769231,4365.128205128206,4365.128205128206,4701.025641025642,4378.461538461539,4217.435897435898,4216.923076923077,4610.256410256411
3161.8267,0.36142138,0.8333613,0.35010505,0.87043387,0,0.0,0.0,0.0,0.0,0.17119193,0,0,0.0,0.0,0,0,118.0,0.0,529.0,4678.974358974359,3941.0256410256416,4480.512820512821,4441.538461538462,4253.333333333334,4543.589743589744,4398.461538461539,4348.717948717949,4344.615384615385,4680.000000000001,4351.282051282052,4198.461538461539,4180.512820512821,4593.846153846154
3161.9517,0.36142138,0.8333613,0.35010505,0.87043387,0,0.0,0.0,0.0,0.0,0.0,0,0,0.0,0.0,0,0,5.0,0.0,559.0,4661.538461538462,3928.205128205129,4484.615384615385,4443.589743589744,4249.74358974359,4557.435897435898,4424.102564102564,4378.974358974359,4368.205128205129,4694.358974358975,4347.6923076923085,4203.076923076924,4186.666666666667,4594.871794871796
3162.327,0.312606,0.8095381,0.36579445,0.8651803,0,0.0,0.0,0.0,0.0,0.0,0,0,0.0,0.0,0,0,53.0,0.0,0.0,4672.307692307693,3943.589743589744,4488.205128205129,4447.6923076923085,4249.2307692307695,4555.384615384616,4426.666666666667,4376.923076923077,4369.2307692307695,4711.794871794872,4353.333333333334,4205.641025641026,4185.128205128206,4587.179487179488
3162.327,0.312606,0.8095381,0.36579445,0.8651803,0,0.0,0.0,0.0,0.0,0.0,0,0,0.0,0.0,0,0,53.0,0.0,0.0,4672.307692307693,3943.589743589744,4488.205128205129,4447.6923076923085,4249.2307692307695,4555.384615384616,4426.666666666667,4376.923076923077,4369.2307692307695,4711.794871794872,4353.333333333334,4205.641025641026,4185.128205128206,4587.179487179488
3162.8274,0.2854947,0.7861662,0.38796934,0.8631156,0,0.0,0.0,0.0,0.0,0.2613007,0,0,0.0,0.0,0,0,117.0,0.0,471.0,4654.871794871796,3947.1794871794878,4494.358974358975,4457.948717948719,4249.2307692307695,4538.461538461539,4414.358974358975,4380.512820512821,4374.358974358975,4702.051282051282,4357.948717948719,4213.846153846154,4169.2307692307695,4582.051282051282
3163.0776,0.2854947,0.7861662,0.38796934,0.8631156,0,0.0,0.0,0.0,0.0,0.105825365,0,0,0.0,0.0,0,0,20.0,0.0,0.0,4652.307692307693,3944.1025641025644,4489.743589743591,4443.076923076924,4252.820512820514,4553.333333333334,4425.641025641026,4372.307692307693,4377.435897435898,4706.666666666667,4357.435897435898,4214.358974358975,4166.666666666667,4585.641025641026
3163.328,0.24389783,0.76709384,0.40792564,0.8612454,0,0.0,0.0,0.0,0.0,0.0,0,0,0.0,0.0,0,0,52.0,0.0,0.0,4671.282051282052,3927.692307692308,4482.051282051282,4438.974358974359,4264.615384615385,4554.871794871796,4427.179487179487,4374.871794871796,4371.794871794872,4706.153846153847,4361.025641025642,4214.871794871796,4191.282051282052,4604.615384615385
3163.328,0.24389783,0.76709384,0.40792564,0.8612454,0,0.0,0.0,0.0,0.0,0.0,0,0,0.0,0.0,0,0,52.0,0.0,0.0,4671.282051282052,3927.692307692308,4482.051282051282,4438.974358974359,4264.615384615385,4554.871794871796,4427.179487179487,4374.871794871796,4371.794871794872,4706.153846153847,4361.025641025642,4214.871794871796,4191.282051282052,4604.615384615385
3163.8284,0.22356813,0.7323396,0.42588457,0.84834164,0,0.0,0.0,0.0,0.0,0.0,0,0,0.0,0.0,0,0,116.0,0.0,503.0,4697.948717948719,3940.5128205128212,4487.179487179488,4440.000000000001,4257.435897435898,4544.102564102564,4420.512820512821,4382.564102564103,4385.128205128206,4725.128205128206,4382.051282051282,4229.2307692307695,4210.769230769231,4614.871794871796
3163.8284,0.22356813,0.7323396,0.42588457,0.84834164,0,0.0,0.0,0.0,0.0,0.0,0,0,0.0,0.0,0,0,116.0,0.0,503.0,4697.948717948719,3940.5128205128212,4487.179487179488,4440.000000000001,4257.435897435898,4544.102564102564,4420.512820512821,4382.564102564103,4385.128205128206,4725.128205128206,4382.051282051282,4229.2307692307695,4210.769230769231,4614.871794871796
3164.3286,0.1703926,0.71219736,0.42839932,0.83739287,0,0.0,0.0,0.0,0.0,0.0,0,0,0.0,0.0,0,0,51.0,0.0,0.0,4713.333333333334,3930.2564102564106,4490.769230769231,4445.128205128206,4258.974358974359,4553.333333333334,4429.743589743591,4395.8974358974365,4400.512820512821,4737.435897435898,4394.358974358975,4242.051282051282,4217.948717948719,4607.6923076923085
3164.3286,0.1703926,0.71219736,0.42839932,0.83739287,0,0.0,0.0,0.0,0.0,0.0,0,0,0.0,0.0,0,0,51.0,0.0,0.0,4713.333333333334,3930.2564102564106,4490.769230769231,4445.128205128206,4258.974358974359,4553.333333333334,4429.743589743591,4395.8974358974365,4400.512820512821,4737.435897435898,4394.358974358975,4242.051282051282,4217.948717948719,4607.6923076923085
3164.829,0.13617021,0.6949492,0.41410288,0.82984537,0,0.0,0.0,0.0,0.0,0.27451754,0,0,0.0,0.0,0,0,115.0,0.0,399.0,4717.948717948719,3955.3846153846157,4483.589743589744,4458.461538461539,4251.794871794872,4553.333333333334,4416.410256410257,4374.358974358975,4383.589743589744,4697.435897435898,4358.974358974359,4198.974358974359,4174.871794871796,4601.538461538462
3165.0793,0.13617021,0.6949492,0.41410288,0.82984537,0,0.0,0.0,0.0,0.0,0.2797239,0,0,0.0,0.0,0,0,18.0,0.0,0.0,4680.512820512821,3942.0512820512827,4490.256410256411,4455.8974358974365,4258.461538461539,4556.410256410257,4441.025641025642,4398.461538461539,4387.179487179487,4662.051282051282,4363.076923076924,4217.948717948719,4176.410256410257,4608.717948717949
3165.3296,0.10746809,0.6944572,0.39416474,0.8230497,0,0.0,0.0,0.0,0.0,0.0,0,0,0.0,0.0,0,0,50.0,0.0,0.0,4664.102564102564,3944.615384615385,4487.6923076923085,4453.333333333334,4270.256410256411,4556.410256410257,4428.205128205129,4398.974358974359,4398.974358974359,4680.512820512821,4365.641025641026,4216.410256410257,4190.256410256411,4620.000000000001
3165.3296,0.10746809,0.6944572,0.39416474,0.8230497,0,0.0,0.0,0.0,0.0,0.0,0,0,0.0,0.0,0,0,50.0,0.0,0.0,4664.102564102564,3944.615384615385,4487.6923076923085,4453.333333333334,4270.256410256411,4556.410256410257,4428.205128205129,4398.974358974359,4398.974358974359,4680.512820512821,4365.641025641026,4216.410256410257,4190.256410256411,4620.000000000001
3165.83,0.110220954,0.7023798,0.3762198,0.8035341,0,0.0,0.0,0.0,0.0,0.0,0,0,0.0,0.0,0,0,114.0,0.0,530.0,4655.384615384616,3958.461538461539,4491.282051282052,4452.820512820514,4265.128205128206,4556.410256410257,4414.871794871796,4385.641025641026,4385.641025641026,4694.871794871796,4367.179487179487,4213.846153846154,4183.076923076924,4618.461538461539
3166.0803,0.110220954,0.7023798,0.3762198,0.8035341,0,0.0,0.0,0.0,0.0,0.18224587,0,0,0.0,0.0,0,0,17.0,0.0,0.0,4651.794871794872,3955.3846153846157,4496.410256410257,4446.153846153847,4269.74358974359,4550.256410256411,4416.923076923077,4387.6923076923085,4384.615384615385,4704.102564102564,4380.512820512821,4223.076923076924,4182.051282051282,4620.000000000001
3166.3306,0.12075086,0.7141733,0.3599578,0.78027964,0,0.0,0.0,0.0,0.0,0.09845682,0,0,0.0,0.0,0,0,49.0,0.0,0.0,4640.000000000001,3953.333333333334,4476.923076923077,4443.589743589744,4251.282051282052,4547.179487179488,4408.717948717949,4370.256410256411,4364.615384615385,4689.2307692307695,4351.794871794872,4201.025641025642,4169.74358974359,4595.384615384616
3166.5806,0.12075086,0.7141733,0.3599578,0.78027964,0,0.0,0.0,0.0,0.0,0.0,0,0,0.0,0.0,0,0,81.0,0.0,471.0,4636.410256410257,3920.5128205128212,4472.307692307693,4432.307692307693,4251.282051282052,4551.794871794872,4425.641025641026,4380.000000000001,4381.538461538462,4714.358974358975,4372.307692307693,4205.128205128206,4201.538461538462,4627.6923076923085
3166.8308,0.11585153,0.7325777,0.34173095,0.7694014,0,0.0,0.0,0.0,0.0,0.3528021,0,0,0.0,0.0,0,0,113.0,0.0,471.0,4646.666666666667,3927.1794871794878,4491.282051282052,4444.615384615385,4261.025641025642,4550.769230769231,4427.179487179487,4396.410256410257,4386.666666666667,4724.615384615386,4385.641025641026,4235.8974358974365,4239.48717948718,4640.000000000001
3167.081,0.11585153,0.7325777,0.34173095,0.7694014,0,0.0,0.0,0.0,0.0,0.7696671,0,0,0.0,0.0,0,0,16.0,0.0,0.0,4718.974358974359,3973.8461538461543,4500.512820512821,4469.743589743591,4274.358974358975,4553.333333333334,4423.589743589744,4393.333333333334,4386.666666666667,4718.461538461539,4337.435897435898,4215.384615384616,4186.666666666667,4636.410256410257
3167.3313,0.0965245,0.7401875,0.32927176,0.75604224,0,0.0,0.0,0.0,0.0,1.0,0,0,0.0,0.0,0,0,48.0,0.0,0.0,4779.48717948718,3982.564102564103,4508.205128205129,4474.871794871796,4271.794871794872,4556.923076923077,4427.6923076923085,4384.615384615385,4372.307692307693,4702.051282051282,4353.846153846154,4227.179487179487,4194.358974358975,4655.384615384616
3167.5815,0.0965245,0.7401875,0.32927176,0.75604224,0,0.0,0.0,0.0,0.0,0.68720365,0,0,0.0,0.0,1,0,80.0,0.0,503.0,4840.512820512821,3971.7948717948725,4503.076923076924,4457.948717948719,4262.564102564103,4554.871794871796,4427.6923076923085,4380.512820512821,4381.538461538462,4700.000000000001,4383.076923076924,4241.538461538462,4238.974358974359,4675.384615384616
3167.8318,0.121435404,0.77418244,0.32391956,0.7404781,0,0.0,0.0,0.0,0.0,0.5403756,0,0,0.0,0.0,0,0,112.0,0.0,503.0,4709.2307692307695,3945.6410256410263,4488.205128205129,4456.410256410257,4276.923076923077,4571.794871794872,4413.846153846154,4356.923076923077,4358.974358974359,4714.871794871796,4386.153846153847,4224.102564102564,4198.974358974359,4605.128205128206
3168.082,0.121435404,0.77418244,0.32391956,0.7404781,0,0.0,0.0,0.0,0.0,0.27916327,0,0,0.0,0.0,0,0,15.0,0.0,398.0,4642.051282051282,3940.0000000000005,4489.743589743591,4462.564102564103,4273.846153846154,4571.282051282052,4461.538461538462,4423.076923076924,4425.128205128206,4742.564102564103,4406.153846153847,4220.512820512821,4197.435897435898,4590.256410256411
3168.3323,0.0880913,0.79232,0.322873,0.7199761,0,0.0,0.0,0.0,0.0,0.0,0,0,0.0,0.0,0,0,47.0,0.0,0.0,4636.923076923077,3932.820512820513,4488.717948717949,4460.000000000001,4266.666666666667,4571.794871794872,4443.076923076924,4402.051282051282,4413.846153846154,4730.769230769231,4383.589743589744,4216.410256410257,4185.641025641026,4586.666666666667
3168.3323,0.0880913,0.79232,0.322873,0.7199761,0,0.0,0.0,0.0,0.0,0.0,0,0,0.0,0.0,0,0,47.0,0.0,0.0,4636.923076923077,3932.820512820513,4488.717948717949,4460.000000000001,4266.666666666667,4571.794871794872,4443.076923076924,4402.051282051282,4413.846153846154,4730.769230769231,4383.589743589744,4216.410256410257,4185.641025641026,4586.666666666667
3168.8325,0.07193591,0.7888518,0.32779872,0.6928708,0,0.0,0.0,0.0,0.0,0.0,0,0,0.0,0.0,0,0,111.0,0.0,398.0,4750.769230769231,3977.435897435898,4507.6923076923085,4457.435897435898,4243.076923076924,4554.358974358975,4443.076923076924,4399.48717948718,4385.641025641026,4718.461538461539,4396.410256410257,4246.666666666667,4200.000000000001,4640.000000000001
3169.0828,0.07193591,0.7888518,0.32779872,0.6928708,0,0.0,0.0,0.0,0.0,0.3149343,0,0,0.0,0.0,0,0,14.0,0.0,530.0,4614.358974358975,3909.7435897435903,4489.743589743591,4423.589743589744,4248.717948717949,4572.820512820514,4473.333333333334,4427.179487179487,4396.410256410257,4725.641025641026,4398.461538461539,4244.102564102564,4179.48717948718,4594.358974358975
3169.333,0.041578945,0.8292488,0.33925763,0.66848046,0,0.0,0.0,0.0,0.0,0.19460234,0,0,0.0,0.0,0,0,46.0,0.0,0.0,4592.820512820514,3914.8717948717954,4488.205128205129,4410.769230769231,4285.128205128206,4601.025641025642,4491.794871794872,4447.6923076923085,4410.769230769231,4738.461538461539,4379.48717948718,4229.2307692307695,4168.205128205129,4569.2307692307695
3169.5833,0.041578945,0.8292488,0.33925763,0.66848046,0,0.0,0.0,0.0,0.0,0.13655163,0,0,0.0,0.0,0,0,78.0,0.0,530.0,4630.256410256411,3907.692307692308,4497.435897435898,4413.333333333334,4272.820512820514,4589.2307692307695,4503.589743589744,4462.051282051282,4402.051282051282,4729.2307692307695,4384.615384615385,4245.128205128206,4165.641025641026,4588.205128205129
3169.8335,0.050683893,0.89119315,0.34957054,0.63039047,1,0.0,0.0,0.0,0.0,0.6843843,0,0,0.0,0.0,0,0,110.0,0.0,530.0,4706.666666666667,3938.9743589743593,4519.48717948718,4428.717948717949,4272.820512820514,4577.948717948719,4491.794871794872,4461.025641025642,4393.333333333334,4729.743589743591,4392.820512820514,4282.564102564103,4203.076923076924,4622.564102564103
3170.0837,0.050683893,0.89119315,0.34957054,0.63039047,0,0.0,0.0,0.0,0.0,0.5285046,0,0,0.0,0.0,0,0,13.0,0.0,471.0,4668.205128205129,3899.48717948718,4523.076923076924,4410.256410256411,4264.615384615385,4570.769230769231,4503.589743589744,4474.871794871796,4387.6923076923085,4726.153846153847,4380.000000000001,4279.48717948718,4174.358974358975,4611.794871794872
3170.334,0.065415345,0.947085,0.3596522,0.596111,0,0.0,0.0,0.0,0.0,0.01779163,0,0,0.0,0.0,0,0,45.0,0.0,0.0,4834.358974358975,3844.1025641025644,4644.102564102564,4351.794871794872,4184.102564102564,4613.333333333334,4671.282051282052,4670.769230769231,4444.102564102564,4761.025641025642,4446.666666666667,4475.8974358974365,4174.358974358975,4671.282051282052
3170.5842,0.065415345,0.947085,0.3596522,0.596111,0,0.0,0.0,0.0,0.0,0.03837115,0,0,0.0,0.0,0,0,77.0,0.0,460.0,5153.846153846154,3952.307692307693,4881.538461538462,4343.589743589744,4164.615384615385,4672.307692307693,4938.461538461539,5007.6923076923085,4601.538461538462,4988.205128205129,4555.384615384616,4784.615384615386,4428.205128205129,4823.589743589744
3170.8342,0.26756546,0.99738765,0.36872527,0.5652596,0,0.0,0.0,0.18487756,0.0,0.0,0,0,0.0,0.0,0,0,109.0,0.0,460.0,5392.307692307693,4216.923076923077,5026.666666666667,4372.307692307693,4267.6923076923085,4717.435897435898,5076.410256410257,5213.333333333334,4672.820512820514,5193.333333333334,4558.461538461539,4965.641025641026,4690.769230769231,4968.717948717949
3171.0845,0.26756546,0.99738765,0.36872527,0.5652596,0,0.0,0.0,0.0,0.0,0.04408779,0,0,0.0,0.0,0,0,12.0,0.0,500.0,5441.025641025642,4360.512820512821,5035.384615384616,4524.102564102564,4362.564102564103,4667.6923076923085,5029.743589743591,5198.974358974359,4658.974358974359,5268.717948717949,4671.282051282052,4940.512820512821,4800.000000000001,5023.589743589744
3171.3347,0.4454576,1.0,0.37502664,0.5403366,0,0.0,0.0,0.0,0.0,0.0,0,0,0.16370434,0.0,0,0,44.0,0.0,0.0,5264.102564102564,4324.615384615385,4906.153846153847,4558.974358974359,4373.846153846154,4534.871794871796,4823.076923076924,4984.102564102564,4506.666666666667,5147.6923076923085,4519.48717948718,4749.2307692307695,4666.666666666667,4985.641025641026
3171.585,0.4454576,1.0,0.37502664,0.5403366,0,0.0,0.0,0.12926286,0.0,0.0,0,0,0.0,0.0,0,0,76.0,0.0,499.0,5085.128205128206,4303.076923076924,4762.051282051282,4612.307692307693,4427.179487179487,4487.6923076923085,4667.6923076923085,4786.666666666667,4409.743589743591,5056.410256410257,4500.512820512821,4564.102564102564,4550.769230769231,4913.846153846154
3171.8352,0.60200274,1.0,0.37957543,0.5297933,0,0.0,0.0,0.15120026,0.0,0.0,0,0,0.0,0.0,0,0,108.0,0.0,499.0,4897.435897435898,4259.48717948718,4535.384615384616,4662.564102564103,4439.48717948718,4440.512820512821,4465.641025641026,4533.333333333334,4281.025641025642,4875.8974358974365,4371.282051282052,4326.153846153847,4365.128205128206,4819.48717948718
3172.0854,0.60200274,1.0,0.37957543,0.5297933,0,0.0,0.0,0.10910579,0.0,0.0,0,0,0.0,0.0,0,0,11.0,0.0,390.0,4672.820512820514,4102.564102564103,4360.000000000001,4623.076923076924,4391.794871794872,4399.48717948718,4318.461538461539,4327.6923076923085,4205.128205128206,4726.666666666667,4287.179487179487,4156.410256410257,4248.717948717949,4751.794871794872
3172.3357,0.7397623,1.0,0.38030547,0.52719253,0,0.0,0.0,0.0,0.0,0.0,0,0,0.0,0.0,0,0,43.0,0.0,0.0,4535.384615384616,4013.333333333334,4296.410256410257,4578.461538461539,4354.358974358975,4387.6923076923085,4230.256410256411,4200.512820512821,4190.769230769231,4644.102564102564,4244.102564102564,4063.589743589744,4157.435897435898,4676.410256410257
3172.3357,0.7397623,1.0,0.38030547,0.52719253,0,0.0,0.0,0.0,0.0,0.0,0,0,0.0,0.0,0,0,43.0,0.0,0.0,4535.384615384616,4013.333333333334,4296.410256410257,4578.461538461539,4354.358974358975,4387.6923076923085,4230.256410256411,4200.512820512821,4190.769230769231,4644.102564102564,4244.102564102564,4063.589743589744,4157.435897435898,4676.410256410257
3172.836,0.8609908,1.0,0.38207963,0.53033817,0,0.0,0.0,0.0,0.0,0.0,0,0,0.0,0.0,0,0,107.0,0.0,390.0,4393.333333333334,3895.8974358974365,4268.717948717949,4489.743589743591,4281.538461538462,4383.076923076924,4217.435897435898,4140.000000000001,4202.051282051282,4555.8974358974365,4168.717948717949,3942.564102564103,4046.666666666667,4548.717948717949
3173.055,0.8609908,1.0,0.38207963,0.53033817,1,0.0,0.0,0.0,0.0,0.0,0,0,0.0,0.0,0,0,6.0,0.0,537.0,4524.102564102564,3874.358974358975,4305.641025641026,4460.000000000001,4247.179487179487,4368.717948717949,4200.512820512821,4121.025641025642,4200.512820512821,4538.974358974359,4192.307692307693,3990.2564102564106,4086.1538461538466,4589.2307692307695
3173.3364,0.94149053,1.0,0.38367563,0.54724956,0,0.0,0.0,0.0,0.0,0.13176501,0,0,0.0,0.0,0,0,42.0,0.0,0.0,4408.717948717949,3810.2564102564106,4342.051282051282,4411.794871794872,4206.666666666667,4427.6923076923085,4295.8974358974365,4208.205128205129,4260.000000000001,4564.615384615385,4195.384615384616,4018.461538461539,4029.7435897435903,4507.6923076923085
3173.5867,0.94149053,1.0,0.38367563,0.54724956,0,0.0,0.0,0.0,0.0,0.033049963,0,0,0.0,0.0,0,0,74.0,0.0,526.0,4466.666666666667,3815.3846153846157,4394.871794871796,4393.846153846154,4203.076923076924,4470.256410256411,4370.256410256411,4283.076923076924,4321.538461538462,4617.948717948719,4253.333333333334,4085.6410256410263,4062.564102564103,4518.974358974359
3173.837,1.0,1.0,0.38062763,0.56394684,0,0.0,0.0,0.0,0.0,0.0,0,0,0.0,0.0,0,0,106.0,0.0,526.0,4583.589743589744,3830.7692307692314,4455.384615384616,4389.743589743591,4214.358974358975,4495.8974358974365,4426.666666666667,4363.589743589744,4368.717948717949,4673.846153846154,4310.769230769231,4179.48717948718,4148.717948717949,4571.282051282052
3173.837,1.0,1.0,0.38062763,0.56394684,0,0.0,0.0,0.0,0.0,0.0,0,0,0.0,0.0,0,0,106.0,0.0,526.0,4583.589743589744,3830.7692307692314,4455.384615384616,4389.743589743591,4214.358974358975,4495.8974358974365,4426.666666666667,4363.589743589744,4368.717948717949,4673.846153846154,4310.769230769231,4179.48717948718,4148.717948717949,4571.282051282052
3174.3374,1.0,1.0,0.38409153,0.57897425,0,0.0,0.0,0.0,0.0,0.0,0,0,0.0,0.0,1,0,41.0,0.0,0.0,4663.589743589744,3939.48717948718,4510.256410256411,4434.871794871796,4244.102564102564,4520.000000000001,4475.8974358974365,4457.435897435898,4447.6923076923085,4776.923076923077,4393.333333333334,4254.871794871796,4240.000000000001,4583.076923076924
3174.5876,1.0,1.0,0.38409153,0.57897425,0,0.0,0.0,0.0,0.0,1.0,0,0,0.0,0.0,0,0,73.0,0.0,478.0,4657.435897435898,3985.6410256410263,4483.589743589744,4460.000000000001,4252.820512820514,4505.128205128206,4417.435897435898,4402.564102564103,4424.102564102564,4748.717948717949,4347.6923076923085,4204.615384615385,4198.974358974359,4550.769230769231
3174.8376,0.9438791,1.0,0.38950312,0.5924984,0,0.0,0.0,0.0,0.0,0.03820803,0,0,0.0,0.0,0,0,105.0,0.0,469.0,4609.2307692307695,4011.2820512820517,4461.025641025642,4468.205128205129,4267.6923076923085,4490.769230769231,4375.8974358974365,4358.461538461539,4404.102564102564,4707.179487179488,4306.666666666667,4160.512820512821,4159.48717948718,4527.179487179488
3175.088,0.9438791,1.0,0.38950312,0.5924984,0,0.0,0.0,0.0,0.0,0.24639189,0,0,0.0,0.0,0,0,8.0,0.0,508.0,4533.333333333334,3995.3846153846157,4437.435897435898,4473.333333333334,4272.820512820514,4486.153846153847,4349.2307692307695,4325.128205128206,4365.641025641026,4661.538461538462,4265.128205128206,4102.564102564103,4076.410256410257,4472.307692307693
3175.3381,0.9986543,1.0,0.39437267,0.60652375,0,0.0,0.0,0.0,0.0,0.19846009,0,0,0.0,0.0,0,0,40.0,0.0,0.0,4529.743589743591,3980.5128205128212,4427.6923076923085,4464.102564102564,4266.153846153847,4488.205128205129,4337.435897435898,4302.564102564103,4368.205128205129,4657.435897435898,4255.8974358974365,4098.461538461539,4077.435897435898,4475.8974358974365
3175.5884,0.9986543,1.0,0.39437267,0.60652375,0,0.0,0.0,0.0,0.0,0.0,0,0,0.0,0.0,0,0,72.0,0.0,508.0,4496.410256410257,3957.435897435898,4431.794871794872,4460.000000000001,4256.923076923077,4489.2307692307695,4334.871794871796,4277.948717948719,4343.076923076924,4618.461538461539,4244.615384615385,4086.666666666667,4054.8717948717954,4455.384615384616
3175.8386,1.0,1.0,0.3987543,0.6181231,0,0.0,0.0,0.0,0.0,0.0,0,0,0.0,0.0,0,0,104.0,0.0,506.0,4467.179487179487,3922.0512820512827,4426.666666666667,4444.102564102564,4245.641025641026,4492.307692307693,4345.128205128206,4277.435897435898,4323.589743589744,4590.769230769231,4224.615384615385,4080.0000000000005,4023.076923076924,4425.128205128206
3175.8386,1.0,1.0,0.3987543,0.6181231,0,0.0,0.0,0.0,0.0,0.0,0,0,0.0,0.0,0,0,104.0,0.0,506.0,4467.179487179487,3922.0512820512827,4426.666666666667,4444.102564102564,4245.641025641026,4492.307692307693,4345.128205128206,4277.435897435898,4323.589743589744,4590.769230769231,4224.615384615385,4080.0000000000005,4023.076923076924,4425.128205128206
3176.339,1.0,1.0,0.39679444,0.62497497,0,0.0,0.0,0.0,0.0,0.10371759,0,0,0.0,0.0,0,0,39.0,0.0,0.0,4830.256410256411,3778.9743589743593,4663.589743589744,4355.8974358974365,4082.0512820512827,4537.948717948719,4618.461538461539,4616.923076923077,4461.025641025642,4805.128205128206,4455.384615384616,4423.076923076924,4292.820512820514,4613.846153846154
3176.5894,1.0,1.0,0.39679444,0.62497497,0,0.0,0.0,0.0,0.0,0.050671495,0,0,0.0,0.0,0,0,71.0,0.0,474.0,4998.974358974359,3912.820512820513,4794.871794871796,4409.743589743591,4110.256410256411,4581.025641025642,4777.435897435898,4803.589743589744,4555.384615384616,5017.948717948719,4603.589743589744,4633.846153846154,4567.179487179488,4763.589743589744
3176.8396,1.0,1.0,0.3950297,0.6352174,0,0.0,0.0,0.0,0.0,0.0,0,0,0.0,0.0,0,0,103.0,0.0,395.0,5107.6923076923085,4077.9487179487187,4768.717948717949,4494.358974358975,4219.48717948718,4603.589743589744,4802.564102564103,4847.6923076923085,4603.076923076924,5127.179487179488,4644.615384615385,4685.128205128206,4673.333333333334,4846.153846153847
3176.8396,1.0,1.0,0.3950297,0.6352174,0,0.0,0.0,0.0,0.0,0.0,0,0,0.0,0.0,0,0,103.0,0.0,395.0,5107.6923076923085,4077.9487179487187,4768.717948717949,4494.358974358975,4219.48717948718,4603.589743589744,4802.564102564103,4847.6923076923085,4603.076923076924,5127.179487179488,4644.615384615385,4685.128205128206,4673.333333333334,4846.153846153847
3177.3398,1.0,1.0,0.39344057,0.6444337,0,0.0,0.0,0.0,0.0,0.0,0,0,0.0,0.0,0,0,38.0,0.0,0.0,4917.435897435898,4154.871794871796,4615.384615384616,4586.666666666667,4308.717948717949,4505.128205128206,4520.000000000001,4519.48717948718,4412.307692307693,4918.974358974359,4517.435897435898,4368.717948717949,4486.666666666667,4762.564102564103
3177.59,1.0,1.0,0.39344057,0.6444337,0,0.0,0.0,0.2832558,0.0,0.0,0,0,0.0,0.0,0,0,70.0,0.0,528.0,4782.564102564103,4093.8461538461543,4506.153846153847,4591.282051282052,4315.8974358974365,4471.794871794872,4394.871794871796,4354.871794871796,4321.025641025642,4781.025641025642,4395.8974358974365,4180.512820512821,4308.205128205129,4670.256410256411
3177.8403,1.0,1.0,0.39793178,0.65305966,0,0.0,0.0,0.3518008,0.0,0.0,0,0,0.0,0.0,0,0,102.0,0.0,521.0,4621.538461538462,4018.461538461539,4417.948717948719,4554.358974358975,4305.128205128206,4427.179487179487,4293.333333333334,4213.846153846154,4256.410256410257,4650.769230769231,4262.051282051282,4066.666666666667,4136.923076923077,4571.794871794872
3178.0906,1.0,1.0,0.39793178,0.65305966,0,0.0,0.0,0.0,0.0,0.0,0,0,1.0,0.0,0,0,5.0,0.0,560.0,4487.6923076923085,3973.8461538461543,4386.153846153847,4505.128205128206,4298.461538461539,4427.179487179487,4280.512820512821,4170.256410256411,4230.256410256411,4571.794871794872,4173.846153846154,4012.820512820513,4022.564102564103,4493.846153846154
3178.3408,1.0,1.0,0.4019729,0.6608204,0,0.0,0.0,0.0,0.0,0.0,0,0,0.0,0.0,0,0,37.0,0.0,0.0,4427.179487179487,3908.717948717949,4372.820512820514,4458.974358974359,4302.564102564103,4443.076923076924,4265.128205128206,4158.461538461539,4247.179487179487,4548.205128205129,4169.2307692307695,4003.076923076924,3992.307692307693,4442.564102564103
3178.3408,1.0,1.0,0.4019729,0.6608204,0,0.0,0.0,0.0,0.0,0.0,0,0,0.0,0.0,0,0,37.0,0.0,0.0,4427.179487179487,3908.717948717949,4372.820512820514,4458.974358974359,4302.564102564103,4443.076923076924,4265.128205128206,4158.461538461539,4247.179487179487,4548.205128205129,4169.2307692307695,4003.076923076924,3992.307692307693,4442.564102564103
3178.8413,1.0,1.0,0.39349163,0.6678023,0,0.0,0.0,0.0,0.0,0.0,0,0,0.0,0.0,0,0,101.0,0.0,469.0,4381.025641025642,3849.2307692307695,4424.102564102564,4396.923076923077,4242.051282051282,4462.564102564103,4340.512820512821,4238.461538461539,4315.384615384616,4558.461538461539,4206.153846153847,4052.820512820513,4004.1025641025644,4432.307692307693
3179.0913,1.0,1.0,0.39349163,0.6678023,0,0.0,0.0,0.0,0.0,0.0,0,0,0.0,0.0,0,0,4.0,0.0,558.0,4410.769230769231,3815.8974358974365,4466.153846153847,4347.179487179487,4223.589743589744,4468.717948717949,4370.256410256411,4277.948717948719,4330.769230769231,4583.076923076924,4226.666666666667,4121.538461538462,4004.1025641025644,4430.256410256411
3179.3416,1.0,1.0,0.37773284,0.68054014,0,0.0,0.0,0.0,0.0,0.010450879,0,0,0.0,0.0,0,0,36.0,0.0,0.0,4530.769230769231,3770.7692307692314,4565.128205128206,4263.076923076924,4165.128205128206,4504.615384615385,4520.512820512821,4445.641025641026,4396.410256410257,4644.102564102564,4310.256410256411,4269.74358974359,4033.333333333334,4464.102564102564
3179.5918,1.0,1.0,0.37773284,0.68054014,0,0.0,0.0,0.10275317,0.0,0.0,0,0,0.0,0.0,0,0,68.0,0.0,558.0,4682.051282051282,3827.1794871794878,4672.307692307693,4265.641025641026,4170.769230769231,4535.384615384616,4645.641025641026,4607.179487179488,4504.102564102564,4726.666666666667,4371.794871794872,4423.076923076924,4114.358974358975,4532.307692307693
3179.842,1.0,1.0,0.36354944,0.70065355,0,0.0,0.0,0.0,0.0,0.8703372,0,0,0.0,0.0,0,0,100.0,0.0,508.0,4814.358974358975,3941.538461538462,4698.974358974359,4324.102564102564,4191.794871794872,4505.641025641026,4657.948717948719,4643.589743589744,4490.256410256411,4765.128205128206,4401.025641025642,4490.256410256411,4187.179487179487,4572.820512820514
3180.0923,1.0,1.0,0.36354944,0.70065355,0,0.0,0.0,0.0,0.0,0.7564053,0,0,0.0,0.0,0,0,3.0,0.0,543.0,4735.384615384616,3907.692307692308,4645.641025641026,4323.076923076924,4213.333333333334,4510.256410256411,4658.974358974359,4641.538461538462,4463.076923076924,4750.256410256411,4398.461538461539,4440.000000000001,4146.666666666667,4552.820512820514
3180.3425,1.0,1.0,0.35078397,0.71874607,0,0.0,0.0,0.0,0.0,0.003040441,0,0,0.0,0.0,0,0,35.0,0.0,0.0,4851.282051282052,3822.0512820512827,4823.589743589744,4276.410256410257,4090.2564102564106,4506.153846153847,4817.948717948719,4855.384615384616,4492.307692307693,4822.564102564103,4515.384615384616,4693.333333333334,4261.538461538462,4636.410256410257
3180.5928,1.0,1.0,0.35078397,0.71874607,0,0.0,0.0,0.0,0.0,0.01954977,0,0,0.0,0.0,0,0,67.0,0.0,543.0,5119.487179487181,4083.076923076924,5041.025641025642,4369.2307692307695,4115.384615384616,4598.974358974359,5017.948717948719,5167.179487179488,4646.153846153847,5065.128205128206,4722.564102564103,4971.794871794872,4569.743589743591,4749.2307692307695
3180.843,1.0,1.0,0.33929485,0.7350183,0,0.0,0.0,0.0,0.0,0.0,0,0,0.72695243,0.0,0,0,99.0,0.0,395.0,5149.743589743591,4247.179487179487,5053.333333333334,4506.153846153847,4141.025641025642,4572.307692307693,5000.000000000001,5155.8974358974365,4627.6923076923085,5096.410256410257,4662.051282051282,4894.358974358975,4617.948717948719,4794.358974358975
3181.0933,1.0,1.0,0.33929485,0.7350183,0,0.0,0.0,0.0,0.0,0.0,0,0,0.12476351,0.0,0,0,2.0,0.0,446.0,5040.000000000001,4327.179487179487,4959.48717948718,4645.641025641026,4188.717948717949,4500.000000000001,4821.538461538462,4974.871794871796,4558.461538461539,5008.717948717949,4638.974358974359,4602.051282051282,4552.307692307693,4781.538461538462
3181.3433,1.0,1.0,0.3333658,0.7432125,0,0.0,0.0,0.0,0.0,0.005262823,0,0,0.0,0.0,0,0,34.0,0.0,0.0,4941.025641025642,4364.615384615385,4840.512820512821,4747.179487179488,4281.538461538462,4495.384615384616,4669.2307692307695,4804.615384615386,4521.538461538462,4924.615384615386,4557.948717948719,4453.333333333334,4432.820512820514,4720.000000000001
3181.5935,1.0,1.0,0.3333658,0.7432125,0,0.0,0.0,0.15955171,0.0,0.0,0,0,0.0,0.0,0,0,66.0,0.0,446.0,4691.794871794872,4279.48717948718,4594.358974358975,4747.6923076923085,4295.8974358974365,4472.307692307693,4417.435897435898,4465.128205128206,4323.076923076924,4725.641025641026,4278.974358974359,4149.74358974359,4198.974358974359,4583.076923076924
3181.8438,1.0,0.99034876,0.338107,0.7495838,0,0.0,0.0,0.14325762,0.0,0.0,0,0,0.0,0.0,0,0,98.0,0.0,523.0,4541.538461538462,4158.974358974359,4424.102564102564,4700.000000000001,4282.051282051282,4403.076923076924,4234.358974358975,4215.8974358974365,4215.384615384616,4567.6923076923085,4190.769230769231,4003.076923076924,4052.820512820513,4507.179487179488
3182.094,1.0,0.99034876,0.338107,0.7495838,0,0.0,0.0,0.0,0.0,0.0,0,0,0.0,0.0,0,0,1.0,0.0,485.0,4323.076923076924,3967.1794871794878,4295.8974358974365,4606.153846153847,4245.641025641026,4406.153846153847,4186.666666666667,4117.948717948719,4217.435897435898,4521.025641025642,4129.74358974359,3911.7948717948725,3958.9743589743593,4394.871794871796
3182.3442,1.0,0.9806886,0.34841624,0.75530946,0,0.0,0.0,0.0,0.0,0.0,0,0,0.0,0.0,0,0,33.0,0.0,0.0,4231.282051282052,3862.0512820512827,4264.615384615385,4524.102564102564,4206.153846153847,4406.666666666667,4185.128205128206,4088.205128205129,4244.615384615385,4512.307692307693,4123.589743589744,3827.692307692308,3941.0256410256416,4324.102564102564
3182.3442,1.0,0.9806886,0.34841624,0.75530946,0,0.0,0.0,0.0,0.0,0.0,0,0,0.0,0.0,0,0,33.0,0.0,0.0,4231.282051282052,3862.0512820512827,4264.615384615385,4524.102564102564,4206.153846153847,4406.666666666667,4185.128205128206,4088.205128205129,4244.615384615385,4512.307692307693,4123.589743589744,3827.692307692308,3941.0256410256416,4324.102564102564
3182.8447,1.0,0.97199446,0.36261263,0.75124806,0,0.0,0.0,0.0,0.0,0.0,0,0,0.0,0.0,0,0,97.0,0.0,468.0,4266.666666666667,3878.461538461539,4250.256410256411,4458.974358974359,4203.076923076924,4476.923076923077,4274.871794871796,4150.769230769231,4310.769230769231,4563.589743589744,4127.179487179487,3910.2564102564106,3943.589743589744,4246.666666666667
3182.8447,1.0,0.97199446,0.36261263,0.75124806,0,0.0,0.0,0.0,0.0,0.0,0,0,0.0,0.0,0,0,97.0,0.0,468.0,4266.666666666667,3878.461538461539,4250.256410256411,4458.974358974359,4203.076923076924,4476.923076923077,4274.871794871796,4150.769230769231,4310.769230769231,4563.589743589744,4127.179487179487,3910.2564102564106,3943.589743589744,4246.666666666667
3183.345,1.0,0.9641697,0.37880486,0.73897654,0,0.0,0.0,0.0,0.0,1.0,1,0,0.0,0.0,0,0,32.0,0.0,0.0,4412.820512820514,3909.2307692307695,4414.358974358975,4422.564102564103,4195.384615384616,4487.6923076923085,4366.666666666667,4209.2307692307695,4247.6923076923085,4489.743589743591,4069.23076923077,4018.461538461539,3876.410256410257,4164.102564102564
3183.5952,1.0,0.9641697,0.37880486,0.73897654,0,0.0,0.0,0.0,0.0,0.017726757,1,0,0.0,0.0,0,0,64.0,0.0,486.0,4573.846153846154,3911.7948717948725,4613.333333333334,4349.2307692307695,4151.794871794872,4540.000000000001,4579.48717948718,4412.820512820514,4247.6923076923085,4506.666666666667,4111.282051282052,4218.974358974359,3894.8717948717954,4202.051282051282
3183.8455,1.0,0.95712745,0.393377,0.7279338,0,0.0,0.0,0.0,0.0,0.07676331,1,0,0.0,0.0,0,0,96.0,0.0,505.0,4810.256410256411,3978.9743589743593,4786.153846153847,4365.641025641026,4200.000000000001,4605.128205128206,4753.846153846154,4594.358974358975,4270.769230769231,4620.000000000001,4211.794871794872,4426.666666666667,4154.358974358975,4311.794871794872
3184.0957,1.0,0.95712745,0.393377,0.7279338,0,0.0,0.0,0.0,0.0,0.3640662,1,0,0.0,0.0,0,0,128.0,0.0,505.0,4847.6923076923085,4083.076923076924,4779.48717948718,4430.256410256411,4240.512820512821,4586.153846153847,4701.538461538462,4542.564102564103,4237.948717948719,4625.128205128206,4203.589743589744,4288.205128205129,4174.871794871796,4330.256410256411
3184.346,1.0,0.9507894,0.40877762,0.70829266,0,0.0,0.0,0.0,0.0,0.022806203,1,0,0.0,0.0,0,0,31.0,0.0,0.0,4746.666666666667,4079.48717948718,4659.48717948718,4460.000000000001,4258.461538461539,4542.051282051282,4583.589743589744,4416.923076923077,4207.6923076923085,4581.025641025642,4148.205128205129,4142.051282051282,4142.564102564103,4328.717948717949
3184.5962,1.0,0.9507894,0.40877762,0.70829266,0,0.0,0.0,0.0,0.0,0.036087636,1,0,0.0,0.0,0,0,63.0,0.0,0.0,4665.641025641026,4050.2564102564106,4542.051282051282,4493.333333333334,4301.538461538462,4515.8974358974365,4484.102564102564,4295.8974358974365,4208.205128205129,4566.153846153847,4122.051282051282,4020.5128205128212,4096.410256410257,4322.564102564103
3184.8464,0.99745,0.94508517,0.42435366,0.6835688,0,0.0,0.0,0.0,0.0,0.0,1,0,0.0,0.0,0,0,95.0,0.0,403.0,4660.000000000001,4018.461538461539,4383.589743589744,4507.179487179488,4275.384615384616,4447.179487179487,4326.666666666667,4150.769230769231,4173.846153846154,4535.8974358974365,4095.3846153846157,3927.692307692308,4037.9487179487182,4326.666666666667
3184.8464,0.99745,0.94508517,0.42435366,0.6835688,0,0.0,0.0,0.0,0.0,0.0,1,0,0.0,0.0,0,0,95.0,0.0,403.0,4660.000000000001,4018.461538461539,4383.589743589744,4507.179487179488,4275.384615384616,4447.179487179487,4326.666666666667,4150.769230769231,4173.846153846154,4535.8974358974365,4095.3846153846157,3927.692307692308,4037.9487179487182,4326.666666666667
3185.3467,1.0,0.93995136,0.44361913,0.65462583,0,0.0,0.0,0.0,0.0,0.0,1,0,0.0,0.0,0,0,30.0,0.0,0.0,4610.769230769231,3925.1282051282055,4276.410256410257,4458.974358974359,4284.102564102564,4460.000000000001,4260.512820512821,4127.179487179487,4271.794871794872,4543.589743589744,4133.846153846154,3972.307692307693,4048.205128205129,4309.743589743591
3185.3467,1.0,0.93995136,0.44361913,0.65462583,0,0.0,0.0,0.0,0.0,0.0,1,0,0.0,0.0,0,0,30.0,0.0,0.0,4610.769230769231,3925.1282051282055,4276.410256410257,4458.974358974359,4284.102564102564,4460.000000000001,4260.512820512821,4127.179487179487,4271.794871794872,4543.589743589744,4133.846153846154,3972.307692307693,4048.205128205129,4309.743589743591
3185.8472,1.0,0.9353309,0.46095514,0.6285795,0,0.0,0.0,0.0,0.0,0.0,1,0,0.0,0.0,0,0,94.0,0.0,528.0,4566.666666666667,3876.9230769230776,4321.025641025642,4412.820512820514,4297.435897435898,4489.2307692307695,4294.358974358975,4206.666666666667,4370.769230769231,4622.564102564103,4169.2307692307695,4050.7692307692314,4059.48717948718,4287.6923076923085
3186.0974,1.0,0.9353309,0.46095514,0.6285795,0,0.0,0.0,0.0,0.0,0.1133465,1,0,0.0,0.0,0,0,126.0,0.0,528.0,4561.538461538462,3875.8974358974365,4354.358974358975,4413.333333333334,4275.8974358974365,4506.666666666667,4326.666666666667,4243.589743589744,4387.179487179487,4624.615384615385,4180.000000000001,4091.7948717948725,4057.9487179487182,4308.717948717949
3186.3477,0.9539138,0.93117255,0.46657172,0.60713977,0,0.0,0.0,0.0,0.0,0.0,1,0,0.0,0.0,0,0,29.0,0.0,0.0,4534.358974358975,3868.205128205129,4389.2307692307695,4401.025641025642,4280.000000000001,4510.256410256411,4357.948717948719,4289.74358974359,4414.871794871796,4666.666666666667,4230.256410256411,4159.48717948718,4100.512820512821,4314.358974358975
3186.3477,0.9539138,0.93117255,0.46657172,0.60713977,0,0.0,0.0,0.0,0.0,0.0,1,0,0.0,0.0,0,0,29.0,0.0,0.0,4534.358974358975,3868.205128205129,4389.2307692307695,4401.025641025642,4280.000000000001,4510.256410256411,4357.948717948719,4289.74358974359,4414.871794871796,4666.666666666667,4230.256410256411,4159.48717948718,4100.512820512821,4314.358974358975
3186.8481,0.8813235,0.92743003,0.46912572,0.596751,0,0.0,0.0,0.0,0.0,0.0,1,0,0.0,0.0,0,0,93.0,0.0,472.0,4568.205128205129,3877.9487179487182,4430.769230769231,4389.743589743591,4268.205128205129,4523.076923076924,4374.358974358975,4313.333333333334,4410.256410256411,4667.179487179488,4314.358974358975,4209.2307692307695,4128.717948717949,4333.846153846154
3186.8481,0.8813235,0.92743003,0.46912572,0.596751,0,0.0,0.0,0.0,0.0,0.0,1,0,0.0,0.0,0,0,93.0,0.0,472.0,4568.205128205129,3877.9487179487182,4430.769230769231,4389.743589743591,4268.205128205129,4523.076923076924,4374.358974358975,4313.333333333334,4410.256410256411,4667.179487179488,4314.358974358975,4209.2307692307695,4128.717948717949,4333.846153846154
3187.3486,0.84811354,0.9032828,0.4650259,0.6171735,0,0.0,0.0,0.0,0.0,0.0,0,0,0.0,0.0,0,0,28.0,0.0,0.0,4544.615384615385,3875.8974358974365,4457.435897435898,4363.589743589744,4275.8974358974365,4553.846153846154,4384.102564102564,4346.666666666667,4380.000000000001,4669.2307692307695,4328.717948717949,4250.769230769231,4123.589743589744,4360.000000000001
3187.3486,0.84811354,0.9032828,0.4650259,0.6171735,0,0.0,0.0,0.0,0.0,0.0,0,0,0.0,0.0,0,0,28.0,0.0,0.0,4544.615384615385,3875.8974358974365,4457.435897435898,4363.589743589744,4275.8974358974365,4553.846153846154,4384.102564102564,4346.666666666667,4380.000000000001,4669.2307692307695,4328.717948717949,4250.769230769231,4123.589743589744,4360.000000000001
3187.8489,0.86220086,0.8681579,0.4611175,0.64191216,0,0.0,0.0,0.0,0.0,0.0,0,0,0.0,0.0,0,0,92.0,0.0,505.0,4568.205128205129,3878.461538461539,4487.179487179488,4362.051282051282,4275.8974358974365,4553.333333333334,4396.410256410257,4370.256410256411,4392.307692307693,4671.794871794872,4347.179487179487,4284.102564102564,4137.948717948719,4378.461538461539
3187.8489,0.86220086,0.8681579,0.4611175,0.64191216,0,0.0,0.0,0.0,0.0,0.0,0,0,0.0,0.0,0,0,92.0,0.0,505.0,4568.205128205129,3878.461538461539,4487.179487179488,4362.051282051282,4275.8974358974365,4553.333333333334,4396.410256410257,4370.256410256411,4392.307692307693,4671.794871794872,4347.179487179487,4284.102564102564,4137.948717948719,4378.461538461539
3188.3494,0.8199945,0.8406099,0.45455503,0.67263824,0,0.0,0.0,0.0,0.0,0.0,0,0,0.0,0.0,0,0,27.0,0.0,0.0,4555.8974358974365,3839.48717948718,4523.589743589744,4347.179487179487,4215.8974358974365,4573.846153846154,4473.333333333334,4452.820512820514,4490.769230769231,4752.820512820514,4396.923076923077,4343.589743589744,4203.076923076924,4433.846153846154
3188.3494,0.8199945,0.8406099,0.45455503,0.67263824,0,0.0,0.0,0.0,0.0,0.0,0,0,0.0,0.0,0,0,27.0,0.0,0.0,4555.8974358974365,3839.48717948718,4523.589743589744,4347.179487179487,4215.8974358974365,4573.846153846154,4473.333333333334,4452.820512820514,4490.769230769231,4752.820512820514,4396.923076923077,4343.589743589744,4203.076923076924,4433.846153846154
3188.8499,0.924269,0.8222227,0.4486473,0.7020782,0,0.0,0.0,0.0,0.0,0.0,0,0,0.0,0.0,0,0,91.0,0.0,404.0,4646.666666666667,3878.461538461539,4586.153846153847,4378.461538461539,4246.153846153847,4612.820512820514,4558.461538461539,4556.410256410257,4571.794871794872,4843.589743589744,4461.025641025642,4430.769230769231,4263.589743589744,4475.384615384616
3188.8499,0.924269,0.8222227,0.4486473,0.7020782,0,0.0,0.0,0.0,0.0,0.0,0,0,0.0,0.0,0,0,91.0,0.0,404.0,4646.666666666667,3878.461538461539,4586.153846153847,4378.461538461539,4246.153846153847,4612.820512820514,4558.461538461539,4556.410256410257,4571.794871794872,4843.589743589744,4461.025641025642,4430.769230769231,4263.589743589744,4475.384615384616
3189.3503,0.9453869,0.8249762,0.4259506,0.72790265,0,0.0,0.0,0.0,0.0,0.062236417,0,0,0.0,0.0,0,0,26.0,0.0,0.0,4675.8974358974365,3990.2564102564106,4571.794871794872,4444.615384615385,4277.948717948719,4587.6923076923085,4509.2307692307695,4475.8974358974365,4505.641025641026,4802.051282051282,4407.179487179487,4367.6923076923085,4229.2307692307695,4477.948717948719
3189.6003,0.9453869,0.8249762,0.4259506,0.72790265,0,0.0,0.0,0.0,0.0,0.24935763,0,0,0.0,0.0,0,0,58.0,0.0,0.0,4597.435897435898,3929.2307692307695,4522.564102564103,4429.743589743591,4279.48717948718,4585.128205128206,4487.179487179488,4464.615384615385,4484.102564102564,4765.641025641026,4403.076923076924,4324.102564102564,4246.666666666667,4479.48717948718
3189.8506,0.94930714,0.8295433,0.39721406,0.7460516,0,0.0,0.0,0.0,0.0,0.0,0,0,0.0,0.0,0,0,90.0,0.0,528.0,4602.051282051282,3951.2820512820517,4520.512820512821,4461.025641025642,4296.410256410257,4584.615384615385,4443.589743589744,4417.948717948719,4441.538461538462,4746.153846153847,4413.333333333334,4295.8974358974365,4263.076923076924,4501.025641025642
3189.8506,0.94930714,0.8295433,0.39721406,0.7460516,0,0.0,0.0,0.0,0.0,0.0,0,0,0.0,0.0,0,0,90.0,0.0,528.0,4602.051282051282,3951.2820512820517,4520.512820512821,4461.025641025642,4296.410256410257,4584.615384615385,4443.589743589744,4417.948717948719,4441.538461538462,4746.153846153847,4413.333333333334,4295.8974358974365,4263.076923076924,4501.025641025642
3190.351,0.95794857,0.83177155,0.37135065,0.7545665,0,0.0,0.0,0.0,0.0,0.0,0,0,0.0,0.0,0,0,25.0,0.0,0.0,4538.974358974359,3922.0512820512827,4480.000000000001,4444.615384615385,4281.538461538462,4585.641025641026,4415.384615384616,4378.974358974359,4399.48717948718,4696.410256410257,4374.358974358975,4246.153846153847,4201.538461538462,4450.769230769231
3190.6013,0.95794857,0.83177155,0.37135065,0.7545665,1,0.0,0.0,0.0,0.0,0.0,0,0,0.0,0.0,0,0,57.0,0.0,0.0,4604.615384615385,3944.1025641025644,4507.6923076923085,4458.974358974359,4265.641025641026,4577.435897435898,4412.820512820514,4388.205128205129,4416.410256410257,4707.6923076923085,4397.435897435898,4272.820512820514,4216.923076923077,4500.000000000001
3190.8516,0.8356527,0.8379788,0.34807315,0.7599786,0,0.0,0.0,0.0,0.0,0.38192597,0,0,0.0,0.0,0,0,89.0,0.0,472.0,4511.282051282052,3912.307692307693,4471.794871794872,4440.512820512821,4277.435897435898,4591.794871794872,4431.282051282052,4413.333333333334,4435.384615384616,4712.820512820514,4384.102564102564,4234.871794871796,4188.717948717949,4475.384615384616
3191.1018,0.8356527,0.8379788,0.34807315,0.7599786,0,0.0,0.0,0.0,0.0,0.20465936,0,0,0.0,0.0,0,0,121.0,0.0,472.0,4558.461538461539,3910.2564102564106,4487.179487179488,4444.615384615385,4262.051282051282,4596.410256410257,4425.641025641026,4380.000000000001,4390.256410256411,4685.128205128206,4380.000000000001,4233.846153846154,4188.205128205129,4497.435897435898
3191.352,0.7831533,0.83120096,0.33902526,0.7533902,0,0.0,0.0,0.0,0.0,0.0,0,0,0.0,0.0,0,0,24.0,0.0,0.0,4553.333333333334,3925.1282051282055,4491.282051282052,4437.948717948719,4268.205128205129,4615.8974358974365,4421.025641025642,4390.769230769231,4410.769230769231,4710.256410256411,4384.615384615385,4215.8974358974365,4204.102564102564,4523.589743589744
3191.352,0.7831533,0.83120096,0.33902526,0.7533902,0,0.0,0.0,0.0,0.0,0.0,0,0,0.0,0.0,0,0,24.0,0.0,0.0,4553.333333333334,3925.1282051282055,4491.282051282052,4437.948717948719,4268.205128205129,4615.8974358974365,4421.025641025642,4390.769230769231,4410.769230769231,4710.256410256411,4384.615384615385,4215.8974358974365,4204.102564102564,4523.589743589744
3191.8523,0.7100973,0.8252041,0.34325102,0.7361034,0,0.0,0.0,0.0,0.0,0.017395895,0,0,0.0,0.0,0,0,88.0,0.0,503.0,4718.974358974359,3740.512820512821,4627.6923076923085,4286.153846153847,4123.589743589744,4646.666666666667,4621.025641025642,4645.641025641026,4475.8974358974365,4792.307692307693,4468.717948717949,4436.410256410257,4185.641025641026,4572.820512820514
3192.1025,0.7100973,0.8252041,0.34325102,0.7361034,0,0.0,0.0,0.0,0.0,0.039818577,0,0,0.0,0.0,0,0,120.0,0.0,503.0,5173.333333333334,3853.333333333334,4996.410256410257,4263.076923076924,4055.8974358974365,4689.743589743591,5030.256410256411,5133.846153846154,4670.769230769231,5093.333333333334,4584.102564102564,4898.461538461539,4487.179487179488,4795.384615384616
3192.3528,0.8348856,0.8198069,0.34705406,0.720549,0,0.0,0.0,0.0,0.0,0.06768635,0,0,0.0,0.0,0,0,23.0,0.0,0.0,5561.025641025642,4216.923076923077,5313.846153846154,4425.641025641026,4197.948717948719,4694.871794871796,5255.8974358974365,5502.564102564103,4786.666666666667,5404.102564102564,4791.794871794872,5282.051282051283,4923.589743589744,4984.615384615386
3192.478,0.8348856,0.8198069,0.34705406,0.720549,0,0.0,0.0,0.0,0.0,0.0,0,0,0.0,0.0,0,0,39.0,0.0,0.0,5673.846153846154,4313.846153846154,5239.487179487181,4494.871794871796,4234.871794871796,4626.666666666667,5237.435897435898,5486.153846153847,4736.923076923077,5436.410256410257,4798.974358974359,5285.128205128206,4972.820512820514,5020.512820512821
3192.8533,0.94469935,0.8149494,0.35047662,0.70246834,0,0.0,0.0,0.0,0.0,0.0,0,0,0.0,0.0,0,0,87.0,0.0,388.0,5435.384615384616,4327.6923076923085,4947.179487179488,4634.358974358975,4237.435897435898,4523.589743589744,4842.051282051283,5085.128205128206,4587.6923076923085,5258.461538461539,4817.435897435898,4671.794871794872,4785.641025641026,4867.179487179488
3192.8533,0.94469935,0.8149494,0.35047662,0.70246834,0,0.0,0.0,0.0,0.0,0.0,0,0,0.0,0.0,0,0,87.0,0.0,388.0,5435.384615384616,4327.6923076923085,4947.179487179488,4634.358974358975,4237.435897435898,4523.589743589744,4842.051282051283,5085.128205128206,4587.6923076923085,5258.461538461539,4817.435897435898,4671.794871794872,4785.641025641026,4867.179487179488
3193.3538,1.0,0.8105777,0.34701136,0.6851314,0,0.0,0.0,0.0,0.0,0.0,0,0,0.0,0.0,0,0,22.0,0.0,0.0,4946.666666666667,4182.051282051282,4542.564102564103,4719.48717948718,4294.358974358975,4474.871794871796,4410.769230769231,4483.076923076924,4373.846153846154,4872.307692307693,4339.48717948718,4036.410256410257,4329.743589743591,4664.102564102564
3193.3538,1.0,0.8105777,0.34701136,0.6851314,0,0.0,0.0,0.0,0.0,0.0,0,0,0.0,0.0,0,0,22.0,0.0,0.0,4946.666666666667,4182.051282051282,4542.564102564103,4719.48717948718,4294.358974358975,4474.871794871796,4410.769230769231,4483.076923076924,4373.846153846154,4872.307692307693,4339.48717948718,4036.410256410257,4329.743589743591,4664.102564102564
3193.854,1.0,0.8066431,0.34389243,0.6595128,0,0.0,0.0,0.0,0.0,0.0,0,0,0.0,0.0,0,0,86.0,0.0,525.0,4586.153846153847,4044.615384615385,4284.102564102564,4685.128205128206,4351.282051282052,4438.461538461539,4202.051282051282,4076.9230769230776,4204.615384615385,4566.153846153847,4082.0512820512827,3789.2307692307695,4030.2564102564106,4478.461538461539
3193.854,1.0,0.8066431,0.34389243,0.6595128,0,0.0,0.0,0.0,0.0,0.0,0,0,0.0,0.0,0,0,86.0,0.0,525.0,4586.153846153847,4044.615384615385,4284.102564102564,4685.128205128206,4351.282051282052,4438.461538461539,4202.051282051282,4076.9230769230776,4204.615384615385,4566.153846153847,4082.0512820512827,3789.2307692307695,4030.2564102564106,4478.461538461539
3194.3545,1.0,0.803102,0.35030466,0.6364582,0,0.0,0.0,0.0,0.0,0.0,0,0,0.0,0.0,0,0,21.0,0.0,0.0,4401.025641025642,3924.615384615385,4237.435897435898,4557.435897435898,4338.974358974359,4441.538461538462,4183.076923076924,3973.333333333334,4163.076923076924,4474.871794871796,4004.1025641025644,3828.205128205129,3908.205128205129,4387.6923076923085
3194.3545,1.0,0.803102,0.35030466,0.6364582,0,0.0,0.0,0.0,0.0,0.0,0,0,0.0,0.0,0,0,21.0,0.0,0.0,4401.025641025642,3924.615384615385,4237.435897435898,4557.435897435898,4338.974358974359,4441.538461538462,4183.076923076924,3973.333333333334,4163.076923076924,4474.871794871796,4004.1025641025644,3828.205128205129,3908.205128205129,4387.6923076923085
3194.855,1.0,0.7999151,0.37406927,0.60853463,0,0.0,0.0,0.0,0.0,0.0,0,0,0.0,0.0,0,0,85.0,0.0,468.0,4340.512820512821,3827.1794871794878,4341.538461538462,4473.333333333334,4307.179487179487,4486.153846153847,4271.794871794872,4076.410256410257,4212.820512820514,4524.615384615385,4043.076923076924,3972.820512820513,3908.205128205129,4331.282051282052
3194.855,1.0,0.7999151,0.37406927,0.60853463,0,0.0,0.0,0.0,0.0,0.0,0,0,0.0,0.0,0,0,85.0,0.0,468.0,4340.512820512821,3827.1794871794878,4341.538461538462,4473.333333333334,4307.179487179487,4486.153846153847,4271.794871794872,4076.410256410257,4212.820512820514,4524.615384615385,4043.076923076924,3972.820512820513,3908.205128205129,4331.282051282052
3195.3555,1.0,0.7970468,0.39562398,0.5834037,0,0.0,0.0,0.0,0.0,0.08109261,0,0,0.0,0.0,0,0,20.0,0.0,0.0,4333.846153846154,3832.820512820513,4408.717948717949,4413.333333333334,4286.666666666667,4524.615384615385,4357.435897435898,4201.025641025642,4321.025641025642,4613.333333333334,4133.333333333334,4080.5128205128212,3984.1025641025644,4298.974358974359
3195.4883,1.0,0.7970468,0.39562398,0.5834037,0,0.0,0.0,0.0,0.0,0.0,0,0,0.0,0.0,0,0,36.0,0.0,0.0,4344.102564102564,3837.435897435898,4406.153846153847,4399.48717948718,4269.2307692307695,4519.48717948718,4351.282051282052,4196.410256410257,4296.410256410257,4595.8974358974365,4128.205128205129,4081.0256410256416,3978.9743589743593,4311.282051282052
3195.8638,1.0,0.7944653,0.41502184,0.5607858,0,0.0,0.0,0.0,0.0,0.0,0,0,0.0,0.0,0,0,84.0,0.0,506.0,4468.717948717949,3861.0256410256416,4453.846153846154,4403.076923076924,4262.051282051282,4536.923076923077,4381.025641025642,4264.102564102564,4344.615384615385,4630.256410256411,4216.923076923077,4171.282051282052,4040.0000000000005,4329.743589743591
3195.8638,1.0,0.7944653,0.41502184,0.5607858,0,0.0,0.0,0.0,0.0,0.0,0,0,0.0,0.0,0,0,84.0,0.0,506.0,4468.717948717949,3861.0256410256416,4453.846153846154,4403.076923076924,4262.051282051282,4536.923076923077,4381.025641025642,4264.102564102564,4344.615384615385,4630.256410256411,4216.923076923077,4171.282051282052,4040.0000000000005,4329.743589743591
3196.364,1.0,0.792142,0.43247804,0.5447353,0,0.0,0.0,0.0,0.0,0.0,0,0,0.0,0.0,0,0,19.0,0.0,0.0,4498.974358974359,3862.564102564103,4461.538461538462,4382.051282051282,4242.051282051282,4549.2307692307695,4398.461538461539,4296.923076923077,4357.948717948719,4656.410256410257,4260.512820512821,4208.205128205129,4045.6410256410263,4361.538461538462
3196.364,1.0,0.792142,0.43247804,0.5447353,0,0.0,0.0,0.0,0.0,0.0,0,0,0.0,0.0,0,0,19.0,0.0,0.0,4498.974358974359,3862.564102564103,4461.538461538462,4382.051282051282,4242.051282051282,4549.2307692307695,4398.461538461539,4296.923076923077,4357.948717948719,4656.410256410257,4260.512820512821,4208.205128205129,4045.6410256410263,4361.538461538462
3196.8645,0.965068,0.790051,0.42037475,0.53805834,0,0.0,0.0,0.0,0.0,0.0,0,0,0.0,0.0,0,0,83.0,0.0,402.0,4586.153846153847,3754.8717948717954,4539.48717948718,4302.564102564103,4194.871794871796,4552.307692307693,4487.6923076923085,4410.256410256411,4369.743589743591,4669.743589743591,4307.6923076923085,4362.564102564103,4068.717948717949,4415.384615384616
3197.1147,0.965068,0.790051,0.42037475,0.53805834,0,0.0,0.0,0.08655861,0.0,0.0,0,0,0.0,0.0,0,0,115.0,0.0,402.0,4831.282051282052,3710.7692307692314,4745.641025641026,4232.820512820514,4143.589743589744,4613.333333333334,4735.8974358974365,4721.538461538462,4521.538461538462,4844.102564102564,4436.410256410257,4650.769230769231,4207.179487179487,4502.051282051282
3197.365,1.0,0.78816915,0.40229037,0.540706,0,0.0,0.0,0.0,0.0,0.0,0,0,0.38534144,0.0,0,0,18.0,0.0,0.0,5178.461538461539,3936.410256410257,5014.358974358975,4338.461538461539,4212.307692307693,4684.102564102564,5001.025641025642,5086.153846153847,4731.794871794872,5135.384615384616,4632.307692307693,4988.205128205129,4574.358974358975,4705.128205128206
