timestamp,excitement,frustration,meditation,engagementBoredom,blink,clench,laugh,smile,eyebrow,furrowBrow,lookLeft,lookRight,smirkLeft,smirkRight,winkLeft,winkRight,eeg0,eeg1,eeg2,eeg3,eeg4,eeg5,eeg6,eeg7,eeg8,eeg9,eeg10,eeg11,eeg12,eeg13,eeg14,eeg15,eeg16
4238.1187,0.74294966,0.7856723,0.22254299,0.67088395,0,0.0,0.0,0.2899713,0.0,0.0,0,0,0.0,0.0,0,0,123.0,0.0,379.0,5509.2307692307695,4289.2307692307695,5313.846153846154,4657.435897435898,4344.102564102564,4867.179487179488,5185.128205128206,5468.205128205129,5057.435897435898,5635.8974358974365,5060.512820512821,5279.487179487181,4926.153846153847,5025.128205128206
4238.369,0.8637957,0.8188818,0.2311915,0.6695107,0,0.0,0.0,0.10154949,0.0,0.0,0,0,0.0,0.0,0,0,26.0,0.0,0.0,5530.769230769231,4389.743589743591,5243.589743589744,4649.743589743591,4403.076923076924,4850.256410256411,5120.512820512821,5395.8974358974365,4928.205128205129,5608.205128205129,4966.153846153847,5232.307692307693,4875.384615384616,5035.8974358974365
4238.494,0.8637957,0.8188818,0.2311915,0.6695107,0,0.0,0.0,0.0,0.0,0.0,0,0,0.0,0.0,0,0,42.0,0.0,0.0,5440.000000000001,4355.8974358974365,5148.717948717949,4655.8974358974365,4385.128205128206,4797.948717948719,5033.333333333334,5262.051282051283,4806.666666666667,5516.923076923078,4905.641025641026,5115.384615384616,4760.000000000001,5010.256410256411
4238.869,0.9701402,0.8487704,0.23823667,0.66848356,0,0.0,0.0,0.0,0.0,0.07729872,0,0,0.0,0.0,0,0,90.0,0.0,521.0,5083.589743589744,4243.076923076924,4718.974358974359,4625.128205128206,4355.384615384616,4585.128205128206,4680.512820512821,4769.743589743591,4422.051282051282,5091.794871794872,4556.923076923077,4652.820512820514,4338.461538461539,4876.923076923077
4239.1196,0.9701402,0.8487704,0.23823667,0.66848356,0,0.0,0.0,0.0,0.0,0.05083517,0,0,0.0,0.0,0,0,122.0,0.0,521.0,4823.076923076924,4155.8974358974365,4520.512820512821,4591.282051282052,4319.48717948718,4460.512820512821,4368.205128205129,4418.461538461539,4190.256410256411,4807.6923076923085,4282.051282051282,4307.6923076923085,4129.2307692307695,4763.076923076924
4239.3696,1.0,0.8756701,0.24457847,0.6675581,0,0.0,0.0,0.0,0.0,0.033560593,0,0,0.0,0.0,0,0,25.0,0.0,0.0,4665.128205128206,4072.307692307693,4362.564102564103,4517.435897435898,4251.794871794872,4368.205128205129,4157.948717948719,4178.974358974359,4043.076923076924,4558.974358974359,4098.461538461539,4031.2820512820517,3969.2307692307695,4675.384615384616
4239.62,1.0,0.8756701,0.24457847,0.6675581,0,0.0,0.0,0.0,0.0,0.39305726,0,0,0.0,0.0,0,0,57.0,0.0,0.0,4366.153846153847,3947.692307692308,4228.717948717949,4456.923076923077,4229.74358974359,4326.666666666667,4081.0256410256416,4028.205128205129,3957.9487179487182,4369.2307692307695,3945.1282051282055,3827.1794871794878,3780.512820512821,4551.794871794872
4239.87,1.0,0.89987975,0.25440747,0.6667241,0,0.0,0.0,0.0,0.0,0.0,0,0,0.0,0.0,0,0,89.0,0.0,457.0,4304.615384615385,3905.1282051282055,4200.512820512821,4428.205128205129,4222.564102564103,4328.717948717949,4066.666666666667,3986.1538461538466,3987.1794871794878,4337.435897435898,3942.564102564103,3785.6410256410263,3793.333333333334,4510.769230769231
4240.1206,1.0,0.89987975,0.25440747,0.6667241,0,0.0,0.0,0.0,0.0,0.552463,0,0,0.0,0.0,0,0,121.0,0.0,457.0,4271.794871794872,3879.48717948718,4226.153846153847,4407.6923076923085,4220.512820512821,4351.794871794872,4104.102564102564,4006.666666666667,4053.8461538461543,4355.8974358974365,4014.8717948717954,3807.1794871794878,3866.1538461538466,4472.307692307693
4240.3706,1.0,0.9216685,0.26584783,0.66430986,0,0.0,0.0,0.0,0.0,0.5582974,0,0,0.0,0.0,0,0,24.0,0.0,0.0,4247.6923076923085,3850.2564102564106,4251.282051282052,4387.6923076923085,4214.358974358975,4356.923076923077,4135.384615384616,4018.461538461539,4091.2820512820517,4378.461538461539,4035.8974358974365,3833.333333333334,3905.6410256410263,4444.102564102564
4240.715,1.0,0.9216685,0.26584783,0.66430986,1,0.0,0.0,0.0,0.0,0.43650556,0,0,0.0,0.0,0,0,68.0,0.0,560.0,4313.846153846154,3889.2307692307695,4314.871794871796,4397.948717948719,4216.923076923077,4393.333333333334,4179.48717948718,4079.48717948718,4154.871794871796,4419.48717948718,4084.615384615385,3885.6410256410263,3977.9487179487182,4442.051282051282
4240.871,1.0,0.9412784,0.27586251,0.6621363,0,0.0,0.0,0.0,0.0,0.24380878,0,0,0.0,0.0,0,0,88.0,0.0,501.0,4260.000000000001,3845.1282051282055,4294.358974358975,4373.846153846154,4206.666666666667,4407.179487179487,4209.2307692307695,4105.128205128206,4169.74358974359,4412.820512820514,4097.435897435898,3878.461538461539,3976.9230769230776,4401.538461538462
4241.121,1.0,0.9412784,0.27586251,0.6621363,0,0.0,0.0,0.0,0.0,0.26774728,0,0,0.0,0.0,0,0,120.0,0.0,501.0,4271.794871794872,3847.1794871794878,4318.974358974359,4392.820512820514,4212.820512820514,4429.2307692307695,4247.179487179487,4152.307692307693,4208.717948717949,4442.564102564103,4155.384615384616,3913.8461538461543,4027.1794871794878,4378.461538461539
4241.3716,1.0,0.9589273,0.28487644,0.6562853,0,0.0,0.0,0.0,0.0,0.2140693,0,0,0.0,0.0,0,0,23.0,0.0,0.0,4311.794871794872,3845.6410256410263,4351.794871794872,4389.2307692307695,4214.358974358975,4458.461538461539,4293.846153846154,4213.846153846154,4276.923076923077,4500.000000000001,4212.820512820514,3968.205128205129,4087.692307692308,4367.179487179487
4241.6216,1.0,0.9589273,0.28487644,0.6562853,0,0.0,0.0,0.0,0.0,0.09799799,0,0,0.0,0.0,0,0,55.0,0.0,0.0,4347.6923076923085,3824.615384615385,4366.666666666667,4377.948717948719,4211.794871794872,4478.974358974359,4326.153846153847,4258.461538461539,4332.820512820514,4518.974358974359,4257.435897435898,4016.410256410257,4138.461538461539,4381.025641025642
4241.9033,1.0,0.9748113,0.29298955,0.6482583,1,0.0,0.0,0.0,0.0,0.0,0,0,1.0,0.0,0,0,91.0,0.0,383.0,4480.000000000001,3851.2820512820517,4393.333333333334,4388.205128205129,4201.538461538462,4480.000000000001,4332.820512820514,4280.000000000001,4352.307692307693,4538.974358974359,4280.512820512821,4069.7435897435903,4165.641025641026,4407.6923076923085
4242.122,1.0,0.9748113,0.29298955,0.6482583,0,0.0,0.0,0.0,0.0,0.57783514,0,0,0.0,0.0,0,0,119.0,0.0,383.0,4399.48717948718,3847.692307692308,4391.282051282052,4383.076923076924,4218.461538461539,4492.820512820514,4350.256410256411,4290.256410256411,4349.743589743591,4542.564102564103,4281.025641025642,4065.6410256410263,4136.923076923077,4367.179487179487
4242.3726,0.9805182,0.9891069,0.2873984,0.6437948,0,0.0,0.0,0.0,0.0,0.24451555,0,0,0.0,0.0,0,0,22.0,0.0,0.0,4392.820512820514,3844.615384615385,4388.717948717949,4374.358974358975,4200.000000000001,4494.358974358975,4365.128205128206,4293.846153846154,4346.153846153847,4553.846153846154,4252.820512820514,4068.717948717949,4120.512820512821,4361.025641025642
4242.6226,0.9805182,0.9891069,0.2873984,0.6437948,0,0.0,0.0,0.0,0.0,0.050584346,0,0,0.0,0.0,0,0,54.0,0.0,0.0,4410.256410256411,3866.666666666667,4408.717948717949,4400.512820512821,4208.717948717949,4495.8974358974365,4354.871794871796,4294.871794871796,4332.307692307693,4537.435897435898,4270.769230769231,4083.076923076924,4118.974358974359,4380.512820512821
4242.9355,0.9834273,1.0,0.2749685,0.6397771,1,0.0,0.0,0.22791107,0.0,0.0,0,0,0.0,0.0,0,0,94.0,0.0,536.0,4553.333333333334,3912.307692307693,4445.641025641026,4413.846153846154,4202.051282051282,4487.6923076923085,4362.564102564103,4293.846153846154,4308.717948717949,4552.307692307693,4287.179487179487,4134.871794871796,4138.461538461539,4413.846153846154
4243.092,0.9834273,1.0,0.2749685,0.6397771,0,0.0,0.0,0.0,0.0,0.0,0,0,0.0,0.0,0,0,114.0,0.0,536.0,4431.794871794872,3861.0256410256416,4402.051282051282,4385.641025641026,4215.8974358974365,4527.6923076923085,4398.974358974359,4336.410256410257,4369.2307692307695,4582.051282051282,4279.48717948718,4102.564102564103,4118.974358974359,4373.333333333334
4243.248,0.91783124,1.0,0.2551035,0.64802223,0,0.0,0.0,0.0,0.0,0.0,0,0,0.0,0.0,0,0,5.0,0.0,561.0,4431.794871794872,3880.512820512821,4398.974358974359,4397.948717948719,4215.8974358974365,4519.48717948718,4409.2307692307695,4351.794871794872,4374.358974358975,4595.8974358974365,4294.871794871796,4121.025641025642,4137.948717948719,4379.48717948718
4243.248,0.91783124,1.0,0.2551035,0.64802223,0,0.0,0.0,0.0,0.0,0.0,0,0,0.0,0.0,0,0,5.0,0.0,561.0,4431.794871794872,3880.512820512821,4398.974358974359,4397.948717948719,4215.8974358974365,4519.48717948718,4409.2307692307695,4351.794871794872,4374.358974358975,4595.8974358974365,4294.871794871796,4121.025641025642,4137.948717948719,4379.48717948718
4243.7485,0.89004505,1.0,0.23722681,0.6554411,0,0.0,0.0,0.0,0.0,0.0,0,0,0.0,0.0,0,0,69.0,0.0,561.0,4472.820512820514,3876.410256410257,4418.974358974359,4398.974358974359,4214.871794871796,4532.820512820514,4431.794871794872,4367.6923076923085,4372.307692307693,4603.589743589744,4311.794871794872,4153.333333333334,4133.333333333334,4382.051282051282
4243.7485,0.89004505,1.0,0.23722681,0.6554411,0,0.0,0.0,0.0,0.0,0.0,0,0,0.0,0.0,0,0,69.0,0.0,561.0,4472.820512820514,3876.410256410257,4418.974358974359,4398.974358974359,4214.871794871796,4532.820512820514,4431.794871794872,4367.6923076923085,4372.307692307693,4603.589743589744,4311.794871794872,4153.333333333334,4133.333333333334,4382.051282051282
4244.249,0.8420616,1.0,0.22819658,0.6620958,0,0.0,0.0,0.0,0.0,0.0,0,0,0.0,0.0,0,0,4.0,0.0,560.0,4511.794871794872,3896.9230769230776,4442.051282051282,4395.8974358974365,4218.461538461539,4540.512820512821,4462.051282051282,4394.358974358975,4378.974358974359,4649.2307692307695,4321.025641025642,4185.641025641026,4117.435897435898,4401.025641025642
4244.249,0.8420616,1.0,0.22819658,0.6620958,0,0.0,0.0,0.0,0.0,0.0,0,0,0.0,0.0,0,0,4.0,0.0,560.0,4511.794871794872,3896.9230769230776,4442.051282051282,4395.8974358974365,4218.461538461539,4540.512820512821,4462.051282051282,4394.358974358975,4378.974358974359,4649.2307692307695,4321.025641025642,4185.641025641026,4117.435897435898,4401.025641025642
4244.7495,0.7630928,1.0,0.22875373,0.66432446,0,0.0,0.0,0.0,0.0,0.0,0,0,0.0,0.0,0,0,68.0,0.0,560.0,4536.923076923077,3925.6410256410263,4472.307692307693,4413.333333333334,4232.307692307693,4536.923076923077,4461.025641025642,4387.179487179487,4369.2307692307695,4652.820512820514,4338.461538461539,4214.871794871796,4143.076923076924,4403.589743589744
4244.7495,0.7630928,1.0,0.22875373,0.66432446,0,0.0,0.0,0.0,0.0,0.0,0,0,0.0,0.0,0,0,68.0,0.0,560.0,4536.923076923077,3925.6410256410263,4472.307692307693,4413.333333333334,4232.307692307693,4536.923076923077,4461.025641025642,4387.179487179487,4369.2307692307695,4652.820512820514,4338.461538461539,4214.871794871796,4143.076923076924,4403.589743589744
4245.25,0.65919316,0.9971357,0.22925672,0.6621608,0,0.0,0.0,0.0,0.0,0.0,0,0,0.0,0.0,0,0,3.0,0.0,537.0,4575.384615384616,3934.358974358975,4449.2307692307695,4414.871794871796,4236.923076923077,4520.512820512821,4422.051282051282,4363.076923076924,4352.820512820514,4653.333333333334,4321.025641025642,4188.205128205129,4140.512820512821,4402.051282051282
4245.25,0.65919316,0.9971357,0.22925672,0.6621608,0,0.0,0.0,0.0,0.0,0.0,0,0,0.0,0.0,0,0,3.0,0.0,537.0,4575.384615384616,3934.358974358975,4449.2307692307695,4414.871794871796,4236.923076923077,4520.512820512821,4422.051282051282,4363.076923076924,4352.820512820514,4653.333333333334,4321.025641025642,4188.205128205129,4140.512820512821,4402.051282051282
4245.7505,0.58582044,0.9482274,0.22224647,0.6602127,0,0.0,0.0,0.0,0.0,0.0,0,0,0.0,0.0,0,0,67.0,0.0,537.0,4565.128205128206,3908.717948717949,4425.128205128206,4411.282051282052,4236.410256410257,4518.461538461539,4413.333333333334,4340.000000000001,4341.025641025642,4630.769230769231,4309.2307692307695,4150.769230769231,4128.205128205129,4432.307692307693
4245.7505,0.58582044,0.9482274,0.22224647,0.6602127,0,0.0,0.0,0.0,0.0,0.0,0,0,0.0,0.0,0,0,67.0,0.0,537.0,4565.128205128206,3908.717948717949,4425.128205128206,4411.282051282052,4236.410256410257,4518.461538461539,4413.333333333334,4340.000000000001,4341.025641025642,4630.769230769231,4309.2307692307695,4150.769230769231,4128.205128205129,4432.307692307693
4246.3447,0.53969944,0.89878124,0.22521159,0.6503645,0,0.0,0.0,0.0,0.0,0.0,0,0,0.0,0.0,1,0,14.0,0.0,538.0,4653.846153846154,3963.589743589744,4451.794871794872,4443.589743589744,4234.358974358975,4518.974358974359,4413.333333333334,4334.871794871796,4296.410256410257,4652.820512820514,4326.666666666667,4182.564102564103,4158.974358974359,4500.000000000001
4246.6885,0.53969944,0.89878124,0.22521159,0.6503645,0,0.0,0.0,0.0,0.0,0.5125547,0,0,0.0,0.0,0,0,58.0,0.0,0.0,4586.666666666667,3926.666666666667,4442.051282051282,4428.717948717949,4232.820512820514,4536.410256410257,4419.48717948718,4335.384615384616,4310.769230769231,4660.000000000001,4312.307692307693,4172.307692307693,4149.2307692307695,4500.512820512821
4246.8765,0.47018623,0.88776195,0.2348756,0.63996583,0,0.0,0.0,0.0,0.0,0.09867802,0,0,0.0,0.0,0,0,82.0,0.0,538.0,4598.974358974359,3930.7692307692314,4446.666666666667,4427.6923076923085,4232.307692307693,4526.666666666667,4411.794871794872,4335.8974358974365,4317.435897435898,4660.000000000001,4317.948717948719,4173.846153846154,4131.794871794872,4507.6923076923085
4247.1265,0.47018623,0.88776195,0.2348756,0.63996583,0,0.0,0.0,0.0,0.0,0.0,0,0,0.0,0.0,0,0,114.0,0.0,538.0,4612.307692307693,3929.2307692307695,4456.410256410257,4429.743589743591,4240.512820512821,4536.410256410257,4402.564102564103,4342.564102564103,4345.641025641026,4671.794871794872,4337.948717948719,4203.589743589744,4163.076923076924,4539.48717948718
4247.2515,0.46255448,0.8810747,0.23327568,0.630607,0,0.0,0.0,0.0,0.0,0.0,0,0,0.0,0.0,0,0,1.0,0.0,494.0,4609.743589743591,3907.1794871794878,4460.000000000001,4415.8974358974365,4217.948717948719,4523.589743589744,4426.666666666667,4345.128205128206,4333.846153846154,4655.384615384616,4324.102564102564,4198.974358974359,4137.435897435898,4538.974358974359
4247.2515,0.46255448,0.8810747,0.23327568,0.630607,0,0.0,0.0,0.0,0.0,0.0,0,0,0.0,0.0,0,0,1.0,0.0,494.0,4609.743589743591,3907.1794871794878,4460.000000000001,4415.8974358974365,4217.948717948719,4523.589743589744,4426.666666666667,4345.128205128206,4333.846153846154,4655.384615384616,4324.102564102564,4198.974358974359,4137.435897435898,4538.974358974359
4247.752,0.4902005,0.8747557,0.22519173,0.622184,0,0.0,0.0,0.0,0.0,0.0,0,0,0.0,0.0,0,0,65.0,0.0,494.0,4683.076923076924,3940.5128205128212,4509.2307692307695,4445.641025641026,4199.48717948718,4540.512820512821,4464.102564102564,4376.410256410257,4345.641025641026,4696.923076923077,4342.564102564103,4251.282051282052,4146.153846153847,4564.615384615385
4247.752,0.4902005,0.8747557,0.22519173,0.622184,0,0.0,0.0,0.0,0.0,0.0,0,0,0.0,0.0,0,0,65.0,0.0,494.0,4683.076923076924,3940.5128205128212,4509.2307692307695,4445.641025641026,4199.48717948718,4540.512820512821,4464.102564102564,4376.410256410257,4345.641025641026,4696.923076923077,4342.564102564103,4251.282051282052,4146.153846153847,4564.615384615385
4248.2524,0.5057271,0.87865436,0.2190354,0.6116679,0,0.0,0.0,0.0,0.0,0.0,0,0,0.0,0.0,0,0,0.0,0.0,490.0,4656.923076923077,3946.1538461538466,4500.000000000001,4445.128205128206,4221.538461538462,4542.051282051282,4443.076923076924,4374.358974358975,4359.48717948718,4701.538461538462,4319.48717948718,4242.051282051282,4154.358974358975,4538.974358974359
4248.2524,0.5057271,0.87865436,0.2190354,0.6116679,0,0.0,0.0,0.0,0.0,0.0,0,0,0.0,0.0,0,0,0.0,0.0,490.0,4656.923076923077,3946.1538461538466,4500.000000000001,4445.128205128206,4221.538461538462,4542.051282051282,4443.076923076924,4374.358974358975,4359.48717948718,4701.538461538462,4319.48717948718,4242.051282051282,4154.358974358975,4538.974358974359
4248.753,0.48908764,0.84388363,0.21913531,0.5958196,0,0.0,0.0,0.0,0.0,0.0,0,0,0.0,0.0,0,0,64.0,0.0,490.0,4658.974358974359,3949.2307692307695,4474.358974358975,4445.641025641026,4245.128205128206,4536.923076923077,4422.051282051282,4341.538461538462,4327.6923076923085,4663.589743589744,4293.846153846154,4200.000000000001,4143.589743589744,4535.8974358974365
4248.753,0.48908764,0.84388363,0.21913531,0.5958196,0,0.0,0.0,0.0,0.0,0.0,0,0,0.0,0.0,0,0,64.0,0.0,490.0,4658.974358974359,3949.2307692307695,4474.358974358975,4445.641025641026,4245.128205128206,4536.923076923077,4422.051282051282,4341.538461538462,4327.6923076923085,4663.589743589744,4293.846153846154,4200.000000000001,4143.589743589744,4535.8974358974365
4249.2534,0.43238732,0.80583423,0.22389142,0.5731027,0,0.0,0.0,0.0,0.0,0.0,0,0,0.0,0.0,0,0,128.0,0.0,505.0,4652.820512820514,3948.205128205129,4474.871794871796,4451.282051282052,4252.307692307693,4539.48717948718,4426.153846153847,4345.641025641026,4342.051282051282,4662.051282051282,4315.384615384616,4189.74358974359,4155.384615384616,4534.358974358975
4249.6284,0.43238732,0.80583423,0.22389142,0.5731027,0,0.0,0.0,0.0,0.0,0.22329128,0,0,0.0,0.0,0,0,47.0,0.0,0.0,4637.948717948719,3924.615384615385,4466.666666666667,4433.333333333334,4257.435897435898,4538.461538461539,4412.307692307693,4345.128205128206,4364.615384615385,4672.820512820514,4350.769230769231,4188.717948717949,4181.538461538462,4566.666666666667
4249.879,0.34676972,0.7555052,0.21786848,0.5526574,0,0.0,0.0,0.0,0.0,0.1962027,0,0,0.0,0.0,0,0,79.0,0.0,383.0,4639.48717948718,3947.692307692308,4463.076923076924,4437.435897435898,4251.282051282052,4525.128205128206,4396.410256410257,4335.384615384616,4356.923076923077,4666.666666666667,4328.205128205129,4184.102564102564,4154.871794871796,4555.384615384616
4250.129,0.34676972,0.7555052,0.21786848,0.5526574,0,0.0,0.0,0.0,0.0,0.19698383,0,0,0.0,0.0,0,0,111.0,0.0,383.0,4650.769230769231,3940.5128205128212,4462.564102564103,4433.333333333334,4249.74358974359,4536.410256410257,4403.076923076924,4344.615384615385,4365.641025641026,4672.820512820514,4352.820512820514,4184.615384615385,4189.2307692307695,4567.179487179488
4250.3794,0.32962745,0.7083787,0.21144089,0.54064184,0,0.0,0.0,0.23525378,0.0,0.0,0,0,0.0,0.0,0,0,14.0,0.0,538.0,4649.2307692307695,3922.564102564103,4476.410256410257,4364.615384615385,4266.153846153847,4539.48717948718,4426.666666666667,4376.410256410257,4404.615384615385,4703.589743589744,4392.307692307693,4225.128205128206,4231.282051282052,4568.205128205129
4250.6294,0.32962745,0.7083787,0.21144089,0.54064184,0,0.0,0.0,0.049814,0.0,0.0,0,0,0.0,0.0,0,0,46.0,0.0,0.0,4660.000000000001,3924.615384615385,4488.717948717949,4370.256410256411,4251.794871794872,4543.076923076924,4442.564102564103,4388.717948717949,4409.743589743591,4707.179487179488,4370.256410256411,4219.48717948718,4212.820512820514,4556.923076923077
4250.88,0.30109492,0.66463786,0.21060368,0.54524326,0,0.0,0.0,0.0,0.0,0.0,0,0,0.0,0.0,0,0,78.0,0.0,538.0,4750.256410256411,3967.692307692308,4507.179487179488,4403.589743589744,4238.461538461539,4526.666666666667,4416.410256410257,4354.871794871796,4368.205128205129,4696.923076923077,4381.538461538462,4233.333333333334,4222.051282051282,4586.153846153847
4251.13,0.30109492,0.66463786,0.21060368,0.54524326,0,0.0,0.0,0.0,0.0,0.38661093,0,0,0.0,0.0,0,0,110.0,0.0,538.0,4692.307692307693,3962.0512820512827,4490.769230769231,4403.589743589744,4244.615384615385,4540.000000000001,4430.769230769231,4372.307692307693,4376.410256410257,4693.333333333334,4362.051282051282,4217.435897435898,4196.923076923077,4562.051282051282
4251.38,0.26003987,0.6368146,0.21423063,0.5635252,0,0.0,0.0,0.0,0.0,0.3103152,0,0,0.0,0.0,0,0,13.0,0.0,464.0,4629.743589743591,3929.7435897435903,4474.358974358975,4390.256410256411,4249.74358974359,4541.025641025642,4438.974358974359,4381.538461538462,4382.564102564103,4701.538461538462,4344.102564102564,4200.512820512821,4166.153846153847,4556.410256410257
4251.6304,0.26003987,0.6368146,0.21423063,0.5635252,0,0.0,0.0,0.0,0.0,0.07017032,0,0,0.0,0.0,0,0,45.0,0.0,0.0,4633.333333333334,3957.435897435898,4476.410256410257,4417.948717948719,4253.333333333334,4553.333333333334,4426.666666666667,4373.846153846154,4390.256410256411,4701.538461538462,4345.128205128206,4200.000000000001,4172.820512820514,4541.538461538462
4251.8804,0.21896999,0.61516476,0.21183528,0.59012336,0,0.0,0.0,0.0,0.0,0.0,0,0,0.0,0.0,0,0,77.0,0.0,464.0,4566.153846153847,3975.3846153846157,4457.435897435898,4429.2307692307695,4272.820512820514,4554.358974358975,4410.769230769231,4355.384615384616,4376.410256410257,4704.102564102564,4324.102564102564,4168.205128205129,4158.461538461539,4490.769230769231
4251.8804,0.21896999,0.61516476,0.21183528,0.59012336,0,0.0,0.0,0.0,0.0,0.0,0,0,0.0,0.0,0,0,77.0,0.0,464.0,4566.153846153847,3975.3846153846157,4457.435897435898,4429.2307692307695,4272.820512820514,4554.358974358975,4410.769230769231,4355.384615384616,4376.410256410257,4704.102564102564,4324.102564102564,4168.205128205129,4158.461538461539,4490.769230769231
4252.256,0.24532473,0.5956392,0.20968153,0.6140608,0,0.0,0.0,0.0,0.0,0.0,0,0,0.0,0.0,0,0,125.0,0.0,464.0,4526.666666666667,3950.2564102564106,4446.153846153847,4428.717948717949,4273.333333333334,4557.435897435898,4426.153846153847,4371.282051282052,4382.051282051282,4684.102564102564,4304.102564102564,4154.871794871796,4140.512820512821,4475.384615384616
4252.256,0.24532473,0.5956392,0.20968153,0.6140608,0,0.0,0.0,0.0,0.0,0.0,0,0,0.0,0.0,0,0,125.0,0.0,464.0,4526.666666666667,3950.2564102564106,4446.153846153847,4428.717948717949,4273.333333333334,4557.435897435898,4426.153846153847,4371.282051282052,4382.051282051282,4684.102564102564,4304.102564102564,4154.871794871796,4140.512820512821,4475.384615384616
4252.7563,0.22132213,0.59732896,0.21340783,0.63560283,0,0.0,0.0,0.0,0.0,0.0,0,0,0.0,0.0,0,0,60.0,0.0,0.0,4721.538461538462,3972.820512820513,4505.641025641026,4448.717948717949,4240.512820512821,4535.384615384616,4427.179487179487,4383.076923076924,4369.743589743591,4685.641025641026,4368.205128205129,4221.025641025642,4201.025641025642,4560.512820512821
4253.132,0.22132213,0.59732896,0.21340783,0.63560283,0,0.0,0.0,0.0,0.0,0.6264083,0,0,0.0,0.0,0,0,108.0,0.0,505.0,5050.256410256411,3935.3846153846157,4732.307692307693,4479.48717948718,4126.666666666667,4570.769230769231,4622.564102564103,4655.384615384616,4621.025641025642,4982.051282051283,4654.358974358975,4567.179487179488,4487.179487179488,4740.000000000001
4253.382,0.33219802,0.59886044,0.21794116,0.61975545,0,0.0,0.0,0.3073392,0.0,0.0,0,0,0.0,0.0,0,0,11.0,0.0,382.0,5193.333333333334,4000.0000000000005,4892.820512820514,4525.641025641026,4144.102564102564,4664.615384615386,4846.153846153847,4920.000000000001,4812.307692307693,5199.487179487181,4826.666666666667,4798.461538461539,4633.333333333334,4790.256410256411
4253.632,0.33219802,0.59886044,0.21794116,0.61975545,0,0.0,0.0,0.0,0.0,0.0,0,0,0.0,0.0,0,0,43.0,0.0,0.0,5323.589743589744,4175.384615384616,5015.384615384616,4588.205128205129,4271.794871794872,4753.333333333334,4881.025641025642,5072.307692307693,4926.153846153847,5330.769230769231,4929.2307692307695,4949.743589743591,4744.102564102564,4859.48717948718
4253.7573,0.5023343,0.60023886,0.22712208,0.5845333,0,0.0,0.0,0.0,0.0,0.0,0,0,0.0,0.0,0,0,59.0,0.0,0.0,5349.2307692307695,4232.307692307693,5024.102564102564,4618.461538461539,4280.000000000001,4728.205128205129,4847.6923076923085,5057.435897435898,4908.717948717949,5333.846153846154,4926.153846153847,4972.820512820514,4747.179487179488,4885.128205128206
4253.7573,0.5023343,0.60023886,0.22712208,0.5845333,0,0.0,0.0,0.0,0.0,0.0,0,0,0.0,0.0,0,0,59.0,0.0,0.0,5349.2307692307695,4232.307692307693,5024.102564102564,4618.461538461539,4280.000000000001,4728.205128205129,4847.6923076923085,5057.435897435898,4908.717948717949,5333.846153846154,4926.153846153847,4972.820512820514,4747.179487179488,4885.128205128206
4254.258,0.6520542,0.6014794,0.24466711,0.53827304,0,0.0,0.0,0.0,0.0,0.0,0,0,0.0,0.0,0,0,123.0,0.0,379.0,5124.615384615386,4230.769230769231,4834.871794871796,4573.333333333334,4383.589743589744,4660.000000000001,4665.641025641026,4778.461538461539,4644.615384615385,5057.948717948719,4654.358974358975,4721.025641025642,4496.923076923077,4810.769230769231
4254.258,0.6520542,0.6014794,0.24466711,0.53827304,0,0.0,0.0,0.0,0.0,0.0,0,0,0.0,0.0,0,0,123.0,0.0,379.0,5124.615384615386,4230.769230769231,4834.871794871796,4573.333333333334,4383.589743589744,4660.000000000001,4665.641025641026,4778.461538461539,4644.615384615385,5057.948717948719,4654.358974358975,4721.025641025642,4496.923076923077,4810.769230769231
4254.758,0.78380764,0.60259587,0.26791972,0.4937015,0,0.0,0.0,0.0,0.0,0.0,0,0,0.0,0.0,0,0,58.0,0.0,0.0,4827.6923076923085,4095.3846153846157,4588.717948717949,4497.435897435898,4335.384615384616,4546.153846153847,4472.307692307693,4493.846153846154,4428.205128205129,4774.871794871796,4423.589743589744,4396.923076923077,4246.666666666667,4711.794871794872
4254.758,0.78380764,0.60259587,0.26791972,0.4937015,0,0.0,0.0,0.0,0.0,0.0,0,0,0.0,0.0,0,0,58.0,0.0,0.0,4827.6923076923085,4095.3846153846157,4588.717948717949,4497.435897435898,4335.384615384616,4546.153846153847,4472.307692307693,4493.846153846154,4428.205128205129,4774.871794871796,4423.589743589744,4396.923076923077,4246.666666666667,4711.794871794872
4255.2583,0.8997507,0.60360074,0.3217137,0.44549885,0,0.0,0.0,0.0,0.0,0.0,0,0,0.0,0.0,0,0,122.0,0.0,532.0,4442.564102564103,3941.538461538462,4377.948717948719,4417.948717948719,4314.871794871796,4524.615384615385,4358.974358974359,4288.205128205129,4269.2307692307695,4576.410256410257,4215.384615384616,4119.48717948718,4032.820512820513,4571.794871794872
4255.2583,0.8997507,0.60360074,0.3217137,0.44549885,0,0.0,0.0,0.0,0.0,0.0,0,0,0.0,0.0,0,0,122.0,0.0,532.0,4442.564102564103,3941.538461538462,4377.948717948719,4417.948717948719,4314.871794871796,4524.615384615385,4358.974358974359,4288.205128205129,4269.2307692307695,4576.410256410257,4215.384615384616,4119.48717948718,4032.820512820513,4571.794871794872
4255.759,1.0,0.60450506,0.42828706,0.39008734,0,0.0,0.0,0.0,0.0,0.0,0,0,0.0,0.0,0,0,57.0,0.0,0.0,4355.384615384616,3882.564102564103,4342.564102564103,4409.2307692307695,4297.435897435898,4492.307692307693,4310.256410256411,4235.384615384616,4251.794871794872,4541.025641025642,4227.179487179487,4063.589743589744,4056.9230769230776,4549.2307692307695
4255.759,1.0,0.60450506,0.42828706,0.39008734,0,0.0,0.0,0.0,0.0,0.0,0,0,0.0,0.0,0,0,57.0,0.0,0.0,4355.384615384616,3882.564102564103,4342.564102564103,4409.2307692307695,4297.435897435898,4492.307692307693,4310.256410256411,4235.384615384616,4251.794871794872,4541.025641025642,4227.179487179487,4063.589743589744,4056.9230769230776,4549.2307692307695
4256.3843,1.0,0.60531896,0.5875983,0.3360297,0,0.0,0.0,0.0,0.0,0.0,0,0,0.42956245,0.0,0,0,8.0,0.0,510.0,4366.153846153847,3876.410256410257,4339.48717948718,4400.000000000001,4276.410256410257,4488.717948717949,4297.435897435898,4202.051282051282,4232.820512820514,4537.948717948719,4202.564102564103,4022.0512820512827,4045.6410256410263,4480.000000000001
4256.635,1.0,0.60531896,0.5875983,0.3360297,0,0.0,0.0,0.0,0.0,0.070092745,0,0,0.0,0.0,0,0,40.0,0.0,0.0,4436.410256410257,3927.1794871794878,4363.076923076924,4424.102564102564,4262.564102564103,4504.615384615385,4315.8974358974365,4210.769230769231,3808.205128205129,4525.128205128206,4166.153846153847,4001.538461538462,3998.9743589743593,4454.358974358975
4256.885,1.0,0.6060515,0.6666667,0.2873424,0,0.0,0.0,0.0,0.0,0.0,0,0,0.22580193,0.0,0,0,72.0,0.0,511.0,4526.666666666667,3949.7435897435903,4382.564102564103,4429.743589743591,4253.846153846154,4494.358974358975,4313.846153846154,4222.564102564103,3843.589743589744,4540.512820512821,4198.461538461539,4034.358974358975,4050.2564102564106,4489.743589743591
4257.1353,1.0,0.6060515,0.6666667,0.2873424,0,0.0,0.0,0.0,0.0,0.0,0,0,0.2663448,0.0,1,0,104.0,0.0,503.0,4504.615384615385,3925.6410256410263,4383.076923076924,4410.256410256411,4234.871794871796,4488.717948717949,4309.2307692307695,4230.256410256411,3910.7692307692314,4556.923076923077,4198.461538461539,4035.3846153846157,4050.7692307692314,4458.974358974359
4257.3853,1.0,0.6067108,0.6666667,0.24362881,0,0.0,0.0,0.0,0.0,0.0,0,0,0.18345344,0.0,0,0,7.0,0.0,482.0,4533.333333333334,3920.5128205128212,4405.641025641026,4420.000000000001,4247.179487179487,4511.794871794872,4355.8974358974365,4281.538461538462,4005.1282051282055,4589.2307692307695,4251.282051282052,4074.358974358975,4085.6410256410263,4462.564102564103
4257.6353,1.0,0.6067108,0.6666667,0.24362881,0,0.0,0.0,0.0,0.0,0.0,0,0,0.0,0.0,0,0,39.0,0.0,0.0,4530.769230769231,3903.589743589744,4412.307692307693,4408.717948717949,4234.871794871796,4507.179487179488,4365.641025641026,4278.974358974359,4013.333333333334,4580.512820512821,4225.128205128206,4076.410256410257,4075.3846153846157,4455.8974358974365
4257.7607,1.0,0.60730416,0.6666667,0.2397692,0,0.0,0.0,0.0,0.0,0.0,0,0,0.0,0.0,0,0,55.0,0.0,0.0,4526.153846153847,3906.1538461538466,4400.000000000001,4396.923076923077,4238.461538461539,4509.2307692307695,4369.743589743591,4280.000000000001,4030.2564102564106,4580.000000000001,4245.641025641026,4074.358974358975,4074.8717948717954,4458.461538461539
4257.7607,1.0,0.60730416,0.6666667,0.2397692,0,0.0,0.0,0.0,0.0,0.0,0,0,0.0,0.0,0,0,55.0,0.0,0.0,4526.153846153847,3906.1538461538466,4400.000000000001,4396.923076923077,4238.461538461539,4509.2307692307695,4369.743589743591,4280.000000000001,4030.2564102564106,4580.000000000001,4245.641025641026,4074.358974358975,4074.8717948717954,4458.461538461539
4258.261,1.0,0.60783815,0.6666667,0.2711006,0,0.0,0.0,0.0,0.0,0.0,0,0,0.0,0.0,0,0,119.0,0.0,379.0,4506.666666666667,3897.435897435898,4410.256410256411,4396.410256410257,4233.333333333334,4524.102564102564,4383.076923076924,4328.717948717949,4172.307692307693,4644.615384615385,4292.307692307693,4120.512820512821,4145.641025641026,4475.384615384616
4258.261,1.0,0.60783815,0.6666667,0.2711006,0,0.0,0.0,0.0,0.0,0.0,0,0,0.0,0.0,0,0,119.0,0.0,379.0,4506.666666666667,3897.435897435898,4410.256410256411,4396.410256410257,4233.333333333334,4524.102564102564,4383.076923076924,4328.717948717949,4172.307692307693,4644.615384615385,4292.307692307693,4120.512820512821,4145.641025641026,4475.384615384616
4258.761,0.97650576,0.60831875,0.6666667,0.29928717,0,0.0,0.0,0.0,0.0,0.0,0,0,0.0,0.0,0,0,54.0,0.0,0.0,4523.589743589744,3895.3846153846157,4430.256410256411,4413.846153846154,4244.102564102564,4531.282051282052,4395.8974358974365,4329.743589743591,4245.641025641026,4662.564102564103,4332.307692307693,4161.538461538462,4198.974358974359,4507.6923076923085
4258.761,0.97650576,0.60831875,0.6666667,0.29928717,0,0.0,0.0,0.0,0.0,0.0,0,0,0.0,0.0,0,0,54.0,0.0,0.0,4523.589743589744,3895.3846153846157,4430.256410256411,4413.846153846154,4244.102564102564,4531.282051282052,4395.8974358974365,4329.743589743591,4245.641025641026,4662.564102564103,4332.307692307693,4161.538461538462,4198.974358974359,4507.6923076923085
4259.2617,0.91178155,0.5753404,0.6666667,0.324646,0,0.0,0.0,0.0,0.0,0.0,0,0,0.0,0.0,0,0,118.0,0.0,538.0,4517.948717948719,3857.9487179487182,4476.410256410257,4398.461538461539,4212.820512820514,4539.48717948718,4460.512820512821,4399.48717948718,4324.102564102564,4705.128205128206,4382.051282051282,4227.179487179487,4215.8974358974365,4504.102564102564
4259.2617,0.91178155,0.5753404,0.6666667,0.324646,0,0.0,0.0,0.0,0.0,0.0,0,0,0.0,0.0,0,0,118.0,0.0,538.0,4517.948717948719,3857.9487179487182,4476.410256410257,4398.461538461539,4212.820512820514,4539.48717948718,4460.512820512821,4399.48717948718,4324.102564102564,4705.128205128206,4382.051282051282,4227.179487179487,4215.8974358974365,4504.102564102564
4259.887,0.9532818,0.54566485,0.6666667,0.34745914,0,0.0,0.0,0.31919667,0.0,0.0,0,0,0.0,0.0,0,0,69.0,0.0,557.0,5089.743589743591,4021.0256410256416,4936.410256410257,4556.410256410257,4245.128205128206,4714.358974358975,4837.948717948719,5007.179487179488,4767.179487179488,5300.000000000001,4811.282051282052,4861.025641025642,4644.102564102564,4744.102564102564
4260.1377,0.9532818,0.54566485,0.6666667,0.34745914,0,0.0,0.0,0.0,0.0,0.15174706,0,0,0.0,0.0,0,0,101.0,0.0,448.0,5240.512820512821,4186.153846153847,5041.538461538462,4642.051282051282,4301.538461538462,4704.615384615386,4856.410256410257,5057.948717948719,4693.846153846154,5345.128205128206,4778.461538461539,4943.589743589744,4679.48717948718,4803.589743589744
4260.3877,1.0,0.51895684,0.6666667,0.36863396,0,0.0,0.0,0.0,0.0,0.09189276,0,0,0.0,0.0,0,0,4.0,0.0,560.0,5265.641025641026,4356.410256410257,5054.871794871796,4690.256410256411,4421.025641025642,4749.2307692307695,4844.102564102564,5004.615384615386,4633.333333333334,5336.410256410257,4759.48717948718,4924.615384615386,4669.2307692307695,4814.871794871796
4260.638,1.0,0.51895684,0.6666667,0.36863396,0,0.0,0.0,0.2057325,0.0,0.0,0,0,0.0,0.0,0,0,36.0,0.0,0.0,5156.410256410257,4363.076923076924,4932.307692307693,4706.153846153847,4464.102564102564,4699.48717948718,4727.179487179488,4781.538461538462,4477.435897435898,5196.410256410257,4633.846153846154,4735.8974358974365,4536.410256410257,4761.538461538462
4260.888,1.0,0.49491963,0.6405369,0.38768542,0,0.0,0.0,0.24653599,0.0,0.0,0,0,0.0,0.0,0,0,68.0,0.0,556.0,4970.769230769231,4294.358974358975,4674.871794871796,4657.948717948719,4441.025641025642,4616.410256410257,4583.589743589744,4573.846153846154,4309.2307692307695,4991.794871794872,4473.846153846154,4497.435897435898,4345.641025641026,4682.051282051282
4261.1387,1.0,0.49491963,0.6405369,0.38768542,0,0.0,0.0,0.0,0.0,0.23908985,0,0,0.0,0.0,0,0,100.0,0.0,490.0,4777.948717948719,4198.461538461539,4557.948717948719,4600.000000000001,4390.256410256411,4553.333333333334,4425.128205128206,4397.948717948719,4216.410256410257,4801.025641025642,4348.717948717949,4326.153846153847,4178.974358974359,4620.512820512821
4261.3887,1.0,0.47328615,0.60492826,0.41041,0,0.0,0.0,0.0,0.0,0.07994628,0,0,0.0,0.0,0,0,3.0,0.0,540.0,4639.48717948718,4109.2307692307695,4464.102564102564,4536.410256410257,4336.923076923077,4491.794871794872,4271.282051282052,4269.74358974359,4171.282051282052,4664.102564102564,4238.974358974359,4190.769230769231,4090.7692307692314,4567.6923076923085
4261.639,1.0,0.47328615,0.60492826,0.41041,0,0.0,0.0,0.0,0.0,0.0,0,0,0.0,0.0,0,0,35.0,0.0,0.0,4507.6923076923085,4019.48717948718,4387.179487179487,4473.333333333334,4303.076923076924,4462.564102564103,4249.2307692307695,4201.538461538462,4153.333333333334,4556.410256410257,4185.128205128206,4071.2820512820517,4017.9487179487182,4521.025641025642
4261.764,1.0,0.453816,0.5751678,0.43057382,0,0.0,0.0,0.0,0.0,0.0,0,0,0.0,0.0,0,0,51.0,0.0,0.0,4477.435897435898,3993.333333333334,4367.179487179487,4451.282051282052,4280.000000000001,4445.641025641026,4247.6923076923085,4200.512820512821,4172.307692307693,4534.871794871796,4189.2307692307695,4046.666666666667,4025.1282051282055,4508.205128205129
4261.764,1.0,0.453816,0.5751678,0.43057382,0,0.0,0.0,0.0,0.0,0.0,0,0,0.0,0.0,0,0,51.0,0.0,0.0,4477.435897435898,3993.333333333334,4367.179487179487,4451.282051282052,4280.000000000001,4445.641025641026,4247.6923076923085,4200.512820512821,4172.307692307693,4534.871794871796,4189.2307692307695,4046.666666666667,4025.1282051282055,4508.205128205129
4262.2646,1.0,0.4362929,0.5483854,0.45280075,0,0.0,0.0,0.0,0.0,0.0,0,0,0.0,0.0,0,0,115.0,0.0,377.0,4395.8974358974365,3913.8461538461543,4336.923076923077,4403.076923076924,4235.384615384616,4445.128205128206,4264.615384615385,4188.717948717949,4227.6923076923085,4491.794871794872,4164.615384615385,3988.717948717949,4007.1794871794878,4453.333333333334
4262.2646,1.0,0.4362929,0.5483854,0.45280075,0,0.0,0.0,0.0,0.0,0.0,0,0,0.0,0.0,0,0,115.0,0.0,377.0,4395.8974358974365,3913.8461538461543,4336.923076923077,4403.076923076924,4235.384615384616,4445.128205128206,4264.615384615385,4188.717948717949,4227.6923076923085,4491.794871794872,4164.615384615385,3988.717948717949,4007.1794871794878,4453.333333333334
4262.89,1.0,0.42052206,0.51828766,0.47365203,0,0.0,0.0,0.0,0.0,0.37769094,0,0,0.0,0.0,0,0,66.0,0.0,434.0,4383.589743589744,3877.435897435898,4377.948717948719,4379.48717948718,4235.8974358974365,4476.923076923077,4327.6923076923085,4260.000000000001,4329.2307692307695,4555.8974358974365,4231.794871794872,4041.538461538462,4068.717948717949,4446.153846153847
4263.14,1.0,0.42052206,0.51828766,0.47365203,0,0.0,0.0,0.0,0.0,0.0,0,0,0.0,0.0,0,0,98.0,0.0,537.0,4393.333333333334,3858.461538461539,4382.051282051282,4372.820512820514,4217.435897435898,4486.666666666667,4352.307692307693,4277.435897435898,4342.564102564103,4568.717948717949,4248.205128205129,4064.1025641025644,4084.1025641025644,4434.871794871796
4263.265,1.0,0.40632835,0.48891178,0.49156958,0,0.0,0.0,0.0,0.0,0.0,0,0,0.0,0.0,0,0,114.0,0.0,537.0,4408.205128205129,3868.717948717949,4384.102564102564,4368.717948717949,4217.948717948719,4475.384615384616,4343.589743589744,4273.333333333334,4334.871794871796,4553.333333333334,4244.615384615385,4078.9743589743593,4080.5128205128212,4431.282051282052
4263.265,1.0,0.40632835,0.48891178,0.49156958,0,0.0,0.0,0.0,0.0,0.0,0,0,0.0,0.0,0,0,114.0,0.0,537.0,4408.205128205129,3868.717948717949,4384.102564102564,4368.717948717949,4217.948717948719,4475.384615384616,4343.589743589744,4273.333333333334,4334.871794871796,4553.333333333334,4244.615384615385,4078.9743589743593,4080.5128205128212,4431.282051282052
4263.8906,1.0,0.39355397,0.46135047,0.50769526,0,0.0,0.0,0.0,0.0,0.0,0,0,0.0,0.42908573,0,0,65.0,0.0,493.0,4406.666666666667,3846.1538461538466,4401.538461538462,4352.307692307693,4194.358974358975,4472.820512820514,4364.615384615385,4285.128205128206,4347.179487179487,4575.384615384616,4246.666666666667,4101.025641025642,4087.692307692308,4415.384615384616
4264.141,1.0,0.39355397,0.46135047,0.50769526,0,0.0,0.0,0.0,0.0,0.0,0,0,0.0,0.2993251,0,0,97.0,0.0,459.0,4418.461538461539,3861.538461538462,4402.564102564103,4354.871794871796,4197.948717948719,4475.384615384616,4360.512820512821,4277.435897435898,4349.2307692307695,4591.794871794872,4261.025641025642,4108.717948717949,4102.051282051282,4411.794871794872
4264.391,1.0,0.38205707,0.436545,0.5222084,0,0.0,0.0,0.0,0.0,0.0,0,0,0.0,0.0,0,0,0.0,0.0,488.0,4460.512820512821,3887.1794871794878,4431.794871794872,4380.000000000001,4205.641025641026,4491.794871794872,4375.384615384616,4309.2307692307695,4384.615384615385,4617.948717948719,4302.564102564103,4153.333333333334,4141.025641025642,4434.358974358975
4264.391,1.0,0.38205707,0.436545,0.5222084,0,0.0,0.0,0.0,0.0,0.0,0,0,0.0,0.0,0,0,0.0,0.0,488.0,4460.512820512821,3887.1794871794878,4431.794871794872,4380.000000000001,4205.641025641026,4491.794871794872,4375.384615384616,4309.2307692307695,4384.615384615385,4617.948717948719,4302.564102564103,4153.333333333334,4141.025641025642,4434.358974358975
4264.8916,1.0,0.37170982,0.41304502,0.53444093,0,0.0,0.0,0.0,0.0,0.0,0,0,0.0,0.32517612,0,0,64.0,0.0,488.0,4454.871794871796,3873.8461538461543,4421.538461538462,4379.48717948718,4198.974358974359,4496.923076923077,4388.717948717949,4310.256410256411,4360.000000000001,4601.538461538462,4276.410256410257,4146.666666666667,4111.794871794872,4423.076923076924
4265.0166,1.0,0.37170982,0.41304502,0.53444093,0,0.0,0.0,0.0,0.0,0.0,0,0,0.0,0.0,0,0,80.0,0.0,507.0,4475.384615384616,3874.358974358975,4442.051282051282,4381.538461538462,4208.205128205129,4507.6923076923085,4406.153846153847,4338.974358974359,4386.666666666667,4630.256410256411,4295.8974358974365,4153.333333333334,4136.410256410257,4428.717948717949
4265.267,0.98834014,0.36829382,0.39189437,0.53866076,0,0.0,0.0,0.0,0.0,0.0,0,0,0.0,0.0,0,0,112.0,0.0,507.0,4529.2307692307695,3873.333333333334,4491.794871794872,4395.384615384616,4185.128205128206,4516.923076923077,4462.051282051282,4415.384615384616,4444.615384615385,4691.282051282052,4340.512820512821,4220.512820512821,4182.051282051282,4445.128205128206
4265.6426,0.98834014,0.36829382,0.39189437,0.53866076,0,0.0,0.0,0.21553597,0.0,0.0,0,0,0.0,0.0,0,0,31.0,0.0,0.0,4690.769230769231,3916.9230769230776,4626.666666666667,4425.641025641026,4169.2307692307695,4560.000000000001,4618.974358974359,4622.051282051282,4599.48717948718,4886.153846153847,4517.948717948719,4422.564102564103,4312.820512820514,4520.512820512821
4265.8926,1.0,0.36520317,0.3740331,0.5368101,0,0.0,0.0,0.0,0.0,0.072044015,0,0,0.0,0.0,0,0,63.0,0.0,0.0,4856.410256410257,3959.48717948718,4753.333333333334,4473.333333333334,4181.538461538462,4594.871794871796,4743.589743589744,4779.48717948718,4686.666666666667,5034.358974358975,4631.282051282052,4589.2307692307695,4433.846153846154,4599.48717948718
4266.1426,1.0,0.36520317,0.3740331,0.5368101,0,0.0,0.0,0.0,0.0,1.0,0,0,0.0,0.0,0,0,95.0,0.0,381.0,5133.333333333334,4124.102564102564,4869.2307692307695,4570.256410256411,4208.205128205129,4598.461538461539,4745.641025641026,4780.512820512821,4627.6923076923085,5053.333333333334,4634.871794871796,4665.641025641026,4447.179487179487,4674.871794871796
4266.393,1.0,0.3624216,0.35327113,0.5416679,0,0.0,0.0,0.0,0.0,0.5016471,0,0,0.0,0.0,0,0,127.0,0.0,381.0,4989.2307692307695,4136.410256410257,4828.717948717949,4554.871794871796,4252.307692307693,4601.025641025642,4702.564102564103,4696.410256410257,4520.512820512821,4993.333333333334,4538.461538461539,4588.205128205129,4364.102564102564,4643.076923076924
4266.643,1.0,0.3624216,0.35327113,0.5416679,0,0.0,0.0,0.0,0.0,0.055449482,0,0,0.0,0.0,0,0,30.0,0.0,0.0,4892.307692307693,4137.948717948719,4734.871794871796,4541.538461538462,4308.205128205129,4587.179487179488,4603.076923076924,4562.564102564103,4445.128205128206,4916.410256410257,4474.871794871796,4502.564102564103,4333.333333333334,4648.205128205129
4266.8936,1.0,0.35991818,0.33520868,0.54610956,0,0.0,0.0,0.0,0.0,0.066413194,0,0,0.0,0.0,0,0,62.0,0.0,0.0,4762.564102564103,4082.0512820512827,4608.717948717949,4490.769230769231,4294.871794871796,4552.820512820514,4488.717948717949,4386.153846153847,4317.435897435898,4768.205128205129,4338.461538461539,4325.128205128206,4184.615384615385,4585.641025641026
4267.1436,1.0,0.35991818,0.33520868,0.54610956,0,0.0,0.0,0.0,0.0,0.06387907,0,0,0.0,0.0,0,0,94.0,0.0,535.0,4642.564102564103,4041.0256410256416,4504.615384615385,4456.923076923077,4274.871794871796,4516.923076923077,4403.589743589744,4293.846153846154,4257.948717948719,4641.025641025642,4230.769230769231,4192.820512820514,4061.0256410256416,4529.743589743591
4267.394,1.0,0.3576651,0.32666305,0.54354686,0,0.0,0.0,0.0,0.0,0.5504098,0,0,0.0,0.0,0,0,126.0,0.0,535.0,4554.871794871796,3993.333333333334,4429.2307692307695,4437.948717948719,4274.871794871796,4491.282051282052,4338.974358974359,4242.051282051282,4249.74358974359,4597.435897435898,4196.410256410257,4111.282051282052,4034.8717948717954,4490.769230769231
4267.519,1.0,0.3576651,0.32666305,0.54354686,0,0.0,0.0,0.0,0.0,0.0,0,0,0.0,0.0,0,0,13.0,0.0,462.0,4451.794871794872,3985.1282051282055,4395.8974358974365,4427.179487179487,4287.6923076923085,4505.128205128206,4333.333333333334,4226.153846153847,4261.025641025642,4586.666666666667,4177.948717948719,4059.48717948718,4026.1538461538466,4447.179487179487
4267.769,1.0,0.35563734,0.32440013,0.54124045,0,0.0,0.0,0.0,0.0,0.0,0,0,0.0,0.0,0,0,45.0,0.0,0.0,4380.000000000001,3905.6410256410263,4348.205128205129,4383.076923076924,4258.974358974359,4485.128205128206,4314.358974358975,4218.974358974359,4280.512820512821,4574.871794871796,4187.6923076923085,4032.820512820513,4038.461538461539,4435.8974358974365
4267.769,1.0,0.35563734,0.32440013,0.54124045,0,0.0,0.0,0.0,0.0,0.0,0,0,0.0,0.0,0,0,45.0,0.0,0.0,4380.000000000001,3905.6410256410263,4348.205128205129,4383.076923076924,4258.974358974359,4485.128205128206,4314.358974358975,4218.974358974359,4280.512820512821,4574.871794871796,4187.6923076923085,4032.820512820513,4038.461538461539,4435.8974358974365
4268.426,1.0,0.35381234,0.328966,0.5391648,0,0.0,0.0,0.0,0.0,0.0,0,0,0.0,0.0,1,0,0.0,0.0,486.0,4687.6923076923085,3956.9230769230776,4428.717948717949,4421.538461538462,4214.871794871796,4459.48717948718,4327.6923076923085,4230.256410256411,4285.128205128206,4537.435897435898,4250.769230769231,4108.205128205129,4104.615384615385,4523.589743589744
4268.645,1.0,0.35381234,0.328966,0.5391648,0,0.0,0.0,0.23189631,0.0,0.0,0,0,0.0,0.0,1,0,28.0,0.0,0.0,4672.820512820514,3961.538461538462,4445.128205128206,4429.743589743591,4204.102564102564,4440.512820512821,4320.000000000001,4247.6923076923085,4294.358974358975,4540.000000000001,4272.307692307693,4130.256410256411,4128.205128205129,4520.512820512821
4268.77,0.99400395,0.35216984,0.33334646,0.5363867,0,0.0,0.0,0.0,0.0,0.0,0,0,0.0,0.0,0,0,44.0,0.0,0.0,4629.2307692307695,3933.8461538461543,4424.102564102564,4413.333333333334,4211.282051282052,4463.076923076924,4357.948717948719,4290.769230769231,4351.794871794872,4583.589743589744,4281.025641025642,4120.000000000001,4126.666666666667,4504.615384615385
4268.77,0.99400395,0.35216984,0.33334646,0.5363867,0,0.0,0.0,0.0,0.0,0.0,0,0,0.0,0.0,0,0,44.0,0.0,0.0,4629.2307692307695,3933.8461538461543,4424.102564102564,4413.333333333334,4211.282051282052,4463.076923076924,4357.948717948719,4290.769230769231,4351.794871794872,4583.589743589744,4281.025641025642,4120.000000000001,4126.666666666667,4504.615384615385
4269.2705,0.8576641,0.3506916,0.3425645,0.5326461,0,0.0,0.0,0.0,0.0,0.0,0,0,0.0,0.0,0,0,108.0,0.0,505.0,4565.128205128206,3891.2820512820517,4409.2307692307695,4384.102564102564,4202.564102564103,4486.153846153847,4371.282051282052,4310.769230769231,4358.974358974359,4595.8974358974365,4273.333333333334,4115.8974358974365,4120.000000000001,4487.6923076923085
4269.2705,0.8576641,0.3506916,0.3425645,0.5326461,0,0.0,0.0,0.0,0.0,0.0,0,0,0.0,0.0,0,0,108.0,0.0,505.0,4565.128205128206,3891.2820512820517,4409.2307692307695,4384.102564102564,4202.564102564103,4486.153846153847,4371.282051282052,4310.769230769231,4358.974358974359,4595.8974358974365,4273.333333333334,4115.8974358974365,4120.000000000001,4487.6923076923085
4269.771,0.84129226,0.34936118,0.35833192,0.52671707,0,0.0,0.0,0.0,0.0,0.0,0,0,0.0,0.0,0,0,43.0,0.0,0.0,4783.076923076924,3777.9487179487182,4623.076923076924,4357.435897435898,4094.358974358975,4541.025641025642,4598.974358974359,4661.025641025642,4658.461538461539,4959.48717948718,4583.589743589744,4461.538461538462,4411.794871794872,4626.153846153847
4269.771,0.84129226,0.34936118,0.35833192,0.52671707,0,0.0,0.0,0.0,0.0,0.0,0,0,0.0,0.0,0,0,43.0,0.0,0.0,4783.076923076924,3777.9487179487182,4623.076923076924,4357.435897435898,4094.358974358975,4541.025641025642,4598.974358974359,4661.025641025642,4658.461538461539,4959.48717948718,4583.589743589744,4461.538461538462,4411.794871794872,4626.153846153847
4270.2715,0.9503372,0.3481638,0.38100645,0.5190224,0,0.0,0.0,0.0,0.0,0.0,0,0,0.0,0.0,0,0,107.0,0.0,381.0,5038.974358974359,4063.589743589744,4890.256410256411,4521.538461538462,4153.333333333334,4610.769230769231,4777.948717948719,5018.461538461539,4887.6923076923085,5279.487179487181,4846.666666666667,4798.974358974359,4645.128205128206,4746.666666666667
4270.2715,0.9503372,0.3481638,0.38100645,0.5190224,0,0.0,0.0,0.0,0.0,0.0,0,0,0.0,0.0,0,0,107.0,0.0,381.0,5038.974358974359,4063.589743589744,4890.256410256411,4521.538461538462,4153.333333333334,4610.769230769231,4777.948717948719,5018.461538461539,4887.6923076923085,5279.487179487181,4846.666666666667,4798.974358974359,4645.128205128206,4746.666666666667
4270.772,1.0,0.34708616,0.45065814,0.48333305,0,0.0,0.0,0.0,0.0,0.0,0,0,0.0,0.0,0,0,42.0,0.0,0.0,4847.6923076923085,4123.589743589744,4685.128205128206,4521.538461538462,4255.8974358974365,4580.000000000001,4615.8974358974365,4682.564102564103,4584.615384615385,4971.794871794872,4520.000000000001,4507.179487179488,4341.025641025642,4670.769230769231
4270.772,1.0,0.34708616,0.45065814,0.48333305,0,0.0,0.0,0.0,0.0,0.0,0,0,0.0,0.0,0,0,42.0,0.0,0.0,4847.6923076923085,4123.589743589744,4685.128205128206,4521.538461538462,4255.8974358974365,4580.000000000001,4615.8974358974365,4682.564102564103,4584.615384615385,4971.794871794872,4520.000000000001,4507.179487179488,4341.025641025642,4670.769230769231
4271.272,1.0,0.34611627,0.5719063,0.4072117,0,0.0,0.0,0.0,0.0,0.0,0,0,0.0,0.0,0,0,106.0,0.0,533.0,4694.358974358975,3989.7435897435903,4539.48717948718,4492.307692307693,4183.076923076924,4495.384615384616,4508.717948717949,4520.000000000001,4429.743589743591,4803.589743589744,4404.102564102564,4366.666666666667,4167.6923076923085,4617.948717948719
4271.272,1.0,0.34611627,0.5719063,0.4072117,0,0.0,0.0,0.0,0.0,0.0,0,0,0.0,0.0,0,0,106.0,0.0,533.0,4694.358974358975,3989.7435897435903,4539.48717948718,4492.307692307693,4183.076923076924,4495.384615384616,4508.717948717949,4520.000000000001,4429.743589743591,4803.589743589744,4404.102564102564,4366.666666666667,4167.6923076923085,4617.948717948719
4271.7725,0.99692994,0.3452434,0.6666667,0.32250625,0,0.0,0.0,0.0,0.0,0.0,0,0,0.0,0.0,0,0,41.0,0.0,0.0,4754.358974358975,4026.666666666667,4629.2307692307695,4506.153846153847,4145.128205128206,4589.2307692307695,4624.102564102564,4645.641025641026,4473.333333333334,4860.000000000001,4469.2307692307695,4491.794871794872,4225.641025641026,4625.128205128206
4271.7725,0.99692994,0.3452434,0.6666667,0.32250625,0,0.0,0.0,0.0,0.0,0.0,0,0,0.0,0.0,0,0,41.0,0.0,0.0,4754.358974358975,4026.666666666667,4629.2307692307695,4506.153846153847,4145.128205128206,4589.2307692307695,4624.102564102564,4645.641025641026,4473.333333333334,4860.000000000001,4469.2307692307695,4491.794871794872,4225.641025641026,4625.128205128206
4272.273,0.9665024,0.3444578,0.6666667,0.24616665,0,0.0,0.0,0.0,0.0,0.0,0,0,0.0,0.0,0,0,105.0,0.0,451.0,4695.8974358974365,4096.410256410257,4526.153846153847,4478.974358974359,4181.025641025642,4522.051282051282,4454.871794871796,4372.820512820514,4251.794871794872,4631.282051282052,4252.307692307693,4293.846153846154,4047.692307692308,4547.179487179488
4272.273,0.9665024,0.3444578,0.6666667,0.24616665,0,0.0,0.0,0.0,0.0,0.0,0,0,0.0,0.0,0,0,105.0,0.0,451.0,4695.8974358974365,4096.410256410257,4526.153846153847,4478.974358974359,4181.025641025642,4522.051282051282,4454.871794871796,4372.820512820514,4251.794871794872,4631.282051282052,4252.307692307693,4293.846153846154,4047.692307692308,4547.179487179488
4272.8984,1.0,0.34375075,0.6666667,0.17482513,0,0.0,0.0,0.0,0.0,0.2815924,0,0,0.0,0.0,0,0,56.0,0.0,0.0,4738.461538461539,4309.2307692307695,4309.743589743591,4342.051282051282,4195.8974358974365,4379.48717948718,4227.6923076923085,4093.333333333334,4099.48717948718,4340.000000000001,3969.2307692307695,3987.692307692308,3861.538461538462,4694.871794871796
4273.149,1.0,0.34375075,0.6666667,0.17482513,0,0.0,0.0,0.0,0.0,0.16330455,0,0,0.0,0.0,0,0,88.0,0.0,501.0,4417.435897435898,3862.0512820512827,4262.051282051282,4291.282051282052,4228.717948717949,4443.589743589744,4291.794871794872,4134.871794871796,4169.2307692307695,4386.153846153847,3987.692307692308,3922.0512820512827,3805.6410256410263,4576.923076923077
4273.4614,0.8684011,0.34311444,0.6666667,0.11075525,1,0.0,0.0,0.0,0.0,0.47821087,0,0,0.0,0.0,0,0,128.0,0.0,501.0,4360.512820512821,3874.8717948717954,4292.820512820514,4297.435897435898,4229.74358974359,4441.538461538462,4280.512820512821,4124.102564102564,4185.641025641026,4382.564102564103,4006.666666666667,3939.48717948718,3852.820512820513,4540.000000000001
4273.618,0.8684011,0.34311444,0.6666667,0.11075525,0,0.0,0.0,0.0,0.0,1.0,0,0,0.0,0.0,0,0,19.0,0.0,0.0,4286.153846153847,3845.6410256410263,4303.076923076924,4297.435897435898,4237.435897435898,4457.948717948719,4304.102564102564,4155.384615384616,4218.974358974359,4414.358974358975,4022.0512820512827,3935.8974358974365,3890.7692307692314,4505.128205128206
4273.8994,0.89135903,0.34254172,0.6666667,0.039009698,0,0.0,0.0,0.0,0.0,0.83258694,0,0,0.0,0.0,0,0,55.0,0.0,0.0,4291.282051282052,3840.0000000000005,4327.6923076923085,4288.717948717949,4225.128205128206,4453.333333333334,4312.307692307693,4190.256410256411,4250.769230769231,4463.076923076924,4093.8461538461543,3989.7435897435903,3988.717948717949,4508.717948717949
4274.15,0.89135903,0.34254172,0.6666667,0.039009698,0,0.0,0.0,0.0,0.0,0.58439744,0,0,0.0,0.0,0,0,87.0,0.0,378.0,4284.615384615385,3846.1538461538466,4342.051282051282,4298.974358974359,4232.820512820514,4464.102564102564,4324.102564102564,4200.512820512821,4270.769230769231,4482.051282051282,4113.846153846154,3998.9743589743593,4015.8974358974365,4489.2307692307695
4274.4,0.98062336,0.3420263,0.6666667,0.0,0,0.0,0.0,0.0,0.0,0.43197173,0,0,0.0,0.0,0,0,119.0,0.0,378.0,4300.000000000001,3865.6410256410263,4356.410256410257,4308.717948717949,4231.794871794872,4487.6923076923085,4340.000000000001,4215.8974358974365,4276.410256410257,4490.769230769231,4109.2307692307695,3998.461538461539,3988.717948717949,4459.48717948718
4274.525,0.98062336,0.3420263,0.6666667,0.0,0,0.0,0.0,0.0,0.0,0.0,0,0,0.0,0.0,0,0,6.0,0.0,532.0,4309.743589743591,3865.1282051282055,4360.000000000001,4309.743589743591,4235.384615384616,4495.8974358974365,4350.256410256411,4232.820512820514,4300.512820512821,4506.153846153847,4126.153846153847,4012.307692307693,4005.1282051282055,4452.307692307693
4274.9004,0.9673975,0.3415624,0.6666667,0.0,0,0.0,0.0,0.0,0.0,0.5803529,0,0,0.0,0.0,0,0,54.0,0.0,0.0,4361.538461538462,3928.205128205129,4380.512820512821,4337.435897435898,4236.923076923077,4500.512820512821,4350.769230769231,4235.8974358974365,4296.410256410257,4517.948717948719,4131.282051282052,4022.564102564103,3996.410256410257,4419.48717948718
4275.1504,0.9673975,0.3415624,0.6666667,0.0,0,0.0,0.0,0.0,0.0,0.08832813,0,0,0.0,0.0,0,0,86.0,0.0,537.0,4396.410256410257,3927.692307692308,4409.2307692307695,4347.6923076923085,4246.666666666667,4509.2307692307695,4357.435897435898,4249.74358974359,4309.2307692307695,4547.6923076923085,4170.256410256411,4053.8461538461543,4037.435897435898,4422.051282051282
4275.401,0.9667176,0.3411449,0.6666667,0.0,0,0.0,0.0,0.0,0.0,0.0,0,0,0.0,0.4750648,0,0,118.0,0.0,537.0,4398.974358974359,3909.2307692307695,4409.2307692307695,4345.128205128206,4232.307692307693,4503.076923076924,4356.923076923077,4273.333333333334,4337.435897435898,4578.974358974359,4203.589743589744,4078.9743589743593,4069.7435897435903,4425.128205128206
4275.651,0.9667176,0.3411449,0.6666667,0.0,0,0.0,0.0,0.0,0.0,0.0,0,0,0.0,0.41071174,0,0,21.0,0.0,0.0,4409.2307692307695,3879.48717948718,4409.2307692307695,4346.153846153847,4218.974358974359,4504.615384615385,4366.153846153847,4260.000000000001,4323.589743589744,4573.333333333334,4209.2307692307695,4084.1025641025644,4081.0256410256416,4424.102564102564
4275.964,0.9221475,0.34076914,0.6666667,0.0,0,0.0,0.0,0.0,0.0,0.0,0,1,0.0,0.5954578,0,0,61.0,0.0,0.0,4365.641025641026,3738.461538461539,4455.8974358974365,4315.384615384616,4181.538461538462,4537.948717948719,4480.512820512821,4466.153846153847,4477.948717948719,4765.128205128206,4388.205128205129,4227.6923076923085,4262.564102564103,4464.615384615385
4276.1514,0.9221475,0.34076914,0.6666667,0.0,0,0.0,0.0,0.0,0.0,0.07938995,0,1,0.0,0.0,0,0,85.0,0.0,460.0,4526.666666666667,3725.6410256410263,4600.512820512821,4351.282051282052,4150.769230769231,4572.820512820514,4614.871794871796,4630.769230769231,4597.435897435898,4931.282051282052,4520.000000000001,4410.769230769231,4344.102564102564,4528.717948717949
4276.402,0.9393839,0.34043097,0.6666667,0.0,0,0.0,0.0,0.0,0.0,0.12241063,0,1,0.0,0.0,0,0,117.0,0.0,460.0,4844.615384615386,3815.8974358974365,4828.717948717949,4455.8974358974365,4152.307692307693,4621.538461538462,4764.102564102564,4908.205128205129,4781.025641025642,5180.512820512821,4734.871794871796,4725.641025641026,4572.307692307693,4852.307692307693
4276.652,0.9393839,0.34043097,0.6666667,0.0,0,0.0,0.0,0.0,0.0,0.4680006,0,1,0.0,0.0,0,0,20.0,0.0,0.0,4996.410256410257,3990.2564102564106,4978.461538461539,4554.871794871796,4241.538461538462,4695.384615384616,4882.564102564103,5032.307692307693,4828.205128205129,5288.717948717949,4838.974358974359,4873.846153846154,4658.461538461539,4982.564102564103
4276.902,1.0,0.3401266,0.6666667,0.0,0,0.0,0.0,0.0,0.0,0.3229791,0,1,0.0,0.0,0,0,52.0,0.0,0.0,5024.102564102564,4124.615384615385,4913.333333333334,4587.179487179488,4281.025641025642,4662.564102564103,4831.794871794872,4947.6923076923085,4717.435897435898,5203.076923076924,4731.282051282052,4814.871794871796,4557.948717948719,5002.051282051283
4277.1523,1.0,0.3401266,0.6666667,0.0,0,0.0,0.0,0.0,0.0,0.06709102,0,1,0.0,0.0,0,0,84.0,0.0,492.0,5053.333333333334,4186.666666666667,4798.974358974359,4587.6923076923085,4277.948717948719,4597.435897435898,4687.179487179488,4763.076923076924,4573.333333333334,5056.410256410257,4613.846153846154,4691.282051282052,4480.000000000001,5044.615384615386
4277.4336,1.0,0.3398527,0.6666667,0.0,0,0.0,0.0,0.0,0.0,0.10556812,0,0,0.0,0.0,0,0,120.0,0.0,492.0,4809.743589743591,4104.615384615385,4630.769230769231,4540.000000000001,4274.871794871796,4529.743589743591,4521.538461538462,4544.102564102564,4456.410256410257,4837.948717948719,4416.410256410257,4476.923076923077,4290.769230769231,4926.153846153847
4277.653,1.0,0.3398527,0.6666667,0.0,0,0.0,0.0,0.0,0.0,0.34208345,0,0,0.0,0.0,0,0,19.0,0.0,0.0,4666.153846153847,4051.7948717948725,4527.6923076923085,4505.128205128206,4248.205128205129,4490.256410256411,4427.179487179487,4386.153846153847,4356.923076923077,4704.615384615386,4277.948717948719,4313.333333333334,4181.025641025642,4836.410256410257
4277.903,1.0,0.33960617,0.6666667,0.031487413,0,0.0,0.0,0.0,0.0,0.18273132,0,0,0.0,0.0,0,0,51.0,0.0,0.0,4530.769230769231,3984.1025641025644,4444.102564102564,4456.410256410257,4231.794871794872,4459.48717948718,4355.8974358974365,4290.256410256411,4311.282051282052,4615.8974358974365,4229.74358974359,4201.538461538462,4107.179487179487,4749.2307692307695
4278.1533,1.0,0.33960617,0.6666667,0.031487413,0,0.0,0.0,0.0,0.0,0.33211216,0,0,0.0,0.0,1,0,83.0,0.0,371.0,4590.769230769231,3991.7948717948725,4425.128205128206,4447.179487179487,4232.307692307693,4458.461538461539,4324.102564102564,4234.358974358975,4281.025641025642,4542.051282051282,4196.923076923077,4135.384615384616,4075.3846153846157,4711.794871794872
4278.4033,1.0,0.3393843,0.6666667,0.06447116,0,0.0,0.0,0.0,0.0,0.4265559,0,0,0.0,0.0,1,0,115.0,0.0,371.0,4441.025641025642,3911.2820512820517,4382.051282051282,4398.461538461539,4235.8974358974365,4476.923076923077,4338.461538461539,4231.282051282052,4282.051282051282,4526.153846153847,4184.615384615385,4090.7692307692314,4034.8717948717954,4624.615384615385
4278.6533,1.0,0.3393843,0.6666667,0.06447116,0,0.0,0.0,0.0,0.0,0.27022862,0,0,0.0,0.0,0,0,18.0,0.0,0.0,4398.974358974359,3889.7435897435903,4364.615384615385,4380.000000000001,4227.6923076923085,4473.333333333334,4334.358974358975,4230.256410256411,4288.205128205129,4506.153846153847,4172.820512820514,4053.333333333334,4016.9230769230776,4558.461538461539
4278.904,1.0,0.3391846,0.6666667,0.09330005,0,0.0,0.0,0.0,0.0,0.55311245,0,0,0.0,0.0,0,0,50.0,0.0,0.0,4413.333333333334,3877.435897435898,4353.333333333334,4374.871794871796,4224.102564102564,4466.153846153847,4321.538461538462,4213.846153846154,4279.48717948718,4506.153846153847,4169.2307692307695,4041.0256410256416,4018.461538461539,4529.743589743591
4279.154,1.0,0.3391846,0.6666667,0.09330005,0,0.0,0.0,0.0,0.0,0.42049962,0,0,0.0,0.0,0,0,82.0,0.0,539.0,4408.717948717949,3862.0512820512827,4359.48717948718,4366.666666666667,4215.8974358974365,4457.435897435898,4335.384615384616,4218.461538461539,4284.102564102564,4506.666666666667,4167.179487179487,4031.7948717948725,4028.205128205129,4484.102564102564
4279.4043,1.0,0.33900487,0.6666667,0.119216636,0,0.0,0.0,0.0,0.0,0.20680417,0,0,0.0,0.0,0,0,114.0,0.0,539.0,4414.358974358975,3868.205128205129,4367.6923076923085,4362.051282051282,4224.102564102564,4462.564102564103,4328.205128205129,4203.076923076924,4263.589743589744,4509.2307692307695,4168.717948717949,4031.2820512820517,4022.564102564103,4456.923076923077
4279.6543,1.0,0.33900487,0.6666667,0.119216636,0,0.0,0.0,0.0,0.0,0.0,0,0,0.0,0.0,0,0,17.0,0.0,0.0,4418.461538461539,3808.717948717949,4366.666666666667,4333.333333333334,4204.102564102564,4473.846153846154,4371.794871794872,4278.974358974359,4310.769230769231,4531.794871794872,4195.384615384616,4054.358974358975,4066.1538461538466,4462.051282051282
4279.905,1.0,0.33884314,0.6666667,0.14660792,0,0.0,0.0,0.0,0.0,0.13630897,0,0,0.0,0.0,0,0,49.0,0.0,0.0,4498.461538461539,3844.1025641025644,4390.769230769231,4353.333333333334,4220.512820512821,4492.820512820514,4367.179487179487,4257.948717948719,4330.256410256411,4553.333333333334,4235.384615384616,4083.076923076924,4090.7692307692314,4474.358974358975
4280.155,1.0,0.33884314,0.6666667,0.14660792,0,0.0,0.0,0.0,0.0,0.39568797,0,0,0.0,0.0,1,0,81.0,0.0,460.0,4445.641025641026,3841.0256410256416,4397.435897435898,4351.794871794872,4214.358974358975,4500.512820512821,4371.282051282052,4266.153846153847,4322.051282051282,4544.102564102564,4213.846153846154,4080.0000000000005,4049.23076923077,4412.820512820514
4280.4053,0.9854277,0.33869755,0.6666667,0.17306322,0,0.0,0.0,0.0,0.0,0.28835735,0,0,0.0,0.0,0,0,113.0,0.0,460.0,4466.666666666667,3816.9230769230776,4397.435897435898,4351.794871794872,4217.948717948719,4509.2307692307695,4386.153846153847,4287.179487179487,4349.2307692307695,4597.435897435898,4252.307692307693,4100.000000000001,4111.282051282052,4424.102564102564
4280.6553,0.9854277,0.33869755,0.6666667,0.17306322,0,0.0,0.0,0.0,0.0,0.14710443,0,0,0.0,0.0,0,0,16.0,0.0,0.0,4482.564102564103,3834.8717948717954,4416.410256410257,4366.666666666667,4215.8974358974365,4518.461538461539,4397.948717948719,4321.538461538462,4374.871794871796,4625.128205128206,4262.051282051282,4124.102564102564,4120.512820512821,4401.025641025642
4280.9053,0.97021693,0.33856654,0.6666667,0.19336146,0,0.0,0.0,0.0,0.0,0.0,0,0,0.0,0.0,0,0,48.0,0.0,0.0,4490.256410256411,3832.307692307693,4424.102564102564,4374.358974358975,4220.512820512821,4512.820512820514,4393.333333333334,4311.282051282052,4355.8974358974365,4607.179487179488,4250.769230769231,4121.025641025642,4094.358974358975,4400.000000000001
4280.9053,0.97021693,0.33856654,0.6666667,0.19336146,0,0.0,0.0,0.0,0.0,0.0,0,0,0.0,0.0,0,0,48.0,0.0,0.0,4490.256410256411,3832.307692307693,4424.102564102564,4374.358974358975,4220.512820512821,4512.820512820514,4393.333333333334,4311.282051282052,4355.8974358974365,4607.179487179488,4250.769230769231,4121.025641025642,4094.358974358975,4400.000000000001
4281.281,0.93328,0.33844864,0.6666667,0.21161944,0,0.0,0.0,0.0,0.0,0.0,0,0,0.0,0.0,0,0,96.0,0.0,505.0,4532.307692307693,3799.48717948718,4456.923076923077,4360.000000000001,4185.128205128206,4524.102564102564,4436.410256410257,4380.000000000001,4385.128205128206,4668.717948717949,4305.128205128206,4190.256410256411,4137.435897435898,4422.051282051282
4281.6562,0.93328,0.33844864,0.6666667,0.21161944,0,0.0,0.0,0.45828605,0.0,0.0,0,0,0.0,0.0,0,0,15.0,0.0,379.0,4805.641025641026,3776.9230769230776,4753.333333333334,4407.6923076923085,4076.410256410257,4598.461538461539,4701.538461538462,4763.589743589744,4613.846153846154,5022.051282051283,4616.923076923077,4591.282051282052,4397.948717948719,4557.435897435898
4281.9062,0.981091,0.33834252,0.6666667,0.22831069,0,0.0,0.0,0.348349,0.0,0.0,0,0,0.0,0.0,0,0,47.0,0.0,0.0,5021.538461538462,3985.1282051282055,4971.794871794872,4556.410256410257,4156.923076923077,4707.6923076923085,4885.128205128206,5008.717948717949,4776.923076923077,5243.076923076924,4762.051282051282,4830.256410256411,4566.666666666667,4656.923076923077
4282.1567,0.981091,0.33834252,0.6666667,0.22831069,0,0.0,0.0,0.20669778,0.0,0.0,0,0,0.0,0.0,0,0,79.0,0.0,379.0,5104.102564102564,4170.769230769231,5011.794871794872,4632.820512820514,4250.256410256411,4750.769230769231,4906.666666666667,5044.102564102564,4772.820512820514,5268.205128205129,4775.384615384616,4864.102564102564,4603.076923076924,4674.871794871796
4282.4067,1.0,0.338247,0.6666667,0.24119927,0,0.0,0.0,0.0,0.0,0.015484948,0,0,0.0,0.0,0,0,111.0,0.0,379.0,5041.025641025642,4200.000000000001,4907.6923076923085,4614.871794871796,4277.435897435898,4694.358974358975,4797.435897435898,4878.974358974359,4645.641025641026,5144.102564102564,4683.589743589744,4763.589743589744,4489.743589743591,4641.538461538462
4282.657,1.0,0.338247,0.6666667,0.24119927,0,0.0,0.0,0.29010972,0.0,0.0,0,0,0.0,0.0,0,0,14.0,0.0,530.0,4911.794871794872,4181.538461538462,4749.2307692307695,4615.8974358974365,4276.410256410257,4641.025641025642,4674.871794871796,4696.923076923077,4505.128205128206,4965.128205128206,4533.846153846154,4599.48717948718,4340.000000000001,4583.589743589744
4282.907,1.0,0.33816105,0.6666667,0.2527971,0,0.0,0.0,0.2541498,0.0,0.0,0,0,0.0,0.0,0,0,46.0,0.0,0.0,4774.358974358975,4137.435897435898,4592.820512820514,4567.6923076923085,4280.000000000001,4569.743589743591,4507.179487179488,4467.179487179487,4341.538461538462,4767.179487179488,4360.512820512821,4397.435897435898,4177.435897435898,4507.6923076923085
4283.157,1.0,0.33816105,0.6666667,0.2527971,0,0.0,0.0,0.36896056,0.0,0.0,0,0,0.0,0.0,0,0,78.0,0.0,536.0,4701.538461538462,4077.9487179487187,4494.358974358975,4524.102564102564,4272.820512820514,4491.794871794872,4382.564102564103,4296.923076923077,4255.8974358974365,4608.717948717949,4233.333333333334,4237.948717948719,4070.7692307692314,4468.205128205129
4283.4077,1.0,0.33808368,0.6666667,0.2632343,0,0.0,0.0,0.0,0.0,0.07082664,0,0,0.0,0.0,0,0,110.0,0.0,536.0,4521.025641025642,3961.538461538462,4398.974358974359,4449.2307692307695,4252.820512820514,4461.538461538462,4326.666666666667,4216.410256410257,4203.076923076924,4499.48717948718,4126.153846153847,4109.74358974359,3972.307692307693,4368.717948717949
4283.6577,1.0,0.33808368,0.6666667,0.2632343,0,0.0,0.0,0.0,0.0,0.39881742,0,0,0.0,0.0,0,0,13.0,0.0,456.0,4488.205128205129,3925.1282051282055,4374.358974358975,4431.282051282052,4250.256410256411,4444.615384615385,4282.564102564103,4154.871794871796,4188.717948717949,4462.564102564103,4104.615384615385,4049.7435897435903,3960.0000000000005,4349.2307692307695
4283.7827,1.0,0.33801404,0.6369543,0.28732067,0,0.0,0.0,0.0,0.0,0.0,0,0,0.0,0.0,0,0,29.0,0.0,0.0,4450.256410256411,3880.512820512821,4356.923076923077,4397.948717948719,4236.410256410257,4441.538461538462,4281.538461538462,4152.820512820514,4183.589743589744,4426.666666666667,4074.358974358975,4022.564102564103,3921.0256410256416,4311.282051282052
4283.7827,1.0,0.33801404,0.6369543,0.28732067,0,0.0,0.0,0.0,0.0,0.0,0,0,0.0,0.0,0,0,29.0,0.0,0.0,4450.256410256411,3880.512820512821,4356.923076923077,4397.948717948719,4236.410256410257,4441.538461538462,4281.538461538462,4152.820512820514,4183.589743589744,4426.666666666667,4074.358974358975,4022.564102564103,3921.0256410256416,4311.282051282052
4284.4087,0.9566887,0.3379514,0.5873966,0.31102306,0,0.0,0.0,0.0,0.0,0.007874965,0,0,0.0,0.0,0,0,109.0,0.0,458.0,4371.282051282052,3713.8461538461543,4406.153846153847,4310.256410256411,4167.6923076923085,4483.076923076924,4374.358974358975,4311.282051282052,4372.307692307693,4599.48717948718,4190.769230769231,4105.128205128206,4076.410256410257,4344.102564102564
4284.6587,0.9566887,0.3379514,0.5873966,0.31102306,0,0.0,0.0,0.0,0.0,0.0,0,0,1.0,0.0,0,0,12.0,0.0,503.0,4437.435897435898,3756.410256410257,4470.769230769231,4328.717948717949,4138.461538461539,4487.6923076923085,4407.6923076923085,4371.794871794872,4430.256410256411,4675.384615384616,4281.025641025642,4198.461538461539,4143.076923076924,4392.820512820514
4284.7837,1.0,0.33789498,0.5428017,0.3323474,0,0.0,0.0,0.0,0.0,0.0,0,0,0.0,0.0,0,0,28.0,0.0,0.0,4443.589743589744,3776.410256410257,4491.282051282052,4350.769230769231,4147.6923076923085,4504.615384615385,4421.025641025642,4397.948717948719,4449.2307692307695,4701.025641025642,4291.282051282052,4218.974358974359,4158.461538461539,4404.615384615385
4284.7837,1.0,0.33789498,0.5428017,0.3323474,0,0.0,0.0,0.0,0.0,0.0,0,0,0.0,0.0,0,0,28.0,0.0,0.0,4443.589743589744,3776.410256410257,4491.282051282052,4350.769230769231,4147.6923076923085,4504.615384615385,4421.025641025642,4397.948717948719,4449.2307692307695,4701.025641025642,4291.282051282052,4218.974358974359,4158.461538461539,4404.615384615385
4285.284,0.94144636,0.33784422,0.52660793,0.3621505,0,0.0,0.0,0.0,0.0,0.0,0,0,0.0,0.0,0,0,92.0,0.0,503.0,4445.128205128206,3846.666666666667,4476.410256410257,4380.000000000001,4184.615384615385,4509.743589743591,4407.179487179487,4359.48717948718,4396.410256410257,4648.205128205129,4251.794871794872,4185.641025641026,4116.923076923077,4397.435897435898
4285.6597,0.94144636,0.33784422,0.52660793,0.3621505,0,0.0,0.0,0.0,0.0,0.0,0,0,0.0,0.45870072,0,0,11.0,0.0,381.0,4438.974358974359,3899.48717948718,4455.8974358974365,4398.461538461539,4226.153846153847,4508.717948717949,4373.333333333334,4307.179487179487,4351.282051282052,4611.794871794872,4234.358974358975,4135.384615384616,4086.666666666667,4388.205128205129
4285.9097,0.85993236,0.33779854,0.5156646,0.394944,0,0.0,0.0,0.0,0.0,0.0,0,0,0.0,0.49513733,0,0,43.0,0.0,0.0,4445.641025641026,3894.358974358975,4445.128205128206,4400.512820512821,4241.538461538462,4509.2307692307695,4376.923076923077,4316.410256410257,4355.384615384616,4603.076923076924,4235.8974358974365,4134.871794871796,4078.461538461539,4390.769230769231
4286.16,0.85993236,0.33779854,0.5156646,0.394944,0,0.0,0.0,0.23511973,0.0,0.0,0,0,0.0,0.0,0,0,75.0,0.0,381.0,4441.025641025642,3895.3846153846157,4440.000000000001,4414.871794871796,4253.333333333334,4509.2307692307695,4380.000000000001,4296.923076923077,4341.538461538462,4589.743589743591,4222.564102564103,4114.871794871796,4070.2564102564106,4378.974358974359
4286.41,0.8676106,0.3405842,0.50581384,0.4083492,0,0.0,0.0,0.0,0.0,0.0,0,0,0.0,0.091342404,0,0,107.0,0.0,381.0,4445.128205128206,3908.205128205129,4454.358974358975,4424.102564102564,4257.435897435898,4514.871794871796,4374.871794871796,4292.307692307693,4343.589743589744,4598.974358974359,4237.435897435898,4123.076923076924,4085.6410256410263,4382.051282051282
4286.6606,0.8676106,0.3405842,0.50581384,0.4083492,0,0.0,0.0,0.0,0.0,0.0,0,0,0.0,0.12551948,0,0,10.0,0.0,540.0,4451.282051282052,3891.7948717948725,4447.6923076923085,4424.615384615385,4253.846153846154,4525.641025641026,4399.48717948718,4325.641025641026,4369.743589743591,4614.358974358975,4258.461538461539,4138.461538461539,4110.769230769231,4401.538461538462
4286.9106,0.8427988,0.32364914,0.49963415,0.40979493,0,0.0,0.0,0.0,0.0,0.0,0,0,0.0,0.26892832,0,0,42.0,0.0,0.0,4477.948717948719,3910.2564102564106,4460.512820512821,4442.564102564103,4261.025641025642,4535.8974358974365,4402.564102564103,4336.923076923077,4376.923076923077,4623.589743589744,4277.948717948719,4151.794871794872,4121.538461538462,4410.769230769231
4287.1606,0.8427988,0.32364914,0.49963415,0.40979493,0,0.0,0.0,0.0,0.0,0.0,0,0,0.3069,0.0,0,0,74.0,0.0,540.0,4476.410256410257,3894.358974358975,4458.974358974359,4426.153846153847,4250.256410256411,4532.820512820514,4414.871794871796,4349.743589743591,4381.025641025642,4633.846153846154,4282.051282051282,4173.333333333334,4134.871794871796,4418.461538461539
4287.411,0.77974963,0.31173158,0.47555038,0.42171562,0,0.0,0.0,0.0,0.0,0.0,0,0,0.0,0.0,0,0,106.0,0.0,540.0,4515.8974358974365,3911.2820512820517,4464.102564102564,4428.205128205129,4247.179487179487,4524.615384615385,4413.846153846154,4361.025641025642,4385.128205128206,4636.923076923077,4290.769230769231,4175.384615384616,4155.384615384616,4415.384615384616
4287.411,0.77974963,0.31173158,0.47555038,0.42171562,0,0.0,0.0,0.0,0.0,0.0,0,0,0.0,0.0,0,0,106.0,0.0,540.0,4515.8974358974365,3911.2820512820517,4464.102564102564,4428.205128205129,4247.179487179487,4524.615384615385,4413.846153846154,4361.025641025642,4385.128205128206,4636.923076923077,4290.769230769231,4175.384615384616,4155.384615384616,4415.384615384616
4287.7866,0.68353426,0.30987966,0.45027384,0.4476878,0,0.0,0.0,0.0,0.0,0.0,0,0,0.0,0.0,0,0,25.0,0.0,0.0,4548.717948717949,3884.1025641025644,4492.820512820514,4412.307692307693,4205.128205128206,4521.025641025642,4439.48717948718,4400.000000000001,4414.358974358975,4686.666666666667,4331.794871794872,4232.820512820514,4172.307692307693,4400.512820512821
4287.7866,0.68353426,0.30987966,0.45027384,0.4476878,0,0.0,0.0,0.0,0.0,0.0,0,0,0.0,0.0,0,0,25.0,0.0,0.0,4548.717948717949,3884.1025641025644,4492.820512820514,4412.307692307693,4205.128205128206,4521.025641025642,4439.48717948718,4400.000000000001,4414.358974358975,4686.666666666667,4331.794871794872,4232.820512820514,4172.307692307693,4400.512820512821
4288.412,0.7563905,0.3081844,0.42520186,0.47851294,0,0.0,0.0,0.5167832,0.0,0.0,0,0,0.0,0.0,0,0,105.0,0.0,455.0,4995.8974358974365,3976.410256410257,4956.410256410257,4489.2307692307695,4126.153846153847,4625.641025641026,4853.333333333334,4977.948717948719,4825.641025641026,5233.846153846154,4843.076923076924,4829.743589743591,4620.000000000001,4683.589743589744
4288.662,0.7563905,0.3081844,0.42520186,0.47851294,0,0.0,0.0,0.0,0.0,0.0,0,0,0.0,0.61550564,0,0,8.0,0.0,495.0,5056.923076923077,4125.641025641026,4992.820512820514,4557.948717948719,4232.820512820514,4676.923076923077,4886.666666666667,5017.435897435898,4816.923076923077,5265.128205128206,4841.538461538462,4891.794871794872,4641.025641025642,4714.871794871796
4288.9126,0.87288004,0.30665863,0.4026365,0.502544,0,0.0,0.0,0.0,0.0,0.0,0,0,0.0,0.6865223,0,0,40.0,0.0,0.0,5018.974358974359,4204.102564102564,4903.076923076924,4555.384615384616,4298.461538461539,4677.435897435898,4793.846153846154,4901.538461538462,4720.000000000001,5180.512820512821,4760.512820512821,4795.8974358974365,4567.179487179488,4668.205128205129
4289.1626,0.87288004,0.30665863,0.4026365,0.502544,0,0.0,0.0,0.27767828,0.0,0.0,0,0,0.0,0.0,0,0,72.0,0.0,493.0,4898.461538461539,4182.051282051282,4731.794871794872,4550.769230769231,4321.025641025642,4617.948717948719,4649.743589743591,4682.564102564103,4554.871794871796,4986.666666666667,4573.333333333334,4630.256410256411,4417.948717948719,4601.538461538462
4289.4126,0.9781344,0.30528542,0.38464528,0.52417177,0,0.0,0.0,0.41870376,0.0,0.0,0,0,0.0,0.0,0,0,104.0,0.0,486.0,4730.769230769231,4112.820512820514,4526.153846153847,4522.564102564103,4332.307692307693,4566.666666666667,4491.282051282052,4461.538461538462,4397.435897435898,4777.948717948719,4358.974358974359,4375.8974358974365,4212.820512820514,4527.179487179488
4289.663,0.9781344,0.30528542,0.38464528,0.52417177,0,0.0,0.0,0.33693504,0.0,0.0,0,0,0.0,0.0,0,0,7.0,0.0,471.0,4587.179487179488,4036.410256410257,4408.205128205129,4498.461538461539,4314.358974358975,4524.102564102564,4372.307692307693,4292.820512820514,4263.076923076924,4614.358974358975,4203.589743589744,4184.615384615385,4061.538461538462,4461.538461538462
4289.913,1.0,0.30404955,0.3659276,0.5436369,0,0.0,0.0,0.4556517,0.0,0.0,0,0,0.0,0.0,0,0,39.0,0.0,0.0,4496.410256410257,3972.820512820513,4364.615384615385,4475.384615384616,4298.461538461539,4490.769230769231,4311.794871794872,4200.000000000001,4216.410256410257,4521.025641025642,4151.794871794872,4104.102564102564,3996.410256410257,4461.025641025642
4290.0386,1.0,0.30404955,0.3659276,0.5436369,0,0.0,0.0,0.0,0.0,0.0,0,0,0.0,0.0,0,0,55.0,0.0,0.0,4455.8974358974365,3942.564102564103,4334.358974358975,4457.435897435898,4282.564102564103,4490.256410256411,4307.6923076923085,4187.179487179487,4212.307692307693,4504.102564102564,4136.923076923077,4065.1282051282055,3977.435897435898,4444.615384615385
4290.4136,1.0,0.30293727,0.3528112,0.5541853,0,0.0,0.0,0.0,0.0,0.02447021,0,0,0.0,0.0,0,0,103.0,0.0,379.0,4513.846153846154,3829.2307692307695,4390.256410256411,4410.769230769231,4215.8974358974365,4476.923076923077,4340.000000000001,4263.076923076924,4264.102564102564,4545.128205128206,4204.615384615385,4110.256410256411,4053.333333333334,4486.666666666667
4290.664,1.0,0.30293727,0.3528112,0.5541853,0,0.0,0.0,0.0,0.0,0.0074884053,0,0,0.0,0.0,0,0,6.0,0.0,530.0,4724.615384615386,3702.0512820512827,4693.333333333334,4355.384615384616,4110.256410256411,4567.6923076923085,4668.717948717949,4729.743589743591,4643.076923076924,4986.153846153847,4609.743589743591,4551.282051282052,4394.871794871796,4599.48717948718
4290.914,1.0,0.30193624,0.34397495,0.5620036,0,0.0,0.0,0.30032995,0.0,0.0,0,0,0.0,0.0,0,0,38.0,0.0,0.0,5152.820512820514,4018.461538461539,5064.615384615386,4451.794871794872,4170.769230769231,4770.256410256411,5039.487179487181,5269.2307692307695,4978.461538461539,5448.205128205129,5002.051282051283,5106.153846153847,4796.923076923077,4805.641025641026
4291.164,1.0,0.30193624,0.34397495,0.5620036,0,0.0,0.0,0.3265209,0.0,0.0,0,0,0.0,0.0,0,0,70.0,0.0,517.0,5313.333333333334,4250.769230769231,5109.743589743591,4505.128205128206,4218.461538461539,4859.48717948718,5114.358974358975,5309.743589743591,4944.102564102564,5550.769230769231,5027.6923076923085,5234.871794871796,4843.076923076924,4842.051282051283
4291.4146,1.0,0.30103528,0.34553772,0.56456614,0,0.0,0.0,0.0,0.0,0.048745207,0,0,0.0,0.0,0,0,102.0,0.0,519.0,5272.307692307693,4308.205128205129,4986.153846153847,4554.871794871796,4270.769230769231,4829.2307692307695,4969.2307692307695,5138.461538461539,4816.410256410257,5411.794871794872,4904.615384615386,5114.358974358975,4709.743589743591,4813.846153846154
4291.6646,1.0,0.30103528,0.34553772,0.56456614,0,0.0,0.0,0.0,0.0,0.022964487,0,0,0.0,0.0,0,0,5.0,0.0,551.0,5139.487179487181,4220.000000000001,4844.102564102564,4554.871794871796,4270.256410256411,4738.974358974359,4721.025641025642,4935.8974358974365,4668.205128205129,5221.538461538462,4684.615384615386,4902.051282051283,4525.128205128206,4765.641025641026
4291.915,1.0,0.30022442,0.3569433,0.5637444,0,0.0,0.0,0.2905109,0.0,0.0,0,0,0.0,0.0,0,0,37.0,0.0,0.0,5103.076923076924,4160.512820512821,4863.589743589744,4545.128205128206,4216.923076923077,4709.2307692307695,4770.256410256411,4907.6923076923085,4572.820512820514,5101.025641025642,4607.6923076923085,4830.256410256411,4386.666666666667,4743.076923076924
4292.165,1.0,0.30022442,0.3569433,0.5637444,0,0.0,0.0,0.033032604,0.0,0.0,0,0,0.0,0.0,0,0,69.0,0.0,551.0,5099.487179487181,4182.564102564103,4856.410256410257,4554.871794871796,4208.205128205129,4702.051282051282,4826.666666666667,4856.410256410257,4487.179487179488,5033.333333333334,4465.128205128206,4669.743589743591,4302.564102564103,4705.128205128206
4292.29,1.0,0.29949465,0.36720794,0.56157875,0,0.0,0.0,0.0,0.0,0.0,0,0,0.0,0.0,0,0,85.0,0.0,437.0,5091.282051282052,4192.307692307693,4836.923076923077,4557.948717948719,4204.102564102564,4680.000000000001,4815.8974358974365,4821.025641025642,4442.564102564103,4966.153846153847,4385.128205128206,4581.025641025642,4256.410256410257,4693.333333333334
4292.29,1.0,0.29949465,0.36720794,0.56157875,0,0.0,0.0,0.0,0.0,0.0,0,0,0.0,0.0,0,0,85.0,0.0,437.0,5091.282051282052,4192.307692307693,4836.923076923077,4557.948717948719,4204.102564102564,4680.000000000001,4815.8974358974365,4821.025641025642,4442.564102564103,4966.153846153847,4385.128205128206,4581.025641025642,4256.410256410257,4693.333333333334
4292.7905,1.0,0.29883787,0.37644562,0.5540577,0,0.0,0.0,0.0,0.0,0.0,0,0,0.0,0.0,0,0,20.0,0.0,0.0,4778.974358974359,4057.435897435898,4536.410256410257,4521.538461538462,4216.410256410257,4537.435897435898,4620.000000000001,4451.794871794872,4100.512820512821,4635.8974358974365,4027.692307692308,3935.8974358974365,3945.1282051282055,4560.000000000001
4293.1035,1.0,0.29883787,0.37644562,0.5540577,0,0.0,0.0,0.0,0.0,0.0,1,0,1.0,0.0,0,0,60.0,0.0,0.0,4521.538461538462,4038.9743589743593,4349.743589743591,4508.205128205129,4248.205128205129,4411.794871794872,4416.923076923077,4107.6923076923085,3853.8461538461543,4366.153846153847,3736.410256410257,3513.8461538461543,3640.0000000000005,4395.8974358974365
4293.416,1.0,0.29824674,0.39040712,0.546511,0,0.0,0.0,0.0,0.0,0.0,1,0,0.75753695,0.0,0,0,100.0,0.0,506.0,4245.641025641026,3850.7692307692314,4183.076923076924,4429.2307692307695,4216.923076923077,4314.358974358975,4281.025641025642,3909.2307692307695,3770.2564102564106,4200.000000000001,3635.3846153846157,3380.0000000000005,3544.615384615385,4286.153846153847
4293.6665,1.0,0.29824674,0.39040712,0.546511,0,0.0,0.0,0.0,0.0,0.0,1,0,0.4782391,0.0,0,0,3.0,0.0,540.0,4133.846153846154,3775.3846153846157,4182.564102564103,4416.923076923077,4226.666666666667,4302.051282051282,4231.282051282052,3875.8974358974365,3810.2564102564106,4182.051282051282,3677.435897435898,3427.1794871794878,3576.410256410257,4232.820512820514
4293.9165,1.0,0.29771474,0.41208485,0.5394828,0,0.0,0.0,0.0,0.0,0.81936204,1,0,0.0,0.0,0,0,35.0,0.0,0.0,4076.9230769230776,3714.8717948717954,4207.6923076923085,4396.923076923077,4217.435897435898,4316.410256410257,4216.923076923077,3908.717948717949,3875.3846153846157,4208.717948717949,3743.076923076924,3555.3846153846157,3636.410256410257,4201.538461538462
4294.198,1.0,0.29771474,0.41208485,0.5394828,0,0.0,0.0,0.0,0.0,0.20095536,0,0,0.0,0.0,0,0,71.0,0.0,479.0,4076.410256410257,3586.1538461538466,4266.153846153847,4347.6923076923085,4203.076923076924,4351.794871794872,4271.282051282052,4055.3846153846157,4055.8974358974365,4372.307692307693,3976.9230769230776,3758.461538461539,3911.7948717948725,4268.205128205129
4294.417,1.0,0.29723594,0.43249062,0.5331574,0,0.0,0.0,0.0,0.0,0.42099282,0,0,0.0,0.0,0,0,99.0,0.0,390.0,4012.307692307693,3569.7435897435903,4282.051282051282,4333.333333333334,4221.538461538462,4401.538461538462,4313.846153846154,4108.205128205129,4109.74358974359,4413.846153846154,3993.333333333334,3804.1025641025644,3911.7948717948725,4186.153846153847
4294.6675,1.0,0.29723594,0.43249062,0.5331574,0,0.0,0.0,0.0,0.0,0.4098273,0,0,0.0,0.0,0,0,2.0,0.0,438.0,4142.564102564103,3651.794871794872,4336.923076923077,4367.179487179487,4229.2307692307695,4426.666666666667,4326.153846153847,4150.256410256411,4170.256410256411,4468.205128205129,4074.8717948717954,3897.435897435898,3982.564102564103,4217.948717948719
4294.9175,1.0,0.29680502,0.4386704,0.5279783,0,0.0,0.0,0.0,0.0,0.63711274,0,0,0.0,0.0,1,0,34.0,0.0,0.0,4067.1794871794878,3662.0512820512827,4370.256410256411,4351.282051282052,4233.846153846154,4457.435897435898,4355.384615384616,4211.794871794872,4236.410256410257,4546.666666666667,4124.615384615385,3951.2820512820517,3995.8974358974365,4144.102564102564
4295.168,1.0,0.29680502,0.4386704,0.5279783,0,0.0,0.0,0.0,0.0,0.37144434,0,0,0.0,0.0,0,0,66.0,0.0,440.0,4126.153846153847,3653.333333333334,4414.871794871796,4327.179487179487,4231.282051282052,4489.2307692307695,4413.333333333334,4296.410256410257,4315.8974358974365,4624.615384615385,4201.538461538462,4046.1538461538466,4076.9230769230776,4178.974358974359
4295.293,1.0,0.2964172,0.44901967,0.52507323,0,0.0,0.0,0.0,0.0,0.0,0,0,0.0,0.0,0,0,82.0,0.0,535.0,4123.076923076924,3668.205128205129,4425.641025641026,4317.435897435898,4233.333333333334,4495.384615384616,4417.435897435898,4295.384615384616,4321.025641025642,4632.820512820514,4226.153846153847,4070.2564102564106,4087.1794871794878,4169.74358974359
4295.293,1.0,0.2964172,0.44901967,0.52507323,0,0.0,0.0,0.0,0.0,0.0,0,0,0.0,0.0,0,0,82.0,0.0,535.0,4123.076923076924,3668.205128205129,4425.641025641026,4317.435897435898,4233.333333333334,4495.384615384616,4417.435897435898,4295.384615384616,4321.025641025642,4632.820512820514,4226.153846153847,4070.2564102564106,4087.1794871794878,4169.74358974359
4295.9185,1.0,0.29606816,0.45833156,0.523784,0,0.0,0.0,0.0,0.0,0.0,0,0,0.0,0.5952983,0,0,33.0,0.0,0.0,4147.6923076923085,3667.692307692308,4452.820512820514,4303.589743589744,4208.205128205129,4505.128205128206,4420.512820512821,4347.6923076923085,4371.794871794872,4684.102564102564,4314.358974358975,4164.102564102564,4181.538461538462,4188.717948717949
4296.0435,1.0,0.29606816,0.45833156,0.523784,0,0.0,0.0,0.0,0.0,0.0,0,0,0.0,0.0,0,0,49.0,0.0,0.0,4197.948717948719,3702.0512820512827,4468.717948717949,4328.717948717949,4216.410256410257,4508.717948717949,4429.743589743591,4367.179487179487,4381.538461538462,4697.948717948719,4321.025641025642,4196.410256410257,4203.076923076924,4201.025641025642
4296.294,0.98122776,0.29575402,0.4553513,0.52474594,0,0.0,0.0,0.0,0.0,0.0,0,0,0.0,0.0,0,0,81.0,0.0,460.0,4219.48717948718,3717.9487179487182,4456.923076923077,4350.256410256411,4207.6923076923085,4505.128205128206,4405.128205128206,4337.435897435898,4356.410256410257,4675.8974358974365,4310.769230769231,4182.564102564103,4183.589743589744,4185.641025641026
4296.294,0.98122776,0.29575402,0.4553513,0.52474594,0,0.0,0.0,0.0,0.0,0.0,0,0,0.0,0.0,0,0,81.0,0.0,460.0,4219.48717948718,3717.9487179487182,4456.923076923077,4350.256410256411,4207.6923076923085,4505.128205128206,4405.128205128206,4337.435897435898,4356.410256410257,4675.8974358974365,4310.769230769231,4182.564102564103,4183.589743589744,4185.641025641026
4296.794,0.9314183,0.32807326,0.45266736,0.5270679,0,0.0,0.0,0.0,0.0,0.0,0,0,0.0,0.0,0,0,16.0,0.0,0.0,4330.769230769231,3762.0512820512827,4493.846153846154,4399.48717948718,4189.2307692307695,4521.025641025642,4451.282051282052,4397.435897435898,4386.153846153847,4682.564102564103,4344.615384615385,4283.589743589744,4205.128205128206,4240.000000000001
4296.794,0.9314183,0.32807326,0.45266736,0.5270679,0,0.0,0.0,0.0,0.0,0.0,0,0,0.0,0.0,0,0,16.0,0.0,0.0,4330.769230769231,3762.0512820512827,4493.846153846154,4399.48717948718,4189.2307692307695,4521.025641025642,4451.282051282052,4397.435897435898,4386.153846153847,4682.564102564103,4344.615384615385,4283.589743589744,4205.128205128206,4240.000000000001
4297.2944,0.87049615,0.3707777,0.4419957,0.5286461,0,0.0,0.0,0.0,0.0,0.0,0,0,0.0,0.0,0,0,80.0,0.0,505.0,4421.025641025642,3801.0256410256416,4491.282051282052,4410.256410256411,4198.974358974359,4522.051282051282,4433.333333333334,4381.538461538462,4375.384615384616,4662.051282051282,4322.564102564103,4278.974358974359,4182.564102564103,4250.256410256411
4297.2944,0.87049615,0.3707777,0.4419957,0.5286461,0,0.0,0.0,0.0,0.0,0.0,0,0,0.0,0.0,0,0,80.0,0.0,505.0,4421.025641025642,3801.0256410256416,4491.282051282052,4410.256410256411,4198.974358974359,4522.051282051282,4433.333333333334,4381.538461538462,4375.384615384616,4662.051282051282,4322.564102564103,4278.974358974359,4182.564102564103,4250.256410256411
4297.92,0.7526352,0.4469264,0.4323901,0.5300666,0,0.0,0.0,0.0,0.0,0.7583565,0,0,0.0,0.0,0,0,31.0,0.0,0.0,4507.179487179488,3891.2820512820517,4479.48717948718,4424.102564102564,4211.282051282052,4508.205128205129,4408.205128205129,4357.948717948719,4315.8974358974365,4588.205128205129,4233.846153846154,4208.205128205129,4065.6410256410263,4266.153846153847
4298.1704,0.7526352,0.4469264,0.4323901,0.5300666,0,0.0,0.0,0.0,0.0,0.56636554,0,0,0.0,0.0,0,0,63.0,0.0,0.0,4493.333333333334,3853.8461538461543,4478.974358974359,4426.153846153847,4203.589743589744,4501.538461538462,4393.846153846154,4343.076923076924,4324.102564102564,4616.410256410257,4257.948717948719,4225.641025641026,4114.871794871796,4320.512820512821
4298.4204,0.72381127,0.5239986,0.41817382,0.53134525,0,0.0,0.0,0.0,0.0,0.21114886,0,0,0.0,0.0,0,0,95.0,0.0,390.0,4517.435897435898,3833.333333333334,4504.615384615385,4412.307692307693,4200.512820512821,4513.846153846154,4428.717948717949,4386.666666666667,4345.641025641026,4655.8974358974365,4282.051282051282,4248.717948717949,4130.769230769231,4326.666666666667
4298.671,0.72381127,0.5239986,0.41817382,0.53134525,0,0.0,0.0,0.0,0.0,0.012008032,0,0,0.0,0.0,0,0,127.0,0.0,390.0,4685.128205128206,3733.8461538461543,4666.666666666667,4344.102564102564,4098.461538461539,4551.282051282052,4616.410256410257,4628.717948717949,4510.256410256411,4855.8974358974365,4474.358974358975,4508.205128205129,4306.153846153847,4433.846153846154
4298.921,0.75754076,0.59337324,0.40969095,0.52378124,0,0.0,0.0,0.29757345,0.0,0.0,0,0,0.0,0.0,0,0,30.0,0.0,0.0,5036.410256410257,3888.717948717949,5036.923076923077,4347.179487179487,4058.461538461539,4668.205128205129,4959.48717948718,5078.974358974359,4784.615384615386,5216.923076923078,4777.948717948719,4974.358974358975,4601.538461538462,4626.666666666667
4299.1714,0.75754076,0.59337324,0.40969095,0.52378124,0,0.0,0.0,0.34803465,0.0,0.0,0,0,0.0,0.0,0,0,62.0,0.0,0.0,5384.102564102564,4300.000000000001,5272.307692307693,4464.102564102564,4206.153846153847,4802.051282051282,5189.743589743591,5367.6923076923085,4910.769230769231,5496.410256410257,4978.461538461539,5362.051282051283,4883.076923076924,4798.461538461539
4299.4214,0.8766358,0.65581036,0.40305674,0.5033544,0,0.0,0.0,0.31484032,0.0,0.0,0,0,0.0,0.0,0,0,94.0,0.0,521.0,5346.666666666667,4439.48717948718,5112.820512820514,4520.512820512821,4306.666666666667,4845.128205128206,5083.589743589744,5236.410256410257,4780.512820512821,5437.948717948719,4843.589743589744,5235.8974358974365,4730.256410256411,4741.025641025642
4299.6714,0.8766358,0.65581036,0.40305674,0.5033544,0,0.0,0.0,0.0,0.0,0.0,0,0,0.49522585,0.0,0,0,126.0,0.0,521.0,5152.307692307693,4415.384615384616,4881.025641025642,4503.589743589744,4324.615384615385,4759.48717948718,4794.871794871796,4929.743589743591,4592.307692307693,5205.641025641026,4626.153846153847,4789.2307692307695,4503.589743589744,4650.256410256411
4299.922,0.98143953,0.7120037,0.39195865,0.4765497,0,0.0,0.0,0.2303954,0.0,0.0,0,0,0.0,0.0,0,0,29.0,0.0,0.0,4909.743589743591,4327.179487179487,4610.769230769231,4508.717948717949,4304.102564102564,4607.179487179488,4568.717948717949,4572.820512820514,4374.358974358975,4898.461538461539,4332.820512820514,4445.128205128206,4214.358974358975,4535.8974358974365
4300.172,0.98143953,0.7120037,0.39195865,0.4765497,0,0.0,0.0,0.4479539,0.0,0.0,0,0,0.0,0.0,0,0,61.0,0.0,0.0,4672.820512820514,4196.410256410257,4407.179487179487,4501.025641025642,4293.333333333334,4503.076923076924,4396.410256410257,4309.743589743591,4212.820512820514,4629.743589743591,4087.1794871794878,4153.333333333334,3982.564102564103,4443.076923076924
4300.4224,1.0,0.76257783,0.38196966,0.4460813,0,0.0,0.0,0.36596888,0.0,0.0,0,0,0.0,0.0,0,0,93.0,0.0,455.0,4538.974358974359,4097.948717948719,4323.076923076924,4506.153846153847,4276.923076923077,4424.615384615385,4267.179487179487,4125.128205128206,4106.153846153847,4442.051282051282,3948.205128205129,3996.410256410257,3861.0256410256416,4379.48717948718
4300.6724,1.0,0.76257783,0.38196966,0.4460813,0,0.0,0.0,0.30205446,0.0,0.0,0,0,0.0,0.0,0,0,125.0,0.0,455.0,4413.846153846154,3979.48717948718,4247.179487179487,4473.333333333334,4274.358974358975,4412.820512820514,4212.820512820514,4053.8461538461543,4076.410256410257,4364.102564102564,3909.2307692307695,3892.307692307693,3791.2820512820517,4297.948717948719
4300.7974,1.0,0.80809444,0.3843291,0.4130211,0,0.0,0.0,0.0,0.0,0.0,0,0,0.0,0.0,0,0,12.0,0.0,498.0,4387.6923076923085,3936.410256410257,4250.769230769231,4480.000000000001,4264.102564102564,4413.333333333334,4201.025641025642,4043.589743589744,4088.717948717949,4345.641025641026,3945.1282051282055,3881.0256410256416,3804.615384615385,4288.717948717949
4301.173,1.0,0.80809444,0.3843291,0.4130211,0,0.0,0.0,0.0,0.0,0.4798703,0,0,0.0,0.0,0,0,60.0,0.0,0.0,4319.48717948718,3830.2564102564106,4250.256410256411,4445.128205128206,4243.589743589744,4412.820512820514,4217.948717948719,4074.358974358975,4137.435897435898,4382.564102564103,4012.820512820513,3880.512820512821,3835.3846153846157,4250.769230769231
4301.4233,0.90719885,0.84905946,0.40240744,0.3796963,0,0.0,0.0,0.0,0.0,0.18468253,0,0,0.0,0.0,0,0,92.0,0.0,500.0,4337.435897435898,3811.7948717948725,4283.589743589744,4432.307692307693,4247.6923076923085,4444.102564102564,4253.333333333334,4119.48717948718,4207.6923076923085,4448.717948717949,4091.2820512820517,3925.1282051282055,3913.333333333334,4273.846153846154
4301.6733,0.90719885,0.84905946,0.40240744,0.3796963,0,0.0,0.0,0.0,0.0,0.07409254,0,0,0.0,0.0,0,0,124.0,0.0,500.0,4362.051282051282,3795.8974358974365,4322.051282051282,4427.6923076923085,4254.871794871796,4474.871794871796,4309.2307692307695,4172.820512820514,4250.256410256411,4505.641025641026,4152.820512820514,3967.692307692308,3983.589743589744,4297.948717948719
4301.9233,1.0,0.885928,0.4322477,0.34479842,0,0.0,0.0,0.0,0.0,0.0,0,0,0.0,0.0,0,0,27.0,0.0,0.0,4371.282051282052,3787.692307692308,4342.564102564103,4413.846153846154,4255.8974358974365,4478.974358974359,4324.102564102564,4197.948717948719,4285.128205128206,4525.128205128206,4170.769230769231,3987.1794871794878,4024.615384615385,4287.6923076923085
4301.9233,1.0,0.885928,0.4322477,0.34479842,0,0.0,0.0,0.0,0.0,0.0,0,0,0.0,0.0,0,0,27.0,0.0,0.0,4371.282051282052,3787.692307692308,4342.564102564103,4413.846153846154,4255.8974358974365,4478.974358974359,4324.102564102564,4197.948717948719,4285.128205128206,4525.128205128206,4170.769230769231,3987.1794871794878,4024.615384615385,4287.6923076923085
4302.299,1.0,0.9191096,0.4617412,0.31106666,0,0.0,0.0,0.0,0.0,0.0,0,0,0.0,0.0,0,0,75.0,0.0,384.0,4394.871794871796,3789.7435897435903,4382.051282051282,4413.333333333334,4247.179487179487,4494.871794871796,4360.000000000001,4249.2307692307695,4324.102564102564,4568.205128205129,4230.769230769231,4032.820512820513,4081.538461538462,4304.615384615385
4302.299,1.0,0.9191096,0.4617412,0.31106666,0,0.0,0.0,0.0,0.0,0.0,0,0,0.0,0.0,0,0,75.0,0.0,384.0,4394.871794871796,3789.7435897435903,4382.051282051282,4413.333333333334,4247.179487179487,4494.871794871796,4360.000000000001,4249.2307692307695,4324.102564102564,4568.205128205129,4230.769230769231,4032.820512820513,4081.538461538462,4304.615384615385
4302.8306,1.0,0.94897306,0.48828077,0.2807358,1,0.0,0.0,0.0,0.0,0.0,0,0,0.0,0.0,0,0,14.0,0.0,534.0,4526.666666666667,3755.8974358974365,4445.641025641026,4409.2307692307695,4197.435897435898,4489.2307692307695,4389.743589743591,4316.923076923077,4410.769230769231,4664.615384615386,4405.641025641026,4190.256410256411,4298.461538461539,4441.025641025642
4303.175,1.0,0.94897306,0.48828077,0.2807358,0,0.0,0.0,0.046460602,0.0,0.0,0,0,0.0,0.0,0,0,58.0,0.0,0.0,4440.512820512821,3783.076923076924,4438.974358974359,4403.076923076924,4203.076923076924,4508.205128205129,4390.769230769231,4333.846153846154,4358.461538461539,4654.358974358975,4334.871794871796,4152.820512820514,4170.256410256411,4367.179487179487
4303.425,0.90107405,0.9758502,0.50706226,0.2534703,0,0.0,0.0,0.0,0.0,0.08159487,0,0,0.0,0.0,0,0,90.0,0.0,537.0,4461.025641025642,3829.2307692307695,4457.948717948719,4395.384615384616,4196.410256410257,4534.871794871796,4407.179487179487,4353.333333333334,4375.8974358974365,4646.666666666667,4293.846153846154,4168.717948717949,4122.564102564103,4347.6923076923085
4303.6753,0.90107405,0.9758502,0.50706226,0.2534703,0,0.0,0.0,0.0,0.0,0.08872363,0,0,0.0,0.0,0,0,122.0,0.0,537.0,4493.333333333334,3829.7435897435903,4459.48717948718,4379.48717948718,4199.48717948718,4537.948717948719,4390.256410256411,4406.666666666667,4436.410256410257,4700.512820512821,4343.589743589744,4206.666666666667,4169.2307692307695,4373.333333333334
4303.9253,0.836365,0.9635195,0.51562047,0.24526514,0,0.0,0.0,0.0,0.0,0.0,0,0,0.0,0.0,0,0,25.0,0.0,0.0,4560.000000000001,3860.0000000000005,4489.743589743591,4393.333333333334,4195.384615384616,4542.051282051282,4400.512820512821,4406.666666666667,4429.743589743591,4694.358974358975,4352.307692307693,4236.410256410257,4192.307692307693,4397.948717948719
4303.9253,0.836365,0.9635195,0.51562047,0.24526514,0,0.0,0.0,0.0,0.0,0.0,0,0,0.0,0.0,0,0,25.0,0.0,0.0,4560.000000000001,3860.0000000000005,4489.743589743591,4393.333333333334,4195.384615384616,4542.051282051282,4400.512820512821,4406.666666666667,4429.743589743591,4694.358974358975,4352.307692307693,4236.410256410257,4192.307692307693,4397.948717948719
4304.426,0.8203535,0.94188976,0.5259595,0.2505123,0,0.0,0.0,0.0,0.0,0.0,0,0,0.0,0.0,0,0,89.0,0.0,459.0,4593.333333333334,3811.7948717948725,4502.051282051282,4404.102564102564,4187.179487179487,4527.179487179488,4427.6923076923085,4458.974358974359,4480.512820512821,4753.846153846154,4438.461538461539,4314.871794871796,4323.589743589744,4457.948717948719
4304.676,0.8203535,0.94188976,0.5259595,0.2505123,0,0.0,0.0,0.0,0.0,0.26805118,0,1,0.0,0.0,0,0,121.0,0.0,459.0,4562.564102564103,3842.0512820512827,4504.615384615385,4428.717948717949,4188.717948717949,4525.128205128206,4457.948717948719,4480.512820512821,4488.205128205129,4754.871794871796,4447.6923076923085,4309.743589743591,4302.564102564103,4424.615384615385
4304.9263,0.78178096,0.9000634,0.5286536,0.2597198,0,0.0,0.0,0.0,0.0,0.39340606,0,0,0.0,0.0,1,0,24.0,0.0,0.0,4669.743589743591,3927.1794871794878,4523.076923076924,4473.846153846154,4183.076923076924,4507.6923076923085,4429.743589743591,4440.512820512821,4446.666666666667,4723.589743589744,4427.6923076923085,4310.769230769231,4280.512820512821,4436.410256410257
4305.1763,0.78178096,0.9000634,0.5286536,0.2597198,0,0.0,0.0,0.0,0.0,0.6113083,0,0,0.0,0.0,1,0,56.0,0.0,0.0,4484.102564102564,3913.333333333334,4475.8974358974365,4459.48717948718,4229.2307692307695,4534.358974358975,4448.717948717949,4443.076923076924,4424.615384615385,4720.000000000001,4367.6923076923085,4235.8974358974365,4201.538461538462,4358.461538461539
4305.427,0.7767441,0.89062566,0.53107417,0.27183494,0,0.0,0.0,0.1404903,0.0,0.0,0,0,0.0,0.0,0,0,88.0,0.0,503.0,4708.205128205129,3962.0512820512827,4524.102564102564,4477.948717948719,4213.846153846154,4503.076923076924,4415.384615384616,4411.794871794872,4410.256410256411,4700.000000000001,4389.743589743591,4296.410256410257,4251.282051282052,4474.871794871796
4305.677,0.7767441,0.89062566,0.53107417,0.27183494,0,0.0,0.0,0.0,0.0,0.46715084,0,0,0.0,0.0,0,0,120.0,0.0,503.0,4594.358974358975,3923.589743589744,4485.128205128206,4460.000000000001,4238.974358974359,4523.589743589744,4436.410256410257,4407.6923076923085,4378.974358974359,4673.846153846154,4323.076923076924,4233.333333333334,4165.128205128206,4411.282051282052
4305.927,0.6863414,0.92384964,0.54088384,0.28654772,0,0.0,0.0,0.0,0.0,0.14683597,0,0,0.0,0.0,0,0,23.0,0.0,0.0,4619.48717948718,3928.205128205129,4477.435897435898,4457.435897435898,4257.435897435898,4522.564102564103,4416.410256410257,4391.794871794872,4383.076923076924,4674.358974358975,4338.461538461539,4230.769230769231,4181.538461538462,4427.179487179487
4306.1772,0.6863414,0.92384964,0.54088384,0.28654772,0,0.0,0.0,0.0,0.0,0.0,0,0,0.0,0.071928866,0,0,55.0,0.0,0.0,4605.128205128206,3895.3846153846157,4456.923076923077,4431.282051282052,4248.205128205129,4532.307692307693,4427.6923076923085,4391.282051282052,4387.6923076923085,4670.256410256411,4342.564102564103,4225.641025641026,4199.48717948718,4427.6923076923085
4306.4272,0.613697,0.95378745,0.550529,0.29597571,0,0.0,0.0,0.0,0.0,0.0,0,0,0.0,0.2511384,0,0,87.0,0.0,384.0,4606.666666666667,3901.538461538462,4462.051282051282,4432.307692307693,4247.6923076923085,4537.948717948719,4419.48717948718,4368.717948717949,4379.48717948718,4662.564102564103,4344.615384615385,4215.384615384616,4191.282051282052,4422.051282051282
4306.6777,0.613697,0.95378745,0.550529,0.29597571,0,0.0,0.0,0.0,0.0,0.0,0,0,0.0,0.0,0,0,119.0,0.0,384.0,4622.564102564103,3896.410256410257,4456.410256410257,4431.794871794872,4235.8974358974365,4541.538461538462,4417.948717948719,4365.128205128206,4372.820512820514,4637.435897435898,4309.743589743591,4208.717948717949,4154.358974358975,4416.410256410257
4306.8027,0.57311434,0.96016425,0.55920327,0.30555978,0,0.0,0.0,0.0,0.0,0.0,0,0,0.0,0.0,0,0,6.0,0.0,533.0,4629.2307692307695,3912.820512820513,4459.48717948718,4430.769230769231,4236.410256410257,4537.435897435898,4415.384615384616,4372.307692307693,4382.564102564103,4649.2307692307695,4309.743589743591,4205.641025641026,4154.358974358975,4422.051282051282
4306.8027,0.57311434,0.96016425,0.55920327,0.30555978,0,0.0,0.0,0.0,0.0,0.0,0,0,0.0,0.0,0,0,6.0,0.0,533.0,4629.2307692307695,3912.820512820513,4459.48717948718,4430.769230769231,4236.410256410257,4537.435897435898,4415.384615384616,4372.307692307693,4382.564102564103,4649.2307692307695,4309.743589743591,4205.641025641026,4154.358974358975,4422.051282051282
4307.303,0.51820636,0.9182574,0.5611024,0.31689656,0,0.0,0.0,0.0,0.0,0.0,0,0,0.0,0.0,0,0,70.0,0.0,533.0,4625.128205128206,3912.820512820513,4457.435897435898,4432.820512820514,4232.307692307693,4528.205128205129,4412.307692307693,4365.641025641026,4382.051282051282,4655.8974358974365,4310.256410256411,4217.435897435898,4169.2307692307695,4438.974358974359
4307.6787,0.51820636,0.9182574,0.5611024,0.31689656,0,0.0,0.0,0.0,0.0,0.0,0,0,0.0,0.21209133,0,0,118.0,0.0,537.0,4621.538461538462,3914.8717948717954,4469.2307692307695,4438.461538461539,4235.384615384616,4540.000000000001,4424.615384615385,4383.076923076924,4407.179487179487,4668.717948717949,4331.794871794872,4230.769230769231,4178.974358974359,4452.820512820514
4307.9287,0.5115598,0.8540975,0.55154514,0.32926935,0,0.0,0.0,0.10180198,0.0,0.0,0,0,0.0,0.0,0,0,21.0,0.0,0.0,4587.179487179488,3922.0512820512827,4461.538461538462,4428.717948717949,4234.871794871796,4545.128205128206,4433.333333333334,4391.794871794872,4410.769230769231,4676.410256410257,4324.615384615385,4231.282051282052,4180.512820512821,4450.256410256411
4308.1787,0.5115598,0.8540975,0.55154514,0.32926935,0,0.0,0.0,0.0,0.0,0.27283403,0,0,0.0,0.0,0,0,53.0,0.0,0.0,4583.589743589744,3926.666666666667,4472.820512820514,4432.820512820514,4235.384615384616,4542.564102564103,4421.025641025642,4386.153846153847,4401.538461538462,4678.974358974359,4325.641025641026,4220.000000000001,4184.615384615385,4473.846153846154
4308.304,0.45566463,0.79395384,0.5299991,0.34040338,0,0.0,0.0,0.0,0.0,0.0,0,0,0.0,0.0,0,0,69.0,0.0,560.0,4586.153846153847,3937.9487179487182,4467.179487179487,4434.871794871796,4233.333333333334,4538.974358974359,4413.846153846154,4376.923076923077,4397.435897435898,4681.538461538462,4328.205128205129,4228.205128205129,4190.256410256411,4478.461538461539
4308.679,0.45566463,0.79395384,0.5299991,0.34040338,0,0.0,0.0,0.0,0.0,0.08789138,0,0,0.0,0.0,0,0,117.0,0.0,460.0,4585.128205128206,3926.1538461538466,4457.948717948719,4433.333333333334,4233.333333333334,4551.794871794872,4431.794871794872,4388.717948717949,4403.076923076924,4668.205128205129,4321.538461538462,4211.794871794872,4174.871794871796,4488.205128205129
4308.9297,0.39959392,0.7309058,0.5062351,0.35678846,0,0.0,0.0,0.0,0.0,0.20262624,0,0,0.0,0.0,0,0,20.0,0.0,0.0,4634.871794871796,3942.0512820512827,4461.025641025642,4435.8974358974365,4233.846153846154,4539.48717948718,4422.564102564103,4381.538461538462,4394.358974358975,4670.769230769231,4316.410256410257,4220.000000000001,4187.6923076923085,4527.179487179488
4309.1797,0.39959392,0.7309058,0.5062351,0.35678846,0,0.0,0.0,0.0,0.0,0.5293361,0,0,0.0,0.0,0,0,52.0,0.0,0.0,4763.076923076924,3968.205128205129,4497.948717948719,4454.358974358975,4233.846153846154,4539.48717948718,4424.615384615385,4386.666666666667,4392.307692307693,4667.6923076923085,4348.717948717949,4263.589743589744,4219.48717948718,4582.564102564103
4309.43,0.36735627,0.7071571,0.46875405,0.38043562,0,0.0,0.0,0.0,0.0,0.17373864,0,0,0.0,0.0,0,0,84.0,0.0,504.0,4763.076923076924,3965.6410256410263,4485.128205128206,4445.128205128206,4223.076923076924,4534.871794871796,4415.384615384616,4371.794871794872,4385.641025641026,4659.48717948718,4346.666666666667,4250.256410256411,4211.794871794872,4585.128205128206
4309.68,0.36735627,0.7071571,0.46875405,0.38043562,0,0.0,0.0,0.0,0.0,0.0,0,0,0.0,0.0,0,0,116.0,0.0,504.0,4763.589743589744,3955.3846153846157,4486.666666666667,4442.564102564103,4209.2307692307695,4523.589743589744,4399.48717948718,4367.6923076923085,4385.128205128206,4664.615384615386,4341.538461538462,4248.205128205129,4212.307692307693,4589.2307692307695
4309.805,0.45045805,0.7052755,0.4223014,0.4017141,0,0.0,0.0,0.0,0.0,0.0,0,0,0.0,0.0,0,0,3.0,0.0,538.0,4739.48717948718,3942.564102564103,4475.384615384616,4429.743589743591,4210.769230769231,4520.512820512821,4406.153846153847,4363.589743589744,4385.641025641026,4665.128205128206,4340.512820512821,4235.384615384616,4203.076923076924,4598.461538461539
4309.805,0.45045805,0.7052755,0.4223014,0.4017141,0,0.0,0.0,0.0,0.0,0.0,0,0,0.0,0.0,0,0,3.0,0.0,538.0,4739.48717948718,3942.564102564103,4475.384615384616,4429.743589743591,4210.769230769231,4520.512820512821,4406.153846153847,4363.589743589744,4385.641025641026,4665.128205128206,4340.512820512821,4235.384615384616,4203.076923076924,4598.461538461539
4310.3057,0.423463,0.7070909,0.3804939,0.41416788,0,0.0,0.0,0.0,0.0,0.0,0,0,0.0,0.0,0,0,67.0,0.0,538.0,4700.000000000001,3958.9743589743593,4265.128205128206,4428.717948717949,4227.6923076923085,4540.000000000001,4421.538461538462,4387.179487179487,4387.179487179487,4669.743589743591,4324.102564102564,4218.974358974359,4168.717948717949,4566.153846153847
4310.3057,0.423463,0.7070909,0.3804939,0.41416788,0,0.0,0.0,0.0,0.0,0.0,0,0,0.0,0.0,0,0,67.0,0.0,538.0,4700.000000000001,3958.9743589743593,4265.128205128206,4428.717948717949,4227.6923076923085,4540.000000000001,4421.538461538462,4387.179487179487,4387.179487179487,4669.743589743591,4324.102564102564,4218.974358974359,4168.717948717949,4566.153846153847
4310.806,0.40729398,0.72692347,0.34286672,0.41910997,0,0.0,0.0,0.0,0.0,0.0,0,0,0.0,0.0,0,0,2.0,0.0,435.0,4675.384615384616,3932.820512820513,4272.820512820514,4418.974358974359,4221.538461538462,4540.000000000001,4422.564102564103,4375.8974358974365,4395.384615384616,4679.48717948718,4334.871794871796,4218.974358974359,4182.564102564103,4586.153846153847
4310.806,0.40729398,0.72692347,0.34286672,0.41910997,0,0.0,0.0,0.0,0.0,0.0,0,0,0.0,0.0,0,0,2.0,0.0,435.0,4675.384615384616,3932.820512820513,4272.820512820514,4418.974358974359,4221.538461538462,4540.000000000001,4422.564102564103,4375.8974358974365,4395.384615384616,4679.48717948718,4334.871794871796,4218.974358974359,4182.564102564103,4586.153846153847
4311.3066,0.33415,0.73859394,0.36607492,0.38847834,0,0.0,0.0,0.0,0.0,0.0,0,0,0.0,0.0,0,0,66.0,0.0,435.0,4670.769230769231,3965.6410256410263,4354.871794871796,4434.871794871796,4233.333333333334,4538.461538461539,4412.307692307693,4375.8974358974365,4398.461538461539,4688.717948717949,4326.153846153847,4223.076923076924,4182.564102564103,4572.820512820514
4311.3066,0.33415,0.73859394,0.36607492,0.38847834,0,0.0,0.0,0.0,0.0,0.0,0,0,0.0,0.0,0,0,66.0,0.0,435.0,4670.769230769231,3965.6410256410263,4354.871794871796,4434.871794871796,4233.333333333334,4538.461538461539,4412.307692307693,4375.8974358974365,4398.461538461539,4688.717948717949,4326.153846153847,4223.076923076924,4182.564102564103,4572.820512820514
4311.807,0.29952782,0.75865513,0.48178434,0.33495307,0,0.0,0.0,0.0,0.0,0.0,0,0,0.0,0.0,0,0,1.0,0.0,497.0,4673.846153846154,3973.8461538461543,4411.794871794872,4445.128205128206,4244.102564102564,4537.948717948719,4405.641025641026,4390.769230769231,4400.000000000001,4694.871794871796,4347.179487179487,4236.923076923077,4216.410256410257,4590.769230769231
4311.807,0.29952782,0.75865513,0.48178434,0.33495307,0,0.0,0.0,0.0,0.0,0.0,0,0,0.0,0.0,0,0,1.0,0.0,497.0,4673.846153846154,3973.8461538461543,4411.794871794872,4445.128205128206,4244.102564102564,4537.948717948719,4405.641025641026,4390.769230769231,4400.000000000001,4694.871794871796,4347.179487179487,4236.923076923077,4216.410256410257,4590.769230769231
4312.3076,0.25984964,0.7928104,0.6285217,0.27732575,0,0.0,0.0,0.0,0.0,0.0,0,0,0.0,0.0,0,0,65.0,0.0,497.0,4696.923076923077,3972.307692307693,4372.307692307693,4443.076923076924,4263.076923076924,4573.333333333334,4457.435897435898,4432.307692307693,4424.615384615385,4704.615384615386,4362.051282051282,4250.769230769231,4231.282051282052,4598.974358974359
4312.3076,0.25984964,0.7928104,0.6285217,0.27732575,0,0.0,0.0,0.0,0.0,0.0,0,0,0.0,0.0,0,0,65.0,0.0,497.0,4696.923076923077,3972.307692307693,4372.307692307693,4443.076923076924,4263.076923076924,4573.333333333334,4457.435897435898,4432.307692307693,4424.615384615385,4704.615384615386,4362.051282051282,4250.769230769231,4231.282051282052,4598.974358974359
4312.808,0.25661847,0.83584684,0.6666667,0.21052031,0,0.0,0.0,0.0,0.0,0.0,0,0,0.0,0.0,0,0,0.0,0.0,489.0,4689.2307692307695,3965.6410256410263,4388.717948717949,4431.794871794872,4248.205128205129,4547.6923076923085,4425.128205128206,4400.512820512821,4406.153846153847,4711.794871794872,4354.871794871796,4234.358974358975,4205.641025641026,4598.461538461539
4312.808,0.25661847,0.83584684,0.6666667,0.21052031,0,0.0,0.0,0.0,0.0,0.0,0,0,0.0,0.0,0,0,0.0,0.0,489.0,4689.2307692307695,3965.6410256410263,4388.717948717949,4431.794871794872,4248.205128205129,4547.6923076923085,4425.128205128206,4400.512820512821,4406.153846153847,4711.794871794872,4354.871794871796,4234.358974358975,4205.641025641026,4598.461538461539
4313.34,0.21153964,0.87155974,0.6666667,0.15028958,0,0.0,0.0,0.0,0.0,0.0,0,0,0.0,0.0,0,0,68.0,0.0,560.0,4736.410256410257,4003.589743589744,4408.205128205129,4443.589743589744,4246.153846153847,4540.000000000001,4414.871794871796,4401.025641025642,4404.102564102564,4701.538461538462,4337.948717948719,4217.948717948719,4184.615384615385,4586.666666666667
4313.34,0.21153964,0.87155974,0.6666667,0.15028958,0,0.0,0.0,0.0,0.0,0.0,0,0,0.0,0.0,0,0,68.0,0.0,560.0,4736.410256410257,4003.589743589744,4408.205128205129,4443.589743589744,4246.153846153847,4540.000000000001,4414.871794871796,4401.025641025642,4404.102564102564,4701.538461538462,4337.948717948719,4217.948717948719,4184.615384615385,4586.666666666667
4313.8086,0.21833062,0.910125,0.6666667,0.09980596,0,0.0,0.0,0.0,0.0,0.0,0,0,0.0,0.0,0,0,128.0,0.0,504.0,4769.743589743591,4007.1794871794878,4421.538461538462,4443.076923076924,4247.179487179487,4550.256410256411,4427.6923076923085,4393.333333333334,4391.794871794872,4691.794871794872,4336.410256410257,4207.179487179487,4168.717948717949,4621.025641025642
4313.8086,0.21833062,0.910125,0.6666667,0.09980596,0,0.0,0.0,0.0,0.0,0.0,0,0,0.0,0.0,0,0,128.0,0.0,504.0,4769.743589743591,4007.1794871794878,4421.538461538462,4443.076923076924,4247.179487179487,4550.256410256411,4427.6923076923085,4393.333333333334,4391.794871794872,4691.794871794872,4336.410256410257,4207.179487179487,4168.717948717949,4621.025641025642
4314.309,0.19656447,0.96388173,0.6666667,0.09239513,0,0.0,0.0,0.0,0.0,0.0,0,0,0.0,0.0,0,0,63.0,0.0,0.0,4685.128205128206,3981.0256410256416,4441.025641025642,4446.153846153847,4232.820512820514,4520.000000000001,4420.000000000001,4419.48717948718,4413.846153846154,4726.153846153847,4364.102564102564,4235.384615384616,4195.384615384616,4598.461538461539
4314.309,0.19656447,0.96388173,0.6666667,0.09239513,0,0.0,0.0,0.0,0.0,0.0,0,0,0.0,0.0,0,0,63.0,0.0,0.0,4685.128205128206,3981.0256410256416,4441.025641025642,4446.153846153847,4232.820512820514,4520.000000000001,4420.000000000001,4419.48717948718,4413.846153846154,4726.153846153847,4364.102564102564,4235.384615384616,4195.384615384616,4598.461538461539
4314.9346,0.19992743,1.0,0.6666667,0.13861077,0,0.0,0.0,0.0,0.0,0.23923351,0,0,0.0,0.0,0,1,14.0,0.0,540.0,4630.256410256411,3950.2564102564106,4428.205128205129,4427.179487179487,4250.256410256411,4542.051282051282,4423.589743589744,4381.538461538462,4394.358974358975,4698.974358974359,4328.205128205129,4194.871794871796,4166.666666666667,4596.410256410257
4315.2163,0.19992743,1.0,0.6666667,0.13861077,0,0.0,0.0,0.0,0.0,0.54372555,0,0,0.0,0.0,0,0,50.0,0.0,0.0,4605.641025641026,3943.589743589744,4412.307692307693,4411.282051282052,4253.846153846154,4542.564102564103,4408.717948717949,4364.615384615385,4385.641025641026,4679.48717948718,4324.615384615385,4179.48717948718,4154.358974358975,4584.615384615385
4315.435,0.17614752,1.0,0.6666667,0.18015243,0,0.0,0.0,0.0,0.0,0.08059116,0,0,0.0,0.0,0,0,78.0,0.0,540.0,4600.512820512821,3943.589743589744,4427.6923076923085,4422.051282051282,4253.333333333334,4551.282051282052,4412.820512820514,4369.743589743591,4384.615384615385,4682.051282051282,4323.076923076924,4178.974358974359,4153.333333333334,4580.512820512821
4315.6855,0.17614752,1.0,0.6666667,0.18015243,0,0.0,0.0,0.0,0.0,0.11463689,0,0,0.0,0.0,0,0,110.0,0.0,540.0,4600.512820512821,3909.2307692307695,4441.538461538462,4413.333333333334,4246.153846153847,4540.000000000001,4423.076923076924,4391.794871794872,4416.923076923077,4725.128205128206,4366.153846153847,4219.48717948718,4219.48717948718,4603.589743589744
4315.8105,0.1679971,1.0,0.6666667,0.21750228,0,0.0,0.0,0.0,0.0,0.0,0,0,0.0,0.0,0,0,126.0,0.0,540.0,4596.410256410257,3913.8461538461543,4428.717948717949,4410.256410256411,4235.384615384616,4536.410256410257,4426.153846153847,4393.333333333334,4413.846153846154,4713.846153846154,4361.025641025642,4213.333333333334,4210.769230769231,4602.564102564103
4316.186,0.1679971,1.0,0.6666667,0.21750228,0,0.0,0.0,0.0,0.0,0.23125385,0,0,0.0,0.0,0,0,45.0,0.0,0.0,4675.384615384616,3962.0512820512827,4427.6923076923085,4434.871794871796,4249.2307692307695,4538.974358974359,4411.282051282052,4372.307692307693,4392.307692307693,4687.179487179488,4329.2307692307695,4187.6923076923085,4183.076923076924,4611.794871794872
4316.436,0.11124016,0.9917051,0.6666667,0.25063643,0,0.0,0.0,0.0,0.0,1.0,0,0,0.0,0.0,0,0,77.0,0.0,463.0,4672.307692307693,3963.076923076924,4443.589743589744,4447.179487179487,4249.2307692307695,4541.025641025642,4418.461538461539,4373.333333333334,4397.435897435898,4710.256410256411,4355.8974358974365,4209.2307692307695,4199.48717948718,4614.871794871796
4316.686,0.11124016,0.9917051,0.6666667,0.25063643,0,0.0,0.0,0.0,0.0,0.6077872,0,0,0.0,0.0,0,0,109.0,0.0,463.0,4616.410256410257,3926.1538461538466,4428.205128205129,4429.743589743591,4248.717948717949,4547.179487179488,4418.974358974359,4396.923076923077,4448.205128205129,4751.282051282052,4396.410256410257,4217.435897435898,4260.000000000001,4610.256410256411
4316.9365,0.07507687,0.9452777,0.6666667,0.2804382,0,0.0,0.0,0.0,0.0,0.42236415,0,0,0.0,0.0,0,0,12.0,0.0,504.0,4592.307692307693,3880.512820512821,4434.358974358975,4409.743589743591,4228.717948717949,4541.025641025642,4444.102564102564,4418.974358974359,4439.48717948718,4744.615384615386,4405.641025641026,4246.666666666667,4249.2307692307695,4606.666666666667
4317.1865,0.07507687,0.9452777,0.6666667,0.2804382,0,0.0,0.0,0.0,0.0,0.082441375,0,0,0.0,0.0,0,0,44.0,0.0,0.0,4751.794871794872,3870.2564102564106,4538.974358974359,4414.358974358975,4168.205128205129,4568.205128205129,4541.025641025642,4548.717948717949,4556.410256410257,4874.358974358975,4543.076923076924,4396.923076923077,4380.000000000001,4690.769230769231
4317.437,0.15814188,0.90367794,0.6666667,0.30317706,0,0.0,0.0,0.0,0.0,0.0439043,0,0,0.0,0.0,0,1,76.0,0.0,498.0,4871.794871794872,3882.0512820512827,4685.128205128206,4441.025641025642,4141.025641025642,4615.8974358974365,4701.538461538462,4777.435897435898,4721.025641025642,5081.025641025642,4720.000000000001,4610.769230769231,4530.256410256411,4744.102564102564
4317.687,0.15814188,0.90367794,0.6666667,0.30317706,0,0.0,0.0,0.1922256,0.0,0.0,0,0,0.0,0.0,0,0,108.0,0.0,498.0,4969.2307692307695,4049.7435897435903,4770.769230769231,4490.769230769231,4217.435897435898,4686.153846153847,4766.153846153847,4909.2307692307695,4816.923076923077,5181.538461538462,4793.333333333334,4709.2307692307695,4591.282051282052,4757.948717948719
4317.9375,0.34916484,0.8662381,0.6666667,0.31675366,0,0.0,0.0,0.0,0.0,0.080975555,0,0,0.0,0.0,0,0,11.0,0.0,375.0,5024.102564102564,4169.74358974359,4787.6923076923085,4523.076923076924,4323.076923076924,4718.974358974359,4753.846153846154,4907.179487179488,4835.384615384616,5211.282051282052,4816.410256410257,4730.256410256411,4621.538461538462,4779.48717948718
4318.1875,0.34916484,0.8662381,0.6666667,0.31675366,0,0.0,0.0,0.0,0.0,0.040987592,0,0,0.0,0.0,0,0,43.0,0.0,0.0,4991.794871794872,4213.333333333334,4722.051282051282,4509.743589743591,4358.461538461539,4690.769230769231,4665.128205128206,4794.871794871796,4720.512820512821,5099.487179487181,4702.564102564103,4640.000000000001,4537.435897435898,4772.307692307693
4318.4375,0.517265,0.83254224,0.6666667,0.32897034,0,0.0,0.0,0.30172825,0.0,0.0,0,0,0.0,0.0,0,0,75.0,0.0,375.0,4936.410256410257,4213.333333333334,4655.8974358974365,4547.6923076923085,4382.564102564103,4647.179487179488,4591.282051282052,4663.589743589744,4606.666666666667,4969.2307692307695,4601.538461538462,4530.256410256411,4426.153846153847,4749.743589743591
4318.688,0.517265,0.83254224,0.6666667,0.32897034,0,0.0,0.0,0.3727146,0.0,0.0,0,0,0.0,0.0,0,0,107.0,0.0,375.0,4854.871794871796,4140.512820512821,4568.205128205129,4508.205128205129,4367.6923076923085,4587.6923076923085,4482.051282051282,4503.589743589744,4461.025641025642,4844.615384615386,4484.615384615385,4410.769230769231,4326.153846153847,4752.820512820514
4318.938,0.6651932,0.802216,0.6666667,0.33996394,0,0.0,0.0,0.27081698,0.0,0.0,0,0,0.0,0.0,0,0,10.0,0.0,532.0,4731.794871794872,4052.820512820513,4491.282051282052,4471.794871794872,4342.564102564103,4541.025641025642,4426.666666666667,4394.871794871796,4356.410256410257,4718.461538461539,4368.205128205129,4292.820512820514,4187.6923076923085,4684.615384615386
4319.1885,0.6651932,0.802216,0.6666667,0.33996394,0,0.0,0.0,0.0,0.0,0.07268663,0,0,0.0,0.0,0,0,42.0,0.0,0.0,4704.102564102564,4035.3846153846157,4473.333333333334,4474.871794871796,4312.307692307693,4519.48717948718,4389.2307692307695,4324.615384615385,4280.000000000001,4638.461538461539,4305.128205128206,4221.538461538462,4124.102564102564,4661.025641025642
4319.4385,0.7946157,0.7749224,0.6666667,0.34500384,0,0.0,0.0,0.0,0.0,0.0,0,0,0.0,0.102377474,0,0,74.0,0.0,537.0,4694.358974358975,4009.7435897435903,4469.2307692307695,4473.846153846154,4289.74358974359,4488.205128205129,4362.564102564103,4278.461538461539,4274.358974358975,4600.000000000001,4289.74358974359,4196.923076923077,4104.102564102564,4661.025641025642
4319.689,0.7946157,0.7749224,0.6666667,0.34500384,0,0.0,0.0,0.0,0.0,0.0,0,0,0.0,0.14145055,0,0,106.0,0.0,537.0,4644.615384615385,3987.1794871794878,4445.641025641026,4461.025641025642,4282.051282051282,4486.153846153847,4350.256410256411,4250.769230769231,4262.051282051282,4587.179487179488,4251.282051282052,4169.2307692307695,4091.7948717948725,4647.179487179488
4319.939,0.9092618,0.7503581,0.6475032,0.34954143,0,0.0,0.0,0.0,0.0,0.0,0,0,0.0,0.0,0,0,9.0,0.0,477.0,4586.153846153847,3938.9743589743593,4421.538461538462,4441.538461538462,4263.589743589744,4489.743589743591,4350.769230769231,4249.74358974359,4254.358974358975,4578.974358974359,4229.74358974359,4133.846153846154,4073.8461538461543,4621.025641025642
4320.1895,0.9092618,0.7503581,0.6475032,0.34954143,0,0.0,0.0,0.0,0.0,0.15792464,0,0,0.0,0.0,0,0,41.0,0.0,0.0,4584.102564102564,3910.7692307692314,4428.717948717949,4417.435897435898,4215.8974358974365,4473.333333333334,4340.512820512821,4264.615384615385,4276.410256410257,4598.974358974359,4244.102564102564,4151.282051282052,4104.102564102564,4630.256410256411
4320.4395,0.83522385,0.72825027,0.6197011,0.35362703,0,0.0,0.0,0.0,0.0,0.022874447,0,0,0.0,0.0,0,0,73.0,0.0,477.0,4577.435897435898,3879.48717948718,4424.102564102564,4382.564102564103,4200.000000000001,4508.205128205129,4395.8974358974365,4317.435897435898,4333.333333333334,4640.000000000001,4279.48717948718,4151.282051282052,4127.6923076923085,4615.384615384616
4320.6895,0.83522385,0.72825027,0.6197011,0.35362703,0,0.0,0.0,0.0,0.0,0.057048254,0,0,0.0,0.0,0,0,105.0,0.0,461.0,4584.102564102564,3876.9230769230776,4430.256410256411,4373.846153846154,4201.025641025642,4524.615384615385,4398.461538461539,4335.8974358974365,4366.666666666667,4676.923076923077,4308.717948717949,4158.974358974359,4168.205128205129,4616.923076923077
4320.815,0.87810326,0.7083532,0.5938479,0.3604369,0,0.0,0.0,0.0,0.0,0.0,0,0,0.0,0.0,0,0,121.0,0.0,461.0,4586.666666666667,3879.48717948718,4445.128205128206,4377.948717948719,4195.384615384616,4510.769230769231,4397.435897435898,4350.256410256411,4367.179487179487,4672.820512820514,4311.282051282052,4171.794871794872,4169.74358974359,4620.000000000001
4321.19,0.87810326,0.7083532,0.5938479,0.3604369,0,0.0,0.0,0.0,0.0,0.087651916,0,0,0.0,0.0,0,0,40.0,0.0,0.0,4601.538461538462,3914.358974358975,4447.6923076923085,4400.000000000001,4218.974358974359,4522.051282051282,4391.282051282052,4338.461538461539,4357.435897435898,4672.307692307693,4307.179487179487,4186.153846153847,4172.307692307693,4607.179487179488
4321.4404,0.9097613,0.69044584,0.57058156,0.36656645,0,0.0,0.0,0.0,0.0,0.0,0,0,0.0,0.0,0,0,72.0,0.0,506.0,4564.102564102564,3895.3846153846157,4427.179487179487,4395.384615384616,4214.358974358975,4502.564102564103,4369.743589743591,4310.769230769231,4319.48717948718,4625.128205128206,4276.923076923077,4140.512820512821,4132.820512820514,4570.769230769231
