timestamp,excitement,frustration,meditation,engagementBoredom,blink,clench,laugh,smile,eyebrow,furrowBrow,lookLeft,lookRight,smirkLeft,smirkRight,winkLeft,winkRight,eeg0,eeg1,eeg2,eeg3,eeg4,eeg5,eeg6,eeg7,eeg8,eeg9,eeg10,eeg11,eeg12,eeg13,eeg14,eeg15,eeg16
2263.062,1.0,0.58191854,0.35601887,0.68377656,0,0.0,0.0,0.0,0.0,0.0,0,0,0.0,0.0,0,0,111.0,0.0,410.0,4292.307692307693,3868.205128205129,4475.8974358974365,4434.871794871796,4230.256410256411,4523.076923076924,4268.205128205129,4121.025641025642,4169.74358974359,4628.717948717949,4264.615384615385,4060.5128205128212,4017.435897435898,4271.794871794872
2263.5625,1.0,0.58077085,0.3526531,0.6865368,0,0.0,0.0,0.0,0.0,0.0,0,0,0.0,0.0,0,0,46.0,0.0,0.0,4353.846153846154,3878.9743589743593,4598.974358974359,4464.615384615385,4206.153846153847,4580.000000000001,4360.000000000001,4222.051282051282,4275.384615384616,4709.2307692307695,4257.948717948719,4280.512820512821,4116.410256410257,4327.179487179487
2263.5625,1.0,0.58077085,0.3526531,0.6865368,0,0.0,0.0,0.0,0.0,0.0,0,0,0.0,0.0,0,0,46.0,0.0,0.0,4353.846153846154,3878.9743589743593,4598.974358974359,4464.615384615385,4206.153846153847,4580.000000000001,4360.000000000001,4222.051282051282,4275.384615384616,4709.2307692307695,4257.948717948719,4280.512820512821,4116.410256410257,4327.179487179487
2264.063,0.9924568,0.5797379,0.35232964,0.6890168,0,0.0,0.0,0.0,0.0,0.0,0,0,0.0,0.0,0,0,110.0,0.0,541.0,4309.743589743591,3825.6410256410263,4672.307692307693,4483.076923076924,4229.2307692307695,4633.846153846154,4462.564102564103,4355.384615384616,4363.589743589744,4782.051282051282,4310.256410256411,4426.153846153847,4144.615384615385,4337.435897435898
2264.313,0.9924568,0.5797379,0.35232964,0.6890168,0,0.0,0.0,0.0,0.0,0.40234283,0,0,0.0,0.0,0,0,13.0,0.0,475.0,4457.948717948719,3929.2307692307695,4702.564102564103,4497.435897435898,4236.410256410257,4615.384615384616,4471.794871794872,4365.128205128206,4292.307692307693,4750.256410256411,4275.8974358974365,4457.435897435898,4091.2820512820517,4328.717948717949
2264.5632,0.8754789,0.5788083,0.3483507,0.6968222,0,0.0,0.0,0.0,0.0,0.37670738,0,0,0.0,0.0,0,0,45.0,0.0,0.0,4348.717948717949,3878.9743589743593,4701.025641025642,4492.820512820514,4212.820512820514,4604.615384615385,4479.48717948718,4397.948717948719,4269.74358974359,4759.48717948718,4282.564102564103,4466.666666666667,4089.23076923077,4346.153846153847
2264.8135,0.8754789,0.5788083,0.3483507,0.6968222,0,0.0,0.0,0.0,0.0,0.5263804,0,0,0.0,0.0,0,0,77.0,0.0,475.0,4335.384615384616,3858.461538461539,4686.153846153847,4490.769230769231,4224.102564102564,4592.307692307693,4489.2307692307695,4415.384615384616,4296.410256410257,4781.538461538462,4294.871794871796,4476.410256410257,4105.128205128206,4356.923076923077
2265.0637,0.87398565,0.6232599,0.3486958,0.70261395,0,0.0,0.0,0.0,0.0,0.0,0,0,0.0,0.0,0,0,109.0,0.0,475.0,4363.589743589744,3881.0256410256416,4701.025641025642,4498.461538461539,4250.256410256411,4585.641025641026,4493.333333333334,4436.410256410257,4294.871794871796,4801.538461538462,4331.794871794872,4491.282051282052,4140.512820512821,4375.8974358974365
2265.0637,0.87398565,0.6232599,0.3486958,0.70261395,0,0.0,0.0,0.0,0.0,0.0,0,0,0.0,0.0,0,0,109.0,0.0,475.0,4363.589743589744,3881.0256410256416,4701.025641025642,4498.461538461539,4250.256410256411,4585.641025641026,4493.333333333334,4436.410256410257,4294.871794871796,4801.538461538462,4331.794871794872,4491.282051282052,4140.512820512821,4375.8974358974365
2265.5642,0.8658222,0.69826615,0.35283497,0.7026712,0,0.0,0.0,0.0,0.0,0.0,0,0,0.0,0.0,0,0,44.0,0.0,0.0,4390.769230769231,3805.1282051282055,4678.461538461539,4493.333333333334,4234.871794871796,4572.820512820514,4507.6923076923085,4472.820512820514,4351.794871794872,4843.589743589744,4410.256410256411,4491.282051282052,4203.589743589744,4394.871794871796
2265.5642,0.8658222,0.69826615,0.35283497,0.7026712,0,0.0,0.0,0.0,0.0,0.0,0,0,0.0,0.0,0,0,44.0,0.0,0.0,4390.769230769231,3805.1282051282055,4678.461538461539,4493.333333333334,4234.871794871796,4572.820512820514,4507.6923076923085,4472.820512820514,4351.794871794872,4843.589743589744,4410.256410256411,4491.282051282052,4203.589743589744,4394.871794871796
2266.0647,0.8536178,0.7489323,0.35702452,0.70271873,0,0.0,0.0,0.0,0.0,0.0,0,0,0.0,0.0,0,0,108.0,0.0,501.0,4370.256410256411,3864.1025641025644,4651.282051282052,4493.846153846154,4262.564102564103,4567.179487179488,4483.589743589744,4444.615384615385,4325.641025641026,4796.923076923077,4364.102564102564,4427.179487179487,4115.384615384616,4338.974358974359
2266.3147,0.8536178,0.7489323,0.35702452,0.70271873,0,0.0,0.0,0.0,0.0,0.27113798,0,0,0.0,0.0,0,0,11.0,0.0,411.0,4398.461538461539,3844.615384615385,4626.153846153847,4483.589743589744,4243.589743589744,4536.923076923077,4488.205128205129,4460.000000000001,4317.948717948719,4796.410256410257,4389.2307692307695,4435.8974358974365,4143.589743589744,4370.769230769231
2266.565,0.82940966,0.75193393,0.36079478,0.69882184,0,0.0,0.0,0.0,0.0,0.22782253,0,0,0.0,0.0,0,0,43.0,0.0,0.0,4413.846153846154,3862.564102564103,4614.871794871796,4491.282051282052,4245.128205128206,4536.923076923077,4493.333333333334,4492.307692307693,4343.076923076924,4825.641025641026,4428.717948717949,4444.102564102564,4156.923076923077,4398.461538461539
2266.6902,0.82940966,0.75193393,0.36079478,0.69882184,0,0.0,0.0,0.0,0.0,0.0,0,0,0.0,0.0,0,0,59.0,0.0,0.0,4410.769230769231,3857.9487179487182,4602.564102564103,4485.641025641026,4251.794871794872,4540.000000000001,4494.358974358975,4506.666666666667,4374.871794871796,4835.384615384616,4447.6923076923085,4451.282051282052,4186.153846153847,4399.48717948718
2267.0654,0.7633341,0.74669963,0.3709958,0.70275444,0,0.0,0.0,0.0,0.0,0.0,0,0,0.0,0.0,0,0,107.0,0.0,411.0,4460.000000000001,3876.410256410257,4597.435897435898,4479.48717948718,4248.205128205129,4518.461538461539,4490.769230769231,4495.8974358974365,4358.974358974359,4829.743589743591,4456.923076923077,4446.153846153847,4186.666666666667,4381.025641025642
2267.0654,0.7633341,0.74669963,0.3709958,0.70275444,0,0.0,0.0,0.0,0.0,0.0,0,0,0.0,0.0,0,0,107.0,0.0,411.0,4460.000000000001,3876.410256410257,4597.435897435898,4479.48717948718,4248.205128205129,4518.461538461539,4490.769230769231,4495.8974358974365,4358.974358974359,4829.743589743591,4456.923076923077,4446.153846153847,4186.666666666667,4381.025641025642
2267.566,0.6967537,0.75098413,0.3801761,0.70628804,0,0.0,0.0,0.0,0.0,0.049841665,0,0,0.0,0.0,0,0,42.0,0.0,0.0,4458.974358974359,3739.48717948718,4575.384615384616,4461.538461538462,4122.564102564103,4449.2307692307695,4577.948717948719,4660.000000000001,4346.153846153847,4738.974358974359,4475.8974358974365,4344.102564102564,4146.666666666667,4471.794871794872
2267.8162,0.6967537,0.75098413,0.3801761,0.70628804,0,0.0,0.0,0.0,0.0,0.087539844,0,0,0.0,0.0,0,0,74.0,0.0,541.0,4638.974358974359,3829.2307692307695,4540.000000000001,4447.6923076923085,4109.74358974359,4385.128205128206,4613.846153846154,4726.153846153847,4349.743589743591,4796.923076923077,4554.358974358975,4333.846153846154,4267.6923076923085,4595.384615384616
2268.0664,0.82314324,0.7549054,0.38629165,0.70989907,0,0.0,0.0,0.0,0.0,0.43990454,0,0,0.0,0.0,0,0,106.0,0.0,541.0,4707.6923076923085,3961.0256410256416,4532.307692307693,4453.846153846154,4160.512820512821,4334.871794871796,4555.8974358974365,4678.974358974359,4329.2307692307695,4814.871794871796,4555.8974358974365,4283.076923076924,4327.179487179487,4654.358974358975
2268.3167,0.82314324,0.7549054,0.38629165,0.70989907,0,0.0,0.0,0.0,0.0,0.017510522,0,0,0.0,0.0,0,0,9.0,0.0,503.0,4663.589743589744,4036.410256410257,4519.48717948718,4448.717948717949,4244.102564102564,4384.102564102564,4506.666666666667,4620.000000000001,4160.512820512821,4831.282051282052,4569.2307692307695,4264.102564102564,4360.512820512821,4657.435897435898
2268.5667,0.78659487,0.75843465,0.39045045,0.71971214,0,0.0,0.0,0.0,0.0,0.0,0,0,0.0,0.0,0,0,41.0,0.0,0.0,4640.000000000001,4048.205128205129,4469.2307692307695,4430.256410256411,4298.461538461539,4412.820512820514,4445.128205128206,4477.948717948719,4005.1282051282055,4793.846153846154,4508.717948717949,4186.666666666667,4327.6923076923085,4600.000000000001
2268.817,0.78659487,0.75843465,0.39045045,0.71971214,0,0.0,0.0,0.0,0.0,0.0,0,0,0.0,0.0,0,0,73.0,0.0,503.0,4599.48717948718,4010.2564102564106,4462.564102564103,4429.743589743591,4336.410256410257,4456.410256410257,4382.051282051282,4351.794871794872,4051.2820512820517,4762.564102564103,4428.717948717949,4157.435897435898,4253.846153846154,4552.307692307693
2269.0671,0.90220356,0.7616109,0.39228004,0.728533,0,0.0,0.0,0.0,0.0,0.0,0,0,0.0,0.0,0,0,105.0,0.0,475.0,4555.384615384616,3975.3846153846157,4474.358974358975,4433.333333333334,4325.641025641026,4474.358974358975,4333.333333333334,4262.051282051282,4094.358974358975,4738.974358974359,4384.102564102564,4169.2307692307695,4196.410256410257,4513.846153846154
2269.0671,0.90220356,0.7616109,0.39228004,0.728533,0,0.0,0.0,0.0,0.0,0.0,0,0,0.0,0.0,0,0,105.0,0.0,475.0,4555.384615384616,3975.3846153846157,4474.358974358975,4433.333333333334,4325.641025641026,4474.358974358975,4333.333333333334,4262.051282051282,4094.358974358975,4738.974358974359,4384.102564102564,4169.2307692307695,4196.410256410257,4513.846153846154
2269.5676,0.9683442,0.76446956,0.38367048,0.7364606,0,0.0,0.0,0.0,0.0,0.0,0,0,0.0,0.0,0,0,40.0,0.0,0.0,4405.641025641026,3893.333333333334,4512.820512820514,4444.615384615385,4304.102564102564,4571.282051282052,4358.461538461539,4299.48717948718,4183.076923076924,4718.461538461539,4336.923076923077,4237.435897435898,4134.871794871796,4418.461538461539
2269.5676,0.9683442,0.76446956,0.38367048,0.7364606,0,0.0,0.0,0.0,0.0,0.0,0,0,0.0,0.0,0,0,40.0,0.0,0.0,4405.641025641026,3893.333333333334,4512.820512820514,4444.615384615385,4304.102564102564,4571.282051282052,4358.461538461539,4299.48717948718,4183.076923076924,4718.461538461539,4336.923076923077,4237.435897435898,4134.871794871796,4418.461538461539
2270.068,0.9512345,0.76704234,0.37189245,0.74419844,0,0.0,0.0,0.0,0.0,0.04062217,0,0,0.0,0.0,0,0,104.0,0.0,499.0,4381.538461538462,3779.48717948718,4555.384615384616,4453.333333333334,4223.076923076924,4571.794871794872,4447.6923076923085,4462.564102564103,4291.794871794872,4712.307692307693,4333.333333333334,4318.974358974359,4009.23076923077,4308.717948717949
2270.3184,0.9512345,0.76704234,0.37189245,0.74419844,0,0.0,0.0,0.0,0.0,0.0,0,0,0.0,0.0,0,0,7.0,0.0,481.0,4520.000000000001,3665.6410256410263,4511.282051282052,4435.384615384616,4088.717948717949,4507.6923076923085,4657.948717948719,4776.923076923077,4412.820512820514,4795.8974358974365,4425.641025641026,4374.871794871796,3969.2307692307695,4381.025641025642
2270.5684,1.0,0.76935786,0.36207485,0.74622256,0,0.0,0.0,0.0,0.0,0.013929774,0,0,0.0,0.0,0,0,39.0,0.0,0.0,4851.282051282052,3860.0000000000005,4509.2307692307695,4440.512820512821,4042.0512820512827,4383.076923076924,4949.2307692307695,5170.256410256411,4509.2307692307695,4988.717948717949,4617.948717948719,4535.8974358974365,4213.333333333334,4593.846153846154
2270.8186,1.0,0.76935786,0.36207485,0.74622256,0,0.0,0.0,0.0,0.0,0.23094286,0,0,0.0,0.0,0,0,71.0,0.0,465.0,5109.743589743591,4305.128205128206,4377.435897435898,4426.666666666667,4188.717948717949,4335.8974358974365,4987.6923076923085,5136.410256410257,4447.6923076923085,5006.666666666667,4701.025641025642,4481.538461538462,4394.871794871796,4733.333333333334
2271.0688,1.0,0.7714418,0.3572686,0.748036,0,0.0,0.0,0.0,0.0,0.021010673,0,0,0.0,0.0,0,0,103.0,0.0,408.0,5040.512820512821,4429.743589743591,4201.538461538462,4378.974358974359,4278.974358974359,4309.743589743591,4745.641025641026,4741.025641025642,4280.512820512821,4801.025641025642,4672.820512820514,4116.923076923077,4345.641025641026,4643.076923076924
2271.319,1.0,0.7714418,0.3572686,0.748036,0,0.0,0.0,0.0,0.0,0.0,0,0,0.0,0.0,0,0,6.0,0.0,518.0,4949.743589743591,4367.179487179487,4134.358974358975,4346.666666666667,4349.2307692307695,4345.128205128206,4455.384615384616,4386.153846153847,4212.307692307693,4629.2307692307695,4646.153846153847,3829.2307692307695,4284.102564102564,4476.923076923077
2271.5693,1.0,0.77331734,0.35294265,0.74965984,0,0.0,0.0,0.0,0.0,0.0,0,0,0.0,0.0,0,0,38.0,0.0,0.0,4795.384615384616,4310.256410256411,4129.74358974359,4344.102564102564,4393.333333333334,4413.846153846154,4290.769230769231,4170.769230769231,4174.358974358975,4554.871794871796,4576.923076923077,3708.205128205129,4227.179487179487,4381.025641025642
2271.5693,1.0,0.77331734,0.35294265,0.74965984,0,0.0,0.0,0.0,0.0,0.0,0,0,0.0,0.0,0,0,38.0,0.0,0.0,4795.384615384616,4310.256410256411,4129.74358974359,4344.102564102564,4393.333333333334,4413.846153846154,4290.769230769231,4170.769230769231,4174.358974358975,4554.871794871796,4576.923076923077,3708.205128205129,4227.179487179487,4381.025641025642
2272.0698,1.0,0.77500534,0.35507149,0.751113,0,0.0,0.0,0.0,0.0,0.0,0,0,0.0,0.0,0,0,102.0,0.0,540.0,4454.358974358975,4009.23076923077,4163.076923076924,4325.128205128206,4316.410256410257,4474.358974358975,4052.307692307693,3868.717948717949,4076.9230769230776,4434.358974358975,4277.435897435898,3622.0512820512827,3955.3846153846157,4184.615384615385
2272.0698,1.0,0.77500534,0.35507149,0.751113,0,0.0,0.0,0.0,0.0,0.0,0,0,0.0,0.0,0,0,102.0,0.0,540.0,4454.358974358975,4009.23076923077,4163.076923076924,4325.128205128206,4316.410256410257,4474.358974358975,4052.307692307693,3868.717948717949,4076.9230769230776,4434.358974358975,4277.435897435898,3622.0512820512827,3955.3846153846157,4184.615384615385
2272.57,1.0,0.77652454,0.35698715,0.7524126,0,0.0,0.0,0.0,0.0,0.007824891,0,0,0.0,0.0,0,0,37.0,0.0,0.0,4493.333333333334,3774.8717948717954,4391.794871794872,4384.615384615385,4152.307692307693,4487.6923076923085,4490.256410256411,4453.333333333334,4307.6923076923085,4636.410256410257,4426.153846153847,4038.9743589743593,3974.358974358975,4177.948717948719
2272.8203,1.0,0.77652454,0.35698715,0.7524126,0,0.0,0.0,0.0,0.0,0.0,0,0,0.0,0.0,0,0,69.0,0.0,577.0,4636.923076923077,4004.1025641025644,4478.461538461539,4420.512820512821,4155.384615384616,4465.128205128206,4647.179487179488,4733.846153846154,4422.051282051282,4748.717948717949,4692.820512820514,4152.307692307693,4210.256410256411,4331.794871794872
2273.0706,1.0,0.7778918,0.3587109,0.7439569,0,0.0,0.0,0.0,0.0,0.0052968343,0,0,0.0,0.0,0,0,101.0,0.0,476.0,4696.410256410257,4233.333333333334,4440.512820512821,4426.666666666667,4216.410256410257,4435.384615384616,4545.128205128206,4666.666666666667,4403.076923076924,4737.435897435898,4801.538461538462,4055.8974358974365,4321.538461538462,4349.743589743591
2273.3208,1.0,0.7778918,0.3587109,0.7439569,0,0.0,0.0,0.0,0.0,2.67347E-4,0,0,0.0,0.0,0,0,4.0,0.0,568.0,4615.8974358974365,4295.384615384616,4347.6923076923085,4409.2307692307695,4261.025641025642,4455.8974358974365,4380.000000000001,4462.564102564103,4322.564102564103,4670.256410256411,4754.358974358975,3882.0512820512827,4283.076923076924,4315.384615384616
2273.571,1.0,0.7791224,0.36305016,0.7304825,0,0.0,0.0,0.0,0.0,0.0013488187,0,0,0.0,0.0,0,0,36.0,0.0,0.0,4488.717948717949,4218.974358974359,4247.6923076923085,4371.282051282052,4335.8974358974365,4461.538461538462,4225.641025641026,4242.051282051282,4234.358974358975,4558.461538461539,4585.128205128206,3741.0256410256416,4152.820512820514,4246.666666666667
2273.696,1.0,0.7791224,0.36305016,0.7304825,0,0.0,0.0,0.0,0.0,0.0,0,0,0.0,0.0,0,0,52.0,0.0,0.0,4450.769230769231,4185.641025641026,4247.179487179487,4363.589743589744,4358.974358974359,4483.076923076924,4169.74358974359,4152.307692307693,4204.615384615385,4549.2307692307695,4514.871794871796,3706.1538461538466,4103.589743589744,4209.74358974359
2274.0715,1.0,0.78022987,0.35919005,0.71835846,0,0.0,0.0,0.0,0.0,0.0,0,0,0.0,0.0,0,0,100.0,0.0,494.0,4267.6923076923085,3977.435897435898,4193.846153846154,4347.179487179487,4317.435897435898,4534.358974358975,4027.692307692308,3923.589743589744,4124.615384615385,4511.282051282052,4269.2307692307695,3684.1025641025644,3944.1025641025644,4123.076923076924
2274.0715,1.0,0.78022987,0.35919005,0.71835846,0,0.0,0.0,0.0,0.0,0.0,0,0,0.0,0.0,0,0,100.0,0.0,494.0,4267.6923076923085,3977.435897435898,4193.846153846154,4347.179487179487,4317.435897435898,4534.358974358975,4027.692307692308,3923.589743589744,4124.615384615385,4511.282051282052,4269.2307692307695,3684.1025641025644,3944.1025641025644,4123.076923076924
2274.572,1.0,0.78122663,0.3516937,0.70744866,0,0.0,0.0,0.0,0.0,0.0,0,0,0.0,0.0,0,0,35.0,0.0,0.0,4330.256410256411,3783.076923076924,3994.8717948717954,4272.820512820514,4251.282051282052,4607.179487179488,4049.23076923077,3916.410256410257,4152.307692307693,4535.384615384616,4045.1282051282055,3880.512820512821,3850.7692307692314,4135.8974358974365
2274.822,1.0,0.78122663,0.3516937,0.70744866,0,0.0,0.0,0.0,0.014324641,0.0,0,0,0.0,0.0,0,0,67.0,0.0,558.0,4331.282051282052,3722.0512820512827,4136.923076923077,4304.102564102564,4222.564102564103,4642.051282051282,4122.051282051282,4023.076923076924,4216.923076923077,4594.871794871796,3975.3846153846157,4021.0256410256416,3850.7692307692314,4138.461538461539
2275.0723,1.0,0.78212374,0.34494832,0.6950022,0,0.0,0.0,0.0,0.0445439,0.0,0,0,0.0,0.0,0,0,99.0,0.0,413.0,4351.282051282052,3691.794871794872,4289.74358974359,4341.025641025642,4215.8974358974365,4665.641025641026,4216.410256410257,4114.871794871796,4259.48717948718,4630.769230769231,3954.8717948717954,4168.205128205129,3879.48717948718,4133.846153846154
2275.3225,1.0,0.78212374,0.34494832,0.6950022,0,0.0,0.0,0.0,0.0,0.027648252,0,0,0.0,0.0,0,0,2.0,0.0,467.0,4366.666666666667,3696.9230769230776,4417.948717948719,4379.48717948718,4216.923076923077,4684.615384615386,4301.538461538462,4202.564102564103,4327.179487179487,4692.820512820514,3969.7435897435903,4277.435897435898,3925.6410256410263,4165.641025641026
2275.5728,1.0,0.7829311,0.34212524,0.6837705,0,0.0,0.0,0.0,0.0,0.0,0,0,0.0,0.0,0,0,34.0,0.0,0.0,4366.666666666667,3696.9230769230776,4521.538461538462,4395.384615384616,4242.564102564103,4701.025641025642,4364.615384615385,4270.256410256411,4363.589743589744,4736.923076923077,3993.8461538461543,4363.076923076924,3963.589743589744,4165.128205128206
2275.5728,1.0,0.7829311,0.34212524,0.6837705,0,0.0,0.0,0.0,0.0,0.0,0,0,0.0,0.0,0,0,34.0,0.0,0.0,4366.666666666667,3696.9230769230776,4521.538461538462,4395.384615384616,4242.564102564103,4701.025641025642,4364.615384615385,4270.256410256411,4363.589743589744,4736.923076923077,3993.8461538461543,4363.076923076924,3963.589743589744,4165.128205128206
2276.0732,1.0,0.7836577,0.3412447,0.6736644,0,0.0,0.0,0.0,0.0,0.0,0,0,0.0,0.0,0,0,98.0,0.0,540.0,4380.512820512821,3712.307692307693,4664.102564102564,4458.974358974359,4229.74358974359,4709.2307692307695,4536.923076923077,4488.717948717949,4477.948717948719,4828.205128205129,4093.8461538461543,4552.307692307693,4064.1025641025644,4174.358974358975
2276.0732,1.0,0.7836577,0.3412447,0.6736644,0,0.0,0.0,0.0,0.0,0.0,0,0,0.0,0.0,0,0,98.0,0.0,540.0,4380.512820512821,3712.307692307693,4664.102564102564,4458.974358974359,4229.74358974359,4709.2307692307695,4536.923076923077,4488.717948717949,4477.948717948719,4828.205128205129,4093.8461538461543,4552.307692307693,4064.1025641025644,4174.358974358975
2276.5737,1.0,0.78431165,0.3404521,0.6614988,0,0.0,0.0,0.0,0.0,0.0,0,0,0.0,0.0,0,0,33.0,0.0,0.0,4470.256410256411,3756.9230769230776,4719.48717948718,4485.641025641026,4236.923076923077,4673.333333333334,4541.025641025642,4575.384615384616,4459.48717948718,4898.974358974359,4234.358974358975,4640.000000000001,4157.435897435898,4258.461538461539
2276.5737,1.0,0.78431165,0.3404521,0.6614988,0,0.0,0.0,0.0,0.0,0.0,0,0,0.0,0.0,0,0,33.0,0.0,0.0,4470.256410256411,3756.9230769230776,4719.48717948718,4485.641025641026,4236.923076923077,4673.333333333334,4541.025641025642,4575.384615384616,4459.48717948718,4898.974358974359,4234.358974358975,4640.000000000001,4157.435897435898,4258.461538461539
2277.074,0.9290707,0.78490025,0.3397387,0.6505472,0,0.0,0.0,0.0,0.0,0.0,0,0,0.0,0.0,0,0,97.0,0.0,469.0,4446.153846153847,3815.3846153846157,4713.333333333334,4488.717948717949,4241.025641025642,4606.666666666667,4521.025641025642,4524.102564102564,4368.717948717949,4877.948717948719,4263.076923076924,4585.128205128206,4189.74358974359,4342.564102564103
2277.3242,0.9290707,0.78490025,0.3397387,0.6505472,1,0.0,0.0,0.0,0.0,0.17724603,0,0,0.0,0.0,0,0,0.0,0.0,448.0,4466.666666666667,3791.7948717948725,4705.128205128206,4488.205128205129,4240.512820512821,4585.128205128206,4504.615384615385,4489.743589743591,4340.000000000001,4859.48717948718,4341.538461538462,4569.743589743591,4190.256410256411,4345.128205128206
2277.5745,1.0,0.78542995,0.33909652,0.64068925,0,0.0,0.0,0.0,0.0,0.43686107,0,0,0.0,0.0,0,0,32.0,0.0,0.0,4416.410256410257,3784.615384615385,4684.615384615386,4468.205128205129,4233.333333333334,4601.025641025642,4509.2307692307695,4480.512820512821,4344.615384615385,4843.589743589744,4407.179487179487,4525.128205128206,4155.8974358974365,4307.6923076923085
2277.8247,1.0,0.78542995,0.33909652,0.64068925,0,0.0,0.0,0.0,0.0,0.0,0,0,0.0,0.40818915,0,0,64.0,0.0,448.0,4393.333333333334,3794.8717948717954,4690.256410256411,4478.974358974359,4244.102564102564,4595.384615384616,4500.000000000001,4465.128205128206,4314.358974358975,4835.384615384616,4370.769230769231,4518.461538461539,4149.74358974359,4280.000000000001
2278.075,0.9918627,0.78590673,0.3385186,0.63166344,0,0.0,0.0,0.0,0.0,0.0,0,0,0.0,0.30202362,0,0,96.0,0.0,506.0,4411.794871794872,3789.7435897435903,4684.102564102564,4479.48717948718,4237.948717948719,4569.2307692307695,4501.025641025642,4471.794871794872,4299.48717948718,4824.615384615386,4318.461538461539,4505.641025641026,4186.153846153847,4263.589743589744
2278.2,0.9918627,0.78590673,0.3385186,0.63166344,0,0.0,0.0,0.0,0.0,0.0,0,0,0.0,0.0,0,0,112.0,0.0,506.0,4436.410256410257,3802.564102564103,4681.538461538462,4483.076923076924,4237.435897435898,4570.769230769231,4493.333333333334,4465.641025641026,4302.051282051282,4837.435897435898,4308.717948717949,4492.307692307693,4184.615384615385,4246.153846153847
2278.5754,0.9315757,0.78633577,0.33799863,0.62311417,0,0.0,0.0,0.0,0.0,0.0,0,0,0.0,0.0,0,0,31.0,0.0,0.0,4459.48717948718,3817.435897435898,4697.948717948719,4496.410256410257,4248.205128205129,4578.461538461539,4488.717948717949,4472.307692307693,4295.8974358974365,4841.538461538462,4302.051282051282,4491.794871794872,4184.102564102564,4247.179487179487
2278.5754,0.9315757,0.78633577,0.33799863,0.62311417,0,0.0,0.0,0.0,0.0,0.0,0,0,0.0,0.0,0,0,31.0,0.0,0.0,4459.48717948718,3817.435897435898,4697.948717948719,4496.410256410257,4248.205128205129,4578.461538461539,4488.717948717949,4472.307692307693,4295.8974358974365,4841.538461538462,4302.051282051282,4491.794871794872,4184.102564102564,4247.179487179487
2279.0757,0.88599706,0.7672814,0.34016535,0.60833603,0,0.0,0.0,0.0,0.0,0.0,0,0,0.0,0.0,0,0,95.0,0.0,415.0,4471.282051282052,3831.7948717948725,4678.974358974359,4493.333333333334,4246.153846153847,4563.589743589744,4506.666666666667,4494.358974358975,4284.615384615385,4838.974358974359,4340.000000000001,4463.589743589744,4203.076923076924,4243.076923076924
2279.0757,0.88599706,0.7672814,0.34016535,0.60833603,0,0.0,0.0,0.0,0.0,0.0,0,0,0.0,0.0,0,0,95.0,0.0,415.0,4471.282051282052,3831.7948717948725,4678.974358974359,4493.333333333334,4246.153846153847,4563.589743589744,4506.666666666667,4494.358974358975,4284.615384615385,4838.974358974359,4340.000000000001,4463.589743589744,4203.076923076924,4243.076923076924
2279.5762,0.85645837,0.74379843,0.3435598,0.58663607,0,0.0,0.0,0.0,0.0,0.0,0,0,0.0,0.0,0,0,30.0,0.0,0.0,4519.48717948718,3834.358974358975,4662.564102564103,4481.538461538462,4245.641025641026,4548.717948717949,4521.025641025642,4495.384615384616,4230.769230769231,4817.948717948719,4360.512820512821,4427.179487179487,4202.051282051282,4277.948717948719
2279.5762,0.85645837,0.74379843,0.3435598,0.58663607,0,0.0,0.0,0.0,0.0,0.0,0,0,0.0,0.0,0,0,30.0,0.0,0.0,4519.48717948718,3834.358974358975,4662.564102564103,4481.538461538462,4245.641025641026,4548.717948717949,4521.025641025642,4495.384615384616,4230.769230769231,4817.948717948719,4360.512820512821,4427.179487179487,4202.051282051282,4277.948717948719
2280.0767,0.7639438,0.75127655,0.34733,0.5671059,0,0.0,0.0,0.0,0.0,0.0,0,0,0.0,0.0,0,0,94.0,0.0,541.0,4557.435897435898,3918.9743589743593,4656.410256410257,4486.153846153847,4287.179487179487,4554.358974358975,4504.102564102564,4456.410256410257,4228.717948717949,4749.743589743591,4345.641025641026,4382.051282051282,4081.538461538462,4270.769230769231
2280.327,0.7639438,0.75127655,0.34733,0.5671059,0,0.0,0.0,0.0,0.0,0.0,0,0,0.9912733,0.0,0,0,126.0,0.0,541.0,4599.48717948718,3909.2307692307695,4646.153846153847,4492.307692307693,4276.410256410257,4551.794871794872,4518.974358974359,4476.923076923077,4235.8974358974365,4785.641025641026,4395.384615384616,4384.102564102564,4143.589743589744,4279.48717948718
2280.5771,0.7129455,0.7996599,0.35072297,0.54952866,0,0.0,0.0,0.0,0.0,1.0,0,0,0.0,0.0,0,0,29.0,0.0,0.0,5136.923076923077,3906.666666666667,4628.717948717949,4485.641025641026,4282.051282051282,4540.512820512821,4495.8974358974365,4466.153846153847,4188.717948717949,4779.48717948718,4398.461538461539,4402.051282051282,4157.435897435898,4293.333333333334
2280.6396,0.7129455,0.7996599,0.35072297,0.54952866,0,0.0,0.0,0.0,0.0,1.0,0,0,0.0,0.0,1,0,37.0,0.0,0.0,5094.358974358975,3895.3846153846157,4632.307692307693,4485.128205128206,4292.307692307693,4538.461538461539,4489.743589743591,4460.512820512821,4168.717948717949,4774.358974358975,4397.435897435898,4398.461538461539,4152.307692307693,4293.333333333334
2281.0774,0.6859908,0.9610017,0.35569674,0.5300717,0,0.0,0.0,0.0,0.0,1.0,0,0,0.0,0.0,0,0,93.0,0.0,470.0,4804.102564102564,3827.1794871794878,4635.384615384616,4496.410256410257,4267.6923076923085,4540.000000000001,4504.615384615385,4486.153846153847,4143.589743589744,4811.794871794872,4421.538461538462,4398.461538461539,4177.948717948719,4323.076923076924
2281.3276,0.6859908,0.9610017,0.35569674,0.5300717,0,0.0,0.0,0.0,0.0,0.07034867,0,0,0.0,0.0,0,0,125.0,0.0,470.0,4714.358974358975,3704.615384615385,4597.435897435898,4474.358974358975,4168.205128205129,4501.025641025642,4574.358974358975,4617.948717948719,4249.2307692307695,4795.8974358974365,4447.6923076923085,4433.333333333334,4085.1282051282055,4357.435897435898
2281.578,0.6624111,1.0,0.359553,0.5125611,0,0.0,0.0,0.0,0.0,0.007752511,0,0,0.0,0.0,0,0,28.0,0.0,0.0,4972.820512820514,3716.9230769230776,4537.948717948719,4459.48717948718,4042.0512820512827,4430.769230769231,4836.923076923077,5023.589743589744,4346.666666666667,4928.717948717949,4588.717948717949,4503.589743589744,4128.205128205129,4520.512820512821
2281.8281,0.6624111,1.0,0.359553,0.5125611,0,0.0,0.0,0.0,0.0,0.11318052,0,0,0.0,0.0,0,0,60.0,0.0,0.0,5497.435897435898,4185.641025641026,4590.769230769231,4507.179487179488,4101.025641025642,4302.051282051282,4966.153846153847,5332.820512820514,4391.282051282052,5122.051282051283,4785.128205128206,4651.282051282052,4455.8974358974365,4771.282051282052
2282.0784,0.7929217,1.0,0.36302325,0.5012424,0,0.0,0.0,0.0,0.0,0.38127163,0,0,0.0,0.0,0,0,92.0,0.0,493.0,5636.410256410257,4532.820512820514,4370.769230769231,4464.615384615385,4175.384615384616,4187.6923076923085,4802.051282051282,5051.282051282052,4120.000000000001,4931.794871794872,4746.153846153847,4395.384615384616,4552.820512820514,4844.615384615386
2282.3286,0.7929217,1.0,0.36302325,0.5012424,0,0.0,0.0,0.0,0.0,0.056087032,0,0,0.0,0.0,0,0,124.0,0.0,493.0,5136.923076923077,4474.358974358975,4146.153846153847,4381.538461538462,4215.384615384616,4137.948717948719,4478.461538461539,4564.615384615385,3912.307692307693,4666.153846153847,4579.48717948718,3923.589743589744,4349.2307692307695,4697.435897435898
2282.5789,0.90777117,1.0,0.36968154,0.5036326,1,0.0,0.0,0.0,0.0,0.021657402,0,0,0.0,0.0,0,0,27.0,0.0,0.0,5131.794871794872,4537.435897435898,4193.846153846154,4387.6923076923085,4264.615384615385,4214.871794871796,4263.589743589744,4273.846153846154,3886.1538461538466,4569.743589743591,4640.512820512821,3800.512820512821,4374.871794871796,4658.974358974359
2282.829,0.90777117,1.0,0.36968154,0.5036326,0,0.0,0.0,0.0,0.0,0.0,0,0,0.0,0.0,0,0,59.0,0.0,0.0,4826.666666666667,4353.846153846154,4122.051282051282,4335.384615384616,4300.512820512821,4320.000000000001,4181.538461538462,4107.179487179487,3929.2307692307695,4557.948717948719,4588.205128205129,3738.9743589743593,4273.333333333334,4541.025641025642
2283.079,1.0,1.0,0.38037786,0.50578445,0,0.0,0.0,0.0,0.0,1.0,0,0,0.0,0.0,0,0,91.0,0.0,401.0,4516.923076923077,4094.358974358975,4056.410256410257,4285.641025641026,4249.74358974359,4308.205128205129,4058.9743589743593,3924.1025641025644,3892.307692307693,4496.410256410257,4394.358974358975,3625.1282051282055,4017.435897435898,4424.615384615385
2283.3293,1.0,1.0,0.38037786,0.50578445,0,0.0,0.0,0.0,0.0,0.09863143,0,0,0.0,0.0,0,0,123.0,0.0,401.0,4717.435897435898,4185.128205128206,4187.6923076923085,4420.000000000001,4283.076923076924,4447.6923076923085,4080.5128205128212,3915.3846153846157,3973.333333333334,4576.923076923077,4363.589743589744,3748.717948717949,4098.974358974359,4503.076923076924
2283.5796,1.0,1.0,0.39343494,0.49977502,0,0.0,0.0,0.0,0.0,0.0,0,0,0.0,0.0,0,0,26.0,0.0,0.0,4442.564102564103,3987.1794871794878,4252.820512820514,4520.512820512821,4210.769230769231,4471.282051282052,4030.7692307692314,3875.8974358974365,3937.9487179487182,4504.102564102564,4229.2307692307695,3768.205128205129,3957.435897435898,4379.48717948718
2283.5796,1.0,1.0,0.39343494,0.49977502,0,0.0,0.0,0.0,0.0,0.0,0,0,0.0,0.0,0,0,26.0,0.0,0.0,4442.564102564103,3987.1794871794878,4252.820512820514,4520.512820512821,4210.769230769231,4471.282051282052,4030.7692307692314,3875.8974358974365,3937.9487179487182,4504.102564102564,4229.2307692307695,3768.205128205129,3957.435897435898,4379.48717948718
2284.08,1.0,1.0,0.40648833,0.48711282,0,0.0,0.0,0.0,0.0,0.0,0,0,1.0,0.0,0,0,90.0,0.0,538.0,4395.8974358974365,3909.7435897435903,4401.025641025642,4310.256410256411,4132.820512820514,4574.871794871796,4050.2564102564106,3952.307692307693,4000.5128205128212,4427.6923076923085,4649.2307692307695,3943.076923076924,4004.615384615385,4250.769230769231
2284.3303,1.0,1.0,0.40648833,0.48711282,0,0.0,0.0,0.0,0.0,0.0,0,0,0.0,1.0,0,0,122.0,0.0,538.0,4776.923076923077,4102.564102564103,4528.717948717949,4254.871794871796,4073.333333333334,4616.923076923077,4203.589743589744,4054.358974358975,4054.358974358975,4411.794871794872,4381.025641025642,4142.564102564103,3996.9230769230776,4412.307692307693
2284.5806,1.0,1.0,0.42324102,0.4619496,0,0.21935518,0.0,0.0,0.0,0.0,0,0,0.0,0.0,0,0,25.0,0.0,0.0,4914.358974358975,3994.358974358975,4558.461538461539,4252.307692307693,4115.8974358974365,4631.282051282052,4296.410256410257,4153.333333333334,4138.461538461539,4505.128205128206,4325.128205128206,4205.128205128206,4048.717948717949,4374.358974358975
2284.8308,1.0,1.0,0.42324102,0.4619496,0,0.0,0.0,0.0,0.69568735,0.0,0,0,0.0,0.0,0,0,57.0,0.0,0.0,4976.923076923077,3769.7435897435903,4589.743589743591,4281.025641025642,4251.794871794872,4627.179487179488,4340.512820512821,4186.153846153847,4126.153846153847,4504.102564102564,4199.48717948718,4224.615384615385,4164.102564102564,4373.846153846154
2285.081,1.0,1.0,0.4375144,0.4392867,0,0.67740554,0.0,0.0,0.0,0.0,0,0,0.0,0.0,0,0,89.0,0.0,459.0,5062.564102564103,3791.2820512820517,4654.358974358975,4355.384615384616,4285.128205128206,4605.641025641026,4363.076923076924,4245.641025641026,4163.076923076924,4627.6923076923085,4172.820512820514,4375.8974358974365,4155.384615384616,4424.615384615385
2285.206,1.0,1.0,0.4375144,0.4392867,0,1.0,0.0,0.0,0.0,0.0,0,0,0.0,0.0,0,0,105.0,0.0,459.0,5157.435897435898,3690.7692307692314,4636.410256410257,4463.589743589744,4233.846153846154,4565.641025641026,4340.000000000001,4236.410256410257,4154.871794871796,4632.307692307693,3966.1538461538466,4356.410256410257,4087.692307692308,4475.8974358974365
2285.5813,1.0,1.0,0.45036042,0.41889012,0,0.0,0.0,0.0,0.0,0.0,0,0,0.0,0.35189223,0,0,24.0,0.0,0.0,4989.743589743591,3672.820512820513,4679.48717948718,4548.205128205129,4288.717948717949,4591.282051282052,4426.666666666667,4339.48717948718,4263.076923076924,4701.538461538462,4044.1025641025644,4405.641025641026,4107.6923076923085,4536.923076923077
2285.8315,1.0,1.0,0.45036042,0.41889012,0,0.0,0.0,0.0,0.0,0.60935354,0,0,0.0,0.0,0,0,56.0,0.0,0.0,4878.974358974359,3686.666666666667,4680.000000000001,4522.564102564103,4233.333333333334,4587.6923076923085,4457.435897435898,4358.974358974359,4268.205128205129,4711.282051282052,4077.9487179487187,4405.641025641026,4053.8461538461543,4571.794871794872
2286.0818,0.9289562,1.0,0.45277482,0.42017084,0,0.0,0.0,0.0,0.0,0.21717796,0,0,0.0,0.0,0,0,88.0,0.0,502.0,4764.102564102564,3664.1025641025644,4631.794871794872,4504.615384615385,4176.410256410257,4577.948717948719,4452.820512820514,4356.410256410257,4240.000000000001,4643.589743589744,3980.5128205128212,4343.076923076924,3968.717948717949,4560.000000000001
2286.332,0.9289562,1.0,0.45277482,0.42017084,0,0.0,0.0,0.0,0.0,0.19251487,0,0,0.0,0.0,1,0,120.0,0.0,502.0,4847.179487179488,3941.0256410256416,4720.000000000001,4553.333333333334,4391.794871794872,4780.000000000001,4643.589743589744,4562.051282051282,4422.051282051282,4822.051282051282,4144.615384615385,4432.820512820514,4040.0000000000005,4617.948717948719
2286.5823,1.0,1.0,0.440829,0.43337932,0,0.0,0.0,0.0,0.0,0.51983315,0,0,0.0,0.0,1,0,23.0,0.0,0.0,4751.794871794872,3966.666666666667,4721.538461538462,4556.410256410257,4486.666666666667,4762.051282051282,4623.589743589744,4570.256410256411,4420.512820512821,4863.589743589744,4170.256410256411,4411.794871794872,4112.820512820514,4658.974358974359
2286.7073,1.0,1.0,0.440829,0.43337932,0,0.0,0.0,0.0,0.0,1.0,0,0,0.0,0.0,0,0,39.0,0.0,0.0,4691.282051282052,3941.0256410256416,4707.6923076923085,4477.435897435898,4436.923076923077,4736.923076923077,4623.076923076924,4571.282051282052,4431.794871794872,4881.538461538462,4202.564102564103,4430.769230769231,4144.102564102564,4652.820512820514
2287.0828,1.0,1.0,0.43006322,0.44528756,0,0.0,0.0,0.0,0.0,0.0,0,0,0.0,1.0,0,0,87.0,0.0,399.0,4708.205128205129,3910.2564102564106,4671.794871794872,4425.128205128206,4296.410256410257,4647.6923076923085,4585.128205128206,4540.512820512821,4429.743589743591,4886.666666666667,4348.717948717949,4443.076923076924,4194.871794871796,4615.8974358974365
2287.3328,1.0,1.0,0.43006322,0.44528756,0,0.0,0.0,0.0,0.0,0.0,0,0,0.0,0.7621287,0,0,119.0,0.0,399.0,4682.564102564103,3787.692307692308,4710.256410256411,4503.076923076924,4170.769230769231,4579.48717948718,4668.205128205129,4657.948717948719,4446.666666666667,4880.512820512821,4468.717948717949,4507.179487179488,4171.794871794872,4597.948717948719
2287.583,1.0,1.0,0.420373,0.45600444,0,0.0,0.0,0.0,0.0,0.0,0,0,0.0,0.12635382,0,0,22.0,0.0,0.0,5014.358974358975,3860.512820512821,4712.307692307693,4448.205128205129,4074.358974358975,4449.743589743591,4927.179487179488,5032.820512820514,4524.615384615385,5020.512820512821,4793.846153846154,4665.128205128206,4296.923076923077,4721.538461538462
2287.8333,1.0,1.0,0.420373,0.45600444,0,0.0,0.0,0.0,0.0,0.0,0,0,0.0,0.13956586,0,0,54.0,0.0,0.0,5301.025641025642,4201.538461538462,4654.871794871796,4439.48717948718,4152.307692307693,4355.8974358974365,4961.538461538462,5136.410256410257,4507.179487179488,5055.384615384616,5010.769230769231,4683.076923076924,4521.025641025642,4876.410256410257
2288.0835,1.0,1.0,0.41165245,0.4656478,0,0.0,0.0,0.0,0.0,0.0,0,0,0.0,0.006722524,0,0,86.0,0.0,534.0,5136.923076923077,4246.666666666667,4458.974358974359,4426.153846153847,4119.48717948718,4213.333333333334,4715.8974358974365,4782.564102564103,4312.307692307693,4921.538461538462,5011.282051282052,4390.769230769231,4590.256410256411,4894.358974358975
2288.3337,1.0,1.0,0.41165245,0.4656478,0,0.0,0.0,0.0,0.0,0.09324876,0,0,0.0,0.0,0,0,118.0,0.0,534.0,4851.282051282052,4252.307692307693,4341.538461538462,4362.051282051282,4161.025641025642,4234.871794871796,4510.256410256411,4587.179487179488,4304.615384615385,4789.2307692307695,5033.333333333334,3909.7435897435903,4484.615384615385,4798.461538461539
2288.584,1.0,1.0,0.40381458,0.4743129,0,0.0,0.0,0.0,0.0,0.0,0,0,0.33145526,0.0,0,0,21.0,0.0,0.0,4702.564102564103,4264.102564102564,4265.641025641026,4330.769230769231,4237.435897435898,4287.6923076923085,4331.794871794872,4415.384615384616,4278.461538461539,4671.794871794872,4930.256410256411,3638.461538461539,4411.282051282052,4704.615384615386
2288.8342,1.0,1.0,0.40381458,0.4743129,0,0.0,0.0,0.0,0.0,0.0,0,0,0.6357203,0.0,0,0,53.0,0.0,0.0,4490.769230769231,4197.435897435898,4211.794871794872,4320.000000000001,4287.179487179487,4343.076923076924,4164.615384615385,4205.128205128206,4198.974358974359,4586.153846153847,4748.717948717949,3526.666666666667,4275.384615384616,4598.461538461539
2289.0845,1.0,1.0,0.3967631,0.48210892,0,0.0,0.0,0.0,0.0,0.0,0,0,0.0,0.0,0,0,85.0,0.0,476.0,4412.820512820514,4067.1794871794878,4190.256410256411,4321.538461538462,4277.948717948719,4383.589743589744,4072.820512820513,4074.358974358975,4190.256410256411,4532.307692307693,4543.076923076924,3521.538461538462,4120.000000000001,4506.153846153847
2289.1157,1.0,1.0,0.3967631,0.48210892,0,0.0,0.0,0.0,0.0,0.0,0,0,0.0,0.0,0,0,89.0,0.0,476.0,4418.461538461539,4060.5128205128212,4199.48717948718,4324.102564102564,4272.307692307693,4389.743589743591,4044.615384615385,4054.8717948717954,4151.794871794872,4528.717948717949,4509.743589743591,3511.794871794872,4082.0512820512827,4487.179487179488
2289.5847,1.0,1.0,0.39041087,0.48913246,0,0.0,0.0,0.0,0.0,0.0,0,0,0.0,0.0,0,0,20.0,0.0,0.0,4271.282051282052,3825.6410256410263,4252.307692307693,4325.641025641026,4243.589743589744,4491.794871794872,3991.7948717948725,3955.8974358974365,4081.538461538462,4511.282051282052,4118.461538461539,3706.666666666667,3892.820512820513,4395.384615384616
2289.835,1.0,1.0,0.39041087,0.48913246,0,0.0,0.0,0.0,0.0,0.0,0,0,0.0,0.035050225,0,0,52.0,0.0,0.0,4331.794871794872,3777.435897435898,4329.2307692307695,4343.076923076924,4227.179487179487,4549.2307692307695,4065.1282051282055,4012.307692307693,4150.256410256411,4529.2307692307695,3959.48717948718,3846.666666666667,3872.820512820513,4358.461538461539
2290.0852,0.9064564,1.0,0.38469422,0.49545297,0,0.0,0.0,0.0,0.0,0.0,0,0,0.15683164,0.0,0,0,84.0,0.0,506.0,4283.589743589744,3757.9487179487182,4422.051282051282,4375.8974358974365,4217.435897435898,4598.974358974359,4155.8974358974365,4093.8461538461543,4196.923076923077,4565.641025641026,3962.0512820512827,3992.820512820513,3896.410256410257,4335.8974358974365
2290.3354,0.9064564,1.0,0.38469422,0.49545297,0,0.0,0.0,0.0,0.0,0.22418493,0,0,0.0,0.0,0,0,116.0,0.0,506.0,4197.435897435898,3739.48717948718,4493.333333333334,4389.743589743591,4212.307692307693,4643.589743589744,4238.461538461539,4183.076923076924,4231.282051282052,4606.666666666667,3972.307692307693,4109.2307692307695,3908.717948717949,4325.641025641026
2290.5857,1.0,1.0,0.37954858,0.5011419,0,0.0,0.0,0.0,0.0,0.05125488,0,0,0.0,0.0,0,0,19.0,0.0,0.0,4322.051282051282,3764.1025641025644,4597.435897435898,4428.205128205129,4237.435897435898,4673.846153846154,4338.974358974359,4287.6923076923085,4226.666666666667,4685.128205128206,4020.5128205128212,4103.589743589744,3985.6410256410263,4360.000000000001
2290.836,1.0,1.0,0.37954858,0.5011419,0,0.0,0.0,0.0,0.0,0.0,0,0,0.0,0.0,0,0,51.0,0.0,0.0,4316.923076923077,3737.435897435898,4644.102564102564,4475.8974358974365,4250.256410256411,4690.769230769231,4408.717948717949,4375.8974358974365,4279.48717948718,4747.6923076923085,4009.23076923077,4217.435897435898,4015.8974358974365,4358.974358974359
2291.0862,1.0,1.0,0.37492356,0.5062551,0,0.0,0.0,0.0,0.0,0.0,0,0,0.0,0.0,0,0,83.0,0.0,412.0,4317.435897435898,3778.9743589743593,4686.666666666667,4487.179487179488,4267.179487179487,4704.615384615386,4460.000000000001,4430.256410256411,4322.051282051282,4786.666666666667,4051.7948717948725,4313.333333333334,4052.307692307693,4351.794871794872
2291.1174,1.0,1.0,0.37492356,0.5062551,0,0.0,0.0,0.0,0.0,0.0,0,0,0.0,0.0,0,0,87.0,0.0,412.0,4316.923076923077,3782.564102564103,4698.461538461539,4490.769230769231,4262.051282051282,4708.717948717949,4458.461538461539,4437.948717948719,4325.128205128206,4774.358974358975,4051.2820512820517,4333.333333333334,4050.2564102564106,4356.410256410257
2291.5864,1.0,1.0,0.37075728,0.51086116,0,0.0,0.0,0.0,0.0,0.0,0,0,0.0,0.0,0,0,18.0,0.0,0.0,4291.794871794872,3807.692307692308,4714.871794871796,4492.307692307693,4246.666666666667,4703.589743589744,4536.410256410257,4553.333333333334,4371.282051282052,4860.000000000001,4152.820512820514,4457.435897435898,4138.974358974359,4359.48717948718
2291.5864,1.0,1.0,0.37075728,0.51086116,0,0.0,0.0,0.0,0.0,0.0,0,0,0.0,0.0,0,0,18.0,0.0,0.0,4291.794871794872,3807.692307692308,4714.871794871796,4492.307692307693,4246.666666666667,4703.589743589744,4536.410256410257,4553.333333333334,4371.282051282052,4860.000000000001,4152.820512820514,4457.435897435898,4138.974358974359,4359.48717948718
2292.087,0.994474,1.0,0.36700848,0.51500565,0,0.0,0.0,0.0,0.0,0.0,0,0,0.0,0.0,0,0,82.0,0.0,537.0,4368.205128205129,3691.794871794872,4731.282051282052,4493.846153846154,4151.794871794872,4640.000000000001,4631.282051282052,4672.307692307693,4399.48717948718,4861.538461538462,4266.666666666667,4568.717948717949,4092.307692307693,4397.948717948719
2292.087,0.994474,1.0,0.36700848,0.51500565,0,0.0,0.0,0.0,0.0,0.0,0,0,0.0,0.0,0,0,82.0,0.0,537.0,4368.205128205129,3691.794871794872,4731.282051282052,4493.846153846154,4151.794871794872,4640.000000000001,4631.282051282052,4672.307692307693,4399.48717948718,4861.538461538462,4266.666666666667,4568.717948717949,4092.307692307693,4397.948717948719
2292.5874,1.0,1.0,0.36363474,0.51873547,0,0.0,0.0,0.0,0.0,0.0,0,0,0.0,0.0,0,0,17.0,0.0,0.0,4843.589743589744,3901.538461538462,4678.461538461539,4496.410256410257,4048.717948717949,4372.307692307693,4980.000000000001,5242.051282051283,4507.6923076923085,5100.512820512821,4656.923076923077,4716.410256410257,4301.025641025642,4661.538461538462
2292.8376,1.0,1.0,0.36363474,0.51873547,0,0.0,0.0,0.0,0.0,0.10247693,0,0,0.0,0.0,0,0,49.0,0.0,0.0,4893.333333333334,4188.205128205129,4492.307692307693,4450.769230769231,4099.48717948718,4249.2307692307695,4751.282051282052,5021.538461538462,4350.256410256411,4975.384615384616,4744.615384615386,4454.358974358975,4401.538461538462,4685.128205128206
2293.088,1.0,1.0,0.36059797,0.52209264,0,0.0,0.0,0.0,0.0,0.007967781,0,0,0.0,0.0,0,0,81.0,0.0,471.0,4784.102564102564,4290.769230769231,4362.564102564103,4426.666666666667,4190.769230769231,4242.051282051282,4518.974358974359,4637.435897435898,4163.076923076924,4785.641025641026,4767.179487179488,4109.2307692307695,4356.923076923077,4625.128205128206
2293.3381,1.0,1.0,0.36059797,0.52209264,0,0.0,0.0,0.0,0.0,0.0,0,0,0.0,0.0,0,0,113.0,0.0,471.0,4637.948717948719,4272.307692307693,4291.794871794872,4416.410256410257,4265.641025641026,4297.948717948719,4366.153846153847,4384.102564102564,4057.9487179487182,4700.000000000001,4712.307692307693,3911.2820512820517,4254.358974358975,4532.307692307693
2293.5881,1.0,1.0,0.3578645,0.5251139,0,0.0,0.0,0.0,0.0,0.0,0,0,0.0,0.0,0,0,16.0,0.0,0.0,4601.538461538462,4186.153846153847,4311.282051282052,4394.871794871796,4193.333333333334,4296.410256410257,4311.794871794872,4268.205128205129,4052.307692307693,4582.051282051282,4620.000000000001,3879.48717948718,4145.641025641026,4453.333333333334
2293.5881,1.0,1.0,0.3578645,0.5251139,0,0.0,0.0,0.0,0.0,0.0,0,0,0.0,0.0,0,0,16.0,0.0,0.0,4601.538461538462,4186.153846153847,4311.282051282052,4394.871794871796,4193.333333333334,4296.410256410257,4311.794871794872,4268.205128205129,4052.307692307693,4582.051282051282,4620.000000000001,3879.48717948718,4145.641025641026,4453.333333333334
2294.0886,0.9657867,1.0,0.3554046,0.5278323,0,0.0,0.0,0.0,0.0,0.0,0,0,0.0,0.0,0,0,80.0,0.0,492.0,4552.307692307693,4216.923076923077,4367.6923076923085,4437.435897435898,4168.205128205129,4365.128205128206,4264.102564102564,4217.435897435898,3705.6410256410263,4861.538461538462,4794.871794871796,3891.7948717948725,4169.74358974359,4475.384615384616
2294.0886,0.9657867,1.0,0.3554046,0.5278323,0,0.0,0.0,0.0,0.0,0.0,0,0,0.0,0.0,0,0,80.0,0.0,492.0,4552.307692307693,4216.923076923077,4367.6923076923085,4437.435897435898,4168.205128205129,4365.128205128206,4264.102564102564,4217.435897435898,3705.6410256410263,4861.538461538462,4794.871794871796,3891.7948717948725,4169.74358974359,4475.384615384616
2294.589,1.0,1.0,0.35319132,0.52347434,0,0.0,0.0,0.0,0.0,0.0,0,0,0.0,0.0,0,0,15.0,0.0,408.0,4555.8974358974365,4133.333333333334,4348.717948717949,4425.128205128206,4251.282051282052,4448.205128205129,4174.871794871796,4067.692307692308,3829.2307692307695,4771.794871794872,4684.102564102564,3817.435897435898,4154.358974358975,4458.974358974359
2294.589,1.0,1.0,0.35319132,0.52347434,0,0.0,0.0,0.0,0.0,0.0,0,0,0.0,0.0,0,0,15.0,0.0,408.0,4555.8974358974365,4133.333333333334,4348.717948717949,4425.128205128206,4251.282051282052,4448.205128205129,4174.871794871796,4067.692307692308,3829.2307692307695,4771.794871794872,4684.102564102564,3817.435897435898,4154.358974358975,4458.974358974359
2295.0896,1.0,1.0,0.35477266,0.509809,0,0.0,0.0,0.0,0.0,0.0,0,0,0.0,0.0,0,0,79.0,0.0,408.0,4475.384615384616,3880.0000000000005,4426.153846153847,4416.923076923077,4184.615384615385,4504.615384615385,4061.0256410256416,3894.8717948717954,3843.589743589744,4697.948717948719,4363.076923076924,3817.435897435898,3938.9743589743593,4372.820512820514
2295.0896,1.0,1.0,0.35477266,0.509809,0,0.0,0.0,0.0,0.0,0.0,0,0,0.0,0.0,0,0,79.0,0.0,408.0,4475.384615384616,3880.0000000000005,4426.153846153847,4416.923076923077,4184.615384615385,4504.615384615385,4061.0256410256416,3894.8717948717954,3843.589743589744,4697.948717948719,4363.076923076924,3817.435897435898,3938.9743589743593,4372.820512820514
2295.59,1.0,1.0,0.35729325,0.49751142,0,0.0,0.0,0.0,0.0,0.22432302,0,0,0.0,0.0,0,0,14.0,0.0,538.0,4271.282051282052,3632.820512820513,4537.948717948719,4443.076923076924,4073.333333333334,4596.410256410257,4136.923076923077,3943.589743589744,3990.2564102564106,4693.846153846154,4087.1794871794878,4052.820512820513,3770.7692307692314,4307.6923076923085
2295.84,1.0,1.0,0.35729325,0.49751142,0,0.0,0.0,0.0,0.0,0.08259877,0,0,0.0,0.0,0,0,46.0,0.0,0.0,4397.435897435898,3598.9743589743593,4592.820512820514,4439.48717948718,4031.7948717948725,4643.589743589744,4246.153846153847,4062.564102564103,4089.23076923077,4752.307692307693,4043.589743589744,4172.307692307693,3794.358974358975,4265.128205128206
2296.0903,1.0,1.0,0.36407495,0.48644522,0,0.0,0.0,0.0,0.0,0.06548882,0,0,0.0,0.0,0,0,78.0,0.0,538.0,4426.153846153847,3612.820512820513,4656.923076923077,4453.333333333334,4024.1025641025644,4663.589743589744,4324.615384615385,4156.923076923077,4158.461538461539,4780.000000000001,4042.0512820512827,4280.512820512821,3830.7692307692314,4277.948717948719
2296.3406,1.0,1.0,0.36407495,0.48644522,0,0.0,0.0,0.0,0.0,0.036883075,0,0,0.0,0.0,0,0,110.0,0.0,538.0,4409.743589743591,3609.7435897435903,4701.025641025642,4467.179487179487,4038.9743589743593,4694.871794871796,4409.2307692307695,4275.8974358974365,4242.051282051282,4805.128205128206,4050.2564102564106,4394.358974358975,3976.410256410257,4302.051282051282
2296.5908,1.0,1.0,0.37017798,0.47925168,0,0.0,0.0,0.0,0.0,0.046970468,0,0,0.0,0.0,0,0,13.0,0.0,474.0,4463.076923076924,3647.692307692308,4716.923076923077,4462.051282051282,4052.820512820513,4713.846153846154,4482.051282051282,4366.153846153847,4341.025641025642,4879.48717948718,4106.666666666667,4492.820512820514,4087.692307692308,4331.282051282052
2296.7158,1.0,1.0,0.37017798,0.47925168,0,0.0,0.0,0.0,0.0,0.0,0,0,0.0,0.0,0,0,29.0,0.0,0.0,4447.6923076923085,3662.564102564103,4734.358974358975,4466.153846153847,4046.666666666667,4693.846153846154,4490.769230769231,4426.153846153847,4346.153846153847,4873.333333333334,4114.871794871796,4535.8974358974365,4106.666666666667,4334.871794871796
2297.0913,1.0,1.0,0.37775654,0.48144206,0,0.0,0.0,0.0,0.0,0.0,0,0,0.0,0.0,0,0,77.0,0.0,473.0,4396.410256410257,3699.48717948718,4732.820512820514,4466.666666666667,4118.461538461539,4705.128205128206,4545.128205128206,4522.051282051282,4391.282051282052,4902.564102564103,4171.794871794872,4601.538461538462,4157.948717948719,4322.051282051282
2297.3416,1.0,1.0,0.37775654,0.48144206,1,0.0,0.0,0.0,0.0,0.0,0,0,0.0,0.0,0,0,109.0,0.0,473.0,4489.2307692307695,3690.7692307692314,4793.846153846154,4522.051282051282,4098.461538461539,4681.538461538462,4655.384615384616,4644.102564102564,4446.666666666667,4938.974358974359,4252.307692307693,4703.589743589744,4167.6923076923085,4344.615384615385
2297.5918,1.0,1.0,0.3869726,0.4834143,0,0.0,0.0,0.0,0.0,0.0,0,0,0.0,0.0,0,0,12.0,0.0,503.0,4657.435897435898,3612.307692307693,4827.179487179488,4556.923076923077,3994.358974358975,4587.179487179488,4874.871794871796,4938.974358974359,4561.538461538462,5019.48717948718,4366.666666666667,4815.8974358974365,4185.641025641026,4433.333333333334
2297.5918,1.0,1.0,0.3869726,0.4834143,0,0.0,0.0,0.0,0.0,0.0,0,0,0.0,0.0,0,0,12.0,0.0,503.0,4657.435897435898,3612.307692307693,4827.179487179488,4556.923076923077,3994.358974358975,4587.179487179488,4874.871794871796,4938.974358974359,4561.538461538462,5019.48717948718,4366.666666666667,4815.8974358974365,4185.641025641026,4433.333333333334
2298.092,1.0,1.0,0.3893357,0.48960504,0,0.0,0.0,0.0,0.0,0.092452735,0,0,0.0,0.0,0,0,76.0,0.0,500.0,4938.461538461539,4126.666666666667,4683.589743589744,4558.974358974359,4103.076923076924,4275.8974358974365,4772.820512820514,4988.205128205129,4440.000000000001,5009.743589743591,4720.000000000001,4701.025641025642,4528.717948717949,4655.8974358974365
2298.3423,1.0,1.0,0.3893357,0.48960504,0,0.0,0.0,0.0,0.0,0.0017984626,0,0,0.0,0.0,0,0,108.0,0.0,500.0,4838.974358974359,4229.74358974359,4544.615384615385,4535.8974358974365,4183.076923076924,4265.641025641026,4542.051282051282,4648.205128205129,4281.538461538462,4842.051282051283,4729.2307692307695,4364.615384615385,4449.2307692307695,4582.564102564103
2298.5925,1.0,1.0,0.39146164,0.4951772,0,0.0,0.0,0.0,0.0,1.2009251E-4,0,0,0.0,0.0,0,0,11.0,0.0,408.0,4717.948717948719,4226.153846153847,4472.820512820514,4504.615384615385,4267.179487179487,4322.564102564103,4381.025641025642,4386.153846153847,4188.205128205129,4727.179487179488,4681.538461538462,4154.871794871796,4344.102564102564,4535.384615384616
2298.8428,1.0,1.0,0.39146164,0.4951772,0,0.0,0.0,0.0,0.0,0.0,0,0,0.163897,0.0,0,0,43.0,0.0,0.0,4638.461538461539,4147.179487179487,4400.000000000001,4472.820512820514,4284.102564102564,4376.923076923077,4265.641025641026,4187.179487179487,4146.666666666667,4670.256410256411,4567.6923076923085,4015.3846153846157,4244.615384615385,4506.153846153847
2299.093,1.0,1.0,0.38902268,0.49708194,0,0.0,0.0,0.0,0.0,0.0,0,0,0.0,0.0,0,0,75.0,0.0,408.0,4513.333333333334,4022.564102564103,4346.153846153847,4438.974358974359,4275.384615384616,4439.48717948718,4166.666666666667,4038.9743589743593,4094.8717948717954,4609.743589743591,4375.384615384616,3953.333333333334,4092.307692307693,4444.615384615385
2299.093,1.0,1.0,0.38902268,0.49708194,0,0.0,0.0,0.0,0.0,0.0,0,0,0.0,0.0,0,0,75.0,0.0,408.0,4513.333333333334,4022.564102564103,4346.153846153847,4438.974358974359,4275.384615384616,4439.48717948718,4166.666666666667,4038.9743589743593,4094.8717948717954,4609.743589743591,4375.384615384616,3953.333333333334,4092.307692307693,4444.615384615385
2299.5935,1.0,1.0,0.38284114,0.49879688,0,0.0,0.0,0.0,0.0,0.0,0,0,0.0,0.0,0,0,8.0,0.0,504.0,4393.846153846154,3852.820512820513,4446.666666666667,4434.871794871796,4205.641025641026,4568.205128205129,4209.74358974359,4044.615384615385,4160.512820512821,4652.307692307693,4229.74358974359,4083.589743589744,4001.538461538462,4381.538461538462
2299.5935,1.0,1.0,0.38284114,0.49879688,0,0.0,0.0,0.0,0.0,0.0,0,0,0.0,0.0,0,0,10.0,0.0,536.0,4387.6923076923085,3850.2564102564106,4457.948717948719,4441.538461538462,4198.461538461539,4574.871794871796,4211.282051282052,4052.307692307693,4173.333333333334,4664.615384615386,4242.564102564103,4104.615384615385,4002.564102564103,4369.2307692307695
2300.0938,0.9094673,1.0,0.3732588,0.5033028,0,0.0,0.0,0.0,0.0,0.02760454,0,0,0.0,0.0,0,0,74.0,0.0,536.0,4325.128205128206,3692.307692307693,4637.435897435898,4473.846153846154,4128.717948717949,4643.589743589744,4549.2307692307695,4481.538461538462,4402.051282051282,4877.435897435898,4342.051282051282,4453.333333333334,4073.333333333334,4417.435897435898
2300.344,0.9094673,1.0,0.3732588,0.5033028,0,0.0,0.0,0.0,0.0,0.0,0,0,0.0,0.0,0,0,106.0,0.0,536.0,4575.384615384616,3814.8717948717954,4722.564102564103,4507.179487179488,4132.307692307693,4615.8974358974365,4763.589743589744,4817.948717948719,4551.282051282052,5054.358974358975,4536.923076923077,4641.025641025642,4297.435897435898,4569.2307692307695
2300.5942,1.0,1.0,0.35970142,0.51591426,0,0.0,0.0,0.0,0.0,0.0,0,0,0.0,0.0,0,0,9.0,0.0,497.0,4723.589743589744,4016.9230769230776,4733.333333333334,4528.717948717949,4205.641025641026,4524.615384615385,4704.615384615386,4800.000000000001,4477.948717948719,5060.512820512821,4644.615384615385,4609.2307692307695,4418.461538461539,4675.384615384616
2300.8445,1.0,1.0,0.35970142,0.51591426,0,0.0,0.0,0.0,0.0,0.03320472,0,0,0.0,0.0,0,0,41.0,0.0,0.0,4650.256410256411,4073.333333333334,4667.179487179488,4517.948717948719,4214.871794871796,4471.794871794872,4558.974358974359,4626.153846153847,4358.461538461539,4933.846153846154,4626.666666666667,4414.871794871796,4370.769230769231,4629.743589743591
2301.0947,1.0,1.0,0.34502897,0.5313682,0,0.0,0.0,0.0,0.0,0.033791963,0,0,0.0,0.0,0,0,73.0,0.0,497.0,4664.615384615386,4074.8717948717954,4584.615384615385,4490.769230769231,4244.615384615385,4465.641025641026,4458.974358974359,4456.923076923077,4269.74358974359,4818.974358974359,4521.538461538462,4245.641025641026,4270.256410256411,4538.461538461539
2301.345,1.0,1.0,0.34502897,0.5313682,0,0.0,0.0,0.0,0.0,0.009395195,0,0,0.0,0.0,0,0,105.0,0.0,471.0,4538.974358974359,4007.1794871794878,4524.102564102564,4463.589743589744,4263.589743589744,4481.538461538462,4350.769230769231,4282.051282051282,4192.820512820514,4720.000000000001,4435.8974358974365,4153.846153846154,4162.051282051282,4471.282051282052
2301.5952,1.0,1.0,0.3296735,0.54547954,0,0.0,0.0,0.0,0.0,0.0,0,0,0.0,0.0,0,0,8.0,0.0,504.0,4450.256410256411,3928.205128205129,4499.48717948718,4451.282051282052,4281.025641025642,4548.717948717949,4310.769230769231,4221.025641025642,4203.076923076924,4692.307692307693,4336.410256410257,4153.846153846154,4091.7948717948725,4415.8974358974365
2301.5952,1.0,1.0,0.3296735,0.54547954,0,0.0,0.0,0.0,0.0,0.0,0,0,0.0,0.0,0,0,8.0,0.0,504.0,4450.256410256411,3928.205128205129,4499.48717948718,4451.282051282052,4281.025641025642,4548.717948717949,4310.769230769231,4221.025641025642,4203.076923076924,4692.307692307693,4336.410256410257,4153.846153846154,4091.7948717948725,4415.8974358974365
2302.0955,1.0,1.0,0.31585366,0.55817974,0,0.0,0.0,0.0,0.0,0.0,0,0,0.0,0.0,0,0,63.0,0.0,0.0,4403.076923076924,3803.589743589744,4508.717948717949,4429.743589743591,4215.8974358974365,4583.589743589744,4322.051282051282,4190.256410256411,4241.025641025642,4658.974358974359,4203.076923076924,4216.410256410257,4003.589743589744,4266.666666666667
2302.0955,1.0,1.0,0.31585366,0.55817974,0,0.0,0.0,0.0,0.0,0.0,0,0,0.0,0.0,0,0,72.0,0.0,504.0,4392.307692307693,3794.8717948717954,4525.128205128206,4430.769230769231,4212.307692307693,4602.051282051282,4337.948717948719,4199.48717948718,4245.641025641026,4645.641025641026,4217.435897435898,4247.179487179487,4000.0000000000005,4266.153846153847
2302.596,1.0,1.0,0.30556673,0.56653076,1,0.0,0.0,0.0,0.0,0.0,0,0,0.0,0.0,0,0,7.0,0.0,487.0,4461.538461538462,3780.0000000000005,4602.564102564103,4447.179487179487,4218.974358974359,4645.128205128206,4432.307692307693,4334.358974358975,4339.48717948718,4712.820512820514,4181.538461538462,4398.974358974359,4013.333333333334,4304.102564102564
2302.69,1.0,1.0,0.30556673,0.56653076,0,0.0,0.0,0.0,0.0,0.0,0,0,0.0,0.0,0,0,19.0,0.0,0.0,4428.205128205129,3769.2307692307695,4612.307692307693,4452.820512820514,4214.358974358975,4664.102564102564,4458.974358974359,4368.717948717949,4370.769230769231,4733.333333333334,4181.538461538462,4424.102564102564,4013.8461538461543,4299.48717948718
2303.0964,0.99911904,1.0,0.30524027,0.5627091,0,0.0,0.0,0.0,0.0,0.047418702,0,0,0.0,0.0,0,0,71.0,0.0,487.0,4445.641025641026,3771.2820512820517,4645.128205128206,4461.025641025642,4223.589743589744,4662.051282051282,4507.179487179488,4429.2307692307695,4396.923076923077,4759.48717948718,4196.923076923077,4492.820512820514,4050.7692307692314,4324.102564102564
2303.2214,0.99911904,1.0,0.30524027,0.5627091,0,0.0,0.0,0.0,0.0,0.0,0,0,0.0,0.0,0,0,87.0,0.0,414.0,4474.358974358975,3787.1794871794878,4656.410256410257,4470.769230769231,4223.076923076924,4667.6923076923085,4523.589743589744,4475.384615384616,4447.6923076923085,4808.205128205129,4236.923076923077,4520.512820512821,4090.7692307692314,4334.871794871796
2303.597,1.0,1.0,0.31444642,0.5492529,0,0.0,0.0,0.0,0.0,0.0,0,0,0.0,0.0,0,0,118.0,0.0,537.0,4461.025641025642,3806.1538461538466,4661.025641025642,4481.538461538462,4232.820512820514,4637.948717948719,4537.435897435898,4472.307692307693,4458.974358974359,4805.641025641026,4247.179487179487,4535.384615384616,4117.435897435898,4361.025641025642
2303.597,1.0,1.0,0.31444642,0.5492529,0,0.0,0.0,0.0,0.0,0.0,0,0,0.0,0.0,0,0,6.0,0.0,529.0,4437.948717948719,3797.9487179487182,4647.6923076923085,4478.974358974359,4241.025641025642,4633.846153846154,4544.615384615385,4478.974358974359,4443.076923076924,4795.8974358974365,4262.051282051282,4524.102564102564,4125.128205128206,4341.025641025642
2304.0972,1.0,1.0,0.3272439,0.53648454,0,0.0,0.0,0.0,0.0,0.0,0,0,0.0,0.0,0,0,31.0,0.0,0.0,4437.948717948719,3840.512820512821,4677.948717948719,4491.282051282052,4280.512820512821,4653.333333333334,4572.820512820514,4520.000000000001,4448.717948717949,4837.435897435898,4321.025641025642,4573.333333333334,4169.74358974359,4388.717948717949
2304.0972,1.0,1.0,0.3272439,0.53648454,0,0.0,0.0,0.0,0.0,0.0,0,0,0.0,0.0,0,0,70.0,0.0,529.0,4503.589743589744,3850.2564102564106,4667.6923076923085,4477.948717948719,4272.820512820514,4636.410256410257,4601.025641025642,4562.564102564103,4476.923076923077,4882.564102564103,4389.2307692307695,4595.384615384616,4202.051282051282,4432.820512820514
2304.5977,1.0,1.0,0.33876172,0.52394545,0,0.0,0.0,0.0,0.0,0.0,0,0,0.0,0.0,0,0,86.0,0.0,537.0,4510.769230769231,3840.512820512821,4641.538461538462,4475.8974358974365,4271.282051282052,4631.794871794872,4624.102564102564,4595.8974358974365,4504.102564102564,4902.051282051283,4412.307692307693,4598.461538461539,4216.923076923077,4447.179487179487
2304.5977,1.0,1.0,0.33876172,0.52394545,0,0.0,0.0,0.0,0.0,0.0,0,0,0.0,0.0,0,0,5.0,0.0,571.0,4539.48717948718,3884.1025641025644,4600.000000000001,4474.358974358975,4333.846153846154,4615.8974358974365,4636.923076923077,4632.307692307693,4535.384615384616,4923.076923076924,4489.2307692307695,4603.589743589744,4256.410256410257,4477.435897435898
2304.9731,1.0,1.0,0.33876172,0.52394545,0,0.0,0.0,0.0,0.0,0.6269651,0,0,0.0,0.0,1,0,53.0,0.0,0.0,4520.000000000001,3959.48717948718,4542.564102564103,4454.871794871796,4323.589743589744,4580.000000000001,4577.435897435898,4558.461538461539,4523.076923076924,4849.743589743591,4463.589743589744,4492.307692307693,4140.512820512821,4412.820512820514
2305.3484,1.0,1.0,0.34912768,0.5137089,0,0.0,0.0,0.0,0.0,0.39518368,0,0,0.0,0.0,0,0,101.0,0.0,472.0,4474.358974358975,3944.615384615385,4572.307692307693,4472.820512820514,4282.051282051282,4571.794871794872,4494.871794871796,4490.769230769231,4415.8974358974365,4793.846153846154,4481.538461538462,4445.641025641026,4136.923076923077,4474.358974358975
2305.4734,1.0,1.0,0.34912768,0.5137089,0,0.0,0.0,0.0,0.0,0.22293644,0,0,0.0,0.0,0,0,117.0,0.0,472.0,4493.333333333334,3881.538461538462,4537.948717948719,4435.8974358974365,4302.564102564103,4534.358974358975,4459.48717948718,4465.641025641026,4375.384615384616,4751.282051282052,4427.6923076923085,4427.179487179487,4108.717948717949,4500.000000000001
2305.8489,1.0,1.0,0.35454735,0.50561714,0,0.0,0.0,0.0,0.0,0.031881403,0,0,0.0,0.0,0,0,36.0,0.0,0.0,4529.743589743591,3818.461538461539,4636.410256410257,4487.6923076923085,4196.923076923077,4493.846153846154,4660.000000000001,4749.2307692307695,4476.923076923077,4880.512820512821,4591.282051282052,4611.794871794872,4246.153846153847,4661.025641025642
2306.099,0.9920706,1.0,0.363986,0.4998931,0,0.0,0.0,0.0,0.0,0.025482742,0,0,0.0,0.0,0,0,68.0,0.0,566.0,4782.564102564103,3924.615384615385,4649.743589743591,4479.48717948718,4184.615384615385,4238.461538461539,4845.128205128206,5057.435897435898,4529.2307692307695,5050.769230769231,4754.358974358975,4783.589743589744,4350.769230769231,4869.743589743591
2306.349,0.9920706,1.0,0.363986,0.4998931,0,0.0,0.0,0.0,0.0,0.3026181,0,0,0.0,0.0,0,0,100.0,0.0,494.0,4982.564102564103,4345.128205128206,4550.769230769231,4477.948717948719,4263.589743589744,4137.948717948719,4768.717948717949,5010.769230769231,4310.256410256411,4955.384615384616,4705.128205128206,4616.923076923077,4453.333333333334,4887.179487179488
2306.4744,0.9920706,1.0,0.363986,0.4998931,0,0.0,0.0,0.0,0.0,0.22364087,0,0,0.0,0.0,0,0,116.0,0.0,494.0,4946.153846153847,4478.461538461539,4466.666666666667,4460.512820512821,4326.666666666667,4136.410256410257,4654.871794871796,4835.384615384616,4180.512820512821,4841.025641025642,4677.435897435898,4436.923076923077,4448.717948717949,4875.384615384616
2306.8496,1.0,1.0,0.37124768,0.4990782,0,0.0,0.0,0.0,0.0,0.0,0,0,0.21971662,0.0,0,0,35.0,0.0,0.0,4606.153846153847,4511.794871794872,4302.051282051282,4446.666666666667,4442.564102564103,4265.128205128206,4290.769230769231,4253.333333333334,3985.6410256410263,4545.641025641026,4669.743589743591,3829.2307692307695,4325.128205128206,4647.6923076923085
2307.0999,1.0,1.0,0.36927843,0.50805604,0,0.0,0.0,0.0,0.0,0.0,0,0,0.13884786,0.0,0,0,67.0,0.0,554.0,4467.6923076923085,4400.000000000001,4284.615384615385,4452.307692307693,4361.025641025642,4297.948717948719,4213.846153846154,4135.8974358974365,3943.589743589744,4407.6923076923085,4646.666666666667,3658.9743589743593,4151.794871794872,4456.923076923077
2307.2249,1.0,1.0,0.36927843,0.50805604,0,0.0,0.0,0.0,0.0,0.0,0,0,0.0,0.0,0,0,83.0,0.0,405.0,4460.512820512821,4366.153846153847,4313.846153846154,4449.2307692307695,4383.076923076924,4293.333333333334,4205.128205128206,4137.435897435898,3947.1794871794878,4393.846153846154,4681.025641025642,3645.1282051282055,4150.769230769231,4417.435897435898
2307.6003,1.0,1.0,0.36244756,0.5291614,0,0.0,0.0,0.0,0.0,0.33111787,0,0,0.0,0.0,0,0,2.0,0.0,462.0,4467.179487179487,4445.128205128206,4325.641025641026,4461.025641025642,4446.153846153847,4390.256410256411,4258.974358974359,4195.8974358974365,4053.333333333334,4368.717948717949,4770.256410256411,3528.717948717949,4217.948717948719,4324.102564102564
2307.8506,1.0,1.0,0.36244756,0.5291614,0,0.0,0.0,0.0,0.0,0.24023333,0,0,0.0,0.0,0,0,34.0,0.0,0.0,4434.871794871796,4422.564102564103,4285.128205128206,4475.8974358974365,4549.2307692307695,4468.717948717949,4217.435897435898,4136.410256410257,4086.1538461538466,4370.256410256411,4672.820512820514,3476.9230769230776,4131.794871794872,4271.282051282052
2307.9756,1.0,1.0,0.36244756,0.5291614,0,0.0,0.0,0.0,0.0,0.04608875,0,0,0.0,0.0,0,0,50.0,0.0,0.0,4442.564102564103,4389.743589743591,4300.512820512821,4481.025641025642,4632.307692307693,4518.974358974359,4198.974358974359,4102.051282051282,4132.820512820514,4446.666666666667,4676.410256410257,3475.8974358974365,4154.871794871796,4248.205128205129
2308.1008,1.0,1.0,0.3659842,0.5481564,0,0.0,0.0,0.0,0.0,0.0,0,0,0.0,0.0,0,0,66.0,0.0,463.0,4407.179487179487,4288.205128205129,4252.820512820514,4459.48717948718,4615.384615384616,4522.564102564103,4143.589743589744,4074.358974358975,4155.8974358974365,4444.102564102564,4571.794871794872,3454.8717948717954,4087.1794871794878,4233.846153846154
2308.1008,1.0,1.0,0.3659842,0.5481564,0,0.0,0.0,0.0,0.0,0.0,0,0,0.0,0.0,0,0,66.0,0.0,463.0,4407.179487179487,4288.205128205129,4252.820512820514,4459.48717948718,4615.384615384616,4522.564102564103,4143.589743589744,4074.358974358975,4155.8974358974365,4444.102564102564,4571.794871794872,3454.8717948717954,4087.1794871794878,4233.846153846154
2308.8513,1.0,1.0,0.37767443,0.56525195,0,0.0,0.0,0.0,0.0,0.06688147,0,0,0.0,0.0,0,0,18.0,0.0,0.0,4360.512820512821,3943.589743589744,4265.128205128206,4409.743589743591,4387.179487179487,4542.564102564103,3998.9743589743593,3889.7435897435903,4123.589743589744,4481.538461538462,4292.307692307693,3625.1282051282055,3862.0512820512827,4169.74358974359
2308.9766,1.0,1.0,0.37767443,0.56525195,0,0.0,0.0,0.0,0.0,0.09753034,0,0,0.0,0.0,0,0,49.0,0.0,0.0,4362.564102564103,3777.435897435898,4294.358974358975,4389.2307692307695,4296.923076923077,4551.282051282052,4014.8717948717954,3898.9743589743593,4141.025641025642,4536.923076923077,4203.076923076924,3764.1025641025644,3825.1282051282055,4159.48717948718
2309.1016,1.0,1.0,0.38819486,0.59805936,0,0.0,0.0,0.0,0.0,0.0,0,0,0.0,0.0,0,0,65.0,0.0,416.0,4418.974358974359,3727.692307692308,4324.102564102564,4388.717948717949,4250.769230769231,4553.333333333334,4041.538461538462,3938.9743589743593,4157.435897435898,4566.666666666667,4178.974358974359,3862.564102564103,3841.538461538462,4183.589743589744
2309.1016,1.0,1.0,0.38819486,0.59805936,0,0.0,0.0,0.0,0.0,0.0,0,0,0.0,0.0,0,0,65.0,0.0,416.0,4418.974358974359,3727.692307692308,4324.102564102564,4388.717948717949,4250.769230769231,4553.333333333334,4041.538461538462,3938.9743589743593,4157.435897435898,4566.666666666667,4178.974358974359,3862.564102564103,3841.538461538462,4183.589743589744
2309.602,1.0,1.0,0.4037749,0.6236186,0,0.0,0.0,0.0,0.0,0.0,0,0,0.0,0.0,0,0,0.0,0.0,463.0,4615.8974358974365,3678.9743589743593,4493.333333333334,4393.846153846154,4125.641025641026,4614.358974358975,4294.871794871796,4285.128205128206,4360.512820512821,4799.48717948718,4247.179487179487,4253.846153846154,3983.076923076924,4229.74358974359
2309.602,1.0,1.0,0.4037749,0.6236186,0,0.0,0.0,0.0,0.0,0.0,0,0,0.0,0.0,0,0,0.0,0.0,463.0,4615.8974358974365,3678.9743589743593,4493.333333333334,4393.846153846154,4125.641025641026,4614.358974358975,4294.871794871796,4285.128205128206,4360.512820512821,4799.48717948718,4247.179487179487,4253.846153846154,3983.076923076924,4229.74358974359
2310.3525,1.0,1.0,0.4177955,0.622994,0,0.0,0.0,0.0,0.0,1.0,0,0,0.0,0.0,0,0,76.0,0.0,503.0,4697.435897435898,3920.0000000000005,4634.871794871796,4432.307692307693,4208.717948717949,4605.641025641026,4425.641025641026,4544.615384615385,4471.282051282052,4949.2307692307695,4426.666666666667,4474.358974358975,4233.333333333334,4329.2307692307695
2310.3525,1.0,1.0,0.4177955,0.622994,0,0.0,0.0,0.0,0.0,1.0,0,0,0.0,0.0,0,0,96.0,0.0,503.0,4635.8974358974365,3914.358974358975,4630.769230769231,4440.000000000001,4216.923076923077,4600.000000000001,4397.948717948719,4508.205128205129,4429.2307692307695,4882.051282051283,4403.076923076924,4463.076923076924,4231.282051282052,4317.948717948719
2310.728,1.0,1.0,0.4304123,0.6130399,0,0.0,0.0,0.0,0.0,0.15320642,0,0,0.0,0.0,0,0,15.0,0.0,416.0,4528.205128205129,3878.461538461539,4611.794871794872,4446.666666666667,4244.102564102564,4592.307692307693,4406.153846153847,4442.564102564103,4380.512820512821,4838.461538461539,4343.589743589744,4439.48717948718,4216.410256410257,4306.666666666667
2310.9783,1.0,1.0,0.4304123,0.6130399,0,0.0,0.0,0.0,0.0,0.0,0,0,0.0,0.0,0,0,47.0,0.0,0.0,4493.333333333334,3799.48717948718,4612.307692307693,4451.794871794872,4236.410256410257,4615.8974358974365,4414.358974358975,4416.410256410257,4365.128205128206,4815.8974358974365,4277.948717948719,4424.102564102564,4147.179487179487,4318.974358974359
2311.2285,1.0,1.0,0.44004232,0.6134732,0,0.0,0.0,0.0,0.0,0.117522076,0,0,0.0,0.0,0,0,79.0,0.0,416.0,4423.076923076924,3718.9743589743593,4615.384615384616,4454.358974358975,4188.205128205129,4588.205128205129,4506.666666666667,4507.6923076923085,4427.6923076923085,4855.8974358974365,4323.589743589744,4524.102564102564,4186.153846153847,4360.512820512821
2311.4785,1.0,1.0,0.44004232,0.6134732,0,0.0,0.0,0.0,0.0,0.012870023,0,0,0.0,0.0,0,0,111.0,0.0,416.0,4572.820512820514,3767.692307692308,4687.6923076923085,4476.410256410257,4163.589743589744,4536.410256410257,4617.948717948719,4683.076923076924,4496.923076923077,4934.871794871796,4481.025641025642,4693.333333333334,4296.923076923077,4449.2307692307695
2311.6038,1.0,1.0,0.43783012,0.63067585,0,0.0,0.0,0.0,0.0,0.0,0,0,0.0,0.0,0,0,127.0,0.0,416.0,4661.025641025642,3820.0000000000005,4686.153846153847,4480.512820512821,4164.615384615385,4494.358974358975,4626.153846153847,4703.076923076924,4459.48717948718,4916.410256410257,4505.641025641026,4730.256410256411,4308.717948717949,4485.128205128206
2311.979,1.0,1.0,0.43783012,0.63067585,0,0.0,0.0,0.0,0.0,0.13051088,0,0,0.0,0.0,0,0,46.0,0.0,0.0,4783.076923076924,4040.5128205128212,4661.538461538462,4511.282051282052,4291.794871794872,4489.2307692307695,4540.000000000001,4572.820512820514,4331.282051282052,4844.615384615386,4520.000000000001,4649.2307692307695,4331.794871794872,4488.717948717949
2312.2292,0.97679734,1.0,0.4328189,0.6461545,0,0.0,0.0,0.0,0.0,0.006609163,0,0,0.0,0.0,0,0,78.0,0.0,539.0,4702.564102564103,4037.435897435898,4600.512820512821,4485.128205128206,4300.512820512821,4445.128205128206,4474.358974358975,4431.794871794872,4265.128205128206,4800.000000000001,4489.743589743591,4535.8974358974365,4281.025641025642,4458.974358974359
2312.4795,0.97679734,1.0,0.4328189,0.6461545,0,0.0,0.0,0.0,0.0,0.14179245,0,0,0.0,0.0,0,0,110.0,0.0,539.0,4621.025641025642,3994.8717948717954,4589.2307692307695,4475.384615384616,4237.435897435898,4427.6923076923085,4478.461538461539,4414.358974358975,4282.051282051282,4798.974358974359,4534.358974358975,4509.743589743591,4298.461538461539,4427.6923076923085
2312.7297,1.0,1.0,0.4274984,0.66383445,0,0.0,0.0,0.0,0.0,0.6289972,0,0,0.0,0.0,0,0,13.0,0.0,470.0,4507.179487179488,4057.435897435898,4562.051282051282,4474.871794871796,4214.358974358975,4462.051282051282,4477.948717948719,4370.256410256411,4258.461538461539,4787.179487179488,4543.076923076924,4415.384615384616,4309.2307692307695,4374.358974358975
2312.98,1.0,1.0,0.4274984,0.66383445,0,0.0,0.0,0.0,0.0,0.4177198,0,0,0.0,0.0,0,0,45.0,0.0,0.0,4513.333333333334,4086.1538461538466,4521.538461538462,4463.589743589744,4213.846153846154,4475.8974358974365,4443.589743589744,4308.717948717949,4267.179487179487,4782.051282051282,4489.743589743591,4381.538461538462,4296.410256410257,4327.179487179487
2313.2302,1.0,1.0,0.42081597,0.6797392,0,0.0,0.0,0.0,0.0,1.0,0,0,0.0,0.0,0,0,77.0,0.0,471.0,4624.102564102564,4091.7948717948725,4521.538461538462,4445.128205128206,4264.615384615385,4536.923076923077,4427.6923076923085,4296.410256410257,4296.923076923077,4750.769230769231,4448.717948717949,4320.000000000001,4222.564102564103,4289.74358974359
2313.4802,1.0,1.0,0.42081597,0.6797392,0,0.0,0.0,0.0,0.0,0.9492269,0,0,0.0,0.0,0,0,109.0,0.0,471.0,4476.923076923077,4043.589743589744,4507.6923076923085,4449.2307692307695,4261.025641025642,4556.410256410257,4395.8974358974365,4245.128205128206,4256.923076923077,4700.000000000001,4397.435897435898,4268.205128205129,4137.435897435898,4233.846153846154
2313.6055,1.0,1.0,0.4164029,0.69404495,0,0.0,0.0,0.0,0.0,0.0,0,0,0.0,0.0,0,0,125.0,0.0,471.0,4425.641025641026,4046.666666666667,4489.2307692307695,4445.641025641026,4253.846153846154,4554.358974358975,4359.48717948718,4233.333333333334,4275.384615384616,4715.384615384616,4381.025641025642,4246.153846153847,4127.179487179487,4247.179487179487
2313.9807,1.0,1.0,0.4164029,0.69404495,0,0.0,0.0,0.0,0.0,0.27176926,0,0,0.0,0.0,0,0,44.0,0.0,0.0,4367.6923076923085,3846.666666666667,4543.589743589744,4462.051282051282,4216.923076923077,4623.076923076924,4402.564102564103,4349.2307692307695,4344.615384615385,4785.128205128206,4412.820512820514,4342.051282051282,4259.48717948718,4324.615384615385
2314.231,0.98340833,1.0,0.41243005,0.69484454,0,0.0,0.0,0.0,0.0,0.06436188,0,1,0.0,0.0,0,0,76.0,0.0,501.0,4247.179487179487,3675.3846153846157,4598.461538461539,4435.384615384616,4158.974358974359,4572.307692307693,4504.102564102564,4541.025641025642,4375.384615384616,4732.307692307693,4360.000000000001,4450.256410256411,4103.076923076924,4246.153846153847
2314.4812,0.98340833,1.0,0.41243005,0.69484454,0,0.0,0.0,0.0,0.0,0.020412201,0,1,0.0,0.0,0,0,108.0,0.0,501.0,4691.794871794872,4016.410256410257,4800.512820512821,4540.512820512821,4096.923076923077,4535.384615384616,4781.025641025642,4995.384615384616,4534.871794871796,4878.461538461539,4644.615384615385,4766.666666666667,4289.2307692307695,4430.769230769231
2314.7314,1.0,1.0,0.40934876,0.6955604,0,0.0,0.0,0.0,0.0,0.33063665,0,1,0.0,0.0,0,0,11.0,0.0,416.0,4983.589743589744,4393.333333333334,4778.461538461539,4543.589743589744,4269.74358974359,4389.2307692307695,4736.923076923077,4936.923076923077,4392.307692307693,4724.615384615386,4841.025641025642,4711.282051282052,4666.153846153847,4651.794871794872
2314.9817,1.0,1.0,0.40934876,0.6955604,0,0.0,0.0,0.0,0.0,0.041686658,0,0,0.0,0.0,0,0,43.0,0.0,0.0,4890.769230769231,4847.6923076923085,4679.48717948718,4586.666666666667,4421.538461538462,4488.205128205129,4653.333333333334,4687.6923076923085,4444.102564102564,4620.512820512821,5052.820512820514,4152.307692307693,4735.384615384616,4484.102564102564
2315.232,1.0,1.0,0.41241574,0.69100684,0,0.0,0.0,0.0,0.0,0.012449547,1,0,0.0,0.0,0,0,75.0,0.0,413.0,4614.358974358975,4742.051282051282,4397.435897435898,4511.282051282052,4567.6923076923085,4395.384615384616,4343.076923076924,4223.589743589744,4166.666666666667,4309.743589743591,4847.6923076923085,3544.1025641025644,4409.2307692307695,4431.794871794872
2315.5134,1.0,1.0,0.41241574,0.69100684,1,0.0,0.0,0.0,0.0,0.058978442,0,0,0.0,0.0,0,0,111.0,0.0,413.0,4534.358974358975,4521.538461538462,4254.871794871796,4444.615384615385,4614.358974358975,4429.2307692307695,4266.666666666667,4001.538461538462,4038.9743589743593,4224.615384615385,4702.051282051282,3401.538461538462,4180.000000000001,4378.461538461539
2315.7322,1.0,1.0,0.4238728,0.6869072,0,0.0,0.0,0.0,0.0,0.14141418,0,0,0.0,0.0,0,0,10.0,0.0,536.0,4450.769230769231,4201.538461538462,4165.641025641026,4376.410256410257,4493.333333333334,4381.538461538462,4152.307692307693,3820.0000000000005,3915.3846153846157,4200.512820512821,4442.564102564103,3355.3846153846157,3961.538461538462,4414.871794871796
2315.9824,1.0,1.0,0.4238728,0.6869072,1,0.0,0.0,0.0,0.0,0.5195824,0,0,0.0,0.0,0,0,42.0,0.0,0.0,4578.461538461539,3914.8717948717954,4207.179487179487,4353.846153846154,4338.461538461539,4443.589743589744,4108.717948717949,3806.1538461538466,3984.615384615385,4364.102564102564,4391.794871794872,3487.1794871794878,3992.820512820513,4461.538461538462
2316.2327,1.0,1.0,0.44759515,0.68625045,0,0.0,0.0,0.0,0.0,0.20516601,0,0,0.0,0.0,0,0,74.0,0.0,537.0,4554.871794871796,3697.435897435898,4291.794871794872,4363.589743589744,4215.8974358974365,4519.48717948718,4199.48717948718,3913.8461538461543,4105.128205128206,4507.179487179488,4281.025641025642,3669.2307692307695,3929.2307692307695,4446.153846153847
2316.483,1.0,1.0,0.44759515,0.68625045,0,0.0,0.0,0.0,0.0,0.09114039,0,0,0.0,0.0,0,0,106.0,0.0,537.0,4584.615384615385,3521.538461538462,4374.871794871796,4367.6923076923085,4089.7435897435903,4536.923076923077,4245.641025641026,4017.9487179487182,4379.48717948718,4660.000000000001,4202.564102564103,3891.7948717948725,3940.5128205128212,4483.076923076924
2316.7332,1.0,1.0,0.46896386,0.68568677,0,0.0,0.0,0.0,0.0,0.0,0,0,1.0,0.0,0,0,9.0,0.0,501.0,4604.102564102564,3409.2307692307695,4490.256410256411,4420.000000000001,4049.23076923077,4561.025641025642,4335.384615384616,4154.871794871796,4424.615384615385,4798.974358974359,4122.564102564103,4153.333333333334,3939.48717948718,4467.6923076923085
2316.9834,1.0,1.0,0.46896386,0.68568677,0,0.0,0.0,0.0,0.0,0.056726146,0,0,0.0,0.0,0,0,41.0,0.0,0.0,4798.461538461539,3535.8974358974365,4639.48717948718,4466.666666666667,4114.358974358975,4701.025641025642,4449.2307692307695,4399.48717948718,4531.794871794872,4925.641025641026,4151.282051282052,4419.48717948718,4120.512820512821,4549.743589743591
2317.2336,1.0,1.0,0.48560396,0.6851495,0,0.0,0.0,0.0,0.0,0.04332453,0,0,0.0,0.0,1,0,73.0,0.0,501.0,4814.358974358975,3634.358974358975,4755.8974358974365,4470.256410256411,4220.000000000001,4797.435897435898,4506.153846153847,4668.205128205129,4602.564102564103,4953.333333333334,4165.128205128206,4697.948717948719,4183.076923076924,4540.000000000001
2317.484,1.0,1.0,0.48560396,0.6851495,0,0.0,0.0,0.0,0.0,0.06689264,0,0,0.0,0.0,0,0,105.0,0.0,472.0,4852.820512820514,3697.9487179487182,4777.948717948719,4508.717948717949,4069.7435897435903,4858.974358974359,4588.205128205129,4813.846153846154,4715.384615384616,5104.102564102564,4263.589743589744,4847.179487179488,4322.051282051282,4582.051282051282
2317.734,1.0,1.0,0.49217293,0.6781332,0,0.0,0.0,0.0,0.0,0.19043775,0,0,0.0,0.0,0,1,8.0,0.0,493.0,4880.512820512821,3784.615384615385,4867.6923076923085,4554.358974358975,4047.692307692308,4891.794871794872,4694.358974358975,4911.794871794872,4793.333333333334,5232.820512820514,4329.2307692307695,4988.205128205129,4424.102564102564,4563.076923076924
2317.9841,1.0,1.0,0.49217293,0.6781332,0,0.0,0.0,0.0,0.0,0.0,0,0,0.0,0.0,0,0,40.0,0.0,0.0,4859.48717948718,3724.1025641025644,4820.512820512821,4522.051282051282,4047.692307692308,4820.000000000001,4661.538461538462,4865.641025641026,4728.205128205129,5177.435897435898,4278.461538461539,4908.205128205129,4331.794871794872,4589.2307692307695
2318.1094,1.0,1.0,0.47626328,0.6655198,0,0.0,0.0,0.0,0.0,0.0,0,0,0.0,0.0,0,0,56.0,0.0,0.0,4861.538461538462,3760.0000000000005,4838.974358974359,4488.205128205129,4063.589743589744,4827.179487179488,4689.743589743591,4890.769230769231,4736.923076923077,5185.128205128206,4326.153846153847,4926.153846153847,4368.717948717949,4631.794871794872
2318.1094,1.0,1.0,0.47626328,0.6655198,0,0.0,0.0,0.0,0.0,0.0,0,0,0.0,0.0,0,0,56.0,0.0,0.0,4861.538461538462,3760.0000000000005,4838.974358974359,4488.205128205129,4063.589743589744,4827.179487179488,4689.743589743591,4890.769230769231,4736.923076923077,5185.128205128206,4326.153846153847,4926.153846153847,4368.717948717949,4631.794871794872
2318.7349,0.93099505,1.0,0.4619436,0.65416527,0,0.0,0.0,0.0,0.0,1.0,0,0,0.0,0.0,0,0,7.0,0.0,473.0,7680.000000000001,4463.589743589744,4764.615384615386,4478.461538461539,4035.3846153846157,4718.974358974359,4620.000000000001,4747.6923076923085,4547.179487179488,5017.435897435898,4784.615384615386,4923.076923076924,4680.512820512821,4920.512820512821
2318.985,0.93099505,1.0,0.4619436,0.65416527,0,0.0,0.0,0.0,0.5730111,0.0,0,0,0.0,0.0,0,0,39.0,0.0,0.0,7768.71794871795,7448.71794871795,4505.128205128206,4483.589743589744,4327.179487179487,4636.923076923077,4518.461538461539,4575.8974358974365,4356.410256410257,5027.179487179488,4780.000000000001,4776.923076923077,6878.97435897436,7768.71794871795
2319.2354,0.93099505,1.0,0.4490728,0.6439624,0,0.030461328,0.0,0.0,0.0,0.0,0,0,0.0,0.0,0,0,71.0,0.0,473.0,7768.71794871795,4689.743589743591,4704.102564102564,4645.128205128206,4270.769230769231,4793.846153846154,4724.615384615386,4783.589743589744,4571.794871794872,4976.410256410257,4432.820512820514,4776.923076923077,4846.666666666667,7768.71794871795
2319.4856,0.93099505,1.0,0.4490728,0.6439624,0,0.027307669,0.0,0.0,0.0,0.0,0,0,0.0,0.0,0,0,103.0,0.0,0.0,7768.71794871795,4336.410256410257,4767.179487179488,4656.410256410257,4389.2307692307695,4863.076923076924,4766.666666666667,4787.179487179488,4659.48717948718,5003.589743589744,4332.820512820514,4798.974358974359,4778.974358974359,7608.205128205129
2319.7358,1.0,1.0,0.43749508,0.634783,0,0.40600893,0.0,0.0,0.0,0.0,0,0,0.0,0.0,0,0,6.0,0.0,526.0,6655.384615384616,4332.307692307693,4687.179487179488,4485.641025641026,4300.512820512821,4761.025641025642,4628.205128205129,4684.102564102564,4593.846153846154,4968.717948717949,4243.589743589744,4636.410256410257,4704.102564102564,6884.102564102565
2319.9858,1.0,1.0,0.43749508,0.634783,0,0.0,0.0,0.0,0.0,1.0,0,0,0.0,0.0,0,0,38.0,0.0,0.0,5489.743589743591,4370.256410256411,4700.512820512821,4505.641025641026,4381.025641025642,4724.102564102564,4600.000000000001,4628.205128205129,4530.256410256411,4929.2307692307695,4265.641025641026,4603.076923076924,4739.48717948718,6412.820512820514
2320.1423,1.0,1.0,0.42707893,0.62652594,0,0.0,0.0,0.0,0.0,1.0,0,0,0.0,0.0,0,0,58.0,0.0,0.0,5011.282051282052,4338.974358974359,4681.538461538462,4491.282051282052,4392.820512820514,4706.666666666667,4601.538461538462,4609.743589743591,4521.025641025642,4909.2307692307695,4271.282051282052,4583.589743589744,4701.025641025642,6157.435897435898
2320.4863,1.0,1.0,0.42707893,0.62652594,0,0.0,0.0,0.0,0.0,0.84273404,0,0,0.0,0.0,0,0,102.0,0.0,513.0,4352.820512820514,4313.846153846154,4658.974358974359,4474.358974358975,4368.205128205129,4650.256410256411,4652.307692307693,4614.871794871796,4361.538461538462,4711.282051282052,4078.9743589743593,4507.179487179488,4386.666666666667,5671.794871794873
2320.7366,0.9641442,1.0,0.4176919,0.61908716,0,0.0,0.0,0.0,0.0,0.28556478,0,0,0.0,0.0,0,0,5.0,0.0,566.0,4115.8974358974365,4315.8974358974365,4668.717948717949,4500.512820512821,4407.179487179487,4618.461538461539,4695.8974358974365,4604.615384615385,4183.589743589744,4556.410256410257,4042.564102564103,4425.641025641026,4178.974358974359,5414.871794871796
2320.9868,0.9641442,1.0,0.4176919,0.61908716,0,0.0,0.0,0.0,0.0,0.37297228,0,0,0.0,0.0,0,0,37.0,0.0,0.0,3971.7948717948725,4241.025641025642,4615.384615384616,4489.2307692307695,4409.2307692307695,4547.6923076923085,4666.666666666667,4507.6923076923085,4031.7948717948725,4476.923076923077,4069.23076923077,4258.974358974359,4121.538461538462,5180.000000000001
2321.237,0.97861695,1.0,0.4092426,0.6123919,0,0.0,0.0,0.0,0.0,0.7598909,0,0,0.0,0.0,0,0,69.0,0.0,566.0,3860.0000000000005,4162.564102564103,4560.000000000001,4472.307692307693,4404.102564102564,4506.153846153847,4590.256410256411,4403.589743589744,4003.076923076924,4462.051282051282,4139.48717948718,4154.871794871796,4088.205128205129,5031.794871794872
2321.4873,0.97861695,1.0,0.4092426,0.6123919,0,0.0,0.0,0.0,0.0,0.22889611,0,0,0.0,0.0,0,0,101.0,0.0,477.0,3672.820512820513,3986.666666666667,4563.589743589744,4788.717948717949,4355.384615384616,4433.846153846154,4465.128205128206,4296.923076923077,4030.2564102564106,4473.333333333334,4170.256410256411,4080.5128205128212,4060.5128205128212,4851.282051282052
2321.7375,1.0,1.0,0.40164724,0.60637337,0,0.0,0.0,0.26377317,0.0,0.0,0,0,0.0,0.0,0,0,4.0,0.0,560.0,3670.2564102564106,3926.1538461538466,4544.102564102564,4714.871794871796,4356.923076923077,4439.48717948718,4426.153846153847,4310.769230769231,4136.410256410257,4568.205128205129,4278.974358974359,4123.076923076924,4106.666666666667,4713.846153846154
2321.9875,1.0,1.0,0.40164724,0.60637337,0,0.0,0.0,0.0,0.0,0.2471758,0,0,0.0,0.0,0,0,36.0,0.0,0.0,3589.2307692307695,3771.2820512820517,4545.641025641026,4651.282051282052,4320.512820512821,4409.2307692307695,4474.871794871796,4474.871794871796,4248.205128205129,4658.461538461539,4356.923076923077,4236.410256410257,4089.7435897435903,4614.358974358975
2322.2378,0.9398827,1.0,0.39480373,0.60095084,0,0.0,0.0,0.0,0.0,0.025846971,0,0,0.0,0.0,0,0,68.0,0.0,560.0,3770.2564102564106,3740.0000000000005,4591.282051282052,4618.461538461539,4278.974358974359,4246.666666666667,4531.794871794872,4651.794871794872,4340.000000000001,4761.025641025642,4536.410256410257,4475.8974358974365,4233.333333333334,4658.974358974359
2322.488,0.9398827,1.0,0.39480373,0.60095084,0,0.0,0.0,0.0,0.0,0.3094014,0,0,0.0,0.0,0,0,100.0,0.0,503.0,3895.8974358974365,3833.8461538461543,4549.2307692307695,4570.769230769231,4317.948717948719,4161.538461538462,4478.461538461539,4626.666666666667,4337.948717948719,4786.153846153847,4620.000000000001,4508.205128205129,4238.461538461539,4621.025641025642
2322.7383,0.8787722,1.0,0.38864604,0.59607166,0,0.0,0.0,0.0,0.0,0.10292068,0,0,0.0,0.0,0,0,3.0,0.0,555.0,3903.076923076924,3873.8461538461543,4447.6923076923085,4524.102564102564,4403.076923076924,4198.974358974359,4411.794871794872,4468.717948717949,4280.512820512821,4729.2307692307695,4574.358974358975,4372.820512820514,4146.153846153847,4521.538461538462
2322.9885,0.8787722,1.0,0.38864604,0.59607166,0,0.0,0.0,0.22722603,0.0,0.0,0,0,0.0,0.0,0,0,35.0,0.0,0.0,3807.692307692308,3869.2307692307695,4317.948717948719,4484.615384615385,4496.923076923077,4339.48717948718,4351.794871794872,4335.8974358974365,4261.538461538462,4701.025641025642,4530.256410256411,4237.948717948719,4087.1794871794878,4416.923076923077
2323.2388,0.9028812,1.0,0.38310447,0.59168077,0,0.0,0.0,0.28028974,0.0,0.0,0,0,0.0,0.0,0,0,67.0,0.0,555.0,3732.820512820513,3829.2307692307695,4251.794871794872,4450.769230769231,4520.000000000001,4438.974358974359,4296.923076923077,4212.820512820514,4245.641025641026,4671.282051282052,4444.615384615385,4115.8974358974365,3995.8974358974365,4303.076923076924
2323.3638,0.9028812,1.0,0.38310447,0.59168077,0,0.0,0.0,0.0,0.0,0.0,0,0,0.0,0.0,0,0,83.0,0.0,410.0,3737.9487179487182,3838.461538461539,4246.666666666667,4442.051282051282,4522.051282051282,4491.794871794872,4277.435897435898,4160.512820512821,4242.564102564103,4657.948717948719,4393.846153846154,4039.48717948718,3938.461538461539,4265.641025641026
2323.614,1.0,1.0,0.3781164,0.5877292,0,0.0,0.0,0.0,0.0,0.0,0,0,0.0,0.0,0,0,115.0,0.0,410.0,3677.435897435898,3787.1794871794878,4268.205128205129,4426.666666666667,4475.8974358974365,4550.256410256411,4225.128205128206,4095.3846153846157,4204.102564102564,4601.025641025642,4281.025641025642,3997.9487179487182,3816.410256410257,4185.128205128206
2323.614,1.0,1.0,0.3781164,0.5877292,0,0.0,0.0,0.0,0.0,0.0,0,0,0.0,0.0,0,0,115.0,0.0,410.0,3677.435897435898,3787.1794871794878,4268.205128205129,4426.666666666667,4475.8974358974365,4550.256410256411,4225.128205128206,4095.3846153846157,4204.102564102564,4601.025641025642,4281.025641025642,3997.9487179487182,3816.410256410257,4185.128205128206
2324.1145,1.0,1.0,0.3736274,0.58417356,0,0.0,0.0,0.0,0.0,0.0,0,0,0.0,0.0,0,0,50.0,0.0,0.0,3714.358974358975,3681.538461538462,4375.8974358974365,4426.666666666667,4363.589743589744,4632.820512820514,4278.974358974359,4201.538461538462,4235.8974358974365,4612.307692307693,4200.512820512821,4032.307692307693,3699.48717948718,4097.435897435898
2324.1145,1.0,1.0,0.3736274,0.58417356,0,0.0,0.0,0.0,0.0,0.0,0,0,0.0,0.0,0,0,50.0,0.0,0.0,3714.358974358975,3681.538461538462,4375.8974358974365,4426.666666666667,4363.589743589744,4632.820512820514,4278.974358974359,4201.538461538462,4235.8974358974365,4612.307692307693,4200.512820512821,4032.307692307693,3699.48717948718,4097.435897435898
2324.74,1.0,1.0,0.36958838,0.5809731,0,0.0,0.0,0.0,0.0,0.032502133,0,0,0.0,0.0,0,0,1.0,0.0,416.0,3861.538461538462,3634.358974358975,4509.2307692307695,4443.589743589744,4307.6923076923085,4685.128205128206,4426.666666666667,4397.435897435898,4304.615384615385,4671.282051282052,4218.974358974359,4247.6923076923085,3697.9487179487182,4066.666666666667
2324.9902,1.0,1.0,0.36958838,0.5809731,0,0.0,0.0,0.0,0.0,0.0442109,0,0,0.0,0.0,0,0,33.0,0.0,0.0,3863.076923076924,3657.435897435898,4552.307692307693,4452.820512820514,4311.282051282052,4685.641025641026,4461.025641025642,4444.615384615385,4323.076923076924,4707.179487179488,4248.717948717949,4283.589743589744,3725.6410256410263,4106.666666666667
2325.2405,1.0,1.0,0.37290633,0.5780924,0,0.0,0.0,0.0,0.0,0.0,0,0,0.0,0.0,0,0,65.0,0.0,416.0,3851.7948717948725,3634.8717948717954,4632.820512820514,4463.076923076924,4269.74358974359,4638.974358974359,4460.000000000001,4427.179487179487,4294.358974358975,4676.923076923077,4220.000000000001,4301.538461538462,3684.615384615385,4071.2820512820517
2325.2405,1.0,1.0,0.37290633,0.5780924,0,0.0,0.0,0.0,0.0,0.0,0,0,0.0,0.0,0,0,65.0,0.0,416.0,3851.7948717948725,3634.8717948717954,4632.820512820514,4463.076923076924,4269.74358974359,4638.974358974359,4460.000000000001,4427.179487179487,4294.358974358975,4676.923076923077,4220.000000000001,4301.538461538462,3684.615384615385,4071.2820512820517
2325.6157,0.9671163,1.0,0.37589192,0.5911207,0,0.0,0.0,0.0,0.0,0.0,0,0,0.0,0.0,0,0,113.0,0.0,477.0,3865.1282051282055,3667.692307692308,4618.461538461539,4448.205128205129,4274.358974358975,4606.153846153847,4444.102564102564,4390.256410256411,4245.641025641026,4668.205128205129,4198.974358974359,4293.846153846154,3697.9487179487182,4058.461538461539
2325.9912,0.9671163,1.0,0.37589192,0.5911207,0,0.0,0.0,0.0,0.0,1.0,0,0,0.0,0.0,1,0,32.0,0.0,0.0,4109.2307692307695,3685.6410256410263,4622.051282051282,4457.435897435898,4280.000000000001,4600.000000000001,4442.564102564103,4396.410256410257,4280.512820512821,4716.923076923077,4246.666666666667,4351.282051282052,3723.076923076924,4078.9743589743593
2326.2412,1.0,1.0,0.37485412,0.61799467,0,0.0,0.0,0.0,0.0,0.41056517,0,0,0.0,0.0,0,0,64.0,0.0,455.0,4145.641025641026,3687.692307692308,4586.153846153847,4448.717948717949,4277.948717948719,4606.153846153847,4452.820512820514,4395.384615384616,4285.641025641026,4705.641025641026,4235.8974358974365,4322.051282051282,3704.1025641025644,4077.435897435898
2326.3665,1.0,1.0,0.37485412,0.61799467,0,0.0,0.0,0.0,0.0,0.0,0,0,0.0,0.0,0,0,80.0,0.0,504.0,4070.7692307692314,3716.410256410257,4575.8974358974365,4450.256410256411,4306.666666666667,4614.358974358975,4429.743589743591,4382.051282051282,4295.384615384616,4713.846153846154,4230.256410256411,4292.307692307693,3697.9487179487182,4037.435897435898
2326.6167,0.9924204,1.0,0.37391952,0.6227163,0,0.0,0.0,0.0,0.0,0.0,0,0,0.0,0.0,0,0,112.0,0.0,504.0,4056.9230769230776,3713.333333333334,4571.794871794872,4440.512820512821,4300.512820512821,4600.512820512821,4440.512820512821,4396.410256410257,4308.205128205129,4724.615384615386,4243.589743589744,4295.384615384616,3717.435897435898,4068.205128205129
2326.6167,0.9924204,1.0,0.37391952,0.6227163,0,0.0,0.0,0.0,0.0,0.0,0,0,0.0,0.0,0,0,112.0,0.0,504.0,4056.9230769230776,3713.333333333334,4571.794871794872,4440.512820512821,4300.512820512821,4600.512820512821,4440.512820512821,4396.410256410257,4308.205128205129,4724.615384615386,4243.589743589744,4295.384615384616,3717.435897435898,4068.205128205129
2327.117,1.0,1.0,0.370307,0.6074874,0,0.0,0.0,0.0,0.0,0.0,0,0,0.0,0.0,0,0,47.0,0.0,0.0,4185.128205128206,3736.410256410257,4573.333333333334,4453.333333333334,4282.564102564103,4584.102564102564,4443.076923076924,4426.153846153847,4326.153846153847,4743.589743589744,4295.8974358974365,4337.948717948719,3803.589743589744,4137.435897435898
2327.117,1.0,1.0,0.370307,0.6074874,0,0.0,0.0,0.0,0.0,0.0,0,0,0.0,0.0,0,0,47.0,0.0,0.0,4185.128205128206,3736.410256410257,4573.333333333334,4453.333333333334,4282.564102564103,4584.102564102564,4443.076923076924,4426.153846153847,4326.153846153847,4743.589743589744,4295.8974358974365,4337.948717948719,3803.589743589744,4137.435897435898
2327.7427,1.0,1.0,0.3618872,0.59378135,0,0.0,0.0,0.0,0.0,0.02428033,0,0,0.0,0.0,0,0,127.0,0.0,416.0,4214.871794871796,3755.8974358974365,4586.666666666667,4482.564102564103,4292.820512820514,4586.153846153847,4410.769230769231,4461.025641025642,4330.256410256411,4765.128205128206,4365.128205128206,4381.025641025642,3882.564102564103,4206.666666666667
2327.8677,1.0,1.0,0.3618872,0.59378135,0,0.0,0.0,0.0,0.0,0.0,0,0,0.0,0.0,0,0,14.0,0.0,535.0,4230.256410256411,3776.9230769230776,4598.461538461539,4489.743589743591,4295.384615384616,4584.615384615385,4424.102564102564,4465.641025641026,4325.641025641026,4749.743589743591,4360.000000000001,4380.000000000001,3889.7435897435903,4196.923076923077
2328.118,0.97451764,1.0,0.3538575,0.589564,0,0.0,0.0,0.0,0.0,0.0,0,0,0.0,0.0,0,0,46.0,0.0,0.0,4216.923076923077,3772.820512820513,4590.769230769231,4484.615384615385,4292.820512820514,4580.000000000001,4430.256410256411,4459.48717948718,4310.769230769231,4750.256410256411,4375.384615384616,4367.179487179487,3909.2307692307695,4168.717948717949
2328.118,0.97451764,1.0,0.3538575,0.589564,0,0.0,0.0,0.0,0.0,0.0,0,0,0.0,0.0,0,0,46.0,0.0,0.0,4216.923076923077,3772.820512820513,4590.769230769231,4484.615384615385,4292.820512820514,4580.000000000001,4430.256410256411,4459.48717948718,4310.769230769231,4750.256410256411,4375.384615384616,4367.179487179487,3909.2307692307695,4168.717948717949
2328.6184,1.0,1.0,0.3493753,0.58576804,0,0.0,0.0,0.0,0.0,0.0,0,0,0.0,0.0,0,0,110.0,0.0,535.0,4216.923076923077,3735.8974358974365,4547.179487179488,4445.641025641026,4247.179487179487,4562.051282051282,4430.769230769231,4465.641025641026,4312.820512820514,4729.2307692307695,4337.435897435898,4332.820512820514,3891.2820512820517,4170.256410256411
2328.6184,1.0,1.0,0.3493753,0.58576804,0,0.0,0.0,0.0,0.0,0.0,0,0,0.0,0.0,0,0,110.0,0.0,535.0,4216.923076923077,3735.8974358974365,4547.179487179488,4445.641025641026,4247.179487179487,4562.051282051282,4430.769230769231,4465.641025641026,4312.820512820514,4729.2307692307695,4337.435897435898,4332.820512820514,3891.2820512820517,4170.256410256411
2329.119,0.9527744,0.9832465,0.3494988,0.579769,0,0.0,0.0,0.0,0.0,0.0,0,0,0.0,0.0,0,0,45.0,0.0,0.0,4202.051282051282,3718.461538461539,4512.820512820514,4421.025641025642,4228.205128205129,4527.179487179488,4442.051282051282,4473.846153846154,4301.025641025642,4705.641025641026,4307.6923076923085,4274.871794871796,3861.0256410256416,4184.102564102564
2329.119,0.9527744,0.9832465,0.3494988,0.579769,0,0.0,0.0,0.0,0.0,0.0,0,0,0.0,0.0,0,0,45.0,0.0,0.0,4202.051282051282,3718.461538461539,4512.820512820514,4421.025641025642,4228.205128205129,4527.179487179488,4442.051282051282,4473.846153846154,4301.025641025642,4705.641025641026,4307.6923076923085,4274.871794871796,3861.0256410256416,4184.102564102564
2329.6191,0.94991434,0.933043,0.3496097,0.5820048,0,0.0,0.0,0.0,0.0,0.0,0,0,0.0,0.0,0,0,109.0,0.0,477.0,4415.8974358974365,3647.692307692308,4433.846153846154,4413.846153846154,4151.794871794872,4413.846153846154,4583.589743589744,4616.923076923077,4343.076923076924,4731.282051282052,4422.564102564103,4406.666666666667,3971.2820512820517,4328.717948717949
2329.6191,0.94991434,0.933043,0.3496097,0.5820048,0,0.0,0.0,0.0,0.0,0.0,0,0,0.0,0.0,0,0,109.0,0.0,477.0,4415.8974358974365,3647.692307692308,4433.846153846154,4413.846153846154,4151.794871794872,4413.846153846154,4583.589743589744,4616.923076923077,4343.076923076924,4731.282051282052,4422.564102564103,4406.666666666667,3971.2820512820517,4328.717948717949
2330.2449,0.8946795,0.913951,0.34735823,0.5872813,0,0.0,0.0,0.07450517,0.0,0.0,0,0,0.0,0.0,0,0,60.0,0.0,0.0,4523.589743589744,3895.3846153846157,4294.358974358975,4388.717948717949,4275.8974358974365,4357.435897435898,4457.948717948719,4463.589743589744,4213.846153846154,4674.358974358975,4409.743589743591,4263.076923076924,4043.076923076924,4311.794871794872
2330.4949,0.8946795,0.913951,0.34735823,0.5872813,0,0.0,0.0,0.0,0.0,0.021272684,0,0,0.0,0.0,0,0,92.0,0.0,504.0,4477.948717948719,3941.538461538462,4280.512820512821,4395.8974358974365,4297.948717948719,4391.794871794872,4379.48717948718,4375.384615384616,4202.564102564103,4671.794871794872,4380.512820512821,4171.282051282052,4045.1282051282055,4289.74358974359
2330.8076,0.89823157,0.89761114,0.34903926,0.5920296,0,0.0,0.0,0.0,0.0,0.06377128,0,0,0.0,0.0,0,0,3.0,0.0,552.0,4395.384615384616,3957.9487179487182,4330.256410256411,4402.564102564103,4293.846153846154,4422.051282051282,4319.48717948718,4297.948717948719,4166.666666666667,4616.410256410257,4317.435897435898,4151.282051282052,4027.1794871794878,4295.8974358974365
2330.9954,0.89823157,0.89761114,0.34903926,0.5920296,0,0.0,0.0,0.0,0.0,0.25538814,0,0,0.0,0.0,0,0,27.0,0.0,0.0,4374.871794871796,3925.1282051282055,4366.153846153847,4408.205128205129,4290.769230769231,4445.641025641026,4279.48717948718,4260.000000000001,4164.615384615385,4613.846153846154,4280.000000000001,4117.435897435898,4013.8461538461543,4242.051282051282
2331.1206,1.0,0.8941206,0.35191485,0.5937189,0,0.0,0.0,0.0,0.0,0.0,0,0,0.0,0.0,0,0,43.0,0.0,0.0,4409.2307692307695,3938.461538461539,4392.820512820514,4411.282051282052,4282.564102564103,4460.000000000001,4281.025641025642,4261.538461538462,4184.102564102564,4639.48717948718,4299.48717948718,4138.461538461539,4028.205128205129,4231.282051282052
2331.1206,1.0,0.8941206,0.35191485,0.5937189,0,0.0,0.0,0.0,0.0,0.0,0,0,0.0,0.0,0,0,43.0,0.0,0.0,4409.2307692307695,3938.461538461539,4392.820512820514,4411.282051282052,4282.564102564103,4460.000000000001,4281.025641025642,4261.538461538462,4184.102564102564,4639.48717948718,4299.48717948718,4138.461538461539,4028.205128205129,4231.282051282052
2331.8398,0.89822334,0.8756761,0.35450265,0.5797296,1,0.0,0.0,0.0,0.0,0.2901601,0,0,0.0,0.0,0,0,6.0,0.0,531.0,4441.538461538462,3920.0000000000005,4519.48717948718,4417.948717948719,4260.000000000001,4540.512820512821,4351.282051282052,4340.000000000001,4271.282051282052,4682.051282051282,4306.666666666667,4215.8974358974365,4099.48717948718,4201.025641025642
2331.9963,0.89822334,0.8756761,0.35450265,0.5797296,0,0.0,0.0,0.0,0.0,0.38710573,0,0,0.0,0.0,0,0,26.0,0.0,0.0,4342.051282051282,3907.692307692308,4515.384615384616,4415.384615384616,4247.6923076923085,4533.333333333334,4349.2307692307695,4342.564102564103,4278.974358974359,4677.435897435898,4294.358974358975,4198.974358974359,4073.8461538461543,4154.358974358975
2332.2466,0.9480444,0.8715415,0.35936207,0.55448616,0,0.0,0.0,0.0,0.0,0.4196463,0,0,0.0,0.0,0,0,58.0,0.0,0.0,4358.461538461539,3958.461538461539,4549.2307692307695,4433.846153846154,4276.923076923077,4559.48717948718,4383.076923076924,4376.410256410257,4291.282051282052,4674.871794871796,4265.641025641026,4215.384615384616,4039.48717948718,4129.74358974359
2332.4966,0.9480444,0.8715415,0.35936207,0.55448616,0,0.0,0.0,0.0,0.0,0.27780926,0,0,0.0,0.0,0,0,90.0,0.0,537.0,4410.769230769231,3940.5128205128212,4570.769230769231,4455.8974358974365,4291.282051282052,4570.256410256411,4402.564102564103,4398.974358974359,4308.717948717949,4696.410256410257,4300.000000000001,4250.256410256411,4091.7948717948725,4134.358974358975
2332.7468,0.954805,0.87039757,0.36980113,0.52388585,0,0.0,0.0,0.0,0.0,0.0,0,0,0.0,0.0,0,0,122.0,0.0,537.0,4476.410256410257,3978.461538461539,4583.589743589744,4472.307692307693,4297.435897435898,4588.717948717949,4433.333333333334,4431.282051282052,4344.615384615385,4745.128205128206,4349.2307692307695,4281.025641025642,4152.820512820514,4154.871794871796
2332.7468,0.954805,0.87039757,0.36980113,0.52388585,0,0.0,0.0,0.0,0.0,0.0,0,0,0.0,0.0,0,0,122.0,0.0,537.0,4476.410256410257,3978.461538461539,4583.589743589744,4472.307692307693,4297.435897435898,4588.717948717949,4433.333333333334,4431.282051282052,4344.615384615385,4745.128205128206,4349.2307692307695,4281.025641025642,4152.820512820514,4154.871794871796
2333.2473,0.92984366,0.89530116,0.37993783,0.4932329,0,0.0,0.0,0.0,0.0,1.0,0,0,0.0,0.0,0,0,57.0,0.0,0.0,4319.48717948718,3954.8717948717954,4598.461538461539,4486.666666666667,4295.8974358974365,4583.076923076924,4449.743589743591,4438.461538461539,4358.461538461539,4756.410256410257,4371.282051282052,4293.333333333334,4184.615384615385,4167.179487179487
2333.2473,0.92984366,0.89530116,0.37993783,0.4932329,0,0.0,0.0,0.0,0.0,1.0,0,0,0.0,0.0,0,0,57.0,0.0,0.0,4319.48717948718,3954.8717948717954,4598.461538461539,4486.666666666667,4295.8974358974365,4583.076923076924,4449.743589743591,4438.461538461539,4358.461538461539,4756.410256410257,4371.282051282052,4293.333333333334,4184.615384615385,4167.179487179487
2333.6226,0.90002376,0.9156528,0.3915359,0.46894032,0,0.0,0.0,0.0,0.0,1.0,0,0,0.0,0.0,0,0,105.0,0.0,478.0,4445.641025641026,3957.435897435898,4589.743589743591,4486.153846153847,4278.974358974359,4574.358974358975,4460.512820512821,4455.8974358974365,4230.769230769231,4743.076923076924,4366.153846153847,4288.717948717949,4193.333333333334,4256.923076923077
2333.998,0.90002376,0.9156528,0.3915359,0.46894032,0,0.0,0.0,0.0,0.0,0.79997444,0,0,0.0,0.0,0,0,24.0,0.0,0.0,4519.48717948718,4001.538461538462,4603.076923076924,4486.153846153847,4306.666666666667,4575.384615384616,4473.333333333334,4442.564102564103,4182.051282051282,4723.589743589744,4362.564102564103,4289.2307692307695,4182.564102564103,4303.589743589744
2334.2483,0.8026012,0.8892783,0.40197316,0.44708246,0,0.0,0.0,0.0,0.0,0.6683392,0,0,0.0,0.0,0,0,56.0,0.0,0.0,4553.333333333334,4021.538461538462,4606.153846153847,4497.435897435898,4302.564102564103,4587.179487179488,4493.333333333334,4483.589743589744,4278.974358974359,4775.8974358974365,4405.641025641026,4317.948717948719,4215.384615384616,4305.128205128206
2334.4983,0.8026012,0.8892783,0.40197316,0.44708246,0,0.0,0.0,0.0,0.0,0.0,0,0,0.0,0.0,0,0,88.0,0.0,506.0,4527.179487179488,4023.076923076924,4612.307692307693,4508.205128205129,4302.051282051282,4586.666666666667,4502.564102564103,4487.6923076923085,4316.923076923077,4778.974358974359,4410.769230769231,4335.384615384616,4237.948717948719,4302.051282051282
2334.6235,0.70394915,0.8528378,0.40956083,0.42741796,0,0.0,0.0,0.0,0.0,0.0,0,0,0.0,0.0,0,0,104.0,0.0,506.0,4473.846153846154,3978.461538461539,4613.846153846154,4497.435897435898,4304.615384615385,4584.615384615385,4511.282051282052,4490.769230769231,4328.205128205129,4779.48717948718,4427.6923076923085,4340.000000000001,4264.102564102564,4312.820512820514
2334.9988,0.70394915,0.8528378,0.40956083,0.42741796,0,0.0,0.0,0.0,0.0,0.39348978,0,0,0.0,0.0,0,0,23.0,0.0,0.0,4477.435897435898,3993.333333333334,4612.307692307693,4505.641025641026,4310.769230769231,4597.948717948719,4522.051282051282,4541.025641025642,4377.435897435898,4812.820512820514,4457.948717948719,4344.615384615385,4292.820512820514,4346.666666666667
2335.249,0.7094681,0.8085795,0.41270983,0.41170865,0,0.0,0.0,0.0,0.0,0.0,0,0,0.0,0.0,0,0,55.0,0.0,0.0,4477.948717948719,3974.358974358975,4605.641025641026,4502.564102564103,4297.948717948719,4581.025641025642,4505.128205128206,4511.282051282052,4362.051282051282,4784.615384615386,4445.641025641026,4355.8974358974365,4281.538461538462,4367.179487179487
2335.249,0.7094681,0.8085795,0.41270983,0.41170865,0,0.0,0.0,0.0,0.0,0.0,0,0,0.0,0.0,0,0,55.0,0.0,0.0,4477.948717948719,3974.358974358975,4605.641025641026,4502.564102564103,4297.948717948719,4581.025641025642,4505.128205128206,4511.282051282052,4362.051282051282,4784.615384615386,4445.641025641026,4355.8974358974365,4281.538461538462,4367.179487179487
2335.6243,0.72699165,0.7661624,0.4106525,0.40685016,0,0.0,0.0,0.0,0.0,0.0,0,0,0.0,0.0,0,0,103.0,0.0,417.0,4426.153846153847,4010.7692307692314,4601.538461538462,4492.307692307693,4278.461538461539,4560.512820512821,4526.153846153847,4495.384615384616,4356.410256410257,4794.871794871796,4436.923076923077,4369.743589743591,4231.794871794872,4367.179487179487
2336.0623,0.72699165,0.7661624,0.4106525,0.40685016,1,0.0,0.0,0.0,0.0,0.0,0,0,0.0,0.0,0,0,30.0,0.0,0.0,4457.435897435898,3976.9230769230776,4603.076923076924,4480.000000000001,4250.256410256411,4551.282051282052,4526.153846153847,4478.461538461539,4312.820512820514,4765.641025641026,4428.205128205129,4368.717948717949,4237.435897435898,4391.282051282052
2336.2188,0.67205757,0.7572652,0.4031404,0.41150096,0,0.0,0.0,0.0,0.0,0.0,0,0,0.0,0.0,0,0,50.0,0.0,0.0,4410.769230769231,3966.666666666667,4582.564102564103,4469.743589743591,4261.025641025642,4553.846153846154,4509.2307692307695,4467.6923076923085,4314.871794871796,4753.333333333334,4412.820512820514,4348.717948717949,4234.871794871796,4362.051282051282
2336.5002,0.67205757,0.7572652,0.4031404,0.41150096,0,0.0,0.0,0.0,0.0,0.58292395,0,0,0.0,0.0,0,0,86.0,0.0,538.0,4344.102564102564,3951.7948717948725,4558.974358974359,4459.48717948718,4252.820512820514,4547.6923076923085,4492.307692307693,4460.512820512821,4343.589743589744,4765.641025641026,4413.846153846154,4331.794871794872,4182.564102564103,4310.256410256411
2336.7502,0.6825172,0.76249343,0.39442262,0.41661492,0,0.0,0.0,0.0,0.0,0.7334867,0,0,0.0,0.0,0,0,118.0,0.0,538.0,4313.333333333334,3947.1794871794878,4556.410256410257,4471.794871794872,4264.102564102564,4571.282051282052,4512.820512820514,4483.589743589744,4366.666666666667,4782.564102564103,4415.384615384616,4310.769230769231,4153.333333333334,4312.820512820514
2337.0005,0.6825172,0.76249343,0.39442262,0.41661492,0,0.0,0.0,0.0,0.0,0.02471605,0,0,0.0,0.0,0,0,21.0,0.0,0.0,4303.589743589744,3890.2564102564106,4563.589743589744,4476.410256410257,4234.358974358975,4557.435897435898,4536.923076923077,4516.923076923077,4366.153846153847,4769.2307692307695,4430.256410256411,4341.538461538462,4141.025641025642,4326.153846153847
2337.3445,0.6439285,0.7700008,0.3865759,0.42121872,0,0.0,0.0,0.0,0.0,0.4622664,0,0,0.0,0.0,0,0,65.0,0.0,417.0,4480.512820512821,3783.589743589744,4532.820512820514,4465.128205128206,4160.000000000001,4559.48717948718,4630.256410256411,4665.641025641026,4507.6923076923085,4873.846153846154,4547.6923076923085,4447.179487179487,4198.974358974359,4416.410256410257
2337.501,0.6439285,0.7700008,0.3865759,0.42121872,0,0.0,0.0,0.0,0.0,0.06459174,0,0,0.0,0.0,0,0,85.0,0.0,478.0,4524.102564102564,3783.589743589744,4506.666666666667,4457.948717948719,4165.641025641026,4553.333333333334,4640.000000000001,4702.051282051282,4533.846153846154,4919.48717948718,4597.948717948719,4487.6923076923085,4239.48717948718,4460.000000000001
2337.7512,0.7255891,0.77683246,0.3795132,0.42536348,0,0.0,0.0,0.0,0.0,0.21805848,0,0,0.0,0.0,0,0,117.0,0.0,478.0,4620.000000000001,3868.717948717949,4486.666666666667,4453.333333333334,4203.076923076924,4507.179487179488,4584.615384615385,4687.6923076923085,4508.717948717949,4924.102564102564,4625.128205128206,4505.128205128206,4272.307692307693,4504.102564102564
2338.0015,0.7255891,0.77683246,0.3795132,0.42536348,0,0.0,0.0,0.0,0.0,0.0704825,0,0,0.0,0.0,0,0,20.0,0.0,0.0,4605.641025641026,3906.666666666667,4422.564102564103,4417.435897435898,4216.923076923077,4444.102564102564,4491.794871794872,4595.8974358974365,4442.564102564103,4865.128205128206,4567.179487179488,4416.923076923077,4249.74358974359,4475.8974358974365
2338.2517,0.74594486,0.782981,0.37315616,0.42655724,0,0.0,0.0,0.0,0.0,0.024859926,0,0,0.0,0.0,0,0,52.0,0.0,0.0,4600.512820512821,3930.2564102564106,4403.589743589744,4403.076923076924,4231.794871794872,4403.589743589744,4407.179487179487,4506.153846153847,4342.051282051282,4796.410256410257,4508.717948717949,4333.846153846154,4229.74358974359,4446.153846153847
2338.502,0.74594486,0.782981,0.37315616,0.42655724,0,0.0,0.0,0.0,0.0,0.004275431,0,0,0.0,0.0,0,0,84.0,0.0,499.0,4551.282051282052,3960.5128205128212,4401.025641025642,4402.564102564103,4249.2307692307695,4412.820512820514,4356.410256410257,4411.282051282052,4268.205128205129,4719.48717948718,4415.384615384616,4258.461538461539,4167.6923076923085,4392.820512820514
2338.752,0.77198756,0.7885146,0.36646834,0.42606676,0,0.0,0.0,0.0,0.0,0.01612325,0,0,0.0,0.0,0,0,116.0,0.0,499.0,4522.051282051282,3989.23076923077,4426.666666666667,4412.820512820514,4257.435897435898,4410.769230769231,4311.794871794872,4328.717948717949,4200.000000000001,4666.153846153847,4365.641025641026,4208.205128205129,4154.871794871796,4349.2307692307695
2339.065,0.77198756,0.7885146,0.36646834,0.42606676,1,0.0,0.0,0.0,0.0,0.07057611,0,0,0.0,0.0,0,0,27.0,0.0,0.0,4508.205128205129,4008.205128205129,4461.025641025642,4429.2307692307695,4252.820512820514,4427.6923076923085,4304.102564102564,4265.641025641026,4172.820512820514,4618.974358974359,4305.128205128206,4184.102564102564,4155.384615384616,4337.948717948719
2339.2524,0.85642534,0.7934949,0.36044887,0.42562813,0,0.0,0.0,0.0,0.0,0.34850404,0,0,0.0,0.0,0,0,51.0,0.0,0.0,4396.923076923077,3957.9487179487182,4458.974358974359,4427.6923076923085,4248.205128205129,4447.6923076923085,4324.615384615385,4330.256410256411,4166.666666666667,4625.641025641026,4287.179487179487,4139.48717948718,4106.666666666667,4267.179487179487
2339.5027,0.85642534,0.7934949,0.36044887,0.42562813,0,0.0,0.0,0.0,0.0,0.19515125,0,0,0.0,0.0,0,0,83.0,0.0,414.0,4373.846153846154,3958.461538461539,4500.512820512821,4446.666666666667,4247.179487179487,4475.384615384616,4342.564102564103,4346.666666666667,4157.948717948719,4633.846153846154,4313.846153846154,4169.2307692307695,4161.025641025642,4265.641025641026
2339.753,0.79651546,0.79797715,0.351528,0.42051864,0,0.0,0.0,0.0,0.0,0.21382925,0,0,0.0,0.0,0,0,115.0,0.0,414.0,4367.179487179487,3955.8974358974365,4519.48717948718,4447.179487179487,4245.128205128206,4501.025641025642,4368.717948717949,4347.179487179487,4176.923076923077,4638.461538461539,4308.205128205129,4183.076923076924,4127.6923076923085,4267.6923076923085
2340.0032,0.79651546,0.79797715,0.351528,0.42051864,0,0.0,0.0,0.0,0.0,0.0,0,0,0.0,0.0,0,0,18.0,0.0,0.0,4375.8974358974365,3922.0512820512827,4527.179487179488,4450.769230769231,4226.153846153847,4505.128205128206,4395.384615384616,4371.794871794872,4204.102564102564,4667.6923076923085,4329.743589743591,4202.051282051282,4160.512820512821,4297.435897435898
2340.1282,0.8165172,0.7520475,0.33936903,0.41716385,0,0.0,0.0,0.0,0.0,0.0,0,0,0.0,0.0,0,0,34.0,0.0,0.0,4379.48717948718,3880.512820512821,4553.333333333334,4457.948717948719,4203.076923076924,4510.256410256411,4437.948717948719,4412.820512820514,4226.153846153847,4690.769230769231,4360.000000000001,4248.205128205129,4145.641025641026,4305.128205128206
2340.5037,0.8165172,0.7520475,0.33936903,0.41716385,0,0.0,0.0,0.0,0.0,0.013249916,0,0,0.0,0.0,0,0,82.0,0.0,538.0,4570.769230769231,3740.0000000000005,4546.666666666667,4447.6923076923085,4101.538461538462,4493.333333333334,4658.974358974359,4722.051282051282,4371.794871794872,4812.820512820514,4487.179487179488,4370.769230769231,4070.7692307692314,4461.538461538462
2340.7537,0.8178236,0.7107762,0.32842585,0.4194973,0,0.0,0.0,0.0,0.0,0.111368075,0,0,0.0,0.0,0,0,114.0,0.0,538.0,4852.307692307693,3866.1538461538466,4505.641025641026,4448.205128205129,4066.1538461538466,4365.641025641026,4716.410256410257,4875.384615384616,4426.153846153847,4897.948717948719,4558.974358974359,4416.923076923077,4066.1538461538466,4583.076923076924
2341.004,0.8178236,0.7107762,0.32842585,0.4194973,0,0.0,0.0,0.0,0.0,0.84575504,0,0,0.0,0.0,0,0,17.0,0.0,0.0,4910.256410256411,3991.2820512820517,4326.153846153847,4406.666666666667,4077.435897435898,4277.435897435898,4602.564102564103,4752.820512820514,4286.666666666667,4826.666666666667,4424.615384615385,4274.358974358975,4092.307692307693,4600.512820512821
2341.2542,0.9296847,0.6736321,0.31857708,0.42159957,0,0.0,0.0,0.0,0.0,0.037789624,0,0,0.0,0.0,0,0,49.0,0.0,0.0,4766.666666666667,3994.358974358975,4174.871794871796,4351.282051282052,4106.666666666667,4231.794871794872,4427.179487179487,4521.538461538462,4148.717948717949,4683.589743589744,4329.743589743591,4020.5128205128212,4016.410256410257,4503.076923076924
2341.5044,0.9296847,0.6736321,0.31857708,0.42159957,0,0.0,0.0,0.0,0.0,2.3425621E-4,0,0,0.0,0.0,0,0,81.0,0.0,478.0,4728.717948717949,4079.48717948718,4166.153846153847,4351.282051282052,4174.871794871796,4231.794871794872,4255.8974358974365,4289.74358974359,4048.717948717949,4599.48717948718,4296.923076923077,3912.307692307693,4047.692307692308,4471.282051282052
2341.7546,1.0,0.64020234,0.31753033,0.42434388,0,0.0,0.0,0.0,0.0,0.011012116,0,0,0.0,0.0,0,0,113.0,0.0,478.0,4507.6923076923085,4031.7948717948725,4118.974358974359,4328.717948717949,4226.153846153847,4259.48717948718,4117.948717948719,4079.48717948718,3957.435897435898,4489.2307692307695,4183.589743589744,3729.2307692307695,3983.589743589744,4358.461538461539
2342.005,1.0,0.64020234,0.31753033,0.42434388,0,0.0,0.0,0.0,0.0,0.0,0,0,0.0,0.0,0,0,16.0,0.0,0.0,4308.205128205129,4026.1538461538466,4133.333333333334,4320.512820512821,4246.666666666667,4283.589743589744,4020.0000000000005,3912.307692307693,3879.48717948718,4417.435897435898,4127.179487179487,3652.820512820513,3912.820512820513,4242.564102564103
2342.2551,1.0,0.6101156,0.3226809,0.4268156,0,0.0,0.0,0.0,0.0,0.5093702,0,0,0.0,0.0,0,0,48.0,0.0,0.0,4201.025641025642,3973.8461538461543,4176.410256410257,4311.794871794872,4246.666666666667,4364.615384615385,4056.9230769230776,3908.717948717949,3928.205128205129,4413.846153846154,4120.512820512821,3686.1538461538466,3918.9743589743593,4202.051282051282
2342.3801,1.0,0.6101156,0.3226809,0.4268156,0,0.0,0.0,0.0,0.0,1.0,0,0,0.0,0.0,0,0,64.0,0.0,464.0,4175.8974358974365,3963.076923076924,4217.435897435898,4315.8974358974365,4247.179487179487,4381.025641025642,4057.9487179487182,3908.717948717949,3942.564102564103,4409.2307692307695,4124.102564102564,3726.666666666667,3941.538461538462,4215.8974358974365
2342.7556,1.0,0.5830375,0.32731652,0.42904204,0,0.0,0.0,0.0,0.0,0.5891962,0,0,0.0,0.0,0,0,112.0,0.0,508.0,4133.846153846154,3911.2820512820517,4333.846153846154,4327.179487179487,4233.333333333334,4430.769230769231,4139.48717948718,3983.076923076924,4049.23076923077,4446.666666666667,4136.923076923077,3869.2307692307695,3981.0256410256416,4227.6923076923085
2343.0056,1.0,0.5830375,0.32731652,0.42904204,0,0.0,0.0,0.0,0.0,0.085657805,0,0,0.0,0.0,0,0,15.0,0.0,419.0,4135.384615384616,3910.2564102564106,4409.743589743591,4345.641025641026,4232.307692307693,4467.179487179487,4218.461538461539,4081.0256410256416,4125.128205128206,4498.461538461539,4183.076923076924,3986.1538461538466,4033.8461538461543,4246.666666666667
2343.2559,1.0,0.55866724,0.33148867,0.42940053,0,0.0,0.0,0.0,0.0,0.057525523,0,0,0.0,0.0,0,0,47.0,0.0,0.0,4154.871794871796,3902.564102564103,4466.666666666667,4377.435897435898,4247.6923076923085,4509.743589743591,4302.051282051282,4181.025641025642,4198.461538461539,4528.205128205129,4215.8974358974365,4083.076923076924,4060.5128205128212,4303.589743589744
2343.506,1.0,0.55866724,0.33148867,0.42940053,1,0.0,0.0,0.0,0.0,0.88265914,0,0,0.0,0.0,0,0,79.0,0.0,419.0,4346.153846153847,3912.820512820513,4546.666666666667,4414.871794871796,4231.282051282052,4526.666666666667,4372.820512820514,4249.74358974359,4211.282051282052,4527.6923076923085,4249.2307692307695,4201.025641025642,4079.48717948718,4412.307692307693
2343.7563,1.0,0.536734,0.33437255,0.42777896,0,0.0,0.0,0.0,0.0,0.5155828,0,0,0.0,0.0,0,0,111.0,0.0,419.0,4390.256410256411,3916.9230769230776,4559.48717948718,4433.333333333334,4243.589743589744,4552.307692307693,4413.846153846154,4296.923076923077,4246.153846153847,4571.282051282052,4280.000000000001,4231.282051282052,4116.923076923077,4442.051282051282
2344.0066,1.0,0.536734,0.33437255,0.42777896,0,0.0,0.0,0.0,0.0,0.10873103,0,0,0.0,0.0,0,0,14.0,0.0,538.0,4398.974358974359,3923.589743589744,4580.512820512821,4450.769230769231,4260.000000000001,4568.205128205129,4445.128205128206,4346.153846153847,4293.846153846154,4633.846153846154,4344.102564102564,4274.871794871796,4177.948717948719,4443.589743589744
2344.1316,1.0,0.51699406,0.33618435,0.42848608,0,0.0,0.0,0.0,0.0,0.0,0,0,0.0,0.0,0,0,30.0,0.0,0.0,4405.641025641026,3931.7948717948725,4589.2307692307695,4458.974358974359,4264.102564102564,4570.256410256411,4458.974358974359,4370.256410256411,4307.179487179487,4663.589743589744,4362.564102564103,4295.8974358974365,4186.153846153847,4444.102564102564
2344.1316,1.0,0.51699406,0.33618435,0.42848608,0,0.0,0.0,0.0,0.0,0.0,0,0,0.0,0.0,0,0,30.0,0.0,0.0,4405.641025641026,3931.7948717948725,4589.2307692307695,4458.974358974359,4264.102564102564,4570.256410256411,4458.974358974359,4370.256410256411,4307.179487179487,4663.589743589744,4362.564102564103,4295.8974358974365,4186.153846153847,4444.102564102564
2344.632,1.0,0.49922815,0.33781493,0.4270995,0,0.0,0.0,0.0,0.0,0.0,0,0,0.0,0.0,0,0,94.0,0.0,538.0,4490.256410256411,3948.205128205129,4623.589743589744,4493.333333333334,4273.333333333334,4595.8974358974365,4504.615384615385,4484.615384615385,4367.179487179487,4765.641025641026,4442.564102564103,4341.538461538462,4279.48717948718,4448.205128205129
2344.632,1.0,0.49922815,0.33781493,0.4270995,0,0.0,0.0,0.0,0.0,0.0,0,0,0.0,0.0,0,0,94.0,0.0,538.0,4490.256410256411,3948.205128205129,4623.589743589744,4493.333333333334,4273.333333333334,4595.8974358974365,4504.615384615385,4484.615384615385,4367.179487179487,4765.641025641026,4442.564102564103,4341.538461538462,4279.48717948718,4448.205128205129
2345.1326,1.0,0.48323882,0.3392824,0.42585465,0,0.0,0.0,0.0,0.0,0.0,0,0,0.0,0.0,0,0,29.0,0.0,0.0,4494.358974358975,3923.589743589744,4626.666666666667,4497.948717948719,4269.2307692307695,4583.076923076924,4492.307692307693,4485.641025641026,4380.512820512821,4811.794871794872,4474.871794871796,4372.307692307693,4328.717948717949,4471.794871794872
2345.1326,1.0,0.48323882,0.3392824,0.42585465,0,0.0,0.0,0.0,0.0,0.0,0,0,0.0,0.0,0,0,29.0,0.0,0.0,4494.358974358975,3923.589743589744,4626.666666666667,4497.948717948719,4269.2307692307695,4583.076923076924,4492.307692307693,4485.641025641026,4380.512820512821,4811.794871794872,4474.871794871796,4372.307692307693,4328.717948717949,4471.794871794872
2345.758,0.91285276,0.4688484,0.3409597,0.42869428,0,0.0,0.0,0.0,0.0,0.10941638,0,0,0.0,0.0,0,0,109.0,0.0,478.0,4612.820512820514,3823.589743589744,4600.512820512821,4485.641025641026,4190.769230769231,4536.410256410257,4609.743589743591,4601.025641025642,4403.589743589744,4796.410256410257,4541.538461538462,4459.48717948718,4292.820512820514,4586.153846153847
2346.0083,0.91285276,0.4688484,0.3409597,0.42869428,0,0.0,0.0,0.0,0.0,1.0,0,0,0.0,0.0,0,0,12.0,0.0,500.0,4963.589743589744,3929.2307692307695,4617.948717948719,4490.769230769231,4167.179487179487,4445.128205128206,4613.846153846154,4616.923076923077,4341.538461538462,4761.538461538462,4522.564102564103,4462.564102564103,4220.000000000001,4702.051282051282
2346.196,0.953837,0.45589703,0.34141803,0.43125167,0,0.0,0.0,0.0,0.0,1.0,1,0,0.0,0.0,0,0,36.0,0.0,0.0,4856.923076923077,3906.666666666667,4575.8974358974365,4474.358974358975,4179.48717948718,4403.076923076924,4569.2307692307695,4584.102564102564,4261.025641025642,4731.794871794872,4473.846153846154,4365.128205128206,4112.820512820514,4617.948717948719
2346.5088,0.953837,0.45589703,0.34141803,0.43125167,0,0.0,0.0,0.0,0.0,0.071563326,1,0,0.0,0.0,0,0,76.0,0.0,500.0,4923.589743589744,3958.9743589743593,4518.461538461539,4463.589743589744,4215.384615384616,4365.128205128206,4487.179487179488,4531.794871794872,4204.102564102564,4751.282051282052,4474.871794871796,4246.153846153847,4128.717948717949,4613.846153846154
2346.759,0.995254,0.4442408,0.3418304,0.43355507,0,0.0,0.0,0.0,0.0,0.05431608,0,0,0.0,0.0,0,0,108.0,0.0,500.0,4905.128205128206,3973.333333333334,4496.410256410257,4460.512820512821,4187.179487179487,4355.8974358974365,4444.102564102564,4537.948717948719,4280.512820512821,4820.512820512821,4529.743589743591,4248.717948717949,4220.000000000001,4618.461538461539
2347.0093,0.995254,0.4442408,0.3418304,0.43355507,0,0.0,0.0,0.0,0.0,0.02893371,0,0,0.0,0.0,0,0,11.0,0.0,411.0,4826.153846153847,4007.692307692308,4444.102564102564,4451.794871794872,4202.051282051282,4386.666666666667,4373.846153846154,4466.153846153847,4301.538461538462,4810.769230769231,4520.512820512821,4175.384615384616,4246.666666666667,4605.641025641026
2347.2593,0.9477506,0.4337502,0.34534225,0.43515608,0,0.0,0.0,0.0,0.0,0.06269509,0,0,0.0,0.0,0,0,43.0,0.0,0.0,4821.025641025642,4035.8974358974365,4389.2307692307695,4430.256410256411,4183.589743589744,4357.948717948719,4248.717948717949,4336.410256410257,4222.051282051282,4718.974358974359,4465.128205128206,4108.205128205129,4231.282051282052,4601.025641025642
2347.5095,0.9477506,0.4337502,0.34534225,0.43515608,0,0.0,0.0,0.0,0.0,0.15223031,0,0,0.0,0.0,0,0,75.0,0.0,410.0,4565.641025641026,3948.717948717949,4345.641025641026,4419.48717948718,4186.153846153847,4391.794871794872,4202.051282051282,4250.769230769231,4187.6923076923085,4656.923076923077,4376.410256410257,4041.0256410256416,4148.717948717949,4486.153846153847
