timestamp,excitement,frustration,meditation,engagementBoredom,blink,clench,laugh,smile,eyebrow,furrowBrow,lookLeft,lookRight,smirkLeft,smirkRight,winkLeft,winkRight,eeg0,eeg1,eeg2,eeg3,eeg4,eeg5,eeg6,eeg7,eeg8,eeg9,eeg10,eeg11,eeg12,eeg13,eeg14,eeg15,eeg16
3653.1863,0.72290003,0.5310676,0.33333334,0.5522388,0,0.0,0.0,0.0,0.01103358,0.0,0,0,0.0,0.0,0,0,111.0,0.0,417.0,4479.48717948718,3878.461538461539,4408.205128205129,4415.8974358974365,4073.333333333334,4371.282051282052,4413.333333333334,2915.8974358974365,3740.512820512821,3172.307692307693,3055.8974358974365,4055.8974358974365,3569.2307692307695,4340.000000000001
3653.4053,0.72290003,0.5310676,0.33333334,0.5522388,0,0.0,0.0,0.0,0.0074693942,0.0,0,0,0.0,0.0,0,0,10.0,0.0,8033.0,4636.410256410257,3876.410256410257,4443.589743589744,4414.358974358975,4094.8717948717954,4394.358974358975,4405.641025641026,3767.1794871794878,4207.6923076923085,4082.564102564103,3720.0000000000005,4195.384615384616,4030.2564102564106,4532.307692307693
3653.6868,0.70263946,0.5310676,0.33333334,0.5522388,0,0.0,0.0,0.0,0.004730062,0.0,0,0,0.0,0.0,0,0,46.0,0.0,0.0,4534.871794871796,3869.7435897435903,4370.769230769231,4412.307692307693,4046.666666666667,4336.410256410257,4377.948717948719,2900.0000000000005,3837.435897435898,3193.333333333334,3033.8461538461543,4058.9743589743593,3630.7692307692314,4316.410256410257
3653.9058,0.70263946,0.5310676,0.33333334,0.5522388,0,0.0,0.0,0.0,0.005441226,0.0,0,0,0.0,0.0,0,0,74.0,0.0,7933.0,4461.538461538462,3860.512820512821,4302.051282051282,4394.871794871796,4033.8461538461543,4312.820512820514,4344.615384615385,2702.051282051282,3757.9487179487182,3078.9743589743593,2799.4871794871797,4012.820512820513,3543.0769230769233,4184.615384615385
3654.1873,0.8283227,0.5310676,0.33333334,0.5522388,0,0.0,0.0,0.0,0.0226429,0.0,0,0,0.0,0.0,0,0,110.0,0.0,7933.0,4347.6923076923085,3870.2564102564106,4303.076923076924,4399.48717948718,4027.1794871794878,4312.820512820514,4342.051282051282,2771.2820512820517,3888.205128205129,3170.2564102564106,2794.8717948717954,4016.9230769230776,3634.358974358975,4145.128205128206
3654.4062,0.8283227,0.5310676,0.33333334,0.5522388,0,0.0,0.0,0.0,0.037653062,0.0,0,0,0.0,0.0,0,0,9.0,0.0,4958.0,4363.076923076924,3873.333333333334,4327.179487179487,4401.025641025642,4069.23076923077,4362.564102564103,4320.512820512821,3167.692307692308,4207.179487179487,3681.538461538462,3126.666666666667,4096.923076923077,3969.7435897435903,4214.871794871796
3654.6877,0.93892395,0.5310676,0.33333334,0.5522388,0,0.0,0.0,0.0,0.008852041,0.0,0,0,0.0,0.0,0,1,45.0,0.0,0.0,4343.589743589744,3861.538461538462,4327.179487179487,4398.974358974359,4089.23076923077,4383.076923076924,4323.076923076924,3251.794871794872,4212.307692307693,3638.461538461539,3240.512820512821,4112.820512820514,4008.205128205129,4207.179487179487
3654.9065,0.93892395,0.5310676,0.33333334,0.5522388,0,0.0,0.0,0.0,0.0058936193,0.0,0,0,0.0,0.0,0,0,73.0,0.0,5182.0,4280.000000000001,3854.8717948717954,4284.615384615385,4393.846153846154,4130.769230769231,4419.48717948718,4295.8974358974365,3145.641025641026,4170.769230769231,3631.794871794872,3072.307692307693,4082.564102564103,3955.8974358974365,4118.974358974359
3655.188,0.9441103,0.5310676,0.33333334,0.5522388,0,0.0,0.0,0.0,0.018723603,0.0,0,0,0.0,0.0,0,0,109.0,0.0,870.0,4275.8974358974365,3871.7948717948725,4286.153846153847,4394.871794871796,4163.076923076924,4453.333333333334,4276.923076923077,3425.1282051282055,4298.461538461539,3847.1794871794878,3361.0256410256416,4139.48717948718,4135.8974358974365,4167.6923076923085
3655.407,0.9441103,0.5310676,0.33333334,0.5522388,0,0.0,0.0,0.0,0.0088882195,0.0,0,0,0.0,0.0,0,0,8.0,0.0,8033.0,4293.846153846154,3881.538461538462,4304.102564102564,4404.102564102564,4182.564102564103,4471.794871794872,4252.820512820514,3856.410256410257,4449.743589743591,4333.846153846154,3603.589743589744,4189.74358974359,4318.461538461539,4241.025641025642
3655.6885,0.99357325,0.5310676,0.33333334,0.5522388,0,0.0,0.0,0.0,0.004771345,0.0,0,0,0.0,0.0,0,0,44.0,0.0,0.0,4350.256410256411,3891.2820512820517,4300.000000000001,4410.256410256411,4212.307692307693,4503.589743589744,4229.74358974359,4105.641025641026,4572.307692307693,4602.051282051282,4017.435897435898,4266.666666666667,4446.153846153847,4343.589743589744
3655.9075,0.99357325,0.5310676,0.33333334,0.5522388,0,0.0,0.0,0.0,0.0047305925,0.0,0,0,0.0,0.0,0,0,72.0,0.0,8033.0,4291.282051282052,3900.5128205128212,4286.153846153847,4413.333333333334,4212.820512820514,4507.179487179488,4203.589743589744,4069.7435897435903,4446.666666666667,4489.743589743591,3857.9487179487182,4230.769230769231,4370.256410256411,4334.358974358975
3656.189,0.96475977,0.5310676,0.33333334,0.5522388,0,0.0,0.0,0.0,0.0052679344,0.0,0,0,0.0,0.0,0,0,108.0,0.0,3103.0,4353.846153846154,3907.1794871794878,4285.641025641026,4409.2307692307695,4224.102564102564,4516.923076923077,4201.538461538462,4038.9743589743593,4420.000000000001,4501.538461538462,3995.8974358974365,4251.794871794872,4373.333333333334,4353.846153846154
3656.408,0.96475977,0.5310676,0.33333334,0.5522388,0,0.0,0.0,0.0,0.004045914,0.0,0,0,0.0,0.0,0,0,7.0,0.0,5259.0,4341.538461538462,3907.692307692308,4314.871794871796,4426.666666666667,4230.256410256411,4521.538461538462,4208.717948717949,4315.8974358974365,4484.102564102564,4697.435897435898,4136.923076923077,4272.307692307693,4425.641025641026,4393.333333333334
3656.6895,1.0,0.5310676,0.33333334,0.5522388,0,0.0,0.0,0.0,0.0048142103,0.0,0,0,0.0,0.0,0,0,43.0,0.0,0.0,4321.025641025642,3907.692307692308,4308.205128205129,4428.205128205129,4228.717948717949,4520.512820512821,4216.410256410257,4001.0256410256416,4285.128205128206,4384.615384615385,3981.538461538462,4239.48717948718,4253.846153846154,4371.282051282052
3656.9082,1.0,0.5310676,0.33333334,0.5522388,0,0.0,0.0,0.0,0.0052772393,0.0,0,0,0.0,0.0,0,0,71.0,0.0,5210.0,4355.8974358974365,3910.2564102564106,4302.564102564103,4428.205128205129,4228.717948717949,4519.48717948718,4205.641025641026,4035.8974358974365,4287.6923076923085,4408.205128205129,3932.307692307693,4227.179487179487,4277.435897435898,4342.564102564103
3657.1897,0.94443727,0.5310676,0.33333334,0.5522388,0,0.0,0.0,0.0,0.0059254984,0.0,0,0,0.0,0.0,0,0,107.0,0.0,430.0,4334.871794871796,3909.7435897435903,4310.769230769231,4428.717948717949,4228.205128205129,4520.000000000001,4214.358974358975,3854.358974358975,4174.871794871796,4154.871794871796,3895.8974358974365,4212.307692307693,4132.307692307693,4331.794871794872
3657.4087,0.94443727,0.5310676,0.33333334,0.5522388,0,0.0,0.0,0.0,0.0054938854,0.0,0,0,0.0,0.0,0,0,6.0,0.0,240.0,4344.102564102564,3907.1794871794878,4313.333333333334,4428.205128205129,4225.641025641026,4516.923076923077,4215.8974358974365,3916.9230769230776,4204.102564102564,4243.589743589744,3886.666666666667,4210.769230769231,4175.384615384616,4310.769230769231
3657.6902,0.8917672,0.5310676,0.33333334,0.5522388,0,0.0,0.0,0.0,0.005219436,0.0,0,0,0.0,0.0,0,0,42.0,0.0,0.0,4415.8974358974365,3920.5128205128212,4355.384615384616,4434.871794871796,4230.256410256411,4517.948717948719,4235.384615384616,4108.717948717949,4258.974358974359,4416.410256410257,4146.153846153847,4255.384615384616,4223.589743589744,4336.923076923077
3657.9092,0.8917672,0.5310676,0.33333334,0.5522388,0,0.0,0.0,0.0,0.00513648,0.0,0,0,0.0,0.0,0,0,70.0,0.0,241.0,4419.48717948718,3909.2307692307695,4351.282051282052,4425.128205128206,4220.000000000001,4505.128205128206,4232.307692307693,4055.8974358974365,4216.410256410257,4343.589743589744,4014.8717948717954,4229.2307692307695,4199.48717948718,4322.564102564103
3658.1907,0.8409989,0.5310676,0.33333334,0.5522388,0,0.0,0.0,0.0,0.0062554637,0.0,0,0,0.0,0.0,0,0,106.0,0.0,8033.0,4425.128205128206,3916.410256410257,4367.6923076923085,4432.820512820514,4206.153846153847,4490.256410256411,4257.435897435898,4025.6410256410263,4217.435897435898,4277.435897435898,4061.538461538462,4231.794871794872,4155.384615384616,4328.205128205129
3658.4097,0.8409989,0.5310676,0.33333334,0.5522388,0,0.0,0.0,0.0,0.005797413,0.0,0,0,0.0,0.0,0,0,5.0,0.0,392.0,4470.256410256411,3918.9743589743593,4378.974358974359,4437.435897435898,4200.512820512821,4483.589743589744,4256.410256410257,4138.461538461539,4227.6923076923085,4413.846153846154,4144.102564102564,4243.589743589744,4207.179487179487,4349.2307692307695
3658.6912,0.79940593,0.5310676,0.33333334,0.5522388,0,0.0,0.0,0.0,0.006843677,0.0,0,0,0.0,0.0,0,0,41.0,0.0,0.0,4507.6923076923085,3916.410256410257,4395.384615384616,4431.282051282052,4187.179487179487,4468.717948717949,4264.615384615385,4252.307692307693,4290.256410256411,4464.615384615385,4276.410256410257,4265.128205128206,4246.153846153847,4424.102564102564
3658.91,0.79940593,0.5310676,0.33333334,0.5522388,0,0.0,0.0,0.0,0.004954383,0.0,0,0,0.0,0.0,0,0,69.0,0.0,392.0,4447.6923076923085,3915.3846153846157,4390.769230769231,4430.769230769231,4190.256410256411,4466.153846153847,4283.076923076924,4011.7948717948725,4128.717948717949,4220.512820512821,4050.7692307692314,4222.564102564103,4095.3846153846157,4357.435897435898
3659.1914,0.718846,0.5310676,0.33333334,0.5522388,0,0.0,0.0,0.0,0.005650563,0.0,0,0,0.0,0.0,0,0,105.0,0.0,838.0,4468.205128205129,3907.692307692308,4383.076923076924,4426.666666666667,4167.6923076923085,4439.48717948718,4284.102564102564,3915.8974358974365,4115.8974358974365,4108.205128205129,3999.48717948718,4204.615384615385,4076.9230769230776,4373.846153846154
3659.4104,0.718846,0.5310676,0.33333334,0.5522388,0,0.0,0.0,0.0,0.0075243255,0.0,0,0,0.0,0.0,0,0,4.0,0.0,398.0,4451.794871794872,3919.48717948718,4389.2307692307695,4430.256410256411,4162.051282051282,4429.743589743591,4295.8974358974365,4006.666666666667,4158.974358974359,4205.641025641026,4067.692307692308,4215.384615384616,4108.205128205129,4355.384615384616
3659.692,0.6679553,0.5310676,0.33333334,0.5522388,0,0.0,0.0,0.0,0.007423829,0.0,0,0,0.0,0.0,0,0,40.0,0.0,0.0,4483.076923076924,3910.2564102564106,4406.153846153847,4426.153846153847,4158.461538461539,4425.128205128206,4307.6923076923085,4110.256410256411,4200.000000000001,4328.717948717949,4177.948717948719,4236.923076923077,4176.923076923077,4377.435897435898
3659.911,0.6679553,0.5310676,0.33333334,0.5522388,0,0.0,0.0,0.0,0.005392761,0.0,0,0,0.0,0.0,0,0,68.0,0.0,398.0,4482.564102564103,3909.7435897435903,4400.000000000001,4423.076923076924,4142.564102564103,4406.666666666667,4318.974358974359,4057.435897435898,4206.666666666667,4289.2307692307695,4156.923076923077,4231.282051282052,4145.128205128206,4366.153846153847
3660.1924,0.5925601,0.5310676,0.33333334,0.5522388,0,0.0,0.0,0.0,0.006978916,0.0,0,0,0.0,0.0,0,0,104.0,0.0,3044.0,4475.384615384616,3909.7435897435903,4404.102564102564,4420.512820512821,4140.512820512821,4403.589743589744,4310.769230769231,4319.48717948718,4301.538461538462,4611.282051282052,4436.923076923077,4284.102564102564,4282.051282051282,4316.923076923077
3660.4114,0.5925601,0.5310676,0.33333334,0.5522388,0,0.0,0.0,0.0,0.00891178,0.0,0,0,0.0,0.0,0,0,3.0,0.0,363.0,4458.461538461539,3903.589743589744,4392.820512820514,4411.794871794872,4158.974358974359,4423.076923076924,4317.435897435898,4422.564102564103,4370.769230769231,4692.307692307693,4558.461538461539,4304.102564102564,4342.051282051282,4304.615384615385
3660.6929,0.58407724,0.5310676,0.33333334,0.5522388,0,0.0,0.0,0.0,0.00816668,0.0,0,0,0.0,0.0,0,0,39.0,0.0,0.0,4433.846153846154,3892.820512820513,4369.743589743591,4411.794871794872,4182.051282051282,4454.358974358975,4287.179487179487,4430.769230769231,4270.769230769231,4748.205128205129,4559.48717948718,4303.076923076924,4293.333333333334,4287.6923076923085
3660.9116,0.58407724,0.5310676,0.33333334,0.5522388,0,0.0,0.0,0.0,0.0064815558,0.0,0,0,0.0,0.0,0,0,67.0,0.0,352.0,4294.871794871796,3904.615384615385,4301.538461538462,4426.153846153847,4189.74358974359,4457.435897435898,4256.410256410257,3715.8974358974365,3880.512820512821,4024.615384615385,3919.48717948718,4181.538461538462,3887.1794871794878,4215.8974358974365
3661.2246,0.5325683,0.5310676,0.33333334,0.5522388,0,0.0,0.0,0.0,0.0064106467,0.0,0,0,0.0,0.0,0,1,107.0,0.0,402.0,4318.974358974359,3917.435897435898,4305.641025641026,4435.8974358974365,4238.461538461539,4510.256410256411,4212.820512820514,4517.435897435898,4210.769230769231,4675.8974358974365,4298.461538461539,4260.000000000001,4221.025641025642,4274.871794871796
3661.412,0.5325683,0.5310676,0.33333334,0.5522388,0,0.0,0.0,0.0,0.006961259,0.0,0,0,0.0,0.0,0,0,2.0,0.0,397.0,4312.820512820514,3917.435897435898,4311.794871794872,4440.000000000001,4267.6923076923085,4547.179487179488,4226.153846153847,4403.589743589744,4288.205128205129,4671.794871794872,4561.538461538462,4302.564102564103,4280.000000000001,4350.256410256411
3661.6936,0.5442799,0.5310676,0.33333334,0.5522388,0,0.0,0.0,0.0,0.0067986846,0.0,0,0,0.0,0.0,0,0,38.0,0.0,0.0,4342.564102564103,3919.48717948718,4340.512820512821,4441.025641025642,4252.820512820514,4527.179487179488,4218.461538461539,4710.769230769231,4380.000000000001,4891.282051282052,4693.846153846154,4332.307692307693,4406.666666666667,4418.974358974359
3661.9126,0.5442799,0.5310676,0.33333334,0.5522388,0,0.0,0.0,0.0,0.0038138295,0.0,0,0,0.0,0.0,0,0,66.0,0.0,397.0,4341.025641025642,3913.8461538461543,4323.076923076924,4431.282051282052,4231.282051282052,4507.179487179488,4216.923076923077,4347.179487179487,4217.948717948719,4584.615384615385,4498.461538461539,4290.256410256411,4227.179487179487,4423.076923076924
3662.194,0.52799284,0.5310676,0.33333334,0.5522388,0,0.0,0.0,0.0,0.0057431306,0.0,0,0,0.0,0.0,0,0,102.0,0.0,8033.0,4264.102564102564,3908.205128205129,4306.666666666667,4436.410256410257,4240.000000000001,4518.974358974359,4196.923076923077,4472.307692307693,4208.205128205129,4668.717948717949,4357.948717948719,4267.6923076923085,4203.076923076924,4362.564102564103
3662.413,0.52799284,0.5310676,0.33333334,0.5522388,0,0.0,0.0,0.0,0.0047365683,0.0,0,0,0.0,0.0,0,0,1.0,0.0,282.0,4317.948717948719,3899.48717948718,4295.384615384616,4426.666666666667,4244.615384615385,4534.358974358975,4185.641025641026,4267.6923076923085,4122.051282051282,4516.410256410257,4349.743589743591,4264.615384615385,4154.358974358975,4337.948717948719
3662.6946,0.46624258,0.5310676,0.33333334,0.5522388,0,0.0,0.0,0.0,0.005598975,0.0,0,0,0.0,0.0,0,0,37.0,0.0,0.0,4357.948717948719,3910.2564102564106,4352.820512820514,4444.102564102564,4272.307692307693,4564.615384615385,4217.948717948719,4863.589743589744,4400.512820512821,4957.948717948719,4760.000000000001,4339.48717948718,4420.512820512821,4372.820512820514
3662.9136,0.46624258,0.5310676,0.33333334,0.5522388,0,0.0,0.0,0.0,0.005900861,0.0,0,0,0.0,0.0,0,0,65.0,0.0,281.0,4420.512820512821,3915.8974358974365,4389.2307692307695,4449.743589743591,4262.051282051282,4556.923076923077,4234.358974358975,4904.102564102564,4445.641025641026,4987.6923076923085,4961.025641025642,4372.307692307693,4470.769230769231,4400.512820512821
3663.203,0.48590577,0.5310676,0.33333334,0.5522388,0,0.0,0.0,0.0,0.005869572,0.0,0,0,0.0,0.0,0,0,101.0,0.0,1002.0,4516.923076923077,3908.205128205129,4433.846153846154,4438.974358974359,4245.128205128206,4535.8974358974365,4283.589743589744,5158.461538461539,4544.615384615385,5235.384615384616,5186.666666666667,4411.282051282052,4623.589743589744,4483.589743589744
3663.4216,0.48590577,0.5310676,0.33333334,0.5522388,0,0.0,0.0,0.0,0.041260675,0.0,0,0,0.0,0.0,0,0,0.0,0.0,447.0,4577.435897435898,3910.2564102564106,4479.48717948718,4440.512820512821,4227.6923076923085,4512.820512820514,4311.794871794872,5153.333333333334,4488.717948717949,5168.205128205129,5267.6923076923085,4417.948717948719,4568.205128205129,4492.820512820514
3663.7031,0.4735494,0.5310676,0.33333334,0.5522388,0,0.0,0.0,0.0,0.031238992,0.0,0,0,0.0,0.0,0,0,36.0,0.0,0.0,4657.435897435898,3924.615384615385,4501.538461538462,4441.538461538462,4252.820512820514,4539.48717948718,4343.076923076924,5348.717948717949,4587.6923076923085,5366.153846153847,5477.435897435898,4454.871794871796,4686.153846153847,4484.102564102564
3663.922,0.4735494,0.5310676,0.33333334,0.5522388,0,0.0,0.0,0.0,0.03386945,0.0,0,0,0.0,0.0,0,0,64.0,0.0,440.0,4645.128205128206,3926.666666666667,4496.410256410257,4443.076923076924,4244.615384615385,4530.256410256411,4357.948717948719,5160.512820512821,4425.641025641026,5169.2307692307695,5325.641025641026,4424.615384615385,4521.538461538462,4486.666666666667
3664.2036,0.4981059,0.5310676,0.33333334,0.5522388,0,0.0,0.0,0.0,0.019832818,0.0,0,0,0.0,0.0,0,0,100.0,0.0,3202.0,4649.743589743591,3930.7692307692314,4500.512820512821,4442.051282051282,4251.794871794872,4534.871794871796,4368.717948717949,5060.512820512821,4342.564102564103,5065.641025641026,5112.820512820514,4384.102564102564,4424.615384615385,4465.641025641026
3664.4226,0.4981059,0.5310676,0.33333334,0.5522388,0,0.0,0.0,0.0,0.017289205,0.0,0,0,0.0,0.0,0,0,128.0,0.0,3202.0,4702.564102564103,3928.205128205129,4492.307692307693,4438.461538461539,4250.256410256411,4535.384615384616,4374.871794871796,4919.48717948718,4230.769230769231,4897.435897435898,4972.307692307693,4359.48717948718,4278.974358974359,4470.256410256411
3664.704,0.5612243,0.5310676,0.33333334,0.5522388,0,0.0,0.0,0.0,0.0152054895,0.0,0,0,0.0,0.0,0,0,35.0,0.0,0.0,4700.512820512821,3928.205128205129,4519.48717948718,4437.435897435898,4244.102564102564,4532.820512820514,4399.48717948718,5032.307692307693,4365.128205128206,5028.205128205129,5130.256410256411,4392.307692307693,4417.435897435898,4485.128205128206
3664.923,0.5612243,0.5310676,0.33333334,0.5522388,0,0.0,0.0,0.0,0.010646055,0.0,0,0,0.0,0.0,0,0,63.0,0.0,0.0,4684.102564102564,3923.076923076924,4512.820512820514,4433.846153846154,4231.282051282052,4518.974358974359,4414.358974358975,4908.717948717949,4253.846153846154,4913.333333333334,4968.205128205129,4362.051282051282,4270.256410256411,4470.769230769231
3665.2046,0.61940753,0.5310676,0.33333334,0.5522388,0,0.0,0.0,0.0,0.012195389,0.0,0,0,0.0,0.0,0,0,99.0,0.0,373.0,4740.000000000001,3931.7948717948725,4536.410256410257,4443.076923076924,4250.256410256411,4540.000000000001,4428.205128205129,5067.179487179488,4426.666666666667,5096.923076923077,5252.307692307693,4416.410256410257,4460.000000000001,4502.051282051282
3665.4233,0.61940753,0.5310676,0.33333334,0.5522388,0,0.0,0.0,0.0,0.013451843,0.0,0,0,0.0,0.0,0,0,127.0,0.0,373.0,4700.000000000001,3924.1025641025644,4509.2307692307695,4435.384615384616,4250.769230769231,4531.282051282052,4415.8974358974365,4880.000000000001,4228.717948717949,4889.743589743591,4933.846153846154,4356.923076923077,4252.307692307693,4469.2307692307695
3665.7048,0.7220764,0.5310676,0.33333334,0.5522388,0,0.0,0.0,0.0,0.008910286,0.0,0,0,0.0,0.0,0,0,34.0,0.0,0.0,4689.743589743591,3931.2820512820517,4501.025641025642,4437.435897435898,4253.333333333334,4535.384615384616,4423.589743589744,4771.794871794872,4224.615384615385,4832.307692307693,4878.974358974359,4348.717948717949,4259.48717948718,4455.8974358974365
3665.9238,0.7220764,0.5310676,0.33333334,0.5522388,0,0.0,0.0,0.0,0.0076630176,0.0,0,0,0.0,0.0,0,0,62.0,0.0,0.0,4713.846153846154,3929.7435897435903,4498.974358974359,4434.358974358975,4255.8974358974365,4545.128205128206,4413.846153846154,4815.8974358974365,4235.8974358974365,4858.461538461539,4878.461538461539,4346.666666666667,4251.794871794872,4451.794871794872
3666.2053,0.6961751,0.5310676,0.33333334,0.5522388,0,0.0,0.0,0.0,0.0068832655,0.0,0,0,0.0,0.0,0,0,98.0,0.0,8033.0,4696.923076923077,3929.7435897435903,4518.974358974359,4437.435897435898,4250.256410256411,4536.410256410257,4433.846153846154,4761.538461538462,4256.923076923077,4815.384615384616,4926.153846153847,4355.384615384616,4256.410256410257,4487.179487179488
3666.4243,0.6961751,0.5310676,0.33333334,0.5522388,0,0.0,0.0,0.0,0.0054193395,0.0,0,0,0.0,0.0,0,0,126.0,0.0,8033.0,4662.051282051282,3929.2307692307695,4496.923076923077,4436.410256410257,4249.74358974359,4530.256410256411,4423.589743589744,4651.282051282052,4164.102564102564,4685.128205128206,4625.128205128206,4305.128205128206,4164.102564102564,4448.717948717949
3666.7058,0.74237233,0.5310676,0.33333334,0.5522388,0,0.0,0.0,0.0,0.006014442,0.0,0,0,0.0,0.0,0,0,33.0,0.0,0.0,4684.102564102564,3927.692307692308,4478.974358974359,4430.769230769231,4248.717948717949,4531.282051282052,4414.871794871796,4337.435897435898,4115.8974358974365,4406.666666666667,4539.48717948718,4281.025641025642,4086.1538461538466,4431.282051282052
3666.9248,0.74237233,0.5310676,0.33333334,0.5522388,0,0.0,0.0,0.0,0.005184769,0.0,0,0,0.0,0.0,0,0,61.0,0.0,0.0,4651.282051282052,3919.48717948718,4479.48717948718,4428.717948717949,4248.205128205129,4532.307692307693,4413.333333333334,4520.512820512821,4157.435897435898,4571.282051282052,4514.358974358975,4290.256410256411,4130.256410256411,4449.743589743591
3667.2063,0.715024,0.5310676,0.33333334,0.5522388,0,0.0,0.0,0.0,0.0057674665,0.0,0,0,0.0,0.0,0,0,97.0,0.0,1035.0,4634.871794871796,3932.307692307693,4482.564102564103,4434.871794871796,4254.358974358975,4538.461538461539,4408.205128205129,4232.820512820514,4155.8974358974365,4325.128205128206,4507.179487179488,4284.615384615385,4096.410256410257,4443.589743589744
3667.425,0.715024,0.5310676,0.33333334,0.5522388,0,0.0,0.0,0.0,0.0053521334,0.0,0,0,0.0,0.0,0,0,125.0,0.0,1035.0,4625.128205128206,3933.8461538461543,4454.871794871796,4440.512820512821,4267.6923076923085,4549.743589743591,4406.153846153847,4190.769230769231,4065.6410256410263,4210.769230769231,4237.435897435898,4243.589743589744,4004.1025641025644,4408.205128205129
3667.7065,0.6261602,0.5310676,0.33333334,0.5522388,0,0.0,0.0,0.0,0.0059760083,0.0,0,0,0.0,0.0,0,0,32.0,0.0,0.0,4646.666666666667,3931.7948717948725,4484.615384615385,4434.871794871796,4256.923076923077,4542.051282051282,4415.384615384616,4223.589743589744,4261.538461538462,4355.8974358974365,4528.717948717949,4297.435897435898,4147.179487179487,4438.461538461539
3667.9255,0.6261602,0.5310676,0.33333334,0.5522388,0,0.0,0.0,0.0,0.009041395,0.0,0,0,0.0,0.0,0,0,60.0,0.0,0.0,4693.846153846154,3933.8461538461543,4525.641025641026,4434.871794871796,4253.846153846154,4540.512820512821,4434.358974358975,4731.282051282052,4448.717948717949,4861.025641025642,4921.538461538462,4378.974358974359,4402.564102564103,4488.717948717949
3668.207,0.5790551,0.5310676,0.33333334,0.5522388,0,0.0,0.0,0.0,0.0075836605,0.0,0,0,0.0,0.0,0,0,96.0,0.0,3189.0,4685.128205128206,3929.7435897435903,4492.307692307693,4429.2307692307695,4249.2307692307695,4540.000000000001,4428.205128205129,4278.974358974359,4267.6923076923085,4420.512820512821,4669.743589743591,4325.128205128206,4181.538461538462,4465.128205128206
3668.426,0.5790551,0.5310676,0.33333334,0.5522388,0,0.0,0.0,0.0,0.009110052,0.0,0,0,0.0,0.0,0,0,124.0,0.0,3189.0,4651.282051282052,3927.692307692308,4479.48717948718,4427.6923076923085,4237.948717948719,4528.717948717949,4430.256410256411,4172.820512820514,4151.282051282052,4292.820512820514,4357.948717948719,4273.333333333334,4098.461538461539,4436.410256410257
3668.7075,0.54689854,0.5310676,0.33333334,0.5522388,0,0.0,0.0,0.0,0.0057772123,0.0,0,0,0.0,0.0,0,0,31.0,0.0,0.0,4741.538461538462,3933.8461538461543,4545.128205128206,4428.717948717949,4242.564102564103,4529.743589743591,4477.948717948719,4569.743589743591,4334.871794871796,4751.794871794872,4967.179487179488,4393.846153846154,4330.769230769231,4520.512820512821
3668.9265,0.54689854,0.5310676,0.33333334,0.5522388,0,0.0,0.0,0.0,0.007861533,0.0,0,0,0.0,0.0,0,0,59.0,0.0,0.0,4762.564102564103,3934.8717948717954,4532.820512820514,4434.871794871796,4251.794871794872,4543.076923076924,4476.923076923077,4518.461538461539,4324.615384615385,4641.025641025642,4853.846153846154,4367.6923076923085,4275.8974358974365,4503.076923076924
3669.208,0.50733924,0.5310676,0.33333334,0.5522388,0,0.0,0.0,0.0,0.010641135,0.0,0,0,0.0,0.0,0,0,95.0,0.0,361.0,4775.384615384616,3940.5128205128212,4563.076923076924,4442.051282051282,4249.74358974359,4540.512820512821,4505.128205128206,4590.769230769231,4327.6923076923085,4733.846153846154,4987.6923076923085,4401.025641025642,4345.641025641026,4551.794871794872
3669.4268,0.50733924,0.5310676,0.33333334,0.5522388,0,0.0,0.0,0.0,0.011411814,0.0,0,0,0.0,0.0,0,0,123.0,0.0,361.0,4737.435897435898,3929.2307692307695,4531.794871794872,4434.871794871796,4247.179487179487,4540.000000000001,4490.769230769231,4224.102564102564,4132.820512820514,4335.384615384616,4621.025641025642,4313.333333333334,4087.1794871794878,4510.256410256411
3669.7083,0.57743967,0.5310676,0.33333334,0.5522388,0,0.0,0.0,0.0,0.012659366,0.0,0,0,0.0,0.0,0,0,30.0,0.0,0.0,4729.743589743591,3935.8974358974365,4526.666666666667,4430.769230769231,4257.435897435898,4548.717948717949,4507.6923076923085,4030.2564102564106,4045.1282051282055,4045.1282051282055,4452.307692307693,4273.333333333334,4027.692307692308,4524.102564102564
3669.9272,0.57743967,0.5310676,0.33333334,0.5522388,0,0.0,0.0,0.0,0.004720429,0.0,0,0,0.0,0.0,0,0,58.0,0.0,0.0,4670.256410256411,3932.307692307693,4489.743589743591,4429.2307692307695,4256.410256410257,4548.717948717949,4480.000000000001,3833.8461538461543,3957.9487179487182,3900.0000000000005,4200.512820512821,4230.769230769231,3909.7435897435903,4488.205128205129
3670.2087,0.5775587,0.5310676,0.33333334,0.5522388,0,0.0,0.0,0.0,0.011230189,0.0,0,0,0.0,0.0,0,0,94.0,0.0,8033.0,4615.384615384616,3922.0512820512827,4487.179487179488,4422.564102564103,4241.538461538462,4537.948717948719,4473.333333333334,4055.3846153846157,4098.974358974359,4237.948717948719,4510.256410256411,4304.102564102564,4093.333333333334,4468.205128205129
3670.4277,0.5775587,0.5310676,0.33333334,0.5522388,0,0.0,0.0,0.0,0.018173845,0.0,0,0,0.0,0.0,0,0,122.0,0.0,8033.0,4597.435897435898,3927.692307692308,4485.128205128206,4431.282051282052,4251.794871794872,4542.051282051282,4464.615384615385,4266.666666666667,4224.102564102564,4500.512820512821,4704.102564102564,4335.8974358974365,4194.871794871796,4482.564102564103
3670.7092,0.5506009,0.5310676,0.33333334,0.5522388,0,0.0,0.0,0.0,0.0060477117,0.0,0,0,0.0,0.0,0,0,29.0,0.0,0.0,4549.2307692307695,3928.205128205129,4468.205128205129,4438.461538461539,4256.923076923077,4548.205128205129,4453.846153846154,4108.717948717949,4122.564102564103,4372.820512820514,4550.769230769231,4312.820512820514,4118.974358974359,4450.769230769231
3670.9282,0.5506009,0.5310676,0.33333334,0.5522388,0,0.0,0.0,0.0,0.0043668766,0.0,0,0,0.0,0.0,0,0,57.0,0.0,0.0,4571.282051282052,3923.589743589744,4483.589743589744,4435.384615384616,4255.384615384616,4545.641025641026,4445.641025641026,4141.538461538462,4146.153846153847,4400.000000000001,4610.769230769231,4321.025641025642,4147.179487179487,4444.102564102564
3671.2097,0.541327,0.5310676,0.33333334,0.5522388,0,0.0,0.0,0.0,0.006363915,0.0,0,0,0.0,0.0,0,1,93.0,0.0,1076.0,4645.641025641026,3933.333333333334,4530.769230769231,4438.461538461539,4244.615384615385,4540.000000000001,4477.435897435898,4756.923076923077,4400.512820512821,5016.410256410257,5010.256410256411,4423.589743589744,4413.846153846154,4521.025641025642
3671.4287,0.541327,0.5310676,0.33333334,0.5522388,0,0.0,0.0,0.0,0.0076441513,0.0,0,0,0.0,0.0,0,0,121.0,0.0,1076.0,4677.435897435898,3934.358974358975,4554.358974358975,4442.564102564103,4238.974358974359,4529.743589743591,4495.8974358974365,4829.743589743591,4469.743589743591,5130.256410256411,5115.384615384616,4447.6923076923085,4457.948717948719,4536.923076923077
3671.71,0.541327,0.5310676,0.33333334,0.5522388,0,0.0,0.0,0.0,0.006957495,0.0,0,0,0.0,0.0,0,0,28.0,0.0,0.0,4704.102564102564,3932.820512820513,4577.948717948719,4440.512820512821,4235.384615384616,4522.051282051282,4515.8974358974365,5007.179487179488,4444.102564102564,5338.461538461539,5285.128205128206,4481.538461538462,4500.512820512821,4578.974358974359
3671.929,0.541327,0.5310676,0.33333334,0.5522388,0,0.0,0.0,0.0,0.006275201,0.0,0,0,0.0,0.0,0,0,56.0,0.0,0.0,4767.179487179488,3935.3846153846157,4591.282051282052,4436.410256410257,4222.564102564103,4520.512820512821,4525.641025641026,5091.282051282052,4474.871794871796,5421.025641025642,5355.8974358974365,4505.641025641026,4527.6923076923085,4615.8974358974365
3672.2104,0.541327,0.5310676,0.33333334,0.5522388,0,0.0,0.0,0.0,0.018044107,0.0,0,0,0.0,0.0,0,0,92.0,0.0,3156.0,4736.923076923077,3942.564102564103,4560.512820512821,4441.538461538462,4236.410256410257,4529.743589743591,4523.076923076924,4809.743589743591,4210.769230769231,5080.000000000001,5111.282051282052,4435.384615384616,4288.205128205129,4562.564102564103
3672.4294,0.541327,0.5310676,0.33333334,0.5522388,0,0.0,0.0,0.0,0.011364121,0.0,0,0,0.0,0.0,0,0,120.0,0.0,3156.0,4651.794871794872,3934.358974358975,4492.307692307693,4434.871794871796,4238.974358974359,4526.666666666667,4493.333333333334,3999.48717948718,3869.7435897435903,4227.179487179487,4485.128205128206,4293.846153846154,3887.1794871794878,4488.717948717949
3672.711,0.541327,0.5310676,0.33333334,0.5522388,0,0.0,0.0,0.0,0.0093540065,0.0,0,0,0.0,0.0,0,0,27.0,0.0,0.0,4670.769230769231,3935.8974358974365,4498.461538461539,4437.435897435898,4237.435897435898,4528.205128205129,4483.589743589744,4347.6923076923085,3993.333333333334,4494.358974358975,4605.641025641026,4319.48717948718,4001.0256410256416,4526.153846153847
3672.93,0.541327,0.5310676,0.33333334,0.5522388,0,0.0,0.0,0.0,0.0048540686,0.0,0,0,0.0,0.0,0,0,55.0,0.0,0.0,4694.871794871796,3944.615384615385,4520.000000000001,4443.589743589744,4243.076923076924,4535.384615384616,4491.282051282052,4446.666666666667,4129.2307692307695,4638.461538461539,4775.384615384616,4368.717948717949,4140.000000000001,4534.358974358975
3673.2114,0.541327,0.5310676,0.33333334,0.5522388,0,0.0,0.0,0.0,0.007914637,0.0,0,0,0.0,0.0,0,0,91.0,0.0,339.0,4746.666666666667,3932.820512820513,4554.358974358975,4436.410256410257,4241.025641025642,4532.820512820514,4504.102564102564,4729.743589743591,4281.025641025642,5005.128205128206,5031.282051282052,4418.461538461539,4325.128205128206,4554.358974358975
3673.4304,0.541327,0.5310676,0.33333334,0.5522388,0,0.0,0.0,0.0,0.008493595,0.0,0,0,0.0,0.0,0,0,119.0,0.0,339.0,4740.512820512821,3934.8717948717954,4555.384615384616,4443.076923076924,4238.461538461539,4530.769230769231,4505.641025641026,4714.871794871796,4254.871794871796,4994.871794871796,5044.615384615386,4428.205128205129,4302.564102564103,4580.000000000001
3673.712,0.541327,0.5310676,0.33333334,0.5522388,0,0.0,0.0,0.0,0.009907525,0.0,0,0,0.0,0.0,0,0,26.0,0.0,0.0,4723.076923076924,3929.2307692307695,4546.666666666667,4436.410256410257,4233.333333333334,4530.256410256411,4491.794871794872,4655.8974358974365,4178.974358974359,4895.384615384616,4911.282051282052,4389.743589743591,4229.2307692307695,4545.641025641026
3673.9307,0.541327,0.5310676,0.33333334,0.5522388,0,0.0,0.0,0.0,0.0076958016,0.0,0,0,0.0,0.0,0,0,54.0,0.0,0.0,4725.128205128206,3938.461538461539,4527.6923076923085,4442.051282051282,4242.564102564103,4542.564102564103,4487.6923076923085,4455.384615384616,4116.410256410257,4706.666666666667,4790.769230769231,4376.410256410257,4126.666666666667,4517.435897435898
3674.2122,0.541327,0.5310676,0.33333334,0.5522388,0,0.0,0.0,0.0,0.0058679627,0.0,0,0,0.0,0.0,0,0,90.0,0.0,8033.0,4674.871794871796,3937.435897435898,4500.000000000001,4442.564102564103,4240.000000000001,4534.358974358975,4472.307692307693,4393.846153846154,4024.1025641025644,4529.2307692307695,4526.153846153847,4313.846153846154,4032.307692307693,4478.461538461539
3674.4312,0.541327,0.5310676,0.33333334,0.5522388,0,0.0,0.0,0.0,0.009602349,0.0,0,0,0.0,0.0,0,0,118.0,0.0,8033.0,4663.589743589744,3932.820512820513,4516.410256410257,4440.512820512821,4236.410256410257,4532.307692307693,4466.666666666667,4637.435897435898,4252.820512820514,4953.846153846154,4898.461538461539,4408.205128205129,4266.153846153847,4491.282051282052
3674.7126,0.541327,0.5310676,0.33333334,0.5522388,0,0.0,0.0,0.0,0.013774608,0.0,0,0,0.0,0.0,0,0,25.0,0.0,0.0,4721.538461538462,3947.1794871794878,4543.076923076924,4440.512820512821,4257.435897435898,4553.333333333334,4478.461538461539,4991.282051282052,4493.846153846154,5267.6923076923085,5283.589743589744,4471.794871794872,4500.000000000001,4526.153846153847
3674.9316,0.541327,0.5310676,0.33333334,0.5522388,0,0.0,0.0,0.0,0.008758357,0.0,0,0,0.0,0.0,0,0,53.0,0.0,0.0,4712.307692307693,3941.538461538462,4536.410256410257,4444.102564102564,4245.641025641026,4540.512820512821,4474.871794871796,4761.025641025642,4305.641025641026,5075.8974358974365,5056.410256410257,4432.820512820514,4330.256410256411,4524.615384615385
3675.2131,0.541327,0.5310676,0.33333334,0.5522388,0,0.0,0.0,0.0,0.013625195,0.0,0,0,0.0,0.0,0,0,89.0,0.0,1126.0,4771.282051282052,3965.6410256410263,4609.2307692307695,4472.820512820514,4267.179487179487,4560.000000000001,4518.974358974359,5338.974358974359,4753.846153846154,5687.179487179488,5750.256410256411,4575.8974358974365,4788.717948717949,4603.589743589744
3675.4321,0.541327,0.5310676,0.33333334,0.5522388,0,0.0,0.0,0.0,0.016429903,0.0,0,0,0.0,0.0,0,1,117.0,0.0,1126.0,4773.333333333334,3932.820512820513,4559.48717948718,4439.48717948718,4239.48717948718,4532.307692307693,4520.000000000001,4903.076923076924,4357.435897435898,5217.435897435898,5255.8974358974365,4467.6923076923085,4388.717948717949,4565.128205128206
3675.7136,0.541327,0.5310676,0.33333334,0.5522388,0,0.0,0.0,0.0,0.016251845,0.0,0,0,0.0,0.0,0,0,24.0,0.0,0.0,4695.384615384616,3930.7692307692314,4495.384615384616,4441.538461538462,4241.025641025642,4530.769230769231,4475.8974358974365,4455.8974358974365,4080.0000000000005,4662.051282051282,4634.358974358975,4333.846153846154,4088.717948717949,4481.025641025642
3675.9324,0.541327,0.5310676,0.33333334,0.5522388,0,0.0,0.0,0.0,0.010155268,0.0,0,0,0.0,0.0,0,0,52.0,0.0,0.0,4651.794871794872,3953.8461538461543,4511.282051282052,4467.6923076923085,4266.153846153847,4558.461538461539,4473.333333333334,4529.743589743591,4085.1282051282055,4767.6923076923085,4816.410256410257,4371.794871794872,4123.076923076924,4473.333333333334
3676.2139,0.541327,0.5310676,0.33333334,0.5522388,0,0.0,0.0,0.0,0.009070872,0.0,0,0,0.0,0.0,0,0,88.0,0.0,3172.0,4694.358974358975,3974.358974358975,4522.564102564103,4478.461538461539,4289.2307692307695,4580.000000000001,4472.820512820514,4752.820512820514,4343.589743589744,4963.076923076924,5095.8974358974365,4421.025641025642,4333.333333333334,4464.615384615385
3676.4329,0.541327,0.5310676,0.33333334,0.5522388,0,0.0,0.0,0.0,0.0147033855,0.0,0,0,0.0,0.0,0,0,116.0,0.0,3172.0,4668.717948717949,3975.3846153846157,4518.461538461539,4482.564102564103,4286.666666666667,4577.948717948719,4469.743589743591,4724.102564102564,4205.641025641026,4925.128205128206,4977.435897435898,4405.641025641026,4254.358974358975,4489.2307692307695
3676.7144,0.541327,0.5310676,0.33333334,0.5522388,0,0.0,0.0,0.0,0.017173298,0.0,0,0,0.0,0.0,0,0,23.0,0.0,0.0,4630.769230769231,3940.5128205128212,4471.282051282052,4442.564102564103,4251.282051282052,4544.615384615385,4452.820512820514,4229.74358974359,3977.9487179487182,4481.025641025642,4284.615384615385,4281.025641025642,3962.0512820512827,4451.794871794872
3676.9333,0.541327,0.5310676,0.33333334,0.5522388,0,0.0,0.0,0.0,0.013039785,0.0,0,0,0.0,0.0,0,0,51.0,0.0,0.0,4611.282051282052,3930.7692307692314,4446.153846153847,4434.871794871796,4244.615384615385,4532.307692307693,4436.923076923077,3996.410256410257,3922.564102564103,4214.871794871796,4005.1282051282055,4239.48717948718,3830.2564102564106,4396.923076923077
3677.2148,0.541327,0.5310676,0.33333334,0.5522388,0,0.0,0.0,0.0,0.007848398,0.0,0,0,0.0,0.0,0,0,87.0,0.0,340.0,4567.6923076923085,3929.2307692307695,4435.384615384616,4425.641025641026,4245.641025641026,4535.8974358974365,4415.8974358974365,3961.538461538462,3974.8717948717954,4268.717948717949,4002.0512820512827,4236.923076923077,3908.205128205129,4402.564102564103
3677.4338,0.541327,0.5310676,0.33333334,0.5522388,0,0.0,0.0,0.0,0.0070405314,0.0,0,0,0.0,0.0,0,0,115.0,0.0,340.0,4524.102564102564,3922.564102564103,4408.205128205129,4420.512820512821,4245.128205128206,4540.000000000001,4399.48717948718,3716.9230769230776,3900.5128205128212,3956.9230769230776,3664.615384615385,4176.410256410257,3767.692307692308,4358.461538461539
3677.7153,0.541327,0.5310676,0.33333334,0.5522388,0,0.0,0.0,0.0,0.010321506,0.0,0,0,0.0,0.0,0,0,22.0,0.0,0.0,4615.8974358974365,3926.666666666667,4462.564102564103,4425.641025641026,4254.358974358975,4548.717948717949,4431.794871794872,4314.358974358975,4362.564102564103,4586.666666666667,4386.666666666667,4318.461538461539,4202.564102564103,4438.461538461539
3677.934,0.541327,0.5310676,0.33333334,0.5522388,0,0.0,0.0,0.0,0.008269758,0.0,0,0,0.0,0.0,0,0,50.0,0.0,0.0,4629.2307692307695,3918.461538461539,4479.48717948718,4421.025641025642,4245.641025641026,4540.512820512821,4422.051282051282,4404.615384615385,4331.794871794872,4640.512820512821,4441.538461538462,4325.641025641026,4230.256410256411,4483.076923076924
3678.2156,0.541327,0.5310676,0.33333334,0.5522388,0,0.0,0.0,0.0,0.004187748,0.0,0,0,0.0,0.0,0,0,86.0,0.0,8033.0,4624.615384615385,3925.1282051282055,4478.974358974359,4418.461538461539,4241.538461538462,4533.333333333334,4421.025641025642,4247.179487179487,4281.538461538462,4553.846153846154,4372.820512820514,4314.358974358975,4168.205128205129,4468.205128205129
3678.4346,0.541327,0.5310676,0.33333334,0.5522388,0,0.0,0.0,0.0,0.00306658,0.0,0,0,0.0,0.0,0,0,114.0,0.0,8033.0,4663.076923076924,3920.0000000000005,4489.2307692307695,4417.435897435898,4226.666666666667,4530.256410256411,4434.871794871796,4441.025641025642,4335.8974358974365,4669.2307692307695,4458.974358974359,4332.820512820514,4243.589743589744,4480.000000000001
3678.716,0.541327,0.5310676,0.33333334,0.5522388,0,0.0,0.0,0.0,0.0035533032,0.0,0,0,0.0,0.0,0,0,21.0,0.0,0.0,4637.948717948719,3938.461538461539,4481.538461538462,4427.179487179487,4256.410256410257,4548.205128205129,4423.076923076924,4392.307692307693,4346.666666666667,4708.717948717949,4544.615384615385,4352.307692307693,4270.769230769231,4497.948717948719
3678.9663,0.541327,0.5310676,0.33333334,0.5522388,0,0.0,0.0,0.0,0.014655333,0.0,0,0,0.0,0.0,0,1,53.0,0.0,0.0,4668.717948717949,3947.692307692308,4509.2307692307695,4437.948717948719,4263.076923076924,4559.48717948718,4458.974358974359,4634.358974358975,4390.256410256411,4976.410256410257,4854.871794871796,4411.282051282052,4372.307692307693,4550.769230769231
3679.2166,0.46385214,0.5310676,0.33333334,0.5522388,0,0.0,0.0,0.0,0.018728849,0.0,0,0,0.0,0.0,0,0,85.0,0.0,1019.0,4686.153846153847,3925.6410256410263,4497.948717948719,4425.641025641026,4245.128205128206,4543.076923076924,4447.6923076923085,4466.153846153847,4262.564102564103,4791.794871794872,4681.538461538462,4376.410256410257,4258.461538461539,4590.256410256411
3679.4355,0.46385214,0.5310676,0.33333334,0.5522388,0,0.0,0.0,0.0,0.010353643,0.0,0,0,0.0,0.0,0,0,113.0,0.0,1019.0,4643.076923076924,3935.3846153846157,4481.025641025642,4432.307692307693,4253.333333333334,4547.179487179488,4437.948717948719,4450.256410256411,4239.48717948718,4701.538461538462,4550.256410256411,4346.666666666667,4194.358974358975,4581.025641025642
3679.717,0.38389403,0.5310676,0.33333334,0.5522388,0,0.0,0.0,0.0,0.0048933695,0.0,0,0,0.0,0.0,0,0,20.0,0.0,0.0,4588.717948717949,3933.8461538461543,4450.769230769231,4437.435897435898,4244.615384615385,4546.666666666667,4427.6923076923085,4014.358974358975,4052.820512820513,4314.358974358975,4260.000000000001,4291.282051282052,4009.7435897435903,4559.48717948718
3679.9358,0.38389403,0.5310676,0.33333334,0.5522388,0,0.0,0.0,0.0,0.006342677,0.0,0,0,0.0,0.0,0,0,48.0,0.0,0.0,4622.564102564103,3929.2307692307695,4456.923076923077,4432.307692307693,4243.076923076924,4537.948717948719,4434.871794871796,4260.512820512821,4203.076923076924,4478.974358974359,4274.871794871796,4297.435897435898,4131.282051282052,4576.923076923077
3680.2173,0.30359462,0.5310676,0.33333334,0.5522388,0,0.0,0.0,0.0,0.0050160396,0.0,0,0,0.0,0.0,0,0,84.0,0.0,3095.0,4566.666666666667,3929.2307692307695,4425.128205128206,4429.2307692307695,4231.282051282052,4528.205128205129,4421.538461538462,3721.538461538462,4025.6410256410263,4040.5128205128212,3978.461538461539,4242.051282051282,3941.538461538462,4541.538461538462
3680.4363,0.30359462,0.5310676,0.33333334,0.5522388,0,0.0,0.0,0.0,0.004437808,0.0,0,0,0.0,0.0,0,0,112.0,0.0,3095.0,4583.589743589744,3924.615384615385,4441.025641025642,4426.666666666667,4230.769230769231,4523.589743589744,4420.512820512821,4018.461538461539,4146.153846153847,4256.923076923077,4070.2564102564106,4261.025641025642,4068.205128205129,4554.871794871796
3680.7178,0.251856,0.5310676,0.33333334,0.5522388,0,0.0,0.0,0.0,0.007510842,0.0,0,0,0.0,0.0,0,0,19.0,0.0,0.0,4632.307692307693,3937.9487179487182,4477.948717948719,4439.48717948718,4240.512820512821,4535.8974358974365,4442.564102564103,4231.794871794872,4277.948717948719,4568.717948717949,4497.948717948719,4349.2307692307695,4238.974358974359,4570.769230769231
3680.9368,0.251856,0.5310676,0.33333334,0.5522388,0,0.0,0.0,0.0,0.0056764693,0.0,0,0,0.0,0.0,0,0,47.0,0.0,0.0,4608.205128205129,3935.3846153846157,4467.179487179487,4434.358974358975,4236.923076923077,4533.333333333334,4438.974358974359,4213.333333333334,4225.128205128206,4464.615384615385,4306.153846153847,4310.769230769231,4170.256410256411,4545.128205128206
3681.2183,0.19472888,0.5310676,0.33333334,0.5522388,0,0.0,0.0,0.0,0.0035690083,0.0,0,0,0.0,0.0,0,0,83.0,0.0,369.0,4642.051282051282,3937.435897435898,4493.846153846154,4438.461538461539,4242.051282051282,4537.948717948719,4439.48717948718,4200.000000000001,4277.435897435898,4569.2307692307695,4478.974358974359,4346.666666666667,4240.000000000001,4544.102564102564
3681.4373,0.19472888,0.5310676,0.33333334,0.5522388,0,0.0,0.0,0.0,0.0063105603,0.0,0,0,0.0,0.0,0,0,111.0,0.0,369.0,4668.717948717949,3931.7948717948725,4491.794871794872,4434.871794871796,4241.025641025642,4537.435897435898,4445.641025641026,4326.666666666667,4263.589743589744,4625.641025641026,4481.025641025642,4343.589743589744,4247.6923076923085,4538.974358974359
3681.7188,0.15619418,0.5310676,0.33333334,0.5522388,0,0.0,0.0,0.0,0.0037549818,0.0,0,0,0.0,0.0,0,0,18.0,0.0,0.0,4658.974358974359,3937.9487179487182,4504.615384615385,4438.461538461539,4244.102564102564,4538.461538461539,4459.48717948718,4197.948717948719,4205.641025641026,4553.846153846154,4516.410256410257,4345.128205128206,4180.000000000001,4537.435897435898
3681.9375,0.15619418,0.5310676,0.33333334,0.5522388,0,0.0,0.0,0.0,0.0035534347,0.0,0,0,0.0,0.0,0,0,46.0,0.0,0.0,4656.923076923077,3936.410256410257,4502.564102564103,4436.923076923077,4243.589743589744,4541.538461538462,4462.051282051282,4254.871794871796,4208.717948717949,4549.743589743591,4431.794871794872,4330.256410256411,4198.974358974359,4509.743589743591
3682.219,0.12362933,0.5310676,0.33333334,0.5522388,0,0.0,0.0,0.0,0.0033862796,0.0,0,0,0.0,0.0,0,1,82.0,0.0,8033.0,4679.48717948718,3937.9487179487182,4506.666666666667,4439.48717948718,4243.076923076924,4537.948717948719,4464.102564102564,4180.000000000001,4186.666666666667,4534.871794871796,4521.538461538462,4347.179487179487,4165.128205128206,4542.051282051282
3682.438,0.12362933,0.5310676,0.33333334,0.5522388,0,0.0,0.0,0.0,0.0048250277,0.0,0,0,0.0,0.0,0,0,110.0,0.0,8033.0,4676.410256410257,3930.2564102564106,4508.717948717949,4435.8974358974365,4228.717948717949,4529.743589743591,4469.2307692307695,4163.589743589744,4170.769230769231,4466.153846153847,4375.8974358974365,4315.384615384616,4148.205128205129,4522.564102564103
3682.7195,0.09394972,0.5310676,0.33333334,0.5522388,0,0.0,0.0,0.0,0.0040664417,0.0,0,0,0.0,0.0,0,0,17.0,0.0,0.0,4708.717948717949,3943.076923076924,4505.641025641026,4444.102564102564,4249.2307692307695,4548.717948717949,4460.512820512821,4143.589743589744,4194.871794871796,4515.384615384616,4526.666666666667,4343.589743589744,4171.282051282052,4527.179487179488
3682.9385,0.09394972,0.5310676,0.33333334,0.5522388,0,0.0,0.0,0.0,0.0039957874,0.0,0,0,0.0,0.0,0,0,45.0,0.0,0.0,4675.384615384616,3937.435897435898,4492.820512820514,4443.076923076924,4244.102564102564,4542.051282051282,4457.435897435898,4089.23076923077,4154.871794871796,4416.410256410257,4382.051282051282,4316.923076923077,4123.076923076924,4523.076923076924
3683.22,0.079904936,0.5310676,0.33333334,0.5522388,0,0.0,0.0,0.0,0.0032765458,0.0,0,0,0.0,0.0,0,0,81.0,0.0,982.0,4694.871794871796,3935.8974358974365,4510.256410256411,4439.48717948718,4226.153846153847,4524.102564102564,4463.589743589744,4074.8717948717954,4161.025641025642,4446.153846153847,4455.8974358974365,4330.769230769231,4117.435897435898,4556.923076923077
3683.439,0.079904936,0.5310676,0.33333334,0.5522388,0,0.0,0.0,0.0,0.0029402468,0.0,0,0,0.0,0.0,0,0,109.0,0.0,982.0,4697.948717948719,3945.6410256410263,4509.2307692307695,4443.076923076924,4248.717948717949,4546.153846153847,4463.589743589744,4206.666666666667,4201.538461538462,4541.538461538462,4500.000000000001,4340.512820512821,4171.282051282052,4515.8974358974365
3683.7205,0.07923303,0.5310676,0.33333334,0.5522388,0,0.0,0.0,0.0,0.0049696253,0.0,0,0,0.0,0.0,0,0,16.0,0.0,0.0,4704.102564102564,3937.9487179487182,4520.512820512821,4437.435897435898,4241.025641025642,4540.000000000001,4477.948717948719,4248.205128205129,4244.102564102564,4618.461538461539,4607.6923076923085,4360.512820512821,4206.153846153847,4522.051282051282
3683.9395,0.07923303,0.5310676,0.33333334,0.5522388,1,0.0,0.0,0.0,0.004660725,0.0,0,0,0.0,0.0,0,0,44.0,0.0,0.0,4726.153846153847,3929.2307692307695,4537.435897435898,4436.410256410257,4235.8974358974365,4537.948717948719,4490.256410256411,4466.153846153847,4280.512820512821,4782.564102564103,4745.641025641026,4387.179487179487,4274.358974358975,4565.128205128206
3684.221,0.11101658,0.5310676,0.33333334,0.5522388,0,0.0,0.0,0.0,0.00747323,0.0,0,0,0.0,0.0,0,0,80.0,0.0,3041.0,4701.025641025642,3928.205128205129,4496.923076923077,4440.512820512821,4238.974358974359,4541.538461538462,4457.435897435898,4010.7692307692314,4127.6923076923085,4350.769230769231,4401.025641025642,4321.025641025642,4083.076923076924,4525.641025641026
3684.4397,0.11101658,0.5310676,0.33333334,0.5522388,0,0.0,0.0,0.0,0.004734451,0.0,0,0,0.0,0.0,0,0,108.0,0.0,3041.0,4664.615384615386,3934.8717948717954,4477.948717948719,4442.051282051282,4248.205128205129,4548.717948717949,4458.461538461539,3913.333333333334,4060.5128205128212,4274.871794871796,4324.102564102564,4304.615384615385,4017.435897435898,4495.8974358974365
3684.7212,0.092660174,0.5310676,0.33333334,0.5522388,0,0.0,0.0,0.0,0.0033797964,0.0,0,0,0.0,0.0,0,0,15.0,0.0,378.0,4652.820512820514,3924.615384615385,4480.512820512821,4438.461538461539,4239.48717948718,4540.512820512821,4461.025641025642,3910.2564102564106,4037.9487179487182,4213.846153846154,4294.871794871796,4300.512820512821,4001.538461538462,4506.666666666667
3684.9402,0.092660174,0.5310676,0.33333334,0.5522388,0,0.0,0.0,0.0,0.0047459383,0.0,0,0,0.0,0.0,0,0,43.0,0.0,0.0,4612.820512820514,3926.666666666667,4453.846153846154,4436.923076923077,4240.512820512821,4540.512820512821,4441.025641025642,3633.8461538461543,3935.3846153846157,3982.564102564103,4034.8717948717954,4252.820512820514,3890.7692307692314,4476.410256410257
3685.2217,0.09416507,0.5310676,0.33333334,0.5522388,0,0.0,0.0,0.0,0.005370654,0.0,0,0,0.0,0.0,0,0,79.0,0.0,378.0,4609.2307692307695,3925.6410256410263,4446.153846153847,4438.461538461539,4253.846153846154,4552.820512820514,4427.6923076923085,3708.205128205129,3945.1282051282055,3943.076923076924,4016.9230769230776,4249.74358974359,3876.9230769230776,4470.769230769231
3685.4407,0.09416507,0.5310676,0.33333334,0.5522388,0,0.0,0.0,0.0,0.0051293406,0.0,0,0,0.0,0.0,0,0,107.0,0.0,378.0,4609.2307692307695,3934.8717948717954,4454.358974358975,4443.076923076924,4253.846153846154,4552.307692307693,4428.205128205129,3775.8974358974365,4114.358974358975,4151.282051282052,4150.769230769231,4281.025641025642,4010.2564102564106,4488.205128205129
3685.7222,0.05407463,0.5310676,0.33333334,0.5522388,0,0.0,0.0,0.0,0.0050237477,0.0,0,0,0.0,0.0,0,0,14.0,0.0,8033.0,4627.179487179488,3923.076923076924,4472.307692307693,4438.461538461539,4245.641025641026,4539.48717948718,4442.564102564103,3965.1282051282055,4129.74358974359,4275.8974358974365,4257.435897435898,4305.128205128206,4087.692307692308,4507.6923076923085
3685.9412,0.05407463,0.5310676,0.33333334,0.5522388,0,0.0,0.0,0.0,0.007095419,0.0,0,0,0.0,0.0,0,0,42.0,0.0,0.0,4696.410256410257,3936.9230769230776,4514.358974358975,4444.102564102564,4254.358974358975,4553.333333333334,4446.153846153847,4387.179487179487,4355.384615384616,4768.205128205129,4657.435897435898,4386.666666666667,4325.641025641026,4541.538461538462
3686.2227,0.084829345,0.5310676,0.33333334,0.5522388,0,0.0,0.0,0.0,0.0047414927,0.0,0,0,0.0,0.0,0,0,78.0,0.0,8033.0,4687.179487179488,3940.5128205128212,4510.256410256411,4444.102564102564,4246.153846153847,4541.538461538462,4461.538461538462,4310.769230769231,4260.512820512821,4681.538461538462,4587.179487179488,4373.333333333334,4252.307692307693,4527.179487179488
3686.4414,0.084829345,0.5310676,0.33333334,0.5522388,0,0.0,0.0,0.0,0.0037086676,0.0,0,0,0.0,0.0,0,0,106.0,0.0,8033.0,4629.2307692307695,3940.5128205128212,4476.410256410257,4442.051282051282,4253.333333333334,4547.6923076923085,4453.333333333334,3920.5128205128212,4110.256410256411,4279.48717948718,4283.076923076924,4305.128205128206,4050.2564102564106,4478.974358974359
3686.723,0.05612317,0.5310676,0.33333334,0.5522388,0,0.0,0.13094805,0.0,0.0,0.0,0,0,0.0,0.0,0,0,13.0,0.0,971.0,4661.538461538462,3946.666666666667,4483.076923076924,4442.051282051282,4251.282051282052,4548.205128205129,4456.410256410257,4180.512820512821,4147.179487179487,4478.461538461539,4431.282051282052,4332.820512820514,4160.000000000001,4510.256410256411
3686.942,0.05612317,0.5310676,0.33333334,0.5522388,0,0.0,0.0,0.0,0.004706236,0.0,0,0,0.0,0.0,0,0,41.0,0.0,0.0,4697.948717948719,3949.7435897435903,4514.358974358975,4444.102564102564,4250.256410256411,4545.641025641026,4460.512820512821,4304.102564102564,4280.000000000001,4688.205128205129,4633.333333333334,4374.358974358975,4248.205128205129,4543.076923076924
3687.2234,0.037020892,0.5310676,0.33333334,0.5522388,0,0.0,0.0,0.0,0.004124133,0.0,0,0,0.0,0.0,0,0,77.0,0.0,969.0,4726.666666666667,3953.8461538461543,4524.102564102564,4444.615384615385,4250.769230769231,4550.769230769231,4465.128205128206,4495.384615384616,4315.8974358974365,4812.820512820514,4703.076923076924,4387.6923076923085,4328.717948717949,4528.717948717949
3687.4424,0.037020892,0.5310676,0.33333334,0.5522388,0,0.0,0.0,0.0,0.004376807,0.0,0,0,0.0,0.0,0,0,105.0,0.0,969.0,4673.846153846154,3948.717948717949,4495.384615384616,4440.512820512821,4246.153846153847,4547.6923076923085,4456.410256410257,4124.102564102564,4100.000000000001,4458.974358974359,4454.358974358975,4333.846153846154,4091.7948717948725,4532.307692307693
3687.7239,0.06743134,0.5310676,0.33333334,0.5522388,0,0.0,0.0,0.0,0.0054000155,0.0,0,0,0.0,0.0,0,0,12.0,0.0,2983.0,4676.410256410257,3941.0256410256416,4511.794871794872,4440.512820512821,4244.102564102564,4540.000000000001,4472.307692307693,4228.205128205129,4098.974358974359,4461.025641025642,4433.846153846154,4326.666666666667,4134.358974358975,4534.358974358975
3687.9429,0.06743134,0.5310676,0.33333334,0.5522388,0,0.0,0.0,0.0,0.004719457,0.0,0,0,0.0,0.0,0,0,40.0,0.0,0.0,4671.282051282052,3947.1794871794878,4512.307692307693,4442.564102564103,4242.051282051282,4543.076923076924,4473.846153846154,4072.820512820513,4087.1794871794878,4342.051282051282,4393.846153846154,4314.871794871796,4082.564102564103,4528.205128205129
3688.2244,0.060860813,0.5310676,0.33333334,0.5522388,0,0.0,0.0,0.0,0.0055004125,0.0,0,0,0.0,0.0,0,0,76.0,0.0,2967.0,4643.589743589744,3948.717948717949,4490.769230769231,4445.641025641026,4247.6923076923085,4541.538461538462,4466.153846153847,4127.6923076923085,4054.358974358975,4344.102564102564,4263.589743589744,4295.8974358974365,4048.205128205129,4503.076923076924
3688.443,0.060860813,0.5310676,0.33333334,0.5522388,0,0.0,0.0,0.0,0.0047008023,0.0,0,0,0.0,0.0,0,0,104.0,0.0,2967.0,4613.333333333334,3945.1282051282055,4461.025641025642,4443.076923076924,4254.358974358975,4549.2307692307695,4442.051282051282,3788.717948717949,3922.0512820512827,4004.615384615385,4025.1282051282055,4245.641025641026,3858.9743589743593,4460.000000000001
3688.7246,0.08383381,0.5310676,0.33333334,0.5522388,0,0.0,0.0,0.0,0.005325512,0.0,0,0,0.0,0.0,0,0,11.0,0.0,394.0,4671.794871794872,3947.692307692308,4500.000000000001,4444.615384615385,4253.333333333334,4553.846153846154,4457.948717948719,4311.794871794872,4201.025641025642,4532.820512820514,4411.794871794872,4328.205128205129,4178.461538461539,4506.153846153847
3688.9436,0.08383381,0.5310676,0.33333334,0.5522388,0,0.0,0.0,0.0,0.0059201363,0.0,0,0,0.0,0.0,0,0,39.0,0.0,0.0,4682.564102564103,3945.1282051282055,4500.000000000001,4443.589743589744,4244.102564102564,4543.589743589744,4456.923076923077,4158.461538461539,4183.589743589744,4394.358974358975,4384.615384615385,4317.948717948719,4157.435897435898,4520.000000000001
3689.225,0.041408278,0.5310676,0.33333334,0.5522388,0,0.0,0.0,0.0,0.0036598747,0.0,0,0,0.0,0.0,0,0,75.0,0.0,394.0,4686.153846153847,3948.717948717949,4516.410256410257,4445.641025641026,4246.666666666667,4546.153846153847,4467.6923076923085,4447.6923076923085,4274.871794871796,4664.102564102564,4472.307692307693,4338.974358974359,4244.102564102564,4527.6923076923085
3689.444,0.041408278,0.5310676,0.33333334,0.5522388,0,0.0,0.15765986,0.0,0.0,0.0,0,0,0.0,0.0,0,0,103.0,0.0,394.0,4706.666666666667,3941.538461538462,4494.871794871796,4441.025641025642,4242.051282051282,4538.974358974359,4460.000000000001,4214.358974358975,4189.2307692307695,4433.333333333334,4398.461538461539,4321.538461538462,4171.282051282052,4522.564102564103
3689.7256,0.0040248344,0.5310676,0.33333334,0.5522388,0,0.0,0.0,0.0,0.004497529,0.0,0,0,0.0,0.0,0,0,10.0,0.0,8033.0,4666.153846153847,3930.7692307692314,4486.666666666667,4429.2307692307695,4230.769230769231,4529.2307692307695,4448.717948717949,4224.102564102564,4130.769230769231,4434.871794871796,4199.48717948718,4292.820512820514,4085.1282051282055,4520.512820512821
3689.9446,0.0040248344,0.5310676,0.33333334,0.5522388,0,0.0,0.0,0.0,0.004303204,0.0,0,0,0.0,0.0,0,0,38.0,0.0,0.0,4625.641025641026,3929.7435897435903,4469.743589743591,4431.794871794872,4234.871794871796,4529.743589743591,4453.846153846154,3908.205128205129,3985.6410256410263,4115.384615384616,4048.205128205129,4256.410256410257,3937.9487179487182,4482.564102564103
3690.226,0.005207186,0.5310676,0.33333334,0.5522388,0,0.0,0.0,0.0,0.004417293,0.0,0,0,0.0,0.0,0,0,74.0,0.0,8033.0,4619.48717948718,3939.48717948718,4467.179487179487,4442.051282051282,4248.205128205129,4549.743589743591,4437.948717948719,4141.025641025642,4141.025641025642,4389.743589743591,4096.923076923077,4279.48717948718,4063.589743589744,4466.666666666667
3690.4448,0.005207186,0.5310676,0.33333334,0.5522388,0,0.0,0.0,0.0,0.005825508,0.0,0,0,0.0,0.0,0,0,102.0,0.0,8033.0,4637.435897435898,3929.7435897435903,4475.8974358974365,4436.410256410257,4237.948717948719,4541.025641025642,4444.615384615385,4050.2564102564106,4118.461538461539,4266.666666666667,4140.512820512821,4282.564102564103,4073.333333333334,4474.358974358975
3690.7263,0.0028548343,0.5310676,0.33333334,0.5522388,0,0.0,0.0,0.0,0.0042426954,0.0,0,0,0.0,0.0,0,0,9.0,0.0,5159.0,4658.974358974359,3936.410256410257,4497.435897435898,4442.051282051282,4243.589743589744,4545.641025641026,4444.615384615385,4385.128205128206,4256.923076923077,4602.051282051282,4259.48717948718,4307.6923076923085,4197.948717948719,4482.564102564103
3690.9453,0.0028548343,0.5310676,0.33333334,0.5522388,0,0.0,0.0,0.0,0.0044577904,0.0,0,0,0.0,0.0,0,0,37.0,0.0,0.0,4658.974358974359,3940.5128205128212,4480.512820512821,4442.051282051282,4256.923076923077,4554.871794871796,4433.846153846154,4255.8974358974365,4223.589743589744,4473.846153846154,4277.948717948719,4308.717948717949,4178.461538461539,4478.974358974359
3691.2268,0.0,0.5310676,0.33333334,0.5522388,0,0.0,0.0,0.0,0.0041995826,0.0,0,0,0.0,0.0,0,0,73.0,0.0,5107.0,4645.641025641026,3937.435897435898,4477.435897435898,4441.025641025642,4241.025641025642,4541.025641025642,4432.820512820514,4320.000000000001,4241.025641025642,4547.179487179488,4188.717948717949,4295.384615384616,4169.2307692307695,4480.000000000001
3691.4458,0.0,0.5310676,0.33333334,0.5522388,0,0.0,0.0,0.0,0.0043980894,0.0,0,0,0.0,0.0,0,0,101.0,0.0,926.0,4621.538461538462,3942.0512820512827,4485.641025641026,4443.589743589744,4240.000000000001,4543.589743589744,4426.153846153847,4288.717948717949,4229.74358974359,4498.461538461539,4260.512820512821,4308.205128205129,4175.384615384616,4508.717948717949
3691.7273,0.0,0.5310676,0.33333334,0.5522388,0,0.0,0.0,0.0,0.004344635,0.0,0,0,0.0,0.0,0,0,8.0,0.0,8033.0,4639.48717948718,3939.48717948718,4483.076923076924,4444.102564102564,4243.589743589744,4543.076923076924,4432.307692307693,4472.307692307693,4303.076923076924,4671.282051282052,4303.076923076924,4314.871794871796,4250.769230769231,4510.769230769231
3691.9463,0.0,0.5310676,0.33333334,0.5522388,0,0.0,0.0,0.0,0.0043368256,0.0,0,0,0.0,0.0,0,0,36.0,0.0,0.0,4656.410256410257,3945.1282051282055,4496.923076923077,4446.666666666667,4250.256410256411,4553.846153846154,4444.615384615385,4495.384615384616,4310.256410256411,4691.282051282052,4440.512820512821,4333.333333333334,4280.000000000001,4527.6923076923085
3692.2278,0.016346203,0.5310676,0.33333334,0.5522388,0,0.0,0.0,0.0,0.0033952743,0.0,0,0,0.0,0.0,0,0,72.0,0.0,8033.0,4703.589743589744,3941.538461538462,4524.102564102564,4444.615384615385,4246.153846153847,4544.615384615385,4445.128205128206,4888.717948717949,4477.435897435898,4994.871794871796,4745.128205128206,4391.282051282052,4486.666666666667,4617.948717948719
3692.4465,0.016346203,0.5310676,0.33333334,0.5522388,0,0.0,0.1603259,0.0,0.0,0.0,0,0,0.0,0.0,0,0,100.0,0.0,2933.0,4685.128205128206,3932.307692307693,4498.974358974359,4434.871794871796,4245.641025641026,4546.153846153847,4445.128205128206,4501.538461538462,4254.871794871796,4660.512820512821,4406.153846153847,4324.102564102564,4230.256410256411,4545.641025641026
3692.728,0.053763557,0.5310676,0.33333334,0.5522388,0,0.0,0.23006254,0.0,0.0,0.0,0,0,0.0,0.0,0,0,7.0,0.0,5186.0,4573.846153846154,3929.7435897435903,4423.589743589744,4434.871794871796,4251.282051282052,4547.6923076923085,4412.307692307693,3846.666666666667,3994.8717948717954,4097.435897435898,3803.076923076924,4212.307692307693,3913.333333333334,4459.48717948718
3692.947,0.053763557,0.5310676,0.33333334,0.5522388,0,0.0,0.0,0.0,0.006064211,0.0,0,0,0.0,0.0,0,0,35.0,0.0,0.0,4552.307692307693,3925.6410256410263,4414.358974358975,4428.205128205129,4244.615384615385,4540.512820512821,4382.564102564103,3635.8974358974365,3897.9487179487182,3891.7948717948725,3641.538461538462,4181.025641025642,3849.2307692307695,4434.358974358975
3693.2285,0.14180708,0.5310676,0.33333334,0.5522388,0,0.0,0.0,0.0,0.0137765035,0.0,0,0,0.0,0.0,0,0,71.0,0.0,5007.0,4575.384615384616,3928.205128205129,4410.256410256411,4430.256410256411,4192.307692307693,4475.384615384616,4380.512820512821,3538.9743589743593,3999.48717948718,3838.461538461539,3550.7692307692314,4161.538461538462,3866.1538461538466,4434.871794871796
3693.4475,0.14180708,0.5310676,0.33333334,0.5522388,0,0.0,0.0,0.0,0.012590424,0.0,0,0,0.0,0.0,0,0,99.0,0.0,401.0,4583.589743589744,3929.2307692307695,4431.794871794872,4434.358974358975,4201.538461538462,4481.025641025642,4383.076923076924,3877.9487179487182,4151.282051282052,4184.102564102564,3808.205128205129,4220.000000000001,4035.8974358974365,4473.333333333334
3693.729,0.22704919,0.5310676,0.33333334,0.5522388,0,0.0,0.0,0.0,0.0100973435,0.0,0,0,0.0,0.0,0,0,6.0,0.0,218.0,4642.564102564103,3946.1538461538466,4477.948717948719,4445.128205128206,4218.461538461539,4509.2307692307695,4398.974358974359,4638.974358974359,4528.717948717949,4851.282051282052,4443.076923076924,4342.051282051282,4450.769230769231,4564.615384615385
3693.948,0.22704919,0.5310676,0.33333334,0.5522388,0,0.0,0.0,0.0,0.0072895037,0.0,0,0,0.0,0.0,0,0,34.0,0.0,0.0,4556.923076923077,3936.410256410257,4430.256410256411,4440.512820512821,4225.128205128206,4507.6923076923085,4370.256410256411,4317.948717948719,4293.333333333334,4599.48717948718,4112.307692307693,4275.384615384616,4230.769230769231,4571.282051282052
3694.2295,0.23071267,0.5310676,0.33333334,0.5522388,0,0.0,0.0,0.0,0.008282794,0.0,0,0,0.0,0.0,0,0,70.0,0.0,220.0,4489.2307692307695,3946.1538461538466,4389.743589743591,4442.051282051282,4236.410256410257,4528.717948717949,4342.051282051282,3950.2564102564106,4142.051282051282,4264.102564102564,3869.7435897435903,4225.641025641026,4059.48717948718,4530.256410256411
3694.4485,0.23071267,0.5310676,0.33333334,0.5522388,0,0.0,0.0,0.0,0.006736673,0.0,0,0,0.0,0.0,0,0,98.0,0.0,8033.0,4514.358974358975,3945.1282051282055,4404.102564102564,4442.051282051282,4253.333333333334,4544.615384615385,4344.615384615385,4256.410256410257,4281.025641025642,4569.743589743591,4053.333333333334,4266.153846153847,4211.282051282052,4532.307692307693
3694.73,0.26264143,0.5310676,0.33333334,0.5522388,0,0.0,0.0,0.0,0.0072876173,0.0,0,0,0.0,0.0,0,0,5.0,0.0,363.0,4485.128205128206,3947.692307692308,4388.205128205129,4444.615384615385,4251.282051282052,4540.000000000001,4336.923076923077,3951.7948717948725,4150.256410256411,4240.512820512821,3844.615384615385,4220.000000000001,4067.1794871794878,4475.384615384616
3694.9487,0.26264143,0.5310676,0.33333334,0.5522388,0,0.0,0.0,0.0,0.0077289897,0.0,0,0,0.0,0.0,0,0,33.0,0.0,0.0,4472.307692307693,3947.1794871794878,4398.974358974359,4447.6923076923085,4264.102564102564,4555.8974358974365,4335.384615384616,4122.051282051282,4246.153846153847,4430.256410256411,3944.615384615385,4245.641025641026,4169.2307692307695,4452.307692307693
3695.2068,0.3093597,0.5310676,0.33333334,0.5522388,0,0.0,0.0,0.0,0.007981799,0.0,0,0,0.0,0.0,0,0,69.0,0.0,363.0,4527.6923076923085,3953.8461538461543,4430.256410256411,4449.2307692307695,4267.179487179487,4559.48717948718,4353.846153846154,4342.051282051282,4352.307692307693,4591.282051282052,4229.74358974359,4291.794871794872,4295.8974358974365,4477.435897435898
3695.4258,0.3093597,0.5310676,0.33333334,0.5522388,0,0.0,0.0,0.0,0.0046441364,0.0,0,0,0.0,0.0,0,0,97.0,0.0,940.0,4529.743589743591,3948.717948717949,4452.307692307693,4448.205128205129,4264.102564102564,4557.435897435898,4371.282051282052,4582.564102564103,4388.717948717949,4787.179487179488,4330.769230769231,4312.820512820514,4377.435897435898,4504.102564102564
3695.7073,0.27265042,0.5310676,0.33333334,0.5522388,0,0.0,0.0,0.0,0.0058672414,0.0,0,0,0.0,0.0,0,0,4.0,0.0,368.0,4747.6923076923085,3945.6410256410263,4579.48717948718,4435.384615384616,4252.820512820514,4547.179487179488,4438.461538461539,5496.410256410257,5021.025641025642,5688.205128205129,5413.333333333334,4518.461538461539,5038.461538461539,4661.538461538462
3695.9575,0.27265042,0.5310676,0.33333334,0.5522388,0,0.0,0.0,0.0,0.0055844574,0.0,0,0,0.0,0.0,0,1,36.0,0.0,0.0,4806.666666666667,3943.589743589744,4602.051282051282,4433.333333333334,4243.076923076924,4545.641025641026,4488.205128205129,5529.2307692307695,4852.820512820514,5690.256410256411,5513.846153846154,4525.128205128206,4936.410256410257,4662.564102564103
3696.2078,0.35724273,0.5310676,0.33333334,0.5522388,0,0.0,0.0,0.0,0.009785685,0.0,0,0,0.0,0.0,0,1,68.0,0.0,368.0,4675.8974358974365,3933.333333333334,4481.538461538462,4432.307692307693,4249.74358974359,4548.205128205129,4435.8974358974365,4337.435897435898,4130.256410256411,4538.974358974359,4391.794871794872,4304.615384615385,4167.179487179487,4505.641025641026
3696.4265,0.35724273,0.5310676,0.33333334,0.5522388,0,0.0,0.0,0.0,0.009262888,0.0,0,0,0.0,0.0,0,0,96.0,0.0,2964.0,4737.948717948719,3941.538461538462,4545.641025641026,4444.615384615385,4247.6923076923085,4551.282051282052,4465.128205128206,4996.410256410257,4456.410256410257,5143.589743589744,4970.256410256411,4416.923076923077,4524.102564102564,4609.2307692307695
3696.708,0.36770985,0.5310676,0.33333334,0.5522388,0,0.0,0.0,0.0,0.0066253482,0.0,0,0,0.0,0.0,0,0,3.0,0.0,356.0,4720.000000000001,3941.538461538462,4521.025641025642,4434.358974358975,4239.48717948718,4541.025641025642,4456.410256410257,4534.871794871796,4244.102564102564,4729.743589743591,4657.435897435898,4350.256410256411,4257.948717948719,4595.8974358974365
3696.927,0.36770985,0.5310676,0.33333334,0.5522388,0,0.0,0.16735741,0.0,0.0,0.0,0,0,0.0,0.0,0,0,31.0,0.0,0.0,4707.6923076923085,3933.333333333334,4517.948717948719,4432.820512820514,4232.820512820514,4538.461538461539,4470.256410256411,4623.589743589744,4189.74358974359,4785.641025641026,4618.461538461539,4340.512820512821,4241.538461538462,4589.2307692307695
3697.2085,0.37283805,0.5310676,0.33333334,0.5522388,0,0.0,0.22031835,0.0,0.0,0.0,0,0,0.0,0.0,0,0,67.0,0.0,356.0,4616.923076923077,3935.3846153846157,4461.538461538462,4432.307692307693,4239.48717948718,4546.153846153847,4441.025641025642,3900.0000000000005,3898.461538461539,4050.7692307692314,4040.5128205128212,4223.076923076924,3906.1538461538466,4521.538461538462
3697.4275,0.37283805,0.5310676,0.33333334,0.5522388,0,0.0,0.0,0.0,0.005430662,0.0,0,0,0.0,0.0,0,0,95.0,0.0,394.0,4625.128205128206,3938.461538461539,4458.461538461539,4435.384615384616,4252.820512820514,4561.538461538462,4440.000000000001,4046.666666666667,3992.820512820513,4231.794871794872,4084.1025641025644,4243.589743589744,3969.7435897435903,4465.128205128206
3697.709,0.34598064,0.5310676,0.33333334,0.5522388,0,0.0,0.0,0.0,0.010819884,0.0,0,0,0.0,0.0,0,0,2.0,0.0,396.0,4603.076923076924,3944.615384615385,4447.179487179487,4443.076923076924,4267.6923076923085,4573.333333333334,4424.102564102564,3931.7948717948725,4036.410256410257,4125.128205128206,4167.6923076923085,4252.820512820514,3993.8461538461543,4484.102564102564
3697.928,0.34598064,0.5310676,0.33333334,0.5522388,0,0.0,0.0,0.0,0.0040740585,0.0,0,0,0.0,0.0,0,0,30.0,0.0,0.0,4556.410256410257,3942.564102564103,4424.615384615385,4441.025641025642,4268.717948717949,4575.384615384616,4412.820512820514,3869.7435897435903,4007.692307692308,4026.666666666667,3960.0000000000005,4215.384615384616,3964.1025641025644,4439.48717948718
3698.2095,0.34744138,0.5310676,0.33333334,0.5522388,0,0.0,0.0,0.0,0.0060292943,0.0,0,0,0.0,0.0,0,0,66.0,0.0,370.0,4618.974358974359,3944.615384615385,4452.820512820514,4445.128205128206,4266.153846153847,4571.794871794872,4420.512820512821,4072.820512820513,4212.820512820514,4221.538461538462,4358.461538461539,4294.358974358975,4163.589743589744,4494.358974358975
3698.4285,0.34744138,0.5310676,0.33333334,0.5522388,0,0.0,0.0,0.0,0.0064765406,0.0,0,0,0.0,0.0,0,0,94.0,0.0,8033.0,4680.000000000001,3948.205128205129,4509.2307692307695,4444.102564102564,4264.102564102564,4564.102564102564,4444.615384615385,4618.974358974359,4494.358974358975,4849.743589743591,4863.076923076924,4399.48717948718,4475.384615384616,4567.6923076923085
3698.71,0.34372368,0.5310676,0.33333334,0.5522388,0,0.0,0.0,0.0,0.006650562,0.0,0,0,0.0,0.0,0,0,1.0,0.0,263.0,4812.307692307693,3957.9487179487182,4580.000000000001,4447.6923076923085,4257.948717948719,4561.538461538462,4482.564102564103,5281.025641025642,4730.769230769231,5504.615384615386,5430.256410256411,4536.410256410257,4783.589743589744,4693.333333333334
3698.9287,0.34372368,0.5310676,0.33333334,0.5522388,0,0.0,0.0,0.0,0.004954838,0.0,0,0,0.0,0.0,0,0,29.0,0.0,0.0,4789.2307692307695,3953.8461538461543,4564.615384615385,4447.6923076923085,4253.333333333334,4560.000000000001,4483.076923076924,5148.717948717949,4590.256410256411,5367.179487179488,5373.846153846154,4510.769230769231,4698.974358974359,4721.025641025642
3699.2102,0.37675315,0.5310676,0.33333334,0.5522388,0,0.0,0.0,0.0,0.017667254,0.0,0,0,0.0,0.0,0,0,65.0,0.0,263.0,4697.948717948719,3947.1794871794878,4515.384615384616,4446.153846153847,4258.461538461539,4558.461538461539,4476.923076923077,4504.615384615385,4176.923076923077,4686.153846153847,4856.410256410257,4389.2307692307695,4253.333333333334,4673.846153846154
3699.4292,0.37675315,0.5310676,0.33333334,0.5522388,0,0.0,0.0,0.0,0.010675162,0.0,0,0,0.0,0.0,0,0,93.0,0.0,1098.0,4578.461538461539,3933.8461538461543,4421.538461538462,4430.769230769231,4260.000000000001,4556.410256410257,4428.205128205129,3651.794871794872,3732.307692307693,3774.358974358975,3872.307692307693,4183.589743589744,3733.8461538461543,4566.666666666667
3699.7107,0.3938628,0.5310676,0.33333334,0.5522388,0,0.0,0.0,0.0,0.008806591,0.0,0,0,0.0,0.0,0,0,0.0,0.0,412.0,4525.128205128206,3935.3846153846157,4370.769230769231,4438.461538461539,4275.384615384616,4575.384615384616,4395.8974358974365,3394.8717948717954,3693.8461538461543,3502.564102564103,3582.564102564103,4134.871794871796,3612.820512820513,4506.153846153847
3699.9297,0.3938628,0.5310676,0.33333334,0.5522388,0,0.0,0.0,0.0,0.009743968,0.0,0,0,0.0,0.0,0,0,28.0,0.0,0.0,4525.128205128206,3933.8461538461543,4406.666666666667,4434.871794871796,4280.000000000001,4576.410256410257,4394.871794871796,3580.0000000000005,3877.9487179487182,3732.820512820513,3789.7435897435903,4180.512820512821,3773.8461538461543,4508.205128205129
3700.2112,0.35518408,0.5310676,0.33333334,0.5522388,0,0.0,0.0,0.0,0.011597166,0.0,0,0,0.0,0.0,0,0,64.0,0.0,423.0,4548.205128205129,3929.2307692307695,4423.589743589744,4433.333333333334,4269.74358974359,4562.564102564103,4397.435897435898,3572.307692307693,3925.6410256410263,3740.0000000000005,3857.435897435898,4194.871794871796,3828.205128205129,4501.538461538462
3700.4302,0.35518408,0.5310676,0.33333334,0.5522388,0,0.0,0.0,0.0,0.010042462,0.0,0,0,0.0,0.0,0,0,92.0,0.0,3122.0,4642.564102564103,3935.3846153846157,4489.2307692307695,4440.512820512821,4275.8974358974365,4573.333333333334,4438.974358974359,4260.000000000001,4340.512820512821,4481.538461538462,4613.846153846154,4340.000000000001,4287.179487179487,4568.717948717949
3700.7117,0.34478423,0.5310676,0.33333334,0.5522388,0,0.0,0.0,0.0,0.008527974,0.0,0,0,0.0,0.0,0,0,128.0,0.0,3122.0,4598.974358974359,3941.0256410256416,4460.512820512821,4442.564102564103,4276.923076923077,4573.333333333334,4435.384615384616,3929.7435897435903,4118.974358974359,4154.871794871796,4223.589743589744,4269.2307692307695,4065.1282051282055,4499.48717948718
3700.9304,0.34478423,0.5310676,0.33333334,0.5522388,0,0.0,0.0,0.0,0.0058324668,0.0,0,0,0.0,0.0,0,0,27.0,0.0,0.0,4585.641025641026,3935.8974358974365,4469.743589743591,4427.6923076923085,4267.6923076923085,4563.589743589744,4448.717948717949,3870.7692307692314,4112.307692307693,4074.8717948717954,4214.358974358975,4265.128205128206,4048.717948717949,4483.076923076924
3701.212,0.3444225,0.5310676,0.33333334,0.5522388,0,0.0,0.0,0.0,0.008272331,0.0,0,0,0.0,0.0,0,0,63.0,0.0,0.0,4706.666666666667,3941.0256410256416,4546.666666666667,4440.512820512821,4273.846153846154,4570.769230769231,4489.2307692307695,4820.000000000001,4467.179487179487,4971.282051282052,4956.923076923077,4417.948717948719,4480.000000000001,4583.076923076924
3701.431,0.3444225,0.5310676,0.33333334,0.5522388,0,0.0,0.0,0.0,0.006591742,0.0,0,0,0.0,0.0,0,0,91.0,0.0,367.0,4715.8974358974365,3943.076923076924,4551.794871794872,4441.025641025642,4270.256410256411,4563.589743589744,4505.641025641026,4744.615384615386,4425.128205128206,4915.8974358974365,4943.076923076924,4411.282051282052,4420.512820512821,4582.051282051282
3701.7124,0.361179,0.5310676,0.33333334,0.5522388,0,0.0,0.0,0.0,0.007823322,0.0,0,0,0.0,0.0,0,0,127.0,0.0,367.0,4606.153846153847,3934.358974358975,4478.461538461539,4425.641025641026,4265.128205128206,4560.000000000001,4463.589743589744,3905.6410256410263,3976.410256410257,4107.179487179487,4113.846153846154,4245.128205128206,3949.7435897435903,4472.307692307693
3701.9314,0.361179,0.5310676,0.33333334,0.5522388,0,0.0,0.0,0.0,0.0063102655,0.0,0,0,0.0,0.0,0,0,26.0,0.0,0.0,4703.076923076924,3945.1282051282055,4531.282051282052,4437.435897435898,4275.384615384616,4572.820512820514,4491.282051282052,4556.923076923077,4292.307692307693,4733.846153846154,4769.2307692307695,4377.435897435898,4301.538461538462,4549.2307692307695
3702.213,0.36193153,0.5310676,0.33333334,0.5522388,0,0.0,0.0,0.0,0.0063702567,0.0,0,0,0.0,0.0,0,0,62.0,0.0,0.0,4637.435897435898,3944.615384615385,4485.641025641026,4442.051282051282,4264.102564102564,4560.512820512821,4472.307692307693,4104.615384615385,4040.0000000000005,4290.769230769231,4247.179487179487,4272.307692307693,4016.410256410257,4492.307692307693
3702.432,0.36193153,0.5310676,0.33333334,0.5522388,0,0.0,0.0,0.0,0.006706908,0.0,0,0,0.0,0.0,0,0,90.0,0.0,8033.0,4649.743589743591,3942.0512820512827,4481.538461538462,4441.025641025642,4257.435897435898,4558.974358974359,4463.589743589744,3849.7435897435903,4003.076923076924,4029.7435897435903,4120.000000000001,4244.615384615385,3965.6410256410263,4428.717948717949
3702.7134,0.33446386,0.5310676,0.33333334,0.5522388,0,0.0,0.0,0.0,0.011945377,0.0,0,0,0.0,0.0,0,0,126.0,0.0,8033.0,4632.307692307693,3950.2564102564106,4495.384615384616,4447.179487179487,4316.923076923077,4536.410256410257,4478.461538461539,4209.2307692307695,4121.025641025642,4390.256410256411,4229.74358974359,4278.461538461539,4093.8461538461543,4392.307692307693
3702.9321,0.33446386,0.5310676,0.33333334,0.5522388,0,0.0,0.0,0.0,0.0044256663,0.0,0,0,0.0,0.0,0,0,25.0,0.0,0.0,4632.307692307693,3947.1794871794878,4497.435897435898,4440.512820512821,4233.846153846154,4542.051282051282,4483.076923076924,4010.2564102564106,4094.358974358975,4224.615384615385,4267.6923076923085,4274.871794871796,4041.538461538462,4488.205128205129
3703.2136,0.2808884,0.5310676,0.33333334,0.5522388,0,0.0,0.0,0.0,0.0053962045,0.0,0,0,0.0,0.0,0,0,61.0,0.0,0.0,4636.410256410257,3958.9743589743593,4479.48717948718,4450.256410256411,4249.74358974359,4562.564102564103,4459.48717948718,4256.923076923077,4131.794871794872,4413.846153846154,4262.564102564103,4281.025641025642,4098.974358974359,4466.153846153847
3703.4326,0.2808884,0.5310676,0.33333334,0.5522388,0,0.0,0.0,0.0,0.0068188603,0.0,0,0,0.0,0.0,0,0,89.0,0.0,1040.0,4597.948717948719,3944.1025641025644,4449.743589743591,4437.948717948719,4240.000000000001,4555.8974358974365,4445.128205128206,3732.820512820513,3958.461538461539,3903.076923076924,3936.410256410257,4214.358974358975,3911.2820512820517,4438.974358974359
3703.714,0.26953936,0.5310676,0.33333334,0.5522388,0,0.0,0.0,0.0,0.0054990686,0.0,0,0,0.0,0.0,0,1,125.0,0.0,1040.0,4691.794871794872,3944.1025641025644,4496.923076923077,4436.410256410257,4244.102564102564,4554.871794871796,4467.6923076923085,4464.102564102564,4277.435897435898,4599.48717948718,4424.615384615385,4317.948717948719,4253.846153846154,4481.538461538462
3703.933,0.26953936,0.5310676,0.33333334,0.5522388,0,0.0,0.0,0.0,0.0056729857,0.0,0,0,0.0,0.0,0,0,24.0,0.0,0.0,4715.8974358974365,3942.564102564103,4522.564102564103,4434.358974358975,4234.358974358975,4542.564102564103,4476.410256410257,4524.102564102564,4261.025641025642,4700.000000000001,4613.333333333334,4349.2307692307695,4268.717948717949,4548.205128205129
3704.2146,0.25003093,0.5310676,0.33333334,0.5522388,0,0.0,0.0,0.0,0.013456561,0.0,0,0,0.0,0.0,0,0,60.0,0.0,0.0,4610.256410256411,3941.0256410256416,4370.769230769231,4433.333333333334,4250.769230769231,4557.435897435898,4454.358974358975,1484.6153846153848,2254.8717948717954,1596.9230769230771,1656.4102564102566,3670.2564102564106,1926.666666666667,3036.410256410257
3704.4336,0.25003093,0.5310676,0.33333334,0.5522388,0,0.0,0.0,0.0,0.01780339,0.0,0,0,0.0,0.0,0,0,88.0,0.0,2911.0,4633.333333333334,3949.7435897435903,4443.589743589744,4432.307692307693,4268.717948717949,4570.256410256411,4451.794871794872,2967.1794871794878,3704.1025641025644,3111.794871794872,2891.2820512820517,4022.0512820512827,3490.7692307692314,3676.9230769230776
3704.715,0.43002725,0.5310676,0.33333334,0.5522388,0,0.0,0.0,0.0,0.016592715,0.0,0,0,0.0,0.0,0,1,124.0,0.0,2911.0,4619.48717948718,3937.9487179487182,4489.743589743591,4420.000000000001,4252.820512820514,4553.846153846154,4450.256410256411,4491.282051282052,4477.435897435898,4670.256410256411,4397.948717948719,4325.641025641026,4363.589743589744,4354.358974358975
3704.9338,0.43002725,0.5310676,0.33333334,0.5522388,0,0.0,0.0,0.0,0.0090614585,0.0,0,0,0.0,0.0,0,0,23.0,0.0,0.0,4654.871794871796,3936.410256410257,4499.48717948718,4418.461538461539,4253.846153846154,4555.8974358974365,4462.051282051282,4564.102564102564,4511.282051282052,4782.564102564103,4558.974358974359,4360.512820512821,4437.435897435898,4384.102564102564
3705.2153,0.36827618,0.5310676,0.33333334,0.5522388,0,0.0,0.0,0.0,0.006632863,0.0,0,0,0.0,0.0,0,0,59.0,0.0,0.0,4665.641025641026,3936.410256410257,4514.871794871796,4417.435897435898,4254.871794871796,4553.846153846154,4461.538461538462,4667.179487179488,4491.282051282052,4826.153846153847,4619.48717948718,4370.769230769231,4437.948717948719,4420.000000000001
3705.4343,0.36827618,0.5310676,0.33333334,0.5522388,0,0.0,0.0,0.0,0.010981508,0.0,0,0,0.0,0.0,0,0,87.0,0.0,384.0,4625.641025641026,3927.1794871794878,4493.846153846154,4406.153846153847,4242.564102564103,4544.102564102564,4457.435897435898,4378.461538461539,4260.512820512821,4565.641025641026,4290.256410256411,4311.794871794872,4242.564102564103,4408.205128205129
3705.7158,0.3086643,0.5310676,0.33333334,0.5522388,0,0.0,0.0,0.0,0.005972756,0.0,0,0,0.0,0.0,0,0,123.0,0.0,384.0,4630.769230769231,3927.1794871794878,4484.102564102564,4398.974358974359,4242.051282051282,4545.128205128206,4447.179487179487,4417.435897435898,4258.974358974359,4565.128205128206,4229.74358974359,4298.461538461539,4254.358974358975,4436.923076923077
3705.9348,0.3086643,0.5310676,0.33333334,0.5522388,0,0.0,0.0,0.0,0.0074358317,0.0,0,0,0.0,0.0,0,0,22.0,0.0,0.0,4598.461538461539,3921.0256410256416,4456.923076923077,4395.384615384616,4235.8974358974365,4537.435897435898,4419.48717948718,4209.74358974359,4089.23076923077,4352.820512820514,4028.205128205129,4260.000000000001,4095.3846153846157,4432.820512820514
3706.2163,0.28497982,0.5310676,0.33333334,0.5522388,0,0.0,0.0,0.0,0.007629479,0.0,0,0,0.0,0.0,0,0,58.0,0.0,0.0,4621.025641025642,3936.410256410257,4480.512820512821,4404.615384615385,4244.615384615385,4548.205128205129,4423.076923076924,4613.333333333334,4435.384615384616,4767.6923076923085,4478.974358974359,4343.076923076924,4405.641025641026,4540.512820512821
3706.4353,0.28497982,0.5310676,0.33333334,0.5522388,0,0.0,0.0,0.0,0.008971222,0.0,0,0,0.0,0.0,0,1,86.0,0.0,8033.0,4568.717948717949,3934.8717948717954,4460.000000000001,4403.589743589744,4237.435897435898,4535.384615384616,4411.282051282052,4604.615384615385,4369.743589743591,4773.333333333334,4544.102564102564,4352.307692307693,4367.179487179487,4684.615384615386
3706.7168,0.33466485,0.5310676,0.33333334,0.5522388,0,0.0,0.0,0.0,0.012914738,0.0,0,0,0.0,0.0,0,0,122.0,0.0,8033.0,4539.48717948718,3943.589743589744,4449.2307692307695,4413.333333333334,4244.615384615385,4547.179487179488,4401.025641025642,4478.974358974359,4286.153846153847,4631.794871794872,4367.6923076923085,4309.743589743591,4265.128205128206,4623.589743589744
3706.9355,0.33466485,0.5310676,0.33333334,0.5522388,0,0.0,0.22546738,0.0,0.0,0.0,0,0,0.0,0.0,0,0,21.0,0.0,0.0,4546.666666666667,3935.8974358974365,4436.410256410257,4401.538461538462,4240.000000000001,4538.461538461539,4397.435897435898,4333.333333333334,4130.256410256411,4489.2307692307695,4151.282051282052,4271.794871794872,4154.871794871796,4566.666666666667
3707.217,0.3524898,0.5310676,0.33333334,0.5522388,0,0.0,0.0,0.0,0.0140654165,0.0,0,0,0.0,0.0,0,0,57.0,0.0,0.0,4518.461538461539,3956.9230769230776,4416.410256410257,4467.179487179487,4286.666666666667,4584.615384615385,4386.666666666667,4384.615384615385,4230.256410256411,4548.717948717949,4245.641025641026,4282.051282051282,4187.6923076923085,4504.102564102564
3707.436,0.3524898,0.5310676,0.33333334,0.5522388,0,0.0,0.0,0.0,0.009311889,0.0,0,0,0.0,0.0,0,0,85.0,0.0,1036.0,4449.743589743591,3933.333333333334,4347.179487179487,4444.615384615385,4263.589743589744,4562.051282051282,4348.205128205129,3616.9230769230776,3816.410256410257,3832.307692307693,3456.9230769230776,4136.923076923077,3736.9230769230776,4407.6923076923085
3707.7175,0.4391017,0.5310676,0.33333334,0.5522388,0,0.0,0.0,0.0,0.012727248,0.0,0,0,0.0,0.0,0,0,121.0,0.0,1036.0,4490.256410256411,3932.820512820513,4387.6923076923085,4437.948717948719,4247.179487179487,4547.6923076923085,4381.025641025642,3936.410256410257,4108.717948717949,4177.435897435898,3778.461538461539,4202.051282051282,4019.48717948718,4427.6923076923085
3707.9365,0.4391017,0.5310676,0.33333334,0.5522388,0,0.0,0.0,0.0,0.01047825,0.0,0,0,0.0,0.0,0,0,20.0,0.0,0.0,4560.000000000001,3928.717948717949,4410.769230769231,4427.6923076923085,4247.179487179487,4545.641025641026,4382.564102564103,4308.205128205129,4306.153846153847,4483.589743589744,4105.641025641026,4265.641025641026,4210.256410256411,4457.948717948719
3708.218,0.4765629,0.5310676,0.33333334,0.5522388,0,0.0,0.0,0.0,0.008132258,0.0,0,0,0.0,0.0,0,0,56.0,0.0,0.0,4617.435897435898,3930.7692307692314,4467.6923076923085,4433.333333333334,4246.153846153847,4546.666666666667,4413.333333333334,4752.820512820514,4573.333333333334,4984.102564102564,4729.743589743591,4378.974358974359,4575.8974358974365,4575.384615384616
3708.437,0.4765629,0.5310676,0.33333334,0.5522388,0,0.0,0.0,0.0,0.007056051,0.0,0,0,0.0,0.0,0,0,84.0,0.0,3039.0,4615.8974358974365,3934.8717948717954,4470.769230769231,4436.923076923077,4243.076923076924,4544.615384615385,4413.333333333334,4746.153846153847,4486.153846153847,4940.512820512821,4703.589743589744,4370.769230769231,4497.435897435898,4575.8974358974365
3708.7185,0.48395368,0.5310676,0.33333334,0.5522388,0,0.0,0.0,0.0,0.008876535,0.0,0,0,0.0,0.0,0,0,120.0,0.0,3039.0,4610.256410256411,3937.9487179487182,4456.410256410257,4435.8974358974365,4239.48717948718,4538.974358974359,4416.410256410257,4483.076923076924,4311.282051282052,4736.410256410257,4508.717948717949,4332.307692307693,4312.820512820514,4557.948717948719
3708.9375,0.48395368,0.5310676,0.33333334,0.5522388,0,0.0,0.13300607,0.0,0.0,0.0,0,0,0.0,0.0,0,0,19.0,0.0,0.0,4653.333333333334,3951.7948717948725,4484.102564102564,4452.820512820514,4249.74358974359,4553.333333333334,4435.384615384616,4832.820512820514,4470.256410256411,5049.743589743591,4867.179487179488,4399.48717948718,4521.538461538462,4563.589743589744
3709.219,0.4756105,0.5310676,0.33333334,0.5522388,0,0.0,0.12686841,0.0,0.0,0.0,0,0,0.0,0.0,0,0,55.0,0.0,0.0,4649.2307692307695,3952.820512820513,4486.666666666667,4449.2307692307695,4242.051282051282,4545.641025641026,4440.000000000001,4644.102564102564,4360.512820512821,4898.974358974359,4722.051282051282,4365.641025641026,4369.2307692307695,4560.512820512821
3709.4377,0.4756105,0.5310676,0.33333334,0.5522388,0,0.0,0.0,0.0,0.0071923626,0.0,0,0,0.0,0.0,0,0,83.0,0.0,373.0,4621.538461538462,3946.666666666667,4470.256410256411,4448.205128205129,4240.512820512821,4543.589743589744,4433.333333333334,4548.717948717949,4288.205128205129,4721.025641025642,4510.769230769231,4321.538461538462,4280.000000000001,4549.743589743591
3709.7192,0.45856982,0.5310676,0.33333334,0.5522388,0,0.0,0.0,0.0,0.004725499,0.0,0,0,0.0,0.0,0,0,119.0,0.0,373.0,4657.435897435898,3951.7948717948725,4481.025641025642,4453.846153846154,4245.641025641026,4551.794871794872,4440.000000000001,4492.820512820514,4257.948717948719,4757.948717948719,4593.333333333334,4346.666666666667,4289.2307692307695,4533.846153846154
3709.9382,0.45856982,0.5310676,0.33333334,0.5522388,0,0.0,0.0,0.0,0.005301268,0.0,0,0,0.0,0.0,0,0,18.0,0.0,0.0,4675.384615384616,3951.7948717948725,4509.743589743591,4451.282051282052,4245.641025641026,4546.666666666667,4450.256410256411,4761.025641025642,4422.051282051282,4958.974358974359,4805.128205128206,4383.076923076924,4431.282051282052,4573.846153846154
3710.2197,0.44876426,0.5310676,0.33333334,0.5522388,0,0.0,0.0,0.0,0.004482458,0.0,0,0,0.0,0.0,0,0,54.0,0.0,0.0,4627.179487179488,3946.1538461538466,4481.025641025642,4454.871794871796,4247.179487179487,4546.666666666667,4442.051282051282,4308.717948717949,4151.794871794872,4567.6923076923085,4451.282051282052,4316.923076923077,4153.333333333334,4526.153846153847
3710.4387,0.44876426,0.5310676,0.33333334,0.5522388,0,0.0,0.0,0.0,0.004746689,0.0,0,0,0.0,0.0,0,0,82.0,0.0,8033.0,4624.102564102564,3943.076923076924,4477.948717948719,4453.846153846154,4245.128205128206,4544.615384615385,4439.48717948718,4368.717948717949,4174.358974358975,4566.153846153847,4388.205128205129,4300.512820512821,4169.2307692307695,4534.358974358975
3710.7202,0.42130637,0.5310676,0.33333334,0.5522388,0,0.0,0.0,0.0,0.005260875,0.0,0,0,0.0,0.0,0,0,118.0,0.0,8033.0,4666.666666666667,3951.7948717948725,4498.974358974359,4464.102564102564,4258.974358974359,4556.410256410257,4446.666666666667,4536.923076923077,4275.384615384616,4794.871794871796,4712.820512820514,4363.589743589744,4287.179487179487,4547.6923076923085
3710.9392,0.42130637,0.5310676,0.33333334,0.5522388,0,0.0,0.0,0.0,0.0057379613,0.0,0,0,0.0,0.0,0,0,17.0,0.0,0.0,4680.512820512821,3947.1794871794878,4502.051282051282,4462.051282051282,4246.666666666667,4546.153846153847,4447.179487179487,4567.179487179488,4308.717948717949,4798.461538461539,4684.102564102564,4355.384615384616,4305.641025641026,4566.666666666667
3711.2207,0.36820593,0.5310676,0.33333334,0.5522388,0,0.0,0.0,0.0,0.0047315857,0.0,0,0,0.0,0.0,0,0,53.0,0.0,0.0,4638.974358974359,3944.1025641025644,4496.923076923077,4457.948717948719,4244.102564102564,4546.153846153847,4457.948717948719,4253.846153846154,4141.025641025642,4538.461538461539,4505.128205128206,4321.025641025642,4126.153846153847,4543.076923076924
3711.4395,0.36820593,0.5310676,0.33333334,0.5522388,0,0.0,0.0,0.0,0.005000325,0.0,0,0,0.0,0.0,0,0,81.0,0.0,1043.0,4688.717948717949,3949.2307692307695,4509.743589743591,4464.102564102564,4260.000000000001,4560.512820512821,4469.2307692307695,4576.410256410257,4291.794871794872,4818.974358974359,4722.051282051282,4363.589743589744,4295.8974358974365,4537.435897435898
3711.721,0.34299728,0.5310676,0.33333334,0.5522388,0,0.0,0.0,0.0,0.004599718,0.0,0,0,0.0,0.0,0,0,117.0,0.0,1043.0,4658.461538461539,3937.9487179487182,4478.974358974359,4454.358974358975,4256.410256410257,4550.256410256411,4445.128205128206,4117.948717948719,4069.7435897435903,4417.948717948719,4445.641025641026,4308.205128205129,4045.6410256410263,4524.615384615385
3711.94,0.34299728,0.5310676,0.33333334,0.5522388,0,0.0,0.0,0.0,0.0077283042,0.0,0,0,0.0,0.0,0,0,16.0,0.0,0.0,4623.076923076924,3934.358974358975,4476.923076923077,4450.769230769231,4255.384615384616,4552.307692307693,4448.205128205129,4075.3846153846157,4058.461538461539,4313.846153846154,4224.615384615385,4264.102564102564,4019.48717948718,4500.000000000001
3712.2214,0.3278639,0.5310676,0.33333334,0.5522388,0,0.0,0.0,0.0,0.003930664,0.0,0,0,0.0,0.0,0,0,52.0,0.0,0.0,4624.102564102564,3937.9487179487182,4478.974358974359,4455.8974358974365,4273.846153846154,4567.179487179488,4442.564102564103,3966.1538461538466,4094.8717948717954,4276.410256410257,4320.512820512821,4288.205128205129,4038.461538461539,4501.025641025642
3712.4404,0.3278639,0.5310676,0.33333334,0.5522388,0,0.0,0.0,0.0,0.00446259,0.0,0,0,0.0,0.0,0,0,80.0,0.0,3022.0,4624.102564102564,3930.2564102564106,4462.051282051282,4448.205128205129,4264.102564102564,4564.102564102564,4430.256410256411,3985.1282051282055,4085.1282051282055,4256.410256410257,4188.205128205129,4263.589743589744,4021.0256410256416,4473.846153846154
3712.722,0.2851562,0.5310676,0.33333334,0.5522388,0,0.0,0.0,0.0,0.003950695,0.0,0,0,0.0,0.0,0,0,116.0,0.0,3022.0,4626.666666666667,3924.1025641025644,4464.102564102564,4440.512820512821,4265.128205128206,4561.025641025642,4426.666666666667,3822.564102564103,4031.2820512820517,4115.384615384616,4184.615384615385,4261.025641025642,3969.2307692307695,4467.179487179487
3712.941,0.2851562,0.5310676,0.33333334,0.5522388,0,0.0,0.0,0.0,0.005390587,0.0,0,0,0.0,0.0,0,0,15.0,0.0,374.0,4588.717948717949,3920.0000000000005,4452.820512820514,4435.384615384616,4257.948717948719,4552.820512820514,4427.179487179487,3736.410256410257,4040.5128205128212,4022.0512820512827,3986.1538461538466,4226.666666666667,3940.5128205128212,4464.615384615385
3713.2224,0.300411,0.5310676,0.33333334,0.5522388,0,0.0,0.0,0.0,0.006114839,0.0,0,0,0.0,0.0,0,0,51.0,0.0,0.0,4637.948717948719,3934.8717948717954,4476.923076923077,4443.076923076924,4272.820512820514,4570.769230769231,4427.179487179487,4007.692307692308,4212.307692307693,4342.564102564103,4381.538461538462,4308.205128205129,4128.717948717949,4475.384615384616
3713.4412,0.300411,0.5310676,0.33333334,0.5522388,0,0.0,0.0,0.0,0.006235209,0.0,0,0,0.0,0.0,0,0,79.0,0.0,374.0,4631.794871794872,3934.358974358975,4473.333333333334,4444.102564102564,4263.589743589744,4564.615384615385,4425.128205128206,4064.615384615385,4199.48717948718,4381.025641025642,4308.205128205129,4292.307692307693,4125.128205128206,4493.846153846154
3713.7227,0.26012778,0.5310676,0.33333334,0.5522388,0,0.0,0.0,0.0,0.0038175427,0.0,0,0,0.0,0.0,0,0,115.0,0.0,374.0,4627.179487179488,3931.7948717948725,4471.794871794872,4445.128205128206,4257.435897435898,4554.358974358975,4428.717948717949,3975.3846153846157,4180.512820512821,4260.512820512821,4292.307692307693,4284.102564102564,4099.48717948718,4489.743589743591
3713.9417,0.26012778,0.5310676,0.33333334,0.5522388,0,0.0,0.0,0.0,0.0035766712,0.0,0,0,0.0,0.0,0,0,14.0,0.0,8033.0,4621.538461538462,3933.8461538461543,4478.974358974359,4446.666666666667,4254.871794871796,4554.358974358975,4430.256410256411,4033.333333333334,4163.076923076924,4349.2307692307695,4318.974358974359,4289.74358974359,4109.2307692307695,4498.461538461539
3714.2231,0.19313408,0.5310676,0.33333334,0.5522388,0,0.0,0.0,0.0,0.004000585,0.0,0,0,0.0,0.0,0,0,50.0,0.0,0.0,4616.410256410257,3936.9230769230776,4474.358974358975,4451.282051282052,4266.153846153847,4564.615384615385,4426.666666666667,3984.1025641025644,4180.000000000001,4253.846153846154,4304.102564102564,4285.128205128206,4101.538461538462,4480.000000000001
3714.4421,0.19313408,0.5310676,0.33333334,0.5522388,0,0.0,0.0,0.0,0.0041611097,0.0,0,0,0.0,0.0,0,0,78.0,0.0,8033.0,4596.923076923077,3934.358974358975,4471.794871794872,4452.307692307693,4265.128205128206,4567.179487179488,4424.615384615385,3896.410256410257,4112.307692307693,4209.74358974359,4228.717948717949,4270.256410256411,4054.8717948717954,4471.794871794872
3714.7236,0.14694068,0.5310676,0.33333334,0.5522388,0,0.0,0.0,0.0,0.003781659,0.0,0,0,0.0,0.0,0,0,114.0,0.0,8033.0,4611.794871794872,3935.8974358974365,4481.025641025642,4454.871794871796,4266.666666666667,4565.641025641026,4435.384615384616,4045.1282051282055,4194.871794871796,4294.871794871796,4351.282051282052,4295.384615384616,4136.410256410257,4472.820512820514
3714.9426,0.14694068,0.5310676,0.33333334,0.5522388,0,0.0,0.0,0.0,0.0052626957,0.0,0,0,0.0,0.0,0,0,13.0,0.0,1030.0,4658.461538461539,3938.461538461539,4509.743589743591,4453.333333333334,4271.794871794872,4567.179487179488,4441.538461538462,4342.051282051282,4341.025641025642,4670.256410256411,4602.564102564103,4353.333333333334,4318.461538461539,4502.564102564103
3715.224,0.1764761,0.5310676,0.33333334,0.5522388,0,0.0,0.0,0.0,0.008299538,0.0,0,0,0.0,0.0,0,0,49.0,0.0,0.0,4765.128205128206,3945.1282051282055,4586.153846153847,4453.846153846154,4265.641025641026,4557.948717948719,4491.794871794872,5154.358974358975,4671.794871794872,5401.538461538462,5301.538461538462,4498.461538461539,4698.461538461539,4628.205128205129
3715.4429,0.1764761,0.5310676,0.33333334,0.5522388,0,0.0,0.0,0.0,0.0072559784,0.0,0,0,0.0,0.0,0,0,77.0,0.0,1058.0,4765.128205128206,3939.48717948718,4566.666666666667,4449.743589743591,4260.512820512821,4558.461538461539,4498.461538461539,4959.48717948718,4446.666666666667,5196.410256410257,5125.641025641026,4454.871794871796,4514.871794871796,4607.6923076923085
3715.7244,0.2894288,0.5310676,0.33333334,0.5522388,0,0.1038555,0.0,0.0,0.0,0.0,0,0,0.0,0.0,0,0,113.0,0.0,1058.0,4732.307692307693,3938.461538461539,4525.128205128206,4446.153846153847,4263.589743589744,4557.435897435898,4484.615384615385,4417.948717948719,4144.102564102564,4628.717948717949,4751.794871794872,4364.615384615385,4217.435897435898,4562.564102564103
3715.9434,0.2894288,0.5310676,0.33333334,0.5522388,0,0.0,0.0,0.0,0.01065509,0.0,0,0,0.0,0.0,0,0,12.0,0.0,3051.0,4683.076923076924,3933.333333333334,4473.333333333334,4442.051282051282,4258.974358974359,4553.846153846154,4448.717948717949,3944.615384615385,3935.8974358974365,4124.102564102564,4314.871794871796,4272.820512820514,3969.2307692307695,4525.128205128206
3716.2249,0.3083889,0.5310676,0.33333334,0.5522388,0,0.0,0.0,0.0,0.0065996465,0.0,0,0,0.0,0.0,0,0,48.0,0.0,0.0,4694.871794871796,3922.564102564103,4488.717948717949,4436.410256410257,4261.538461538462,4550.769230769231,4458.461538461539,4112.307692307693,3984.615384615385,4268.205128205129,4391.282051282052,4295.384615384616,4027.692307692308,4546.666666666667
3716.4438,0.3083889,0.5310676,0.33333334,0.5522388,0,0.0,0.0,0.0,0.007706001,0.0,0,0,0.0,0.0,0,0,76.0,0.0,3023.0,4745.128205128206,3918.9743589743593,4497.435897435898,4437.948717948719,4218.974358974359,4503.589743589744,4459.48717948718,4159.48717948718,4152.307692307693,4368.717948717949,4519.48717948718,4324.615384615385,4127.6923076923085,4651.282051282052
3716.7253,0.26194158,0.5310676,0.33333334,0.5522388,0,0.0,0.0,0.0,0.011144611,0.0,0,0,0.0,0.0,0,0,112.0,0.0,3023.0,4691.794871794872,3916.9230769230776,4472.820512820514,4430.256410256411,4222.564102564103,4507.179487179488,4449.2307692307695,3976.410256410257,3940.5128205128212,4137.948717948719,4168.717948717949,4260.000000000001,3919.48717948718,4586.153846153847
3716.9443,0.26194158,0.5310676,0.33333334,0.5522388,0,0.0,0.0,0.0,0.004375842,0.0,0,0,0.0,0.0,0,0,11.0,0.0,375.0,4621.025641025642,3921.0256410256416,4424.102564102564,4428.717948717949,4222.051282051282,4509.2307692307695,4419.48717948718,3398.9743589743593,3718.9743589743593,3565.1282051282055,3578.9743589743593,4151.794871794872,3615.3846153846157,4478.461538461539
3717.2258,0.23631223,0.5310676,0.33333334,0.5522388,0,0.0,0.0,0.0,0.0038050038,0.0,0,0,0.0,0.0,0,0,47.0,0.0,0.0,4488.205128205129,3926.1538461538466,4350.769230769231,4432.307692307693,4235.384615384616,4522.051282051282,4381.025641025642,2927.1794871794878,3530.2564102564106,3127.1794871794878,2956.923076923077,4041.538461538462,3395.3846153846157,4316.923076923077
3717.4446,0.23631223,0.5310676,0.33333334,0.5522388,0,0.0,0.0,0.0,0.0025758012,0.0,0,0,0.0,0.0,0,0,75.0,0.0,381.0,4430.256410256411,3914.8717948717954,4327.179487179487,4420.000000000001,4225.128205128206,4517.435897435898,4360.000000000001,2749.7435897435903,3435.3846153846157,2967.1794871794878,2737.9487179487182,4008.205128205129,3257.435897435898,4280.000000000001
3717.726,0.29116654,0.5310676,0.33333334,0.5522388,0,0.0,0.0,0.0,0.026224354,0.0,0,0,0.0,0.0,0,0,111.0,0.0,381.0,4475.384615384616,3928.717948717949,4376.923076923077,4436.410256410257,4249.2307692307695,4540.000000000001,4366.153846153847,3416.410256410257,4003.076923076924,3710.2564102564106,3392.307692307693,4156.410256410257,3801.0256410256416,4371.794871794872
3717.945,0.29116654,0.5310676,0.33333334,0.5522388,0,0.0,0.0,0.0,0.011652358,0.0,0,0,0.0,0.0,0,0,10.0,0.0,8033.0,4545.128205128206,3923.589743589744,4434.871794871796,4431.282051282052,4239.48717948718,4536.923076923077,4383.076923076924,3952.307692307693,4333.846153846154,4188.717948717949,4047.1794871794878,4273.846153846154,4206.666666666667,4470.769230769231
3718.2266,0.35810506,0.5310676,0.33333334,0.5522388,0,0.0,0.0,0.0,0.0076948274,0.0,0,0,0.0,0.0,0,0,46.0,0.0,0.0,4500.000000000001,3929.7435897435903,4408.717948717949,4435.8974358974365,4242.051282051282,4542.051282051282,4350.256410256411,4075.8974358974365,4278.974358974359,4307.6923076923085,3981.0256410256416,4264.102564102564,4182.564102564103,4508.717948717949
3718.4456,0.35810506,0.5310676,0.33333334,0.5522388,0,0.0,0.0,0.0,0.006900639,0.0,0,0,0.0,0.0,0,0,74.0,0.0,8033.0,4493.333333333334,3927.692307692308,4381.538461538462,4427.6923076923085,4246.666666666667,4543.589743589744,4338.461538461539,3909.7435897435903,4235.8974358974365,4137.435897435898,3928.717948717949,4248.717948717949,4158.974358974359,4554.871794871796
3718.727,0.33212957,0.5310676,0.33333334,0.5522388,0,0.0,0.0,0.0,0.008637353,0.0,0,0,0.0,0.0,0,0,110.0,0.0,8033.0,4299.48717948718,3928.717948717949,4256.923076923077,4429.743589743591,4264.102564102564,4560.512820512821,4258.461538461539,2962.564102564103,3721.538461538462,3235.8974358974365,2943.0769230769233,4043.076923076924,3549.7435897435903,4401.025641025642
3718.946,0.33212957,0.5310676,0.33333334,0.5522388,0,0.0,0.0,0.0,0.0070203436,0.0,0,0,0.0,0.0,0,0,9.0,0.0,4798.0,4276.410256410257,3930.2564102564106,4250.769230769231,4432.820512820514,4268.717948717949,4567.179487179488,4233.846153846154,2969.7435897435903,3797.435897435898,3272.820512820513,2894.3589743589746,4047.692307692308,3598.9743589743593,4405.641025641026
3719.2275,0.4632637,0.5310676,0.33333334,0.5522388,0,0.0,0.0,0.0,0.017512111,0.0,0,0,0.0,0.0,0,0,45.0,0.0,0.0,4286.666666666667,3928.205128205129,4263.076923076924,4433.846153846154,4273.333333333334,4572.307692307693,4223.076923076924,3276.923076923077,3990.2564102564106,3633.8461538461543,3198.461538461539,4108.717948717949,3849.7435897435903,4408.205128205129
3719.4465,0.4632637,0.5310676,0.33333334,0.5522388,0,0.0,0.0,0.0,0.0148245115,0.0,0,0,0.0,0.0,0,0,73.0,0.0,4947.0,4301.538461538462,3925.1282051282055,4288.205128205129,4434.871794871796,4270.769230769231,4565.128205128206,4233.333333333334,3482.0512820512827,4064.1025641025644,3788.717948717949,3317.9487179487182,4141.025641025642,3925.6410256410263,4409.2307692307695
3719.728,0.4420291,0.5310676,0.33333334,0.5522388,0,0.0,0.0,0.0,0.019867754,0.0,0,0,0.0,0.0,0,0,109.0,0.0,1025.0,4319.48717948718,3929.7435897435903,4307.179487179487,4436.923076923077,4264.615384615385,4563.589743589744,4241.025641025642,3629.2307692307695,4207.179487179487,4007.1794871794878,3418.9743589743593,4160.000000000001,4055.3846153846157,4374.358974358975
3719.9468,0.4420291,0.5310676,0.33333334,0.5522388,0,0.0,0.0,0.0,0.012535276,0.0,0,0,0.0,0.0,0,0,8.0,0.0,8033.0,4364.615384615385,3936.410256410257,4328.717948717949,4440.512820512821,4272.820512820514,4571.282051282052,4248.205128205129,3902.0512820512827,4266.153846153847,4183.076923076924,3710.2564102564106,4210.256410256411,4186.153846153847,4386.666666666667
3720.2283,0.52071184,0.5310676,0.33333334,0.5522388,0,0.0,0.0,0.0,0.005931487,0.0,0,0,0.0,0.0,0,0,44.0,0.0,0.0,4395.8974358974365,3934.358974358975,4355.384615384616,4438.974358974359,4265.128205128206,4562.564102564103,4263.076923076924,4178.974358974359,4387.179487179487,4492.820512820514,3870.7692307692314,4240.512820512821,4302.564102564103,4410.256410256411
3720.4473,0.52071184,0.5310676,0.33333334,0.5522388,0,0.0,0.0,0.0,0.004372413,0.0,0,0,0.0,0.0,0,0,72.0,0.0,8033.0,4367.179487179487,3929.7435897435903,4339.48717948718,4441.538461538462,4262.051282051282,4559.48717948718,4249.2307692307695,3920.0000000000005,4234.358974358975,4185.641025641026,3676.410256410257,4198.974358974359,4169.2307692307695,4378.461538461539
3720.7288,0.44433036,0.5310676,0.33333334,0.5522388,0,0.0,0.0,0.0,0.0043194843,0.0,0,0,0.0,0.0,0,0,108.0,0.0,2987.0,4403.076923076924,3931.2820512820517,4358.974358974359,4440.000000000001,4265.128205128206,4560.512820512821,4255.8974358974365,4236.410256410257,4346.153846153847,4562.564102564103,3841.538461538462,4231.282051282052,4289.74358974359,4374.358974358975
3720.9478,0.44433036,0.5310676,0.33333334,0.5522388,0,0.0,0.0,0.0,0.003946686,0.0,0,0,0.0,0.0,0,0,7.0,0.0,5372.0,4486.666666666667,3932.820512820513,4396.410256410257,4439.48717948718,4251.794871794872,4552.307692307693,4261.538461538462,4509.2307692307695,4513.846153846154,4768.717948717949,4247.179487179487,4304.615384615385,4501.025641025642,4472.820512820514
3721.2292,0.41850355,0.5310676,0.33333334,0.5522388,0,0.0,0.0,0.0,0.0044174483,0.0,0,0,0.0,0.0,0,1,43.0,0.0,0.0,4447.179487179487,3933.8461538461543,4397.948717948719,4443.076923076924,4249.2307692307695,4546.666666666667,4281.538461538462,4466.153846153847,4411.282051282052,4706.153846153847,4033.8461538461543,4263.076923076924,4393.333333333334,4390.769230769231
3721.4482,0.41850355,0.5310676,0.33333334,0.5522388,0,0.0,0.0,0.0,0.0054854555,0.0,0,0,0.0,0.0,0,0,71.0,0.0,5426.0,4496.923076923077,3943.589743589744,4415.384615384616,4445.128205128206,4257.948717948719,4557.435897435898,4304.615384615385,4663.589743589744,4506.153846153847,4868.717948717949,4384.102564102564,4318.974358974359,4525.128205128206,4411.282051282052
3721.7297,0.4223363,0.5310676,0.33333334,0.5522388,0,0.0,0.0,0.0,0.0060070967,0.0,0,0,0.0,0.0,0,0,107.0,0.0,387.0,4541.025641025642,3942.0512820512827,4437.435897435898,4441.025641025642,4241.025641025642,4546.153846153847,4327.179487179487,4823.589743589744,4554.871794871796,4940.000000000001,4475.384615384616,4328.205128205129,4555.384615384616,4442.564102564103
3721.9485,0.4223363,0.5310676,0.33333334,0.5522388,0,0.0,0.0,0.0,0.0041319695,0.0,0,0,0.0,0.0,0,0,6.0,0.0,213.0,4586.153846153847,3943.589743589744,4469.2307692307695,4444.102564102564,4245.128205128206,4547.179487179488,4355.8974358974365,4920.512820512821,4538.974358974359,5034.358974358975,4687.179487179488,4363.076923076924,4609.2307692307695,4451.794871794872
3722.23,0.38668644,0.5310676,0.33333334,0.5522388,0,0.0,0.0,0.0,0.0047435053,0.0,0,0,0.0,0.0,0,0,42.0,0.0,0.0,4624.102564102564,3936.410256410257,4485.128205128206,4440.512820512821,4239.48717948718,4541.025641025642,4383.076923076924,4992.307692307693,4606.666666666667,5108.205128205129,4786.666666666667,4375.8974358974365,4650.769230769231,4473.333333333334
3722.449,0.38668644,0.5310676,0.33333334,0.5522388,0,0.0,0.0,0.0,0.004570641,0.0,0,0,0.0,0.0,0,0,70.0,0.0,213.0,4620.512820512821,3933.333333333334,4473.846153846154,4435.8974358974365,4225.128205128206,4526.153846153847,4385.128205128206,4887.6923076923085,4420.000000000001,4990.769230769231,4678.461538461539,4354.871794871796,4509.743589743591,4500.512820512821
3722.7305,0.45483863,0.5310676,0.33333334,0.5522388,0,0.0,0.0,0.0,0.010127621,0.0,0,0,0.0,0.0,0,0,106.0,0.0,8033.0,4668.717948717949,3944.615384615385,4513.333333333334,4445.641025641026,4233.846153846154,4533.333333333334,4417.948717948719,5099.487179487181,4576.410256410257,5196.923076923077,4986.153846153847,4407.6923076923085,4649.743589743591,4549.743589743591
3722.9495,0.45483863,0.5310676,0.33333334,0.5522388,0,0.0,0.0,0.0,0.014050375,0.0,0,0,0.0,0.0,0,0,5.0,0.0,347.0,4672.820512820514,3941.0256410256416,4511.794871794872,4443.076923076924,4228.205128205129,4530.256410256411,4422.564102564103,5003.076923076924,4413.846153846154,5063.589743589744,4860.000000000001,4375.8974358974365,4520.512820512821,4538.974358974359
3723.231,0.52628434,0.5310676,0.33333334,0.5522388,0,0.0,0.0,0.0,0.015839254,0.0,0,0,0.0,0.0,0,0,41.0,0.0,0.0,4676.410256410257,3934.358974358975,4504.102564102564,4434.358974358975,4233.333333333334,4530.769230769231,4441.025641025642,4916.923076923077,4363.589743589744,4983.589743589744,4804.615384615386,4368.717948717949,4456.923076923077,4545.641025641026
3723.45,0.52628434,0.5310676,0.33333334,0.5522388,0,0.0,0.0,0.0,0.01129628,0.0,0,0,0.0,0.0,0,0,69.0,0.0,350.0,4687.6923076923085,3931.2820512820517,4512.820512820514,4434.358974358975,4232.307692307693,4529.743589743591,4457.435897435898,4946.153846153847,4358.974358974359,5004.102564102564,4832.820512820514,4369.2307692307695,4442.051282051282,4563.076923076924
3723.7314,0.59143144,0.5310676,0.33333334,0.5522388,0,0.0,0.0,0.0,0.006663101,0.0,0,0,0.0,0.0,0,0,105.0,0.0,1026.0,4660.000000000001,3933.333333333334,4500.000000000001,4433.846153846154,4232.307692307693,4530.256410256411,4459.48717948718,4719.48717948718,4202.564102564103,4775.8974358974365,4610.769230769231,4328.717948717949,4269.74358974359,4518.461538461539
3723.9502,0.59143144,0.5310676,0.33333334,0.5522388,0,0.0,0.0,0.0,0.0078521455,0.0,0,0,0.0,0.0,0,0,4.0,0.0,353.0,4804.102564102564,3941.538461538462,4588.205128205129,4441.538461538462,4246.666666666667,4543.589743589744,4512.820512820514,5409.743589743591,4717.435897435898,5473.846153846154,5512.307692307693,4494.871794871796,4806.153846153847,4617.948717948719
3724.2317,0.71140975,0.5310676,0.33333334,0.5522388,0,0.0,0.0,0.0,0.011729621,0.0,0,0,0.0,0.0,0,0,40.0,0.0,0.0,4758.974358974359,3931.2820512820517,4551.794871794872,4433.333333333334,4230.256410256411,4528.717948717949,4490.769230769231,4965.128205128206,4325.641025641026,5009.2307692307695,5043.589743589744,4398.461538461539,4420.512820512821,4588.717948717949
3724.4507,0.71140975,0.5310676,0.33333334,0.5522388,0,0.0,0.0,0.0,0.019461403,0.0,0,0,0.0,0.0,0,0,68.0,0.0,353.0,4719.48717948718,3931.7948717948725,4547.6923076923085,4434.358974358975,4234.871794871796,4537.435897435898,4491.282051282052,4965.128205128206,4306.666666666667,4985.128205128206,4935.8974358974365,4381.538461538462,4398.974358974359,4618.974358974359
3724.7322,0.76896703,0.5310676,0.33333334,0.5522388,0,0.0,0.0,0.0,0.0084104845,0.0,0,0,0.0,0.0,0,0,104.0,0.0,3003.0,4706.666666666667,3929.2307692307695,4528.717948717949,4429.743589743591,4250.256410256411,4548.205128205129,4475.384615384616,4687.179487179488,4203.589743589744,4740.512820512821,4743.589743589744,4339.48717948718,4241.025641025642,4610.256410256411
3724.9512,0.76896703,0.5310676,0.33333334,0.5522388,0,0.0,0.0,0.0,0.0065390845,0.0,0,0,0.0,0.0,0,0,3.0,0.0,342.0,4727.179487179488,3930.2564102564106,4530.256410256411,4429.2307692307695,4249.74358974359,4552.307692307693,4475.8974358974365,4835.384615384616,4237.948717948719,4847.179487179488,4787.179487179488,4351.794871794872,4288.717948717949,4631.282051282052
3725.2327,0.70443666,0.5310676,0.33333334,0.5522388,0,0.0,0.0,0.0,0.0070286184,0.0,0,0,0.0,0.0,0,0,39.0,0.0,0.0,4727.179487179488,3930.2564102564106,4545.641025641026,4431.282051282052,4250.769230769231,4548.205128205129,4495.384615384616,4792.307692307693,4298.974358974359,4828.205128205129,4885.128205128206,4367.6923076923085,4314.871794871796,4676.923076923077
3725.4517,0.70443666,0.5310676,0.33333334,0.5522388,0,0.0,0.0,0.0,0.009680731,0.0,0,0,0.0,0.0,0,0,67.0,0.0,342.0,4713.846153846154,3929.7435897435903,4537.435897435898,4430.256410256411,4246.153846153847,4543.589743589744,4491.794871794872,4792.307692307693,4210.769230769231,4782.564102564103,4760.000000000001,4345.641025641026,4250.769230769231,4675.384615384616
3725.7332,0.76480395,0.5310676,0.33333334,0.5522388,0,0.0,0.0,0.0,0.007432384,0.0,0,0,0.0,0.0,0,0,103.0,0.0,381.0,4771.282051282052,3935.8974358974365,4563.076923076924,4434.871794871796,4247.6923076923085,4547.179487179488,4508.205128205129,4888.717948717949,4365.128205128206,4900.512820512821,5016.410256410257,4392.820512820514,4383.076923076924,4711.282051282052
3725.952,0.76480395,0.5310676,0.33333334,0.5522388,0,0.0,0.0,0.0,0.0076121315,0.0,0,0,0.0,0.0,0,0,2.0,0.0,380.0,4748.717948717949,3944.615384615385,4563.589743589744,4439.48717948718,4248.717948717949,4548.205128205129,4510.256410256411,4896.923076923077,4302.564102564103,4894.358974358975,4944.102564102564,4377.435897435898,4343.589743589744,4730.256410256411
3726.2334,0.7547918,0.5310676,0.33333334,0.5522388,0,0.0,0.17903252,0.0,0.0,0.0,0,0,0.0,0.0,0,0,38.0,0.0,0.0,4744.102564102564,3933.333333333334,4553.846153846154,4432.820512820514,4245.128205128206,4544.102564102564,4513.333333333334,4618.974358974359,4226.666666666667,4659.48717948718,4835.384615384616,4351.794871794872,4217.948717948719,4737.948717948719
3726.4524,0.7547918,0.5310676,0.33333334,0.5522388,0,0.0,0.17744413,0.0,0.0,0.0,0,0,0.0,0.0,0,0,66.0,0.0,381.0,4755.8974358974365,3932.307692307693,4543.076923076924,4434.358974358975,4248.717948717949,4548.717948717949,4509.743589743591,4775.8974358974365,4221.538461538462,4760.512820512821,4841.538461538462,4355.8974358974365,4247.179487179487,4740.000000000001
3726.734,0.76308084,0.5310676,0.33333334,0.5522388,0,0.0,0.0,0.0,0.0061231363,0.0,0,0,0.0,0.0,0,0,102.0,0.0,8033.0,4742.051282051282,3935.3846153846157,4548.205128205129,4437.435897435898,4246.153846153847,4542.564102564103,4510.256410256411,4529.743589743591,4250.256410256411,4577.948717948719,4816.410256410257,4345.641025641026,4215.8974358974365,4779.48717948718
3726.953,0.76308084,0.5310676,0.33333334,0.5522388,0,0.0,0.16616343,0.0,0.0,0.0,0,0,0.0,0.0,0,0,1.0,0.0,277.0,4721.538461538462,3940.0000000000005,4538.461538461539,4436.410256410257,4250.256410256411,4543.589743589744,4505.641025641026,4531.282051282052,4144.102564102564,4552.820512820514,4650.769230769231,4322.564102564103,4138.974358974359,4737.435897435898
3727.2344,0.70412475,0.5310676,0.33333334,0.5522388,0,0.0,0.18006319,0.0,0.0,0.0,0,0,0.0,0.0,0,0,37.0,0.0,0.0,4743.076923076924,3943.589743589744,4533.846153846154,4445.128205128206,4262.564102564103,4561.025641025642,4497.948717948719,4383.076923076924,4210.769230769231,4440.512820512821,4700.000000000001,4325.641025641026,4157.948717948719,4709.743589743591
3727.4534,0.70412475,0.5310676,0.33333334,0.5522388,0,0.0,0.0,0.0,0.0052048955,0.0,0,0,0.0,0.0,0,0,65.0,0.0,277.0,4730.256410256411,3937.435897435898,4526.153846153847,4442.564102564103,4262.051282051282,4558.974358974359,4492.820512820514,4357.948717948719,4128.205128205129,4404.615384615385,4535.384615384616,4302.051282051282,4089.23076923077,4669.2307692307695
3727.7349,0.64143944,0.5310676,0.33333334,0.5522388,0,0.0,0.0,0.0,0.003575183,0.0,0,0,0.0,0.0,0,0,101.0,0.0,1020.0,4704.615384615386,3941.0256410256416,4512.307692307693,4443.589743589744,4262.051282051282,4556.410256410257,4490.256410256411,4105.641025641026,4092.307692307693,4183.076923076924,4462.051282051282,4283.076923076924,4026.1538461538466,4655.384615384616
3727.9536,0.64143944,0.5310676,0.33333334,0.5522388,0,0.0,0.0,0.0,0.0036431525,0.0,0,0,0.0,0.0,0,0,0.0,0.0,446.0,4707.6923076923085,3935.3846153846157,4515.384615384616,4436.410256410257,4258.461538461539,4557.948717948719,4494.871794871796,4231.282051282052,4134.358974358975,4292.820512820514,4408.717948717949,4283.589743589744,4074.358974358975,4625.641025641026
3728.235,0.55780464,0.5310676,0.33333334,0.5522388,0,0.0,0.0,0.0,0.0041337986,0.0,0,0,0.0,0.0,0,0,36.0,0.0,0.0,4711.794871794872,3942.0512820512827,4520.000000000001,4438.974358974359,4257.435897435898,4557.435897435898,4490.769230769231,4122.564102564103,4168.717948717949,4223.076923076924,4467.6923076923085,4292.307692307693,4094.358974358975,4636.410256410257
3728.454,0.55780464,0.5310676,0.33333334,0.5522388,0,0.0,0.0,0.0,0.004445605,0.0,0,0,0.0,0.0,0,0,64.0,0.0,446.0,4695.384615384616,3936.410256410257,4516.923076923077,4435.384615384616,4252.307692307693,4549.2307692307695,4507.179487179488,4215.384615384616,4177.948717948719,4293.846153846154,4410.769230769231,4282.564102564103,4098.461538461539,4638.461538461539
3728.7356,0.50089425,0.5310676,0.33333334,0.5522388,0,0.0,0.0,0.0,0.004311864,0.0,0,0,0.0,0.0,0,0,100.0,0.0,2995.0,4701.025641025642,3936.9230769230776,4521.025641025642,4437.435897435898,4240.512820512821,4540.000000000001,4493.846153846154,4017.9487179487182,4128.205128205129,4138.461538461539,4358.461538461539,4274.871794871796,4053.8461538461543,4614.358974358975
3728.9546,0.50089425,0.5310676,0.33333334,0.5522388,0,0.0,0.0,0.0,0.005176873,0.0,0,0,0.0,0.0,0,0,128.0,0.0,2995.0,4722.051282051282,3937.435897435898,4528.717948717949,4439.48717948718,4249.74358974359,4545.641025641026,4508.205128205129,4257.435897435898,4239.48717948718,4350.256410256411,4485.128205128206,4302.564102564103,4156.923076923077,4615.384615384616
3729.236,0.42350766,0.5310676,0.33333334,0.5522388,0,0.0,0.0,0.0,0.0036711146,0.0,0,0,0.0,0.0,0,0,35.0,0.0,0.0,4703.076923076924,3933.8461538461543,4508.205128205129,4430.769230769231,4233.846153846154,4528.205128205129,4508.717948717949,3925.6410256410263,4067.692307692308,4061.0256410256416,4282.051282051282,4257.435897435898,4006.666666666667,4602.564102564103
3729.455,0.42350766,0.5310676,0.33333334,0.5522388,0,0.0,0.0,0.0,0.0042113694,0.0,0,0,0.0,0.0,0,0,63.0,0.0,0.0,4760.512820512821,3936.9230769230776,4561.025641025642,4431.282051282052,4230.256410256411,4528.717948717949,4523.076923076924,4330.256410256411,4335.8974358974365,4445.128205128206,4580.512820512821,4322.051282051282,4253.333333333334,4646.666666666667
3729.7366,0.39277005,0.5310676,0.33333334,0.5522388,0,0.0,0.0,0.0,0.006258323,0.0,0,0,0.0,0.0,0,0,99.0,0.0,381.0,4773.333333333334,3946.1538461538466,4548.717948717949,4440.000000000001,4239.48717948718,4540.000000000001,4520.512820512821,4330.256410256411,4286.666666666667,4455.384615384616,4688.205128205129,4340.000000000001,4251.282051282052,4640.000000000001
3729.9556,0.39277005,0.5310676,0.33333334,0.5522388,0,0.0,0.0,0.0,0.0052370084,0.0,0,0,0.0,0.0,0,0,127.0,0.0,381.0,4760.000000000001,3942.564102564103,4545.641025641026,4437.948717948719,4233.333333333334,4535.384615384616,4524.102564102564,4281.538461538462,4262.051282051282,4400.512820512821,4579.48717948718,4315.384615384616,4205.128205128206,4648.717948717949
3730.237,0.3873616,0.5310676,0.33333334,0.5522388,0,0.0,0.16253898,0.0,0.0,0.0,0,0,0.0,0.0,0,0,34.0,0.0,0.0,4721.025641025642,3942.0512820512827,4514.871794871796,4444.102564102564,4234.358974358975,4540.000000000001,4505.641025641026,3886.1538461538466,4047.692307692308,4041.538461538462,4272.307692307693,4258.974358974359,4008.717948717949,4594.871794871796
3730.4558,0.3873616,0.5310676,0.33333334,0.5522388,0,0.0,0.0,0.0,0.004302663,0.0,0,0,0.0,0.0,0,0,62.0,0.0,0.0,4737.948717948719,3948.717948717949,4527.179487179488,4447.6923076923085,4247.179487179487,4546.153846153847,4504.615384615385,4127.6923076923085,4186.153846153847,4245.128205128206,4415.384615384616,4285.128205128206,4118.974358974359,4591.282051282052
3730.7373,0.35027882,0.5310676,0.33333334,0.5522388,0,0.0,0.0,0.0,0.004493641,0.0,0,0,0.0,0.0,0,0,98.0,0.0,8033.0,4704.102564102564,3941.538461538462,4490.769230769231,4438.461538461539,4233.333333333334,4534.871794871796,4478.461538461539,3662.0512820512827,3974.358974358975,3816.9230769230776,4032.820512820513,4214.358974358975,3880.512820512821,4545.128205128206
3730.9563,0.35027882,0.5310676,0.33333334,0.5522388,0,0.0,0.0,0.0,0.0045303786,0.0,0,0,0.0,0.0,0,0,126.0,0.0,8033.0,4738.974358974359,3953.8461538461543,4525.128205128206,4454.358974358975,4239.48717948718,4544.615384615385,4482.051282051282,4188.205128205129,4296.410256410257,4342.564102564103,4488.717948717949,4310.769230769231,4225.641025641026,4620.512820512821
3731.2378,0.334402,0.5310676,0.33333334,0.5522388,0,0.0,0.0,0.0,0.0052978965,0.0,0,0,0.0,0.0,0,0,33.0,0.0,0.0,4702.051282051282,3939.48717948718,4473.846153846154,4441.538461538462,4229.74358974359,4537.435897435898,4461.025641025642,3692.820512820513,4014.358974358975,3880.512820512821,4081.538461538462,4224.615384615385,3926.1538461538466,4563.076923076924
3731.4568,0.334402,0.5310676,0.33333334,0.5522388,0,0.0,0.0,0.0,0.006224808,0.0,0,0,0.0,0.0,0,0,61.0,0.0,0.0,4674.871794871796,3937.435897435898,4456.410256410257,4438.974358974359,4222.051282051282,4530.769230769231,4442.051282051282,3641.538461538462,3991.2820512820517,3784.1025641025644,3881.538461538462,4187.179487179487,3880.0000000000005,4518.461538461539
3731.7383,0.41149572,0.5310676,0.33333334,0.5522388,0,0.0,0.0,0.0,0.004884121,0.0,0,0,0.0,0.0,0,0,97.0,0.0,1017.0,4672.307692307693,3940.0000000000005,4451.794871794872,4436.923076923077,4223.076923076924,4529.2307692307695,4432.307692307693,3541.0256410256416,3988.205128205129,3732.820512820513,3852.307692307693,4188.205128205129,3861.0256410256416,4482.051282051282
3731.9573,0.41149572,0.5310676,0.33333334,0.5522388,0,0.0,0.0,0.0,0.005802865,0.0,0,0,0.0,0.0,0,0,125.0,0.0,1017.0,4646.153846153847,3936.9230769230776,4444.615384615385,4434.358974358975,4221.538461538462,4531.794871794872,4421.025641025642,3589.7435897435903,4014.8717948717954,3744.615384615385,3815.8974358974365,4178.974358974359,3884.1025641025644,4484.102564102564
3732.2388,0.4995827,0.5310676,0.33333334,0.5522388,0,0.0,0.0,0.0,0.0059097805,0.0,0,0,0.0,0.0,0,0,32.0,0.0,0.0,4627.179487179488,3934.8717948717954,4435.384615384616,4434.358974358975,4222.564102564103,4529.743589743591,4415.8974358974365,3486.1538461538466,4009.7435897435903,3716.9230769230776,3768.717948717949,4177.948717948719,3880.512820512821,4457.435897435898
3732.4575,0.4995827,0.5310676,0.33333334,0.5522388,0,0.0,0.0,0.0,0.0070710313,0.0,0,0,0.0,0.0,0,0,60.0,0.0,0.0,4609.743589743591,3923.076923076924,4414.871794871796,4426.153846153847,4219.48717948718,4525.641025641026,4407.6923076923085,3420.0000000000005,3952.820512820513,3594.8717948717954,3566.666666666667,4145.128205128206,3810.7692307692314,4430.256410256411
3732.739,0.60212433,0.5310676,0.33333334,0.5522388,0,0.0,0.0,0.0,0.008712052,0.0,0,0,0.0,0.0,0,0,96.0,0.0,2947.0,4642.051282051282,3927.692307692308,4440.512820512821,4429.743589743591,4225.128205128206,4532.820512820514,4412.820512820514,3591.794871794872,4116.923076923077,3869.7435897435903,3847.1794871794878,4198.974358974359,3999.48717948718,4434.871794871796
3732.958,0.60212433,0.5310676,0.33333334,0.5522388,0,0.0,0.0,0.0,0.008251162,0.0,0,0,0.0,0.0,0,0,124.0,0.0,2947.0,4668.205128205129,3943.589743589744,4483.076923076924,4442.564102564103,4232.820512820514,4538.974358974359,4437.435897435898,3984.615384615385,4365.641025641026,4243.589743589744,4248.205128205129,4278.974358974359,4267.179487179487,4493.333333333334
3733.2395,0.65761477,0.5310676,0.33333334,0.5522388,0,0.0,0.0,0.0,0.005722516,0.0,0,0,0.0,0.0,0,0,31.0,0.0,0.0,4669.2307692307695,3937.435897435898,4492.307692307693,4440.512820512821,4233.846153846154,4541.025641025642,4430.769230769231,4142.051282051282,4301.538461538462,4367.6923076923085,4297.948717948719,4290.256410256411,4238.461538461539,4502.051282051282
3733.4585,0.65761477,0.5310676,0.33333334,0.5522388,0,0.0,0.0,0.0,0.0037954554,0.0,0,0,0.0,0.0,0,0,59.0,0.0,0.0,4700.000000000001,3941.538461538462,4500.000000000001,4439.48717948718,4238.461538461539,4545.641025641026,4435.8974358974365,4166.666666666667,4353.333333333334,4400.512820512821,4403.076923076924,4305.641025641026,4311.794871794872,4495.8974358974365
3733.74,0.6488395,0.5310676,0.33333334,0.5522388,0,0.0,0.0,0.0,0.004620489,0.0,0,0,0.0,0.0,0,0,95.0,0.0,396.0,4678.461538461539,3944.1025641025644,4508.205128205129,4444.102564102564,4250.769230769231,4554.871794871796,4455.8974358974365,4445.128205128206,4363.589743589744,4584.102564102564,4510.256410256411,4331.794871794872,4353.846153846154,4545.128205128206
3733.959,0.6488395,0.5310676,0.33333334,0.5522388,0,0.0,0.0,0.0,0.0051133316,0.0,0,0,0.0,0.0,0,0,123.0,0.0,396.0,4658.974358974359,3943.589743589744,4500.000000000001,4447.6923076923085,4256.410256410257,4557.948717948719,4455.384615384616,4209.74358974359,4264.615384615385,4404.615384615385,4417.948717948719,4307.6923076923085,4274.358974358975,4522.564102564103
3734.209,0.5773806,0.5310676,0.33333334,0.5522388,0,0.0,0.10613066,0.0,0.0,0.0,0,0,0.0,0.0,0,0,26.0,0.0,0.0,4647.179487179488,3936.9230769230776,4486.666666666667,4442.564102564103,4254.358974358975,4553.846153846154,4442.051282051282,4068.717948717949,4241.538461538462,4312.307692307693,4322.564102564103,4285.128205128206,4190.769230769231,4529.743589743591
3734.4592,0.5773806,0.5310676,0.33333334,0.5522388,0,0.0,0.0,0.0,0.00403478,0.0,0,0,0.0,0.0,0,0,58.0,0.0,0.0,4658.974358974359,3937.435897435898,4477.435897435898,4441.025641025642,4256.410256410257,4560.000000000001,4423.589743589744,4037.435897435898,4155.8974358974365,4253.846153846154,4266.666666666667,4272.820512820514,4152.307692307693,4517.948717948719
3734.7095,0.47246027,0.5310676,0.33333334,0.5522388,0,0.0,0.0,0.0,0.0034420702,0.0,0,0,0.0,0.0,0,0,90.0,0.0,8033.0,4628.205128205129,3937.9487179487182,4461.025641025642,4442.051282051282,4260.512820512821,4566.666666666667,4428.205128205129,3910.7692307692314,4151.794871794872,4151.282051282052,4156.410256410257,4257.948717948719,4095.8974358974365,4507.6923076923085
