timestamp,excitement,frustration,meditation,engagementBoredom,blink,clench,laugh,smile,eyebrow,furrowBrow,lookLeft,lookRight,smirkLeft,smirkRight,winkLeft,winkRight,eeg0,eeg1,eeg2,eeg3,eeg4,eeg5,eeg6,eeg7,eeg8,eeg9,eeg10,eeg11,eeg12,eeg13,eeg14,eeg15,eeg16
5387.216,0.84056157,0.8291661,0.33333334,0.5522388,0,0.0,1.0,0.0,0.0,0.0,0,0,0.0,0.0,0,0,108.0,0.0,203.0,4544.615384615385,3922.564102564103,4529.743589743591,4444.102564102564,4273.333333333334,4585.128205128206,4427.6923076923085,4500.000000000001,4773.846153846154,5008.717948717949,4389.2307692307695,4227.6923076923085,4395.384615384616,4376.923076923077
5387.716,0.83039635,0.8865584,0.33333334,0.5522388,0,0.0,1.0,0.0,0.0,0.0,0,0,0.0,0.0,0,0,43.0,0.0,0.0,4535.384615384616,3911.7948717948725,4515.8974358974365,4432.820512820514,4255.384615384616,4570.769230769231,4421.025641025642,4404.615384615385,4358.974358974359,4615.384615384616,4354.871794871796,4197.948717948719,4089.7435897435903,4361.538461538462
5387.716,0.83039635,0.8865584,0.33333334,0.5522388,0,0.0,1.0,0.0,0.0,0.0,0,0,0.0,0.0,0,0,43.0,0.0,0.0,4535.384615384616,3911.7948717948725,4515.8974358974365,4432.820512820514,4255.384615384616,4570.769230769231,4421.025641025642,4404.615384615385,4358.974358974359,4615.384615384616,4354.871794871796,4197.948717948719,4089.7435897435903,4361.538461538462
5388.2163,0.7728669,0.93833214,0.33333334,0.5522388,1,0.0,1.0,0.0,0.0,0.0,0,0,0.0,0.0,0,0,107.0,0.0,496.0,4758.974358974359,3939.48717948718,4514.358974358975,4425.128205128206,4222.564102564103,4535.384615384616,4430.256410256411,4498.974358974359,4723.589743589744,4954.358974358975,4399.48717948718,4257.435897435898,4206.153846153847,4549.2307692307695
5388.342,0.7728669,0.93833214,0.33333334,0.5522388,0,0.0,1.0,0.0,0.0,0.0,0,0,0.0,0.0,0,0,123.0,0.0,496.0,4648.717948717949,3905.1282051282055,4469.2307692307695,4420.000000000001,4185.128205128206,4476.410256410257,4408.205128205129,4385.641025641026,3691.2820512820517,4493.846153846154,4347.179487179487,4232.307692307693,3995.8974358974365,4455.384615384616
5388.717,0.7745133,0.9849285,0.33333334,0.5522388,0,0.0,1.0,0.0,0.0,0.0,0,0,0.0,0.0,0,0,42.0,0.0,0.0,4564.102564102564,3885.1282051282055,4474.871794871796,4406.666666666667,4153.846153846154,4376.410256410257,4391.794871794872,4263.076923076924,3904.615384615385,4121.025641025642,4310.256410256411,4184.615384615385,3726.1538461538466,4444.615384615385
5388.936,0.7745133,0.9849285,0.33333334,0.5522388,0,0.0,0.0,0.0,0.09376617,0.0,0,0,0.0,0.0,0,0,70.0,0.0,366.0,4561.025641025642,3892.820512820513,4485.128205128206,4401.538461538462,4176.923076923077,4395.384615384616,4389.2307692307695,4265.128205128206,3996.9230769230776,4176.410256410257,4310.769230769231,4192.820512820514,3740.512820512821,4438.974358974359
5389.2173,0.7630861,1.0,0.33333334,0.5522388,0,0.0,0.0,0.0,0.08378129,0.0,0,0,0.0,0.0,0,0,106.0,0.0,1579.0,4533.846153846154,3893.333333333334,4494.871794871796,4397.948717948719,4215.8974358974365,4447.179487179487,4389.2307692307695,4296.923076923077,4293.333333333334,4346.666666666667,4306.666666666667,4189.2307692307695,3867.1794871794878,4446.153846153847
5389.436,0.7630861,1.0,0.33333334,0.5522388,0,0.0,0.0,0.0,0.102081634,0.0,0,0,0.0,0.0,0,0,5.0,0.0,574.0,4535.384615384616,3894.8717948717954,4503.076923076924,4370.769230769231,4250.256410256411,4495.384615384616,4392.820512820514,4294.871794871796,4286.666666666667,4361.025641025642,4303.076923076924,4188.205128205129,3863.589743589744,4427.6923076923085
5389.718,0.7343718,1.0,0.33333334,0.5522388,0,0.0,0.0,0.0,0.07300538,0.0,0,0,0.0,0.0,0,0,41.0,0.0,0.0,4551.794871794872,3894.358974358975,4502.564102564103,4342.051282051282,4256.410256410257,4521.025641025642,4388.205128205129,4318.461538461539,4451.794871794872,4488.717948717949,4301.538461538462,4194.358974358975,3959.48717948718,4473.333333333334
5389.9365,0.7343718,1.0,0.33333334,0.5522388,0,0.0,0.7747583,0.0,0.0,0.0,0,0,0.0,0.0,0,0,69.0,0.0,574.0,4550.769230769231,3900.5128205128212,4507.6923076923085,4347.179487179487,4263.076923076924,4535.8974358974365,4381.538461538462,4329.2307692307695,4516.923076923077,4541.538461538462,4305.641025641026,4202.051282051282,3991.7948717948725,4474.871794871796
5390.2183,0.72818744,1.0,0.33333334,0.5522388,0,0.0,0.38393083,0.0,0.0,0.0,0,0,0.0,0.0,0,0,105.0,0.0,348.0,4552.820512820514,3907.1794871794878,4500.000000000001,4354.871794871796,4262.051282051282,4549.743589743591,4383.076923076924,4341.538461538462,4473.846153846154,4591.282051282052,4318.461538461539,4202.051282051282,4037.435897435898,4442.051282051282
5390.437,0.72818744,1.0,0.33333334,0.5522388,0,0.0,0.5060656,0.0,0.0,0.0,0,0,0.0,0.0,0,0,4.0,0.0,582.0,4542.051282051282,3909.7435897435903,4514.871794871796,4373.846153846154,4275.384615384616,4567.6923076923085,4387.6923076923085,4352.820512820514,4629.743589743591,4655.8974358974365,4324.615384615385,4200.000000000001,4070.7692307692314,4447.179487179487
5390.7188,0.65759665,1.0,0.33333334,0.5522388,0,0.0,0.81804484,0.0,0.0,0.0,0,0,0.0,0.0,0,0,40.0,0.0,0.0,4588.717948717949,3912.307692307693,4510.769230769231,4388.205128205129,4265.641025641026,4566.666666666667,4402.564102564103,4389.2307692307695,4567.6923076923085,4791.282051282052,4334.358974358975,4219.48717948718,4149.74358974359,4463.589743589744
5390.8125,0.65759665,1.0,0.33333334,0.5522388,0,0.0,1.0,0.0,0.0,0.0,0,0,0.0,0.0,0,0,52.0,0.0,0.0,4602.564102564103,3907.1794871794878,4498.974358974359,4389.743589743591,4263.076923076924,4556.923076923077,4397.948717948719,4400.000000000001,4078.9743589743593,4776.410256410257,4341.025641025642,4229.2307692307695,4170.256410256411,4479.48717948718
5391.219,0.6769451,1.0,0.33333334,0.5522388,0,0.0,1.0,0.0,0.0,0.0,0,0,0.0,0.0,0,0,104.0,0.0,194.0,4629.2307692307695,3929.7435897435903,4510.769230769231,4444.615384615385,4263.589743589744,4565.128205128206,4415.8974358974365,4442.051282051282,4584.102564102564,4931.794871794872,4351.282051282052,4242.564102564103,4243.589743589744,4496.923076923077
5391.438,0.6769451,1.0,0.33333334,0.5522388,0,0.0,0.5450829,0.0,0.0,0.0,0,0,0.0,0.0,0,0,3.0,0.0,558.0,4621.025641025642,3935.8974358974365,4516.410256410257,4444.102564102564,4260.512820512821,4566.153846153847,4423.076923076924,4448.717948717949,4786.666666666667,4956.923076923077,4356.923076923077,4253.333333333334,4266.666666666667,4495.384615384616
5391.719,0.6084408,1.0,0.33333334,0.5522388,0,0.0,0.68104887,0.0,0.0,0.0,0,0,0.0,0.0,0,0,39.0,0.0,0.0,4653.846153846154,3942.564102564103,4512.307692307693,4449.743589743591,4253.333333333334,4560.000000000001,4444.615384615385,4498.974358974359,4661.538461538462,5086.666666666667,4379.48717948718,4264.615384615385,4393.333333333334,4525.641025641026
5391.8135,0.6084408,1.0,0.33333334,0.5522388,0,0.0,1.0,0.0,0.0,0.0,0,0,0.0,0.0,0,0,51.0,0.0,0.0,4663.076923076924,3941.538461538462,4518.461538461539,4458.461538461539,4251.282051282052,4555.8974358974365,4446.666666666667,4525.641025641026,4364.615384615385,5100.512820512821,4392.820512820514,4276.410256410257,4466.153846153847,4538.461538461539
5392.2197,0.6270857,1.0,0.33333334,0.5522388,0,0.0,0.8296986,0.0,0.0,0.0,0,0,0.0,0.0,0,0,103.0,0.0,496.0,4659.48717948718,3943.589743589744,4508.717948717949,4449.2307692307695,4256.923076923077,4557.948717948719,4448.717948717949,4526.666666666667,4599.48717948718,5115.8974358974365,4394.871794871796,4277.948717948719,4429.743589743591,4547.6923076923085
5392.439,0.6270857,1.0,0.33333334,0.5522388,0,0.0,0.71111834,0.0,0.0,0.0,0,0,0.0,0.0,0,0,2.0,0.0,498.0,4671.794871794872,3956.9230769230776,4524.615384615385,4458.461538461539,4262.051282051282,4569.2307692307695,4461.538461538462,4554.871794871796,4891.794871794872,5207.179487179488,4404.102564102564,4298.461538461539,4468.205128205129,4578.461538461539
5392.697,0.72573847,1.0,0.33333334,0.5522388,0,0.0,0.706251,0.0,0.0,0.0,0,0,0.0,0.0,0,0,38.0,0.0,0.0,4672.820512820514,3969.2307692307695,4527.6923076923085,4474.871794871796,4278.974358974359,4586.153846153847,4481.025641025642,4560.512820512821,4576.410256410257,5173.846153846154,4409.2307692307695,4304.615384615385,4412.307692307693,4605.128205128206
5392.916,0.72573847,1.0,0.33333334,0.5522388,0,0.0,0.92924964,0.0,0.0,0.0,0,0,0.0,0.0,0,0,66.0,0.0,498.0,4689.2307692307695,3969.2307692307695,4527.6923076923085,4489.2307692307695,4277.435897435898,4587.179487179488,4470.769230769231,4544.102564102564,4705.641025641026,5102.564102564103,4400.000000000001,4303.076923076924,4343.589743589744,4584.102564102564
5393.1973,0.8486498,1.0,0.33333334,0.5522388,0,0.0,1.0,0.0,0.0,0.0,0,0,0.0,0.0,0,0,102.0,0.0,1571.0,4663.589743589744,3956.9230769230776,4508.717948717949,4475.8974358974365,4270.769230769231,4583.589743589744,4472.307692307693,4518.461538461539,4292.307692307693,4958.461538461539,4391.282051282052,4301.025641025642,4273.846153846154,4555.8974358974365
5393.416,0.8486498,1.0,0.33333334,0.5522388,0,0.0,0.5384524,0.0,0.0,0.0,0,0,0.0,0.0,0,0,1.0,0.0,455.0,4660.512820512821,3956.410256410257,4518.974358974359,4476.410256410257,4274.871794871796,4587.6923076923085,4475.384615384616,4526.153846153847,4568.717948717949,5005.128205128206,4395.384615384616,4304.102564102564,4308.717948717949,4561.025641025642
5393.6978,0.9568118,1.0,0.33333334,0.5522388,0,0.0,0.31028867,0.0,0.0,0.0,0,0,0.0,0.0,0,0,37.0,0.0,0.0,4678.461538461539,3953.333333333334,4506.153846153847,4463.076923076924,4267.179487179487,4583.589743589744,4478.461538461539,4521.538461538462,4246.153846153847,4941.538461538462,4396.410256410257,4310.769230769231,4286.153846153847,4570.256410256411
5393.9165,0.9568118,1.0,0.33333334,0.5522388,0,0.0,0.44782108,0.0,0.0,0.0,0,0,0.0,0.0,0,0,65.0,0.0,455.0,4661.025641025642,3958.461538461539,4511.282051282052,4461.025641025642,4273.333333333334,4585.641025641026,4466.153846153847,4505.641025641026,4402.051282051282,4879.48717948718,4389.2307692307695,4307.179487179487,4235.384615384616,4558.974358974359
5394.198,1.0,1.0,0.33333334,0.5522388,0,0.0,0.44071004,0.0,0.0,0.0,0,0,0.0,0.0,0,0,101.0,0.0,348.0,4665.128205128206,3955.8974358974365,4498.974358974359,4456.923076923077,4273.846153846154,4591.282051282052,4468.717948717949,4494.871794871796,4101.538461538462,4816.923076923077,4385.641025641026,4307.6923076923085,4204.615384615385,4549.743589743591
5394.417,1.0,1.0,0.33333334,0.5522388,0,0.0,0.98100156,0.0,0.0,0.0,0,0,0.0,0.0,0,0,0.0,0.0,378.0,4668.205128205129,3960.5128205128212,4511.282051282052,4460.000000000001,4272.307692307693,4589.2307692307695,4485.641025641026,4500.000000000001,4339.48717948718,4849.2307692307695,4384.615384615385,4317.435897435898,4205.641025641026,4545.641025641026
5394.6987,1.0,1.0,0.33333334,0.5522388,0,0.0,0.40744665,0.0,0.0,0.0,0,0,0.0,0.0,0,0,36.0,0.0,0.0,4647.6923076923085,3955.3846153846157,4494.871794871796,4458.461538461539,4265.641025641026,4584.615384615385,4476.410256410257,4484.615384615385,4051.2820512820517,4764.102564102564,4380.000000000001,4305.128205128206,4192.307692307693,4542.051282051282
5394.9175,1.0,1.0,0.33333334,0.5522388,0,0.0,0.31228358,0.0,0.0,0.0,0,0,0.0,0.0,0,0,64.0,0.0,378.0,4679.48717948718,3947.692307692308,4504.615384615385,4453.333333333334,4269.2307692307695,4585.128205128206,4483.076923076924,4501.538461538462,4326.153846153847,4848.717948717949,4386.666666666667,4316.410256410257,4233.333333333334,4563.589743589744
5395.199,0.9655992,1.0,0.33333334,0.5522388,0,0.0,0.3199161,0.0,0.0,0.0,0,0,0.0,0.0,0,0,100.0,0.0,193.0,4673.846153846154,3951.2820512820517,4502.051282051282,4458.461538461539,4275.8974358974365,4586.666666666667,4490.256410256411,4507.6923076923085,4117.948717948719,4859.48717948718,4393.846153846154,4328.205128205129,4253.333333333334,4563.589743589744
5395.418,0.9655992,1.0,0.33333334,0.5522388,0,0.0,0.38037252,0.0,0.0,0.0,0,0,0.0,0.0,0,0,128.0,0.0,193.0,4686.153846153847,3959.48717948718,4510.769230769231,4453.333333333334,4278.974358974359,4591.282051282052,4478.974358974359,4510.769230769231,4268.205128205129,4857.948717948719,4401.538461538462,4318.461538461539,4230.256410256411,4566.153846153847
5395.699,1.0,1.0,0.33333334,0.5522388,0,0.0,0.9044526,0.0,0.0,0.0,0,0,0.0,0.0,0,0,35.0,0.0,0.0,4666.153846153847,3945.6410256410263,4493.333333333334,4443.589743589744,4267.179487179487,4584.102564102564,4472.820512820514,4473.333333333334,3964.1025641025644,4713.846153846154,4395.384615384616,4310.256410256411,4163.589743589744,4540.512820512821
5395.9185,1.0,1.0,0.33333334,0.5522388,0,0.0,0.500019,0.0,0.0,0.0,0,0,0.0,0.0,0,0,63.0,0.0,0.0,4681.538461538462,3943.076923076924,4493.846153846154,4443.076923076924,4274.871794871796,4586.666666666667,4475.384615384616,4492.307692307693,4168.205128205129,4786.153846153847,4397.435897435898,4315.8974358974365,4191.794871794872,4573.846153846154
5396.1997,1.0,0.98903835,0.33333334,0.5522388,0,0.0,0.55701905,0.0,0.0,0.0,0,0,0.0,0.0,0,0,99.0,0.0,494.0,4676.410256410257,3956.9230769230776,4492.307692307693,4443.589743589744,4277.948717948719,4591.282051282052,4486.153846153847,4480.512820512821,3981.538461538462,4742.564102564103,4392.307692307693,4316.923076923077,4158.461538461539,4580.512820512821
5396.419,1.0,0.98903835,0.33333334,0.5522388,0,0.0,0.48447323,0.0,0.0,0.0,0,0,0.0,0.0,0,0,127.0,0.0,494.0,4689.743589743591,3954.358974358975,4494.871794871796,4450.256410256411,4277.948717948719,4595.8974358974365,4489.743589743591,4477.435897435898,4106.666666666667,4735.8974358974365,4389.2307692307695,4317.435897435898,4142.564102564103,4565.641025641026
5396.7,1.0,0.9664269,0.33333334,0.5522388,0,0.0,0.8233646,0.0,0.0,0.0,0,0,0.0,0.0,0,0,34.0,0.0,0.0,4639.48717948718,3936.9230769230776,4481.538461538462,4435.8974358974365,4269.2307692307695,4587.6923076923085,4474.358974358975,4431.282051282052,3840.0000000000005,4569.2307692307695,4375.8974358974365,4295.384615384616,4069.23076923077,4550.256410256411
5396.9194,1.0,0.9664269,0.33333334,0.5522388,0,0.0,0.46505955,0.0,0.0,0.0,0,0,0.0,0.0,0,0,62.0,0.0,0.0,4653.333333333334,3945.6410256410263,4487.6923076923085,4443.589743589744,4272.307692307693,4596.410256410257,4453.333333333334,4444.102564102564,4004.615384615385,4618.461538461539,4378.461538461539,4298.461538461539,4109.2307692307695,4542.051282051282
5397.2007,1.0,0.9465474,0.33333334,0.5522388,0,0.0,0.55672187,0.0,0.0,0.0,0,0,0.0,0.0,0,0,98.0,0.0,1571.0,4676.410256410257,3961.0256410256416,4500.512820512821,4449.2307692307695,4282.564102564103,4602.564102564103,4465.128205128206,4476.923076923077,4019.48717948718,4752.307692307693,4388.717948717949,4309.2307692307695,4206.666666666667,4533.333333333334
5397.42,1.0,0.9465474,0.33333334,0.5522388,0,0.0,0.771747,0.0,0.0,0.0,0,0,0.0,0.0,0,0,126.0,0.0,1571.0,4683.076923076924,3955.3846153846157,4493.333333333334,4444.615384615385,4284.102564102564,4600.000000000001,4472.307692307693,4475.384615384616,4075.8974358974365,4752.307692307693,4384.615384615385,4309.743589743591,4186.153846153847,4567.6923076923085
5397.701,1.0,0.92745894,0.33333334,0.5522388,0,0.0,0.6234436,0.0,0.0,0.0,0,0,0.0,0.0,0,0,33.0,0.0,0.0,4690.256410256411,3956.9230769230776,4501.538461538462,4448.205128205129,4286.153846153847,4600.512820512821,4482.564102564103,4480.512820512821,4078.461538461539,4765.128205128206,4386.153846153847,4311.282051282052,4203.589743589744,4561.538461538462
5397.92,1.0,0.92745894,0.33333334,0.5522388,0,0.0,0.42245433,0.0,0.0,0.0,0,0,0.0,0.0,0,0,61.0,0.0,0.0,4678.461538461539,3957.435897435898,4494.871794871796,4460.000000000001,4293.846153846154,4604.615384615385,4486.153846153847,4478.974358974359,4046.1538461538466,4773.333333333334,4387.6923076923085,4314.871794871796,4214.358974358975,4540.000000000001
5398.2017,1.0,0.91119295,0.33333334,0.5522388,0,0.0,0.43010584,0.0,0.0,0.0,0,0,0.0,0.0,0,0,97.0,0.0,347.0,4696.923076923077,3958.461538461539,4518.461538461539,4466.666666666667,4298.974358974359,4613.333333333334,4478.461538461539,4509.2307692307695,4210.769230769231,4867.6923076923085,4395.384615384616,4326.666666666667,4264.615384615385,4595.384615384616
5398.4204,1.0,0.91119295,0.33333334,0.5522388,0,0.0,0.54481775,0.0,0.0,0.0,0,0,0.0,0.0,0,0,125.0,0.0,347.0,4666.153846153847,3944.615384615385,4496.410256410257,4458.461538461539,4278.974358974359,4591.282051282052,4475.384615384616,4467.179487179487,3988.205128205129,4728.717948717949,4379.48717948718,4310.769230769231,4200.000000000001,4554.871794871796
5398.702,1.0,0.88882643,0.33333334,0.5522388,0,0.0,0.0,0.0,0.049372263,0.0,0,0,0.0,0.0,0,0,32.0,0.0,0.0,4654.358974358975,3946.1538461538466,4502.564102564103,4460.512820512821,4279.48717948718,4589.2307692307695,4479.48717948718,4440.000000000001,3954.8717948717954,4640.000000000001,4369.743589743591,4297.948717948719,4125.641025641026,4550.769230769231
5398.921,1.0,0.88882643,0.33333334,0.5522388,0,0.0,0.47411957,0.0,0.0,0.0,0,0,0.0,0.0,0,0,60.0,0.0,0.0,4649.2307692307695,3945.6410256410263,4493.333333333334,4458.974358974359,4273.846153846154,4586.666666666667,4474.871794871796,4432.820512820514,3909.2307692307695,4620.000000000001,4370.256410256411,4302.051282051282,4120.512820512821,4533.333333333334
5399.2026,0.97162586,0.8605483,0.33333334,0.5522388,0,0.0,0.40532947,0.0,0.0,0.0,0,0,0.0,0.0,0,0,96.0,0.0,193.0,4655.384615384616,3946.666666666667,4503.589743589744,4454.358974358975,4264.102564102564,4575.384615384616,4472.820512820514,4447.179487179487,4056.410256410257,4682.564102564103,4370.256410256411,4306.666666666667,4178.461538461539,4553.333333333334
5399.4214,0.97162586,0.8605483,0.33333334,0.5522388,0,0.0,1.0,0.0,0.0,0.0,0,0,0.0,0.0,0,0,124.0,0.0,193.0,4647.179487179488,3944.1025641025644,4504.615384615385,4455.8974358974365,4278.461538461539,4587.6923076923085,4471.794871794872,4463.076923076924,4053.8461538461543,4751.794871794872,4373.333333333334,4310.256410256411,4225.641025641026,4575.384615384616
5399.703,1.0,0.84257424,0.33333334,0.5522388,0,0.0,0.60084265,0.0,0.0,0.0,0,0,0.0,0.0,0,0,31.0,0.0,0.0,4612.820512820514,3927.692307692308,4493.333333333334,4441.538461538462,4263.076923076924,4570.256410256411,4462.564102564103,4410.256410256411,3918.9743589743593,4550.256410256411,4356.410256410257,4287.179487179487,4108.205128205129,4523.076923076924
5399.797,1.0,0.84257424,0.33333334,0.5522388,0,0.0,1.0,0.0,0.0,0.0,0,0,0.0,0.0,0,0,43.0,0.0,0.0,4637.948717948719,3934.358974358975,4503.076923076924,4440.000000000001,4263.076923076924,4571.794871794872,4457.948717948719,4408.205128205129,4444.102564102564,4584.102564102564,4355.384615384616,4282.564102564103,4102.564102564103,4523.589743589744
5400.203,1.0,0.8189613,0.33333334,0.5522388,0,0.0,0.6396371,0.0,0.0,0.0,0,0,0.0,0.0,0,0,95.0,0.0,494.0,4642.051282051282,3932.820512820513,4496.923076923077,4442.564102564103,4260.000000000001,4569.743589743591,4453.846153846154,4426.153846153847,4042.564102564103,4626.153846153847,4357.435897435898,4284.615384615385,4163.076923076924,4523.589743589744
5400.4224,1.0,0.8189613,0.33333334,0.5522388,0,0.0,0.45906767,0.0,0.0,0.0,0,0,0.0,0.0,0,0,123.0,0.0,494.0,4667.6923076923085,3939.48717948718,4499.48717948718,4444.102564102564,4264.102564102564,4572.820512820514,4445.128205128206,4460.512820512821,4082.564102564103,4756.923076923077,4372.307692307693,4300.000000000001,4265.128205128206,4536.410256410257
5400.7036,1.0,0.80872834,0.33333334,0.5522388,0,0.0,1.0,0.0,0.0,0.0,0,0,0.0,0.0,0,0,30.0,0.0,0.0,4677.435897435898,3942.0512820512827,4510.256410256411,4443.076923076924,4261.538461538462,4574.871794871796,4455.384615384616,4481.025641025642,4329.743589743591,4828.717948717949,4383.589743589744,4311.794871794872,4313.333333333334,4550.256410256411
5400.7036,1.0,0.80872834,0.33333334,0.5522388,0,0.0,1.0,0.0,0.0,0.0,0,0,0.0,0.0,0,0,30.0,0.0,0.0,4677.435897435898,3942.0512820512827,4510.256410256411,4443.076923076924,4261.538461538462,4574.871794871796,4455.384615384616,4481.025641025642,4329.743589743591,4828.717948717949,4383.589743589744,4311.794871794872,4313.333333333334,4550.256410256411
5401.204,0.94017714,0.8130119,0.33333334,0.5522388,0,0.0,0.63202775,0.0,0.0,0.0,0,0,0.0,0.0,0,0,94.0,0.0,1568.0,4672.820512820514,3944.1025641025644,4511.794871794872,4446.153846153847,4251.794871794872,4566.666666666667,4442.051282051282,4500.512820512821,4382.051282051282,4885.641025641026,4398.461538461539,4304.615384615385,4375.384615384616,4562.051282051282
5401.486,0.94017714,0.8130119,0.33333334,0.5522388,0,0.0,0.56346315,0.0,0.0,0.0,0,0,0.0,0.0,0,0,1.0,0.0,455.0,4667.179487179488,3932.307692307693,4508.205128205129,4442.051282051282,4248.717948717949,4558.974358974359,4451.794871794872,4480.000000000001,4511.794871794872,4816.923076923077,4390.769230769231,4303.589743589744,4287.6923076923085,4577.435897435898
5401.7046,0.9492842,0.8260388,0.33333334,0.5522388,0,0.0,0.79563576,0.0,0.0,0.0,0,0,0.0,0.0,0,0,29.0,0.0,0.0,4660.512820512821,3939.48717948718,4506.153846153847,4442.564102564103,4246.153846153847,4556.410256410257,4458.461538461539,4500.000000000001,4363.589743589744,4854.358974358975,4400.000000000001,4308.205128205129,4342.051282051282,4577.435897435898
5401.9233,0.9492842,0.8260388,0.33333334,0.5522388,0,0.0,0.5568588,0.0,0.0,0.0,0,0,0.0,0.0,0,0,57.0,0.0,0.0,4672.307692307693,3954.8717948717954,4508.205128205129,4448.717948717949,4250.769230769231,4569.2307692307695,4450.256410256411,4497.435897435898,4180.000000000001,4831.282051282052,4399.48717948718,4311.794871794872,4298.974358974359,4566.666666666667
5402.205,0.8500118,0.8496989,0.33333334,0.5522388,0,0.0,0.7184077,0.0,0.0,0.0,0,0,0.0,0.0,0,0,93.0,0.0,346.0,4636.923076923077,3941.538461538462,4504.102564102564,4446.153846153847,4251.282051282052,4567.179487179488,4452.307692307693,4451.794871794872,4222.564102564103,4687.6923076923085,4379.48717948718,4295.384615384616,4161.538461538462,4568.205128205129
5402.424,0.8500118,0.8496989,0.33333334,0.5522388,0,0.0,0.6768043,0.0,0.0,0.0,0,0,0.0,0.0,0,0,121.0,0.0,346.0,4633.846153846154,3942.0512820512827,4501.025641025642,4443.589743589744,4248.205128205129,4553.846153846154,4450.769230769231,4443.589743589744,4035.8974358974365,4654.871794871796,4379.48717948718,4288.205128205129,4170.769230769231,4540.512820512821
5402.7056,0.8862448,0.8646461,0.33333334,0.5522388,0,0.0,0.45690703,0.0,0.0,0.0,0,0,0.0,0.0,0,0,28.0,0.0,0.0,4646.666666666667,3953.333333333334,4512.307692307693,4459.48717948718,4251.282051282052,4570.769230769231,4455.8974358974365,4467.179487179487,4401.538461538462,4769.743589743591,4385.128205128206,4295.384615384616,4229.74358974359,4545.641025641026
5402.7993,0.8862448,0.8646461,0.33333334,0.5522388,0,0.0,1.0,0.0,0.0,0.0,0,0,0.0,0.0,0,0,40.0,0.0,0.0,4660.000000000001,3945.6410256410263,4505.641025641026,4454.358974358975,4251.282051282052,4565.641025641026,4458.461538461539,4482.051282051282,4472.307692307693,4827.6923076923085,4391.282051282052,4301.025641025642,4280.000000000001,4547.6923076923085
5403.206,0.904763,0.87775576,0.33333334,0.5522388,0,0.0,0.613155,0.0,0.0,0.0,0,0,0.0,0.0,0,0,92.0,0.0,192.0,4617.435897435898,3939.48717948718,4507.6923076923085,4448.205128205129,4248.717948717949,4554.871794871796,4469.743589743591,4456.923076923077,4433.846153846154,4741.025641025642,4383.589743589744,4294.871794871796,4223.589743589744,4556.410256410257
5403.425,0.904763,0.87775576,0.33333334,0.5522388,0,0.0,0.6617648,0.0,0.0,0.0,0,0,0.0,0.0,0,0,120.0,0.0,192.0,4634.358974358975,3943.589743589744,4503.076923076924,4456.923076923077,4223.076923076924,4523.076923076924,4454.358974358975,4437.435897435898,4103.589743589744,4647.179487179488,4376.923076923077,4296.410256410257,4163.076923076924,4546.153846153847
5403.7065,0.88754046,0.8641332,0.33333334,0.5522388,0,0.0,1.0,0.0,0.0,0.0,0,0,0.0,0.0,0,0,27.0,0.0,0.0,4660.512820512821,3945.1282051282055,4515.384615384616,4455.384615384616,4249.74358974359,4555.384615384616,4472.307692307693,4487.179487179488,4540.512820512821,4842.051282051283,4390.256410256411,4302.564102564103,4273.333333333334,4571.282051282052
5403.7065,0.88754046,0.8641332,0.33333334,0.5522388,0,0.0,1.0,0.0,0.0,0.0,0,0,0.0,0.0,0,0,27.0,0.0,0.0,4660.512820512821,3945.1282051282055,4515.384615384616,4455.384615384616,4249.74358974359,4555.384615384616,4472.307692307693,4487.179487179488,4540.512820512821,4842.051282051283,4390.256410256411,4302.564102564103,4273.333333333334,4571.282051282052
5404.2065,0.7934474,0.8503465,0.33333334,0.5522388,0,0.0,0.4259102,0.0,0.0,0.0,0,0,0.0,0.0,0,0,91.0,0.0,494.0,4656.410256410257,3955.8974358974365,4519.48717948718,4460.512820512821,4278.974358974359,4586.153846153847,4475.8974358974365,4487.179487179488,4568.717948717949,4845.128205128206,4389.2307692307695,4297.948717948719,4243.076923076924,4570.769230769231
5404.426,0.7934474,0.8503465,0.33333334,0.5522388,0,0.0,0.42505673,0.0,0.0,0.0,0,0,0.0,0.0,0,0,119.0,0.0,494.0,4648.717948717949,3944.1025641025644,4511.794871794872,4451.794871794872,4265.641025641026,4572.820512820514,4464.615384615385,4468.717948717949,4337.435897435898,4763.589743589744,4387.179487179487,4293.846153846154,4224.615384615385,4544.102564102564
5404.707,0.78630286,0.84371674,0.33333334,0.5522388,0,0.0,0.35470533,0.0,0.0,0.0,0,0,0.0,0.0,0,0,26.0,0.0,0.0,4654.358974358975,3943.589743589744,4501.538461538462,4446.666666666667,4263.589743589744,4569.743589743591,4467.179487179487,4382.051282051282,4168.205128205129,4432.307692307693,4362.564102564103,4282.051282051282,4080.5128205128212,4164.102564102564
5404.8013,0.78630286,0.84371674,0.33333334,0.5522388,0,0.0,1.0,0.0,0.0,0.0,0,0,0.0,0.0,0,0,38.0,0.0,0.0,4658.461538461539,3943.589743589744,4497.948717948719,4449.2307692307695,4263.076923076924,4571.282051282052,4475.8974358974365,4476.923076923077,4191.794871794872,4784.102564102564,4390.769230769231,4298.461538461539,4259.48717948718,4513.846153846154
5405.239,0.78019536,0.8378473,0.33333334,0.5522388,0,0.0,1.0,0.0,0.0,0.0,0,0,0.0,0.0,0,0,94.0,0.0,1556.0,4676.410256410257,3944.1025641025644,4517.435897435898,4450.256410256411,4263.589743589744,4572.820512820514,4474.871794871796,4536.923076923077,4797.435897435898,5015.384615384616,4416.923076923077,4308.717948717949,4420.000000000001,4574.871794871796
5405.427,0.78019536,0.8378473,0.33333334,0.5522388,0,0.0,0.9626967,0.0,0.0,0.0,0,0,0.0,0.0,0,0,118.0,0.0,1556.0,4664.615384615386,3945.6410256410263,4524.102564102564,4447.179487179487,4263.589743589744,4571.794871794872,4462.051282051282,4566.666666666667,4658.461538461539,5093.846153846154,4434.871794871796,4309.2307692307695,4515.8974358974365,4593.333333333334
5405.708,0.67566574,0.8325647,0.33333334,0.5522388,0,0.0,1.0,0.0,0.0,0.0,0,0,0.0,0.0,0,0,25.0,0.0,0.0,4664.102564102564,3938.461538461539,4523.076923076924,4443.589743589744,4265.641025641026,4577.948717948719,4458.974358974359,4634.358974358975,4879.48717948718,5336.410256410257,4465.128205128206,4322.051282051282,4705.641025641026,4651.794871794872
5405.708,0.67566574,0.8325647,0.33333334,0.5522388,0,0.0,1.0,0.0,0.0,0.0,0,0,0.0,0.0,0,0,25.0,0.0,0.0,4664.102564102564,3938.461538461539,4523.076923076924,4443.589743589744,4265.641025641026,4577.948717948719,4458.974358974359,4634.358974358975,4879.48717948718,5336.410256410257,4465.128205128206,4322.051282051282,4705.641025641026,4651.794871794872
5406.2085,0.80231595,0.82781047,0.33333334,0.5522388,0,0.0,1.0,0.0,0.0,0.0,0,0,0.0,0.0,0,0,89.0,0.0,346.0,4649.743589743591,3943.076923076924,4511.794871794872,4445.128205128206,4251.794871794872,4568.205128205129,4433.846153846154,4553.333333333334,4612.820512820514,4970.769230769231,4438.974358974359,4295.384615384616,4413.333333333334,4609.743589743591
5406.2085,0.80231595,0.82781047,0.33333334,0.5522388,0,0.0,1.0,0.0,0.0,0.0,0,0,0.0,0.0,0,0,89.0,0.0,346.0,4649.743589743591,3943.076923076924,4511.794871794872,4445.128205128206,4251.794871794872,4568.205128205129,4433.846153846154,4553.333333333334,4612.820512820514,4970.769230769231,4438.974358974359,4295.384615384616,4413.333333333334,4609.743589743591
5406.709,0.744456,0.8235316,0.33333334,0.5522388,0,0.0,0.96485317,0.0,0.0,0.0,0,0,0.0,0.0,0,0,24.0,0.0,0.0,4681.025641025642,3943.076923076924,4512.307692307693,4447.179487179487,4250.256410256411,4561.538461538462,4449.2307692307695,4545.128205128206,4605.128205128206,4933.846153846154,4435.384615384616,4293.846153846154,4340.512820512821,4637.948717948719
5406.8027,0.744456,0.8235316,0.33333334,0.5522388,0,0.0,1.0,0.0,0.0,0.0,0,0,0.0,0.0,0,0,36.0,0.0,0.0,4652.307692307693,3946.666666666667,4471.794871794872,4448.205128205129,4250.769230769231,4567.6923076923085,4461.025641025642,4365.128205128206,3434.3589743589746,4189.74358974359,4378.461538461539,4271.794871794872,3978.461538461539,3955.8974358974365
5407.2095,0.8213905,0.81968063,0.33333334,0.5522388,0,0.0,0.0,0.0,0.27738824,0.0,0,0,0.0,0.0,0,0,88.0,0.0,189.0,4615.384615384616,3924.1025641025644,4484.615384615385,4442.564102564103,4213.846153846154,4521.538461538462,4455.384615384616,4346.666666666667,4206.153846153847,4290.769230769231,4366.666666666667,4254.358974358975,3985.1282051282055,4153.846153846154
5407.428,0.8213905,0.81968063,0.33333334,0.5522388,0,0.0,0.0,0.0,0.43179905,0.0,0,0,0.0,0.0,0,1,116.0,0.0,189.0,4618.461538461539,3922.564102564103,4485.128205128206,4429.2307692307695,4184.615384615385,4477.948717948719,4437.948717948719,4316.923076923077,4167.6923076923085,4216.410256410257,4354.871794871796,4245.641025641026,3897.9487179487182,4258.461538461539
5407.71,0.76768005,0.8162148,0.33333334,0.5522388,0,0.0,0.0,0.0,0.12872642,0.0,0,0,0.0,0.0,0,0,23.0,0.0,0.0,4440.000000000001,3893.333333333334,4481.025641025642,4441.538461538462,4148.205128205129,4412.307692307693,4371.282051282052,4202.051282051282,3686.666666666667,3820.0000000000005,4317.435897435898,4154.358974358975,3765.6410256410263,4140.512820512821
5407.9287,0.76768005,0.8162148,0.33333334,0.5522388,0,0.0,0.0,0.0,0.049534295,0.0,0,0,0.0,0.0,0,0,51.0,0.0,0.0,4526.153846153847,3920.5128205128212,4500.512820512821,4442.051282051282,4153.846153846154,4416.923076923077,4410.769230769231,4327.6923076923085,4385.641025641026,4373.333333333334,4366.153846153847,4219.48717948718,4077.435897435898,4303.076923076924
5408.2104,0.8855584,0.8130955,0.33333334,0.5522388,0,0.0,1.0,0.0,0.0,0.0,0,0,0.0,0.0,0,1,87.0,0.0,489.0,4598.461538461539,3925.6410256410263,4513.846153846154,4431.794871794872,4173.333333333334,4441.538461538462,4448.717948717949,4509.743589743591,4831.794871794872,5068.205128205129,4419.48717948718,4274.871794871796,4415.384615384616,4744.615384615386
5408.429,0.8855584,0.8130955,0.33333334,0.5522388,0,0.0,1.0,0.0,0.0,0.0,0,0,0.0,0.0,0,0,115.0,0.0,489.0,4596.410256410257,3921.538461538462,4513.846153846154,4426.153846153847,4187.179487179487,4463.076923076924,4451.282051282052,4511.282051282052,4792.307692307693,5045.128205128206,4419.48717948718,4264.615384615385,4394.871794871796,4712.820512820514
5408.7104,0.87813604,0.81028813,0.33333334,0.5522388,0,0.0,0.57779706,0.0,0.0,0.0,0,0,0.0,0.0,0,0,22.0,0.0,0.0,4634.871794871796,3928.205128205129,4513.846153846154,4429.2307692307695,4203.076923076924,4489.743589743591,4434.871794871796,4524.615384615385,4721.538461538462,5051.282051282052,4425.641025641026,4269.2307692307695,4389.2307692307695,4705.128205128206
5408.9297,0.87813604,0.81028813,0.33333334,0.5522388,0,0.0,0.6731937,0.0,0.0,0.0,0,0,0.0,0.0,0,0,50.0,0.0,0.0,4671.794871794872,3929.2307692307695,4515.8974358974365,4436.923076923077,4215.8974358974365,4508.205128205129,4456.923076923077,4552.307692307693,4819.48717948718,5150.256410256411,4435.8974358974365,4285.641025641026,4416.923076923077,4732.820512820514
5409.211,0.81105286,0.80776155,0.33333334,0.5522388,0,0.0,0.80485934,0.0,0.0,0.0,0,0,0.0,0.0,0,0,86.0,0.0,1552.0,4688.205128205129,3936.410256410257,4516.923076923077,4442.564102564103,4229.2307692307695,4524.102564102564,4455.384615384616,4580.512820512821,4795.384615384616,5192.307692307693,4451.794871794872,4294.871794871796,4475.384615384616,4711.794871794872
5409.438,0.81105286,0.80776155,0.33333334,0.5522388,0,0.0,0.4751724,0.0,0.0,0.0,0,0,0.0,0.0,0,0,114.0,0.0,1552.0,4704.102564102564,3941.0256410256416,4515.384615384616,4443.076923076924,4230.769230769231,4537.948717948719,4470.769230769231,4577.435897435898,4784.102564102564,5181.538461538462,4449.743589743591,4290.256410256411,4449.743589743591,4680.000000000001
5409.719,0.73312575,0.8054876,0.33333334,0.5522388,0,0.0,0.82760364,0.0,0.0,0.0,0,0,0.0,0.0,0,0,21.0,0.0,0.0,4692.820512820514,3939.48717948718,4522.564102564103,4445.641025641026,4232.820512820514,4540.000000000001,4456.923076923077,4612.307692307693,4813.846153846154,5242.051282051283,4469.743589743591,4285.641025641026,4565.128205128206,4699.48717948718
5409.9385,0.73312575,0.8054876,0.33333334,0.5522388,0,0.0,0.9989729,0.0,0.0,0.0,0,0,0.0,0.0,0,0,49.0,0.0,0.0,4664.615384615386,3924.1025641025644,4515.8974358974365,4443.076923076924,4233.333333333334,4539.48717948718,4442.564102564103,4627.6923076923085,4809.743589743591,5294.871794871796,4486.666666666667,4273.333333333334,4649.2307692307695,4652.307692307693
5410.2197,0.65122443,0.8695854,0.33333334,0.5522388,0,0.0,0.69250184,0.0,0.0,0.0,0,0,0.0,0.0,0,0,85.0,0.0,346.0,4635.384615384616,3909.7435897435903,4520.000000000001,4442.051282051282,4246.153846153847,4545.641025641026,4424.615384615385,4661.538461538462,4827.179487179488,5291.794871794872,4512.820512820514,4264.615384615385,4766.153846153847,4636.410256410257
5410.4385,0.65122443,0.8695854,0.33333334,0.5522388,0,0.0,0.80333966,0.0,0.0,0.0,0,0,0.0,0.0,0,0,113.0,0.0,346.0,4590.769230769231,3911.7948717948725,4525.641025641026,4444.615384615385,4263.076923076924,4557.435897435898,4412.307692307693,4674.358974358975,4843.076923076924,5358.974358974359,4525.128205128206,4250.256410256411,4799.48717948718,4606.666666666667
5410.72,0.67518544,0.8801308,0.33333334,0.5522388,0,0.0,0.8043676,0.0,0.0,0.0,0,0,0.0,0.0,0,0,20.0,0.0,0.0,4582.051282051282,3909.7435897435903,4520.512820512821,4444.102564102564,4261.538461538462,4565.641025641026,4400.000000000001,4666.666666666667,4677.435897435898,5213.846153846154,4534.358974358975,4235.384615384616,4766.666666666667,4576.410256410257
5410.939,0.67518544,0.8801308,0.33333334,0.5522388,0,0.0,0.9016131,0.0,0.0,0.0,0,0,0.0,0.0,0,0,48.0,0.0,0.0,4565.641025641026,3909.2307692307695,4513.846153846154,4435.8974358974365,4264.615384615385,4555.384615384616,4392.307692307693,4634.871794871796,4640.000000000001,5159.487179487181,4526.666666666667,4227.179487179487,4645.641025641026,4546.666666666667
5411.2207,0.67767614,0.8600798,0.33333334,0.5522388,0,0.0,1.0,0.0,0.0,0.0,0,0,0.0,0.0,0,0,84.0,0.0,187.0,4603.076923076924,3914.358974358975,4519.48717948718,4444.102564102564,4275.384615384616,4570.769230769231,4407.179487179487,4654.871794871796,4542.051282051282,5128.717948717949,4533.846153846154,4242.051282051282,4628.205128205129,4558.974358974359
5411.4395,0.67767614,0.8600798,0.33333334,0.5522388,0,0.0,0.9095326,0.0,0.0,0.0,0,0,0.0,0.0,0,0,112.0,0.0,187.0,4605.641025641026,3925.6410256410263,4518.461538461539,4446.153846153847,4280.000000000001,4587.179487179488,4418.461538461539,4641.538461538462,4621.538461538462,5117.435897435898,4529.2307692307695,4245.641025641026,4529.743589743591,4542.051282051282
5411.721,0.80370843,0.8579943,0.33333334,0.5522388,0,0.0,1.0,0.0,0.0,0.0,0,0,0.0,0.0,0,0,19.0,0.0,0.0,4592.820512820514,3921.0256410256416,4494.358974358975,4437.948717948719,4264.615384615385,4569.2307692307695,4400.000000000001,4563.589743589744,4071.7948717948725,4796.923076923077,4494.871794871796,4225.641025641026,4294.358974358975,4520.512820512821
5411.721,0.80370843,0.8579943,0.33333334,0.5522388,0,0.0,1.0,0.0,0.0,0.0,0,0,0.0,0.0,0,0,19.0,0.0,0.0,4592.820512820514,3921.0256410256416,4494.358974358975,4437.948717948719,4264.615384615385,4569.2307692307695,4400.000000000001,4563.589743589744,4071.7948717948725,4796.923076923077,4494.871794871796,4225.641025641026,4294.358974358975,4520.512820512821
5412.2217,0.75648713,0.852498,0.33333334,0.5522388,0,0.0,0.0,0.0,0.060507886,0.0,0,0,0.0,0.0,0,0,83.0,0.0,489.0,4656.923076923077,3935.3846153846157,4503.589743589744,4442.051282051282,4250.769230769231,4565.641025641026,4428.717948717949,4588.205128205129,4214.358974358975,4890.769230769231,4501.025641025642,4253.846153846154,4336.923076923077,4522.564102564103
5412.4404,0.75648713,0.852498,0.33333334,0.5522388,0,0.0,0.0,0.0,0.058506798,0.0,0,0,0.0,0.0,0,0,111.0,0.0,489.0,4632.820512820514,3925.1282051282055,4501.538461538462,4443.076923076924,4246.666666666667,4553.333333333334,4425.641025641026,4576.923076923077,4349.2307692307695,4875.384615384616,4496.923076923077,4245.128205128206,4335.384615384616,4503.589743589744
5412.7217,0.7488436,0.85089135,0.33333334,0.5522388,0,0.0,0.5896026,0.0,0.0,0.0,0,0,0.0,0.0,0,0,18.0,0.0,0.0,4631.794871794872,3927.692307692308,4493.333333333334,4438.974358974359,4243.076923076924,4550.256410256411,4433.333333333334,4546.666666666667,4048.717948717949,4753.333333333334,4483.076923076924,4249.2307692307695,4232.307692307693,4502.051282051282
5412.941,0.7488436,0.85089135,0.33333334,0.5522388,0,0.0,0.60787064,0.0,0.0,0.0,0,0,0.0,0.0,0,0,46.0,0.0,0.0,4641.025641025642,3933.8461538461543,4489.743589743591,4438.974358974359,4244.102564102564,4555.384615384616,4431.794871794872,4521.025641025642,4105.128205128206,4675.8974358974365,4471.794871794872,4248.205128205129,4143.076923076924,4505.128205128206
5413.222,0.8689824,0.8475955,0.33333334,0.5522388,0,0.0,0.0,0.0,0.08847512,0.0,0,0,0.0,0.0,0,0,82.0,0.0,1557.0,4669.743589743591,3935.3846153846157,4491.794871794872,4436.410256410257,4247.6923076923085,4564.615384615385,4445.641025641026,4533.333333333334,3976.410256410257,4711.282051282052,4472.820512820514,4259.48717948718,4142.564102564103,4516.410256410257
5413.4414,0.8689824,0.8475955,0.33333334,0.5522388,0,0.0,0.0,0.0,0.065329045,0.0,0,0,0.0,0.0,0,0,110.0,0.0,1557.0,4666.666666666667,3940.5128205128212,4494.871794871796,4442.051282051282,4261.538461538462,4565.641025641026,4457.948717948719,4530.256410256411,4165.128205128206,4738.461538461539,4472.820512820514,4264.102564102564,4151.794871794872,4504.615384615385
5413.7227,0.896087,0.83560914,0.33333334,0.5522388,0,0.0,0.34836152,0.0,0.0,0.0,0,0,0.0,0.0,0,0,17.0,0.0,0.0,4657.948717948719,3938.461538461539,4490.769230769231,4440.512820512821,4261.538461538462,4568.717948717949,4448.205128205129,4508.205128205129,3873.8461538461543,4649.743589743591,4463.076923076924,4258.974358974359,4100.512820512821,4503.076923076924
5413.942,0.896087,0.83560914,0.33333334,0.5522388,0,0.0,0.3506234,0.0,0.0,0.0,0,0,0.0,0.0,0,0,45.0,0.0,0.0,4683.589743589744,3942.564102564103,4489.743589743591,4435.384615384616,4251.282051282052,4560.512820512821,4453.333333333334,4492.820512820514,4005.1282051282055,4613.333333333334,4445.128205128206,4271.794871794872,4044.1025641025644,4516.923076923077
5414.223,0.93606406,0.8321598,0.33333334,0.5522388,0,0.0,0.45314568,0.0,0.0,0.0,0,0,0.0,0.0,0,0,81.0,0.0,351.0,4667.6923076923085,3942.564102564103,4485.641025641026,4444.615384615385,4260.512820512821,4565.128205128206,4457.435897435898,4489.2307692307695,3825.6410256410263,4602.051282051282,4441.538461538462,4273.333333333334,4050.7692307692314,4505.128205128206
5414.442,0.93606406,0.8321598,0.33333334,0.5522388,0,0.0,0.40733925,0.0,0.0,0.0,0,0,0.0,0.0,0,0,109.0,0.0,351.0,4661.025641025642,3948.205128205129,4490.256410256411,4448.205128205129,4258.461538461539,4566.666666666667,4442.051282051282,4470.256410256411,3953.8461538461543,4563.589743589744,4428.205128205129,4264.102564102564,4013.8461538461543,4505.128205128206
5414.7236,1.0,0.8448586,0.33333334,0.5522388,0,0.0,0.42067716,0.0,0.0,0.0,0,0,0.0,0.0,0,0,16.0,0.0,0.0,4684.102564102564,3941.0256410256416,4492.820512820514,4442.051282051282,4255.384615384616,4558.461538461539,4464.102564102564,4484.615384615385,3894.8717948717954,4628.205128205129,4429.2307692307695,4280.512820512821,4070.2564102564106,4509.743589743591
5414.9424,1.0,0.8448586,0.33333334,0.5522388,0,0.0,0.0,0.0,0.06466398,0.0,0,0,0.0,0.0,0,0,44.0,0.0,0.0,4671.282051282052,3943.076923076924,4488.717948717949,4445.641025641026,4251.794871794872,4563.076923076924,4448.205128205129,4462.564102564103,3935.8974358974365,4575.8974358974365,4418.461538461539,4267.6923076923085,4030.7692307692314,4522.051282051282
5415.224,1.0,0.85773206,0.33333334,0.5522388,0,0.0,1.0,0.0,0.0,0.0,0,0,0.0,0.0,0,0,80.0,0.0,187.0,4710.256410256411,3955.3846153846157,4504.102564102564,4451.282051282052,4258.461538461539,4567.179487179488,4455.384615384616,4521.025641025642,4065.1282051282055,4799.48717948718,4441.538461538462,4286.666666666667,4219.48717948718,4546.153846153847
5415.443,1.0,0.85773206,0.33333334,0.5522388,0,0.0,0.99066204,0.0,0.0,0.0,0,0,0.0,0.0,0,0,108.0,0.0,187.0,4672.307692307693,3948.205128205129,4494.358974358975,4452.820512820514,4262.051282051282,4567.179487179488,4459.48717948718,4493.846153846154,3989.7435897435903,4687.6923076923085,4422.051282051282,4278.461538461539,4138.461538461539,4524.102564102564
5415.7246,1.0,0.8708432,0.33333334,0.5522388,0,0.0,1.0,0.0,0.0,0.0,0,0,0.0,0.0,0,0,15.0,0.0,490.0,4673.333333333334,3942.564102564103,4492.820512820514,4445.128205128206,4260.512820512821,4567.6923076923085,4454.358974358975,4485.641025641026,4000.0000000000005,4689.2307692307695,4418.974358974359,4283.076923076924,4138.974358974359,4543.589743589744
5415.9434,1.0,0.8708432,0.33333334,0.5522388,0,0.0,0.6341797,0.0,0.0,0.0,0,0,0.0,0.0,0,0,43.0,0.0,0.0,4656.923076923077,3938.461538461539,4487.179487179488,4442.564102564103,4260.000000000001,4565.641025641026,4458.974358974359,4459.48717948718,3864.1025641025644,4600.512820512821,4404.615384615385,4276.923076923077,4085.6410256410263,4520.000000000001
5416.225,1.0,0.88547176,0.33333334,0.5522388,0,0.0,0.42768753,0.0,0.0,0.0,0,0,0.0,0.0,0,0,79.0,0.0,490.0,4654.871794871796,3925.6410256410263,4488.205128205129,4436.410256410257,4247.179487179487,4554.358974358975,4449.743589743591,4437.435897435898,3929.2307692307695,4546.666666666667,4395.384615384616,4269.74358974359,4037.9487179487182,4537.948717948719
5416.444,1.0,0.88547176,0.33333334,0.5522388,0,0.0,0.4763893,0.0,0.0,0.0,0,0,0.0,0.0,0,0,107.0,0.0,490.0,4664.615384615386,3934.8717948717954,4488.205128205129,4442.051282051282,4249.74358974359,4556.410256410257,4462.564102564103,4465.128205128206,3945.6410256410263,4661.025641025642,4403.076923076924,4286.666666666667,4132.820512820514,4555.384615384616
5416.725,0.9333253,0.872677,0.33333334,0.5522388,0,0.0,0.49517047,0.0,0.0,0.0,0,0,0.0,0.0,0,0,14.0,0.0,1558.0,4605.641025641026,3938.461538461539,4490.256410256411,4442.564102564103,4246.666666666667,4554.871794871796,4445.128205128206,4448.205128205129,3993.8461538461543,4600.000000000001,4398.461538461539,4277.948717948719,4120.000000000001,4526.153846153847
5416.9443,0.9333253,0.872677,0.33333334,0.5522388,0,0.0,0.45181608,0.0,0.0,0.0,0,0,0.0,0.0,0,0,42.0,0.0,0.0,4629.743589743591,3943.589743589744,4496.923076923077,4446.666666666667,4247.6923076923085,4555.384615384616,4446.153846153847,4483.076923076924,4025.6410256410263,4737.948717948719,4411.282051282052,4287.179487179487,4220.000000000001,4546.153846153847
5417.2256,0.9580565,0.85553724,0.33333334,0.5522388,0,0.0,1.0,0.0,0.0,0.0,0,0,0.0,0.0,0,0,78.0,0.0,1558.0,4631.794871794872,3942.0512820512827,4501.538461538462,4445.128205128206,4245.128205128206,4552.820512820514,4465.641025641026,4482.564102564103,4176.923076923077,4747.6923076923085,4409.2307692307695,4297.948717948719,4212.820512820514,4554.871794871796
5417.445,0.9580565,0.85553724,0.33333334,0.5522388,0,0.0,0.51477593,0.0,0.0,0.0,0,0,0.0,0.0,0,0,106.0,0.0,1558.0,4639.48717948718,3944.1025641025644,4491.794871794872,4445.641025641026,4245.641025641026,4551.794871794872,4462.564102564103,4465.641025641026,3972.307692307693,4675.8974358974365,4400.512820512821,4287.179487179487,4154.871794871796,4536.923076923077
5417.726,0.91444033,0.82992476,0.33333334,0.5522388,0,0.0,0.42769793,0.0,0.0,0.0,0,0,0.0,0.0,0,0,13.0,0.0,350.0,4650.256410256411,3953.333333333334,4508.717948717949,4454.358974358975,4247.179487179487,4556.923076923077,4462.051282051282,4483.589743589744,4245.641025641026,4772.820512820514,4406.153846153847,4292.307692307693,4222.564102564103,4541.538461538462
5417.9453,0.91444033,0.82992476,0.33333334,0.5522388,0,0.0,0.6808166,0.0,0.0,0.0,0,0,0.0,0.0,0,0,41.0,0.0,0.0,4650.256410256411,3944.1025641025644,4500.000000000001,4456.410256410257,4229.2307692307695,4530.256410256411,4454.871794871796,4471.282051282052,4014.8717948717954,4719.48717948718,4400.000000000001,4289.2307692307695,4200.000000000001,4548.717948717949
5418.2266,1.0,0.7948312,0.33333334,0.5522388,0,0.0,0.70628434,0.0,0.0,0.0,0,0,0.0,0.0,0,0,77.0,0.0,350.0,4668.205128205129,3956.9230769230776,4515.384615384616,4460.000000000001,4236.410256410257,4540.000000000001,4460.512820512821,4491.794871794872,4339.48717948718,4804.102564102564,4404.615384615385,4295.8974358974365,4233.333333333334,4559.48717948718
5418.446,1.0,0.7948312,0.33333334,0.5522388,0,0.0,0.6345619,0.0,0.0,0.0,0,0,0.0,0.0,0,0,105.0,0.0,350.0,4646.153846153847,3940.5128205128212,4495.384615384616,4445.128205128206,4229.2307692307695,4523.076923076924,4451.282051282052,4473.333333333334,4084.615384615385,4737.948717948719,4398.461538461539,4287.6923076923085,4229.2307692307695,4572.820512820514
5418.727,1.0,0.76570994,0.33333334,0.5522388,0,0.0,0.78946596,0.0,0.0,0.0,0,0,0.0,0.0,0,0,12.0,0.0,188.0,4646.666666666667,3939.48717948718,4514.871794871796,4446.666666666667,4232.307692307693,4535.8974358974365,4455.384615384616,4514.871794871796,4483.076923076924,4903.076923076924,4418.461538461539,4298.461538461539,4342.051282051282,4613.333333333334
5418.946,1.0,0.76570994,0.33333334,0.5522388,0,0.0,0.57356924,0.0,0.0,0.0,0,0,0.0,0.0,0,0,40.0,0.0,0.0,4650.769230769231,3955.8974358974365,4507.179487179488,4458.461538461539,4243.076923076924,4540.512820512821,4457.948717948719,4503.589743589744,4219.48717948718,4826.153846153847,4413.333333333334,4299.48717948718,4285.128205128206,4549.2307692307695
5419.2275,1.0,0.737877,0.33333334,0.5522388,0,0.0,0.627948,0.0,0.0,0.0,0,0,0.0,0.0,0,0,76.0,0.0,188.0,4628.717948717949,3941.538461538462,4509.2307692307695,4452.307692307693,4238.461538461539,4535.384615384616,4427.6923076923085,4467.179487179487,4351.282051282052,4710.256410256411,4398.974358974359,4274.871794871796,4215.384615384616,4529.2307692307695
5419.4463,1.0,0.737877,0.33333334,0.5522388,0,0.0,0.5913988,0.0,0.0,0.0,0,0,0.0,0.0,0,0,104.0,0.0,188.0,4639.48717948718,3945.1282051282055,4508.205128205129,4453.846153846154,4245.128205128206,4550.256410256411,4447.6923076923085,4494.358974358975,4272.307692307693,4802.051282051282,4411.282051282052,4293.333333333334,4274.358974358975,4543.589743589744
5419.728,1.0,0.71471226,0.33333334,0.5522388,0,0.0,0.8668431,0.0,0.0,0.0,0,0,0.0,0.0,0,0,11.0,0.0,492.0,4661.025641025642,3945.1282051282055,4511.794871794872,4456.410256410257,4246.666666666667,4553.333333333334,4467.6923076923085,4464.102564102564,4432.307692307693,4718.461538461539,4390.769230769231,4285.128205128206,4156.923076923077,4538.461538461539
5419.947,1.0,0.71471226,0.33333334,0.5522388,0,0.0,1.0,0.0,0.0,0.0,0,0,0.0,0.0,0,0,39.0,0.0,0.0,4609.743589743591,3941.538461538462,4493.333333333334,4458.974358974359,4181.538461538462,4470.256410256411,4448.717948717949,4378.974358974359,3951.2820512820517,4397.948717948719,4360.512820512821,4257.948717948719,3970.7692307692314,4528.205128205129
5420.2285,1.0,0.6967323,0.33333334,0.5522388,0,0.0,1.0,0.0,0.0,0.0,0,0,0.0,0.0,0,0,75.0,0.0,492.0,4602.564102564103,3936.9230769230776,4493.333333333334,4447.179487179487,4191.794871794872,4475.384615384616,4444.102564102564,4353.846153846154,4156.923076923077,4352.820512820514,4347.179487179487,4246.153846153847,3929.2307692307695,4497.948717948719
5420.2285,1.0,0.6967323,0.33333334,0.5522388,0,0.0,1.0,0.0,0.0,0.0,0,0,0.0,0.0,0,0,75.0,0.0,492.0,4602.564102564103,3936.9230769230776,4493.333333333334,4447.179487179487,4191.794871794872,4475.384615384616,4444.102564102564,4353.846153846154,4156.923076923077,4352.820512820514,4347.179487179487,4246.153846153847,3929.2307692307695,4497.948717948719
5420.729,1.0,0.6848751,0.33333334,0.5522388,0,0.0,1.0,0.0,0.0,0.0,0,0,0.0,0.0,0,0,10.0,0.0,1549.0,4654.358974358975,3943.076923076924,4515.384615384616,4445.128205128206,4249.74358974359,4554.871794871796,4468.205128205129,4457.948717948719,4662.564102564103,4769.2307692307695,4377.435897435898,4287.179487179487,4187.179487179487,4558.974358974359
5420.9478,1.0,0.6848751,0.33333334,0.5522388,0,0.0,0.8332086,0.0,0.0,0.0,0,0,0.0,0.0,0,0,38.0,0.0,0.0,4677.948717948719,3950.2564102564106,4511.794871794872,4444.102564102564,4261.538461538462,4569.2307692307695,4466.666666666667,4475.384615384616,4507.179487179488,4819.48717948718,4383.076923076924,4298.461538461539,4219.48717948718,4562.051282051282
5421.229,1.0,0.6791853,0.33333334,0.5522388,0,0.0,0.5413398,0.0,0.0,0.0,0,0,0.0,0.0,0,0,74.0,0.0,1548.0,4664.615384615386,3941.0256410256416,4504.615384615385,4437.435897435898,4253.846153846154,4567.6923076923085,4466.153846153847,4469.2307692307695,4688.717948717949,4809.2307692307695,4379.48717948718,4295.8974358974365,4234.871794871796,4544.102564102564
5421.448,1.0,0.6791853,0.33333334,0.5522388,0,0.0,0.6533479,0.0,0.0,0.0,0,0,0.0,0.0,0,0,102.0,0.0,1548.0,4672.307692307693,3954.358974358975,4516.410256410257,4447.6923076923085,4270.256410256411,4585.128205128206,4464.102564102564,4504.615384615385,4606.666666666667,4916.410256410257,4395.8974358974365,4302.051282051282,4306.666666666667,4560.000000000001
5421.7295,0.9529319,0.6732314,0.33333334,0.5522388,0,0.0,0.92031014,0.0,0.0,0.0,0,0,0.0,0.0,0,0,9.0,0.0,3719.0,4687.179487179488,3949.2307692307695,4518.974358974359,4447.6923076923085,4270.769230769231,4585.128205128206,4453.846153846154,4491.794871794872,4733.333333333334,4866.153846153847,4388.205128205129,4297.435897435898,4254.871794871796,4557.435897435898
5421.9487,0.9529319,0.6732314,0.33333334,0.5522388,0,0.0,0.974256,0.0,0.0,0.0,0,0,0.0,0.0,0,0,37.0,0.0,0.0,4683.076923076924,3948.205128205129,4519.48717948718,4446.666666666667,4274.358974358975,4585.128205128206,4480.000000000001,4502.051282051282,4638.461538461539,4888.717948717949,4394.358974358975,4298.461538461539,4296.923076923077,4526.666666666667
5422.23,0.92981464,0.68243694,0.33333334,0.5522388,0,0.0,0.6539885,0.0,0.0,0.0,0,0,0.0,0.0,0,0,73.0,0.0,3722.0,4661.538461538462,3941.538461538462,4510.256410256411,4443.589743589744,4265.128205128206,4576.410256410257,4459.48717948718,4472.820512820514,4634.871794871796,4799.48717948718,4385.128205128206,4284.615384615385,4231.794871794872,4532.307692307693
5422.4727,0.92981464,0.68243694,0.33333334,0.5522388,0,0.0,0.4104813,0.0,0.0,0.0,0,0,0.0,0.0,0,0,105.0,0.0,350.0,4684.102564102564,3947.1794871794878,4511.794871794872,4447.6923076923085,4273.333333333334,4583.076923076924,4456.923076923077,4462.051282051282,4535.384615384616,4756.410256410257,4378.461538461539,4284.615384615385,4180.512820512821,4510.256410256411
5422.7227,0.8859779,0.6974697,0.33333334,0.5522388,0,0.0,0.69863164,0.0,0.0,0.0,0,0,0.0,0.0,0,0,8.0,0.0,6339.0,4661.025641025642,3936.9230769230776,4497.948717948719,4439.48717948718,4255.8974358974365,4569.743589743591,4457.948717948719,4431.282051282052,4473.333333333334,4642.564102564103,4367.179487179487,4276.410256410257,4130.256410256411,4490.769230769231
5422.9414,0.8859779,0.6974697,0.33333334,0.5522388,0,0.0,1.0,0.0,0.0,0.0,0,0,0.0,0.0,0,0,36.0,0.0,0.0,4672.820512820514,3937.9487179487182,4514.358974358975,4444.615384615385,4263.076923076924,4577.948717948719,4469.743589743591,4483.589743589744,4682.564102564103,4845.641025641026,4386.153846153847,4300.512820512821,4259.48717948718,4558.461538461539
5423.223,0.87262374,0.7170864,0.33333334,0.5522388,0,0.0,1.0,0.0,0.0,0.0,0,0,0.0,0.0,0,0,72.0,0.0,6347.0,4692.820512820514,3946.1538461538466,4515.8974358974365,4452.307692307693,4263.589743589744,4572.307692307693,4465.128205128206,4501.538461538462,4668.717948717949,4897.948717948719,4393.846153846154,4300.512820512821,4309.743589743591,4541.025641025642
5423.442,0.87262374,0.7170864,0.33333334,0.5522388,0,0.0,0.5409843,0.0,0.0,0.0,0,0,0.0,0.0,0,0,100.0,0.0,188.0,4684.615384615386,3943.589743589744,4516.923076923077,4444.102564102564,4255.8974358974365,4569.743589743591,4461.538461538462,4493.846153846154,4716.410256410257,4855.384615384616,4393.846153846154,4294.358974358975,4300.000000000001,4521.025641025642
5423.7236,0.8676889,0.72474116,0.33333334,0.5522388,0,0.0,0.74629325,0.0,0.0,0.0,0,0,0.0,0.0,0,0,7.0,0.0,877.0,4689.2307692307695,3934.8717948717954,4513.333333333334,4443.076923076924,4264.102564102564,4570.769230769231,4465.641025641026,4520.512820512821,4649.2307692307695,4946.153846153847,4402.564102564103,4312.307692307693,4354.871794871796,4571.282051282052
5423.9424,0.8676889,0.72474116,0.33333334,0.5522388,0,0.0,1.0,0.0,0.0,0.0,0,0,0.0,0.0,0,0,35.0,0.0,0.0,4698.974358974359,3941.538461538462,4517.435897435898,4444.615384615385,4262.051282051282,4568.717948717949,4458.461538461539,4529.743589743591,4804.615384615386,4974.871794871796,4410.256410256411,4309.2307692307695,4387.179487179487,4561.538461538462
5424.224,0.81852704,0.7430287,0.33333334,0.5522388,0,0.0,0.42571968,0.0,0.0,0.0,0,0,0.0,0.0,0,0,71.0,0.0,881.0,4700.512820512821,3940.5128205128212,4513.333333333334,4445.128205128206,4265.128205128206,4570.769230769231,4464.102564102564,4546.153846153847,4622.051282051282,5005.128205128206,4420.000000000001,4311.794871794872,4427.179487179487,4544.615384615385
5424.443,0.81852704,0.7430287,0.33333334,0.5522388,0,0.0,0.48798186,0.0,0.0,0.0,0,0,0.0,0.0,0,0,99.0,0.0,492.0,4716.923076923077,3943.589743589744,4520.000000000001,4456.410256410257,4274.358974358975,4581.538461538462,4442.051282051282,4547.6923076923085,4789.743589743591,5013.846153846154,4417.948717948719,4313.846153846154,4397.435897435898,4576.410256410257
5424.7246,0.8641274,0.73943067,0.33333334,0.5522388,0,0.0,0.73877716,0.0,0.0,0.0,0,0,0.0,0.0,0,0,6.0,0.0,362.0,4687.6923076923085,3942.0512820512827,4500.000000000001,4443.076923076924,4260.512820512821,4568.205128205129,4452.307692307693,4507.179487179488,4402.564102564103,4841.538461538462,4406.153846153847,4297.948717948719,4309.2307692307695,4527.6923076923085
5424.9434,0.8641274,0.73943067,0.33333334,0.5522388,0,0.0,0.46166092,0.0,0.0,0.0,0,0,0.0,0.0,0,0,34.0,0.0,0.0,4682.564102564103,3941.0256410256416,4516.410256410257,4446.153846153847,4264.615384615385,4573.333333333334,4457.948717948719,4511.282051282052,4624.615384615385,4872.307692307693,4406.153846153847,4297.948717948719,4308.717948717949,4548.205128205129
5425.2246,0.78340626,0.711704,0.33333334,0.5522388,0,0.0,0.39199334,0.0,0.0,0.0,0,0,0.0,0.0,0,0,70.0,0.0,362.0,4696.923076923077,3943.076923076924,4501.025641025642,4443.076923076924,4264.102564102564,4571.282051282052,4462.051282051282,4509.2307692307695,4384.615384615385,4850.256410256411,4400.000000000001,4301.025641025642,4275.384615384616,4556.410256410257
5425.444,0.78340626,0.711704,0.33333334,0.5522388,0,0.0,0.39459297,0.0,0.0,0.0,0,0,0.0,0.0,0,0,98.0,0.0,1547.0,4693.846153846154,3944.1025641025644,4513.333333333334,4442.564102564103,4262.051282051282,4568.717948717949,4463.076923076924,4506.666666666667,4571.794871794872,4852.820512820514,4403.076923076924,4302.564102564103,4280.000000000001,4559.48717948718
5425.725,0.7612359,0.68662465,0.33333334,0.5522388,0,0.0,0.4738122,0.0,0.0,0.0,0,0,0.0,0.0,0,0,5.0,0.0,573.0,4669.2307692307695,3944.1025641025644,4491.282051282052,4444.615384615385,4254.358974358975,4565.128205128206,4452.820512820514,4473.846153846154,4205.641025641026,4714.358974358975,4391.282051282052,4284.102564102564,4194.871794871796,4537.948717948719
5425.9443,0.7612359,0.68662465,0.33333334,0.5522388,0,0.0,0.9973257,0.0,0.0,0.0,0,0,0.0,0.0,0,0,33.0,0.0,0.0,4675.384615384616,3941.0256410256416,4497.435897435898,4444.102564102564,4253.846153846154,4567.179487179488,4457.948717948719,4457.435897435898,4360.512820512821,4662.564102564103,4383.589743589744,4279.48717948718,4149.2307692307695,4509.743589743591
5426.2256,0.6974866,0.6590028,0.33333334,0.5522388,0,0.0,0.0,0.0,0.07927658,0.0,0,0,0.0,0.0,0,0,69.0,0.0,573.0,4686.666666666667,3943.076923076924,4488.717948717949,4443.589743589744,4245.641025641026,4556.410256410257,4451.282051282052,4470.769230769231,4157.948717948719,4717.948717948719,4390.256410256411,4290.256410256411,4212.820512820514,4513.333333333334
5426.445,0.6974866,0.6590028,0.33333334,0.5522388,0,0.0,0.0,0.0,0.07693483,0.0,0,0,0.0,0.0,0,0,97.0,0.0,350.0,4671.282051282052,3940.5128205128212,4499.48717948718,4442.051282051282,4245.641025641026,4554.358974358975,4458.974358974359,4481.538461538462,4443.076923076924,4772.307692307693,4394.358974358975,4291.282051282052,4240.512820512821,4550.256410256411
5426.726,0.6019146,0.6381755,0.33333334,0.5522388,0,0.0,0.4089029,0.0,0.0,0.0,0,0,0.0,0.0,0,0,4.0,0.0,582.0,4684.615384615386,3942.0512820512827,4491.794871794872,4443.076923076924,4248.717948717949,4556.923076923077,4458.461538461539,4485.128205128206,4160.512820512821,4774.871794871796,4394.358974358975,4300.000000000001,4240.000000000001,4548.205128205129
5426.945,0.6019146,0.6381755,0.33333334,0.5522388,0,0.0,0.4441967,0.0,0.0,0.0,0,0,0.0,0.0,0,0,32.0,0.0,0.0,4678.461538461539,3938.9743589743593,4498.461538461539,4442.564102564103,4243.076923076924,4553.333333333334,4465.128205128206,4497.948717948719,4455.384615384616,4836.923076923077,4401.025641025642,4303.076923076924,4294.871794871796,4547.179487179488
5427.2266,0.58402216,0.6349673,0.33333334,0.5522388,0,0.0,1.0,0.0,0.0,0.0,0,0,0.0,0.0,0,0,68.0,0.0,582.0,4676.923076923077,3942.0512820512827,4491.794871794872,4444.615384615385,4250.256410256411,4565.641025641026,4457.435897435898,4485.641025641026,4137.948717948719,4769.743589743591,4394.871794871796,4303.076923076924,4224.615384615385,4562.564102564103
5427.2266,0.58402216,0.6349673,0.33333334,0.5522388,0,0.0,1.0,0.0,0.0,0.0,0,0,0.0,0.0,0,0,68.0,0.0,582.0,4676.923076923077,3942.0512820512827,4491.794871794872,4444.615384615385,4250.256410256411,4565.641025641026,4457.435897435898,4485.641025641026,4137.948717948719,4769.743589743591,4394.871794871796,4303.076923076924,4224.615384615385,4562.564102564103
5427.727,0.5517671,0.6211118,0.33333334,0.5522388,0,0.0,0.65078354,0.0,0.0,0.0,0,0,0.0,0.0,0,0,3.0,0.0,558.0,4680.000000000001,3943.589743589744,4492.820512820514,4444.615384615385,4248.205128205129,4558.974358974359,4450.256410256411,4492.820512820514,4133.333333333334,4796.410256410257,4398.461538461539,4298.461538461539,4270.769230769231,4548.717948717949
5427.946,0.5517671,0.6211118,0.33333334,0.5522388,0,0.0,1.0,0.0,0.0,0.0,0,0,0.0,0.0,0,0,31.0,0.0,0.0,4667.6923076923085,3944.615384615385,4502.564102564103,4445.128205128206,4247.6923076923085,4555.8974358974365,4449.743589743591,4512.820512820514,4361.538461538462,4874.871794871796,4402.051282051282,4298.461538461539,4325.641025641026,4565.128205128206
5428.2275,0.5682671,0.61873996,0.33333334,0.5522388,0,0.0,0.53352785,0.0,0.0,0.0,0,0,0.0,0.0,0,0,67.0,0.0,558.0,4690.769230769231,3958.461538461539,4499.48717948718,4458.974358974359,4255.384615384616,4565.128205128206,4471.794871794872,4523.076923076924,4162.051282051282,4904.615384615386,4410.256410256411,4312.307692307693,4325.641025641026,4569.2307692307695
5428.4463,0.5682671,0.61873996,0.33333334,0.5522388,0,0.0,0.5076392,0.0,0.0,0.0,0,0,0.0,0.0,0,0,95.0,0.0,492.0,4703.589743589744,3957.9487179487182,4506.666666666667,4460.000000000001,4254.358974358975,4569.743589743591,4476.923076923077,4542.564102564103,4357.948717948719,4967.6923076923085,4413.846153846154,4319.48717948718,4368.717948717949,4576.410256410257
5428.728,0.5502334,0.62203985,0.33333334,0.5522388,0,0.0,0.6440438,0.0,0.0,0.0,0,0,0.0,0.0,0,0,2.0,0.0,500.0,4676.923076923077,3944.615384615385,4493.846153846154,4453.333333333334,4258.461538461539,4564.102564102564,4468.205128205129,4494.358974358975,4000.0000000000005,4779.48717948718,4398.461538461539,4298.461538461539,4214.358974358975,4579.48717948718
5428.822,0.5502334,0.62203985,0.33333334,0.5522388,0,0.0,1.0,0.0,0.0,0.0,0,0,0.0,0.0,0,0,14.0,0.0,1546.0,4647.179487179488,3940.0000000000005,4505.128205128206,4452.307692307693,4253.333333333334,4560.512820512821,4464.102564102564,4469.2307692307695,4279.48717948718,4710.769230769231,4386.666666666667,4292.307692307693,4176.410256410257,4555.8974358974365
5429.228,0.51555663,0.636337,0.33333334,0.5522388,0,0.0,0.60062146,0.0,0.0,0.0,0,0,0.0,0.0,0,0,66.0,0.0,500.0,4665.128205128206,3941.0256410256416,4492.820512820514,4450.769230769231,4263.076923076924,4574.358974358975,4461.025641025642,4495.384615384616,4038.9743589743593,4797.948717948719,4400.512820512821,4298.974358974359,4271.794871794872,4539.48717948718
5429.4473,0.51555663,0.636337,0.33333334,0.5522388,0,0.0,0.6095144,0.0,0.0,0.0,0,0,0.0,0.0,0,0,94.0,0.0,1545.0,4654.871794871796,3939.48717948718,4492.307692307693,4452.307692307693,4256.410256410257,4568.717948717949,4458.974358974359,4486.153846153847,4118.461538461539,4765.128205128206,4393.333333333334,4294.358974358975,4230.769230769231,4571.794871794872
5429.7285,0.45703334,0.6474478,0.33333334,0.5522388,0,0.0,0.43231726,0.0,0.0,0.0,0,0,0.0,0.0,0,0,1.0,0.0,455.0,4663.589743589744,3941.538461538462,4493.333333333334,4456.410256410257,4248.717948717949,4561.538461538462,4460.512820512821,4479.48717948718,3977.9487179487182,4742.051282051282,4389.2307692307695,4295.384615384616,4208.717948717949,4571.282051282052
5429.9478,0.45703334,0.6474478,0.33333334,0.5522388,0,0.0,0.35204807,0.0,0.0,0.0,0,0,0.0,0.0,0,0,29.0,0.0,0.0,4673.333333333334,3941.538461538462,4483.589743589744,4444.102564102564,4239.48717948718,4555.8974358974365,4452.820512820514,4467.6923076923085,4048.717948717949,4697.948717948719,4385.128205128206,4298.461538461539,4182.564102564103,4557.948717948719
5430.229,0.3919069,0.6550938,0.33333334,0.5522388,0,0.0,0.4578041,0.0,0.0,0.0,0,0,0.0,0.0,0,0,65.0,0.0,455.0,4654.871794871796,3943.076923076924,4497.435897435898,4452.820512820514,4256.923076923077,4564.615384615385,4464.102564102564,4487.179487179488,4031.2820512820517,4771.794871794872,4393.333333333334,4302.051282051282,4238.974358974359,4570.769230769231
5430.448,0.3919069,0.6550938,0.33333334,0.5522388,0,0.0,0.5570774,0.0,0.0,0.0,0,0,0.0,0.0,0,0,93.0,0.0,350.0,4662.564102564103,3945.1282051282055,4494.358974358975,4451.282051282052,4250.769230769231,4563.076923076924,4466.666666666667,4487.6923076923085,4073.8461538461543,4782.564102564103,4397.948717948719,4303.076923076924,4245.128205128206,4556.923076923077
5430.7295,0.34823224,0.6621805,0.33333334,0.5522388,0,0.0,0.51959354,0.0,0.0,0.0,0,0,0.0,0.0,0,0,0.0,0.0,378.0,4635.384615384616,3942.564102564103,4492.820512820514,4444.615384615385,4253.846153846154,4562.564102564103,4454.871794871796,4470.769230769231,3960.0000000000005,4710.256410256411,4389.2307692307695,4290.769230769231,4208.205128205129,4554.871794871796
5430.9487,0.34823224,0.6621805,0.33333334,0.5522388,0,0.0,0.61482525,0.0,0.0,0.0,0,0,0.0,0.0,0,0,28.0,0.0,0.0,4668.717948717949,3954.8717948717954,4492.820512820514,4450.256410256411,4263.589743589744,4572.820512820514,4436.410256410257,4480.000000000001,4041.538461538462,4760.000000000001,4390.769230769231,4296.923076923077,4226.666666666667,4548.205128205129
5431.23,0.32355714,0.66380495,0.33333334,0.5522388,0,0.0,1.0,0.0,0.0,0.0,0,0,0.0,0.0,0,0,64.0,0.0,378.0,4650.769230769231,3940.0000000000005,4494.871794871796,4442.051282051282,4249.2307692307695,4558.974358974359,4444.615384615385,4475.384615384616,3994.8717948717954,4731.282051282052,4398.461538461539,4294.871794871796,4239.48717948718,4537.435897435898
5431.23,0.32355714,0.66380495,0.33333334,0.5522388,0,0.0,1.0,0.0,0.0,0.0,0,0,0.0,0.0,0,0,64.0,0.0,378.0,4650.769230769231,3940.0000000000005,4494.871794871796,4442.051282051282,4249.2307692307695,4558.974358974359,4444.615384615385,4475.384615384616,3994.8717948717954,4731.282051282052,4398.461538461539,4294.871794871796,4239.48717948718,4537.435897435898
5431.7305,0.2944215,0.6654293,0.33333334,0.5522388,0,0.0,0.29780182,0.0,0.0,0.0,0,0,0.0,0.0,0,0,128.0,0.0,184.0,4669.2307692307695,3942.564102564103,4492.820512820514,4443.076923076924,4251.794871794872,4565.641025641026,4449.2307692307695,4448.717948717949,3925.1282051282055,4642.051282051282,4382.564102564103,4285.128205128206,4133.333333333334,4537.435897435898
5431.949,0.2944215,0.6654293,0.33333334,0.5522388,0,0.0,0.40294662,0.0,0.0,0.0,0,0,0.0,0.0,0,0,27.0,0.0,0.0,4658.461538461539,3945.1282051282055,4494.871794871796,4446.666666666667,4260.512820512821,4569.2307692307695,4457.435897435898,4463.589743589744,3945.1282051282055,4699.48717948718,4382.051282051282,4289.2307692307695,4184.102564102564,4521.025641025642
5432.231,0.24120164,0.6587098,0.33333334,0.5522388,0,0.0,0.0,0.0,0.073343955,0.0,0,0,0.0,0.0,0,0,63.0,0.0,0.0,4636.923076923077,3930.2564102564106,4488.205128205129,4442.564102564103,4255.384615384616,4567.179487179488,4452.307692307693,4430.769230769231,3915.8974358974365,4590.769230769231,4373.333333333334,4274.871794871796,4115.384615384616,4521.538461538462
5432.4497,0.24120164,0.6587098,0.33333334,0.5522388,0,0.0,0.53574663,0.0,0.0,0.0,0,0,0.0,0.0,0,0,91.0,0.0,492.0,4655.8974358974365,3938.461538461539,4492.820512820514,4444.102564102564,4261.538461538462,4569.2307692307695,4447.179487179487,4441.538461538462,3911.2820512820517,4647.179487179488,4371.794871794872,4290.256410256411,4123.589743589744,4557.948717948719
5432.7314,0.19948041,0.646481,0.33333334,0.5522388,0,0.0,0.4039989,0.0,0.0,0.0,0,0,0.0,0.0,0,0,127.0,0.0,492.0,4649.743589743591,3931.2820512820517,4497.948717948719,4443.589743589744,4263.076923076924,4570.256410256411,4447.179487179487,4428.717948717949,4009.7435897435903,4620.512820512821,4368.205128205129,4278.974358974359,4101.538461538462,4559.48717948718
5432.95,0.19948041,0.646481,0.33333334,0.5522388,0,0.0,1.0,0.0,0.0,0.0,0,0,0.0,0.0,0,0,26.0,0.0,0.0,4635.384615384616,3929.7435897435903,4482.051282051282,4436.923076923077,4250.256410256411,4562.051282051282,4447.179487179487,4425.641025641026,3857.9487179487182,4595.384615384616,4369.2307692307695,4278.974358974359,4109.74358974359,4549.2307692307695
5433.232,0.1848854,0.62624,0.33333334,0.5522388,0,0.0,1.0,0.0,0.0,0.0,0,0,0.0,0.0,0,0,62.0,0.0,0.0,4650.769230769231,3941.0256410256416,4500.512820512821,4442.564102564103,4251.282051282052,4562.051282051282,4450.256410256411,4432.820512820514,4096.923076923077,4649.2307692307695,4369.2307692307695,4282.564102564103,4135.384615384616,4538.461538461539
5433.4507,0.1848854,0.62624,0.33333334,0.5522388,0,0.0,0.41437215,0.0,0.0,0.0,0,0,0.0,0.0,0,0,90.0,0.0,1538.0,4631.282051282052,3937.9487179487182,4494.358974358975,4434.871794871796,4251.794871794872,4564.615384615385,4451.282051282052,4438.974358974359,3964.1025641025644,4657.948717948719,4368.205128205129,4282.051282051282,4158.974358974359,4557.948717948719
5433.732,0.14929183,0.60197747,0.33333334,0.5522388,0,0.0,0.4543184,0.0,0.0,0.0,0,0,0.0,0.0,0,0,126.0,0.0,1538.0,4638.974358974359,3936.410256410257,4500.000000000001,4443.076923076924,4248.717948717949,4561.538461538462,4454.358974358975,4428.717948717949,4121.538461538462,4650.769230769231,4369.743589743591,4271.282051282052,4168.717948717949,4517.435897435898
5433.951,0.14929183,0.60197747,0.33333334,0.5522388,0,0.0,0.7533571,0.0,0.0,0.0,0,0,0.0,0.0,0,0,25.0,0.0,0.0,4640.512820512821,3941.538461538462,4491.794871794872,4438.461538461539,4248.205128205129,4558.461538461539,4438.974358974359,4420.000000000001,3923.076923076924,4602.051282051282,4361.025641025642,4276.410256410257,4129.74358974359,4516.410256410257
5434.2324,0.15319787,0.5805753,0.33333334,0.5522388,0,0.0,0.49606335,0.0,0.0,0.0,0,0,0.0,0.0,0,0,61.0,0.0,0.0,4635.384615384616,3945.1282051282055,4503.076923076924,4445.641025641026,4258.461538461539,4571.794871794872,4447.179487179487,4423.589743589744,4212.820512820514,4661.025641025642,4365.128205128206,4263.076923076924,4173.333333333334,4481.538461538462
5434.326,0.15319787,0.5805753,0.33333334,0.5522388,0,0.0,1.0,0.0,0.0,0.0,0,0,0.0,0.0,0,0,73.0,0.0,3727.0,4629.743589743591,3941.538461538462,4512.820512820514,4444.102564102564,4247.6923076923085,4564.615384615385,4441.025641025642,4485.641025641026,4734.871794871796,4916.410256410257,4393.846153846154,4270.769230769231,4436.410256410257,4468.205128205129
5434.733,0.14249098,0.5713791,0.33333334,0.5522388,0,0.0,0.985889,0.0,0.0,0.0,0,0,0.0,0.0,0,0,125.0,0.0,350.0,4640.000000000001,3934.358974358975,4508.717948717949,4438.461538461539,4254.871794871796,4560.000000000001,4465.128205128206,4447.6923076923085,4338.461538461539,4750.256410256411,4378.461538461539,4277.948717948719,4235.8974358974365,4504.615384615385
5434.952,0.14249098,0.5713791,0.33333334,0.5522388,0,0.0,0.7681011,0.0,0.0,0.0,0,0,0.0,0.0,0,0,24.0,0.0,0.0,4618.461538461539,3915.8974358974365,4486.666666666667,4425.641025641026,4246.153846153847,4558.461538461539,4459.48717948718,4404.102564102564,3950.7692307692314,4565.128205128206,4361.025641025642,4263.076923076924,4115.384615384616,4493.846153846154
5435.2334,0.11935746,0.5678021,0.33333334,0.5522388,0,0.0,0.5170888,0.0,0.0,0.0,0,0,0.0,0.0,0,0,60.0,0.0,0.0,4646.153846153847,3929.7435897435903,4504.615384615385,4435.384615384616,4256.410256410257,4570.769230769231,4455.8974358974365,4443.589743589744,4389.2307692307695,4730.256410256411,4372.307692307693,4274.871794871796,4211.282051282052,4501.538461538462
5435.452,0.11935746,0.5678021,0.33333334,0.5522388,0,0.0,0.33157822,0.0,0.0,0.0,0,0,0.0,0.0,0,0,88.0,0.0,183.0,4631.282051282052,3927.1794871794878,4499.48717948718,4438.974358974359,4260.512820512821,4570.256410256411,4452.820512820514,4427.6923076923085,4093.333333333334,4657.435897435898,4363.589743589744,4264.615384615385,4165.128205128206,4479.48717948718
5435.734,0.08410948,0.56373155,0.33333334,0.5522388,0,0.0,1.0,0.0,0.0,0.0,0,0,0.0,0.0,0,0,124.0,0.0,183.0,4626.666666666667,3926.666666666667,4515.384615384616,4418.974358974359,4251.794871794872,4567.179487179488,4449.2307692307695,4554.358974358975,4726.666666666667,5127.179487179488,4424.615384615385,4293.333333333334,4647.6923076923085,4502.564102564103
5435.9526,0.08410948,0.56373155,0.33333334,0.5522388,0,0.0,1.0,0.0,0.0,0.0,0,0,0.0,0.0,0,0,23.0,0.0,0.0,4628.205128205129,3939.48717948718,4512.820512820514,4429.2307692307695,4255.384615384616,4570.256410256411,4457.948717948719,4481.538461538462,4288.717948717949,4816.923076923077,4389.743589743591,4280.512820512821,4309.743589743591,4502.564102564103
5436.2344,0.06749499,0.55711025,0.33333334,0.5522388,0,0.0,1.0,0.0,0.0,0.0,0,0,0.0,0.0,0,0,59.0,0.0,0.0,4620.000000000001,3928.205128205129,4502.564102564103,4424.102564102564,4250.769230769231,4566.666666666667,4441.025641025642,4443.589743589744,4426.153846153847,4715.384615384616,4379.48717948718,4263.589743589744,4203.589743589744,4517.948717948719
5436.453,0.06749499,0.55711025,0.33333334,0.5522388,0,0.0,0.6459598,0.0,0.0,0.0,0,0,0.0,0.0,0,0,87.0,0.0,496.0,4633.846153846154,3932.307692307693,4505.641025641026,4426.153846153847,4251.282051282052,4564.615384615385,4454.358974358975,4458.461538461539,4275.8974358974365,4745.641025641026,4382.051282051282,4272.820512820514,4215.8974358974365,4526.666666666667
5436.735,0.035382982,0.54279596,0.33333334,0.5522388,0,0.0,0.79739976,0.0,0.0,0.0,0,0,0.0,0.0,0,0,123.0,0.0,496.0,4629.2307692307695,3929.7435897435903,4502.051282051282,4426.666666666667,4248.205128205129,4557.948717948719,4454.871794871796,4423.076923076924,4433.333333333334,4661.538461538462,4369.2307692307695,4260.000000000001,4151.794871794872,4489.2307692307695
5436.9536,0.035382982,0.54279596,0.33333334,0.5522388,0,0.0,0.66880786,0.0,0.0,0.0,0,0,0.0,0.0,0,0,22.0,0.0,0.0,4646.153846153847,3942.0512820512827,4503.589743589744,4433.333333333334,4253.846153846154,4564.102564102564,4432.820512820514,4438.461538461539,4322.051282051282,4703.589743589744,4372.307692307693,4261.538461538462,4173.333333333334,4503.589743589744
5437.2354,0.027099282,0.5307984,0.33333334,0.5522388,0,0.0,0.0,0.0,0.08950278,0.0,0,0,0.0,0.0,0,0,58.0,0.0,0.0,4654.358974358975,3942.564102564103,4511.282051282052,4431.794871794872,4257.948717948719,4566.666666666667,4437.435897435898,4449.2307692307695,4534.358974358975,4752.307692307693,4372.820512820514,4262.564102564103,4200.000000000001,4506.153846153847
5437.329,0.027099282,0.5307984,0.33333334,0.5522388,0,0.0,1.0,0.0,0.0,0.0,0,0,0.0,0.0,0,0,70.0,0.0,361.0,4642.564102564103,3933.333333333334,4497.435897435898,4427.179487179487,4247.6923076923085,4560.512820512821,4439.48717948718,4516.923076923077,4395.8974358974365,4987.179487179488,4403.589743589744,4275.384615384616,4484.102564102564,4502.564102564103
5437.7354,0.0,0.5318155,0.33333334,0.5522388,0,0.0,1.0,0.0,0.0,0.0,0,0,0.0,0.0,0,0,122.0,0.0,1537.0,4636.923076923077,3929.2307692307695,4511.282051282052,4428.717948717949,4248.717948717949,4554.871794871796,4439.48717948718,4554.358974358975,4735.384615384616,5100.000000000001,4428.717948717949,4277.435897435898,4557.435897435898,4514.871794871796
5437.9546,0.0,0.5318155,0.33333334,0.5522388,0,0.0,0.7570964,0.0,0.0,0.0,0,0,0.0,0.0,0,0,21.0,0.0,0.0,4636.410256410257,3928.205128205129,4516.410256410257,4431.794871794872,4254.358974358975,4560.000000000001,4457.435897435898,4573.333333333334,4676.410256410257,5126.153846153847,4436.410256410257,4296.410256410257,4554.871794871796,4568.205128205129
5438.236,0.08234411,0.53409934,0.33333334,0.5522388,0,0.0,1.0,0.0,0.0,0.0,0,0,0.0,0.0,0,0,57.0,0.0,0.0,4645.641025641026,3938.461538461539,4497.435897435898,4431.794871794872,4248.205128205129,4553.333333333334,4451.282051282052,4418.974358974359,4373.333333333334,4591.794871794872,4365.641025641026,4257.435897435898,4051.2820512820517,4497.435897435898
5438.236,0.08234411,0.53409934,0.33333334,0.5522388,0,0.0,1.0,0.0,0.0,0.0,0,0,0.0,0.0,0,0,57.0,0.0,0.0,4645.641025641026,3938.461538461539,4497.435897435898,4431.794871794872,4248.205128205129,4553.333333333334,4451.282051282052,4418.974358974359,4373.333333333334,4591.794871794872,4365.641025641026,4257.435897435898,4051.2820512820517,4497.435897435898
5438.7363,0.108716436,0.5443052,0.33333334,0.5522388,0,0.0,0.6188116,0.0,0.0,0.0,0,0,0.0,0.0,0,0,121.0,0.0,350.0,4636.410256410257,3942.0512820512827,4499.48717948718,4442.051282051282,4248.205128205129,4555.8974358974365,4442.051282051282,4433.333333333334,4453.333333333334,4645.128205128206,4370.769230769231,4250.769230769231,4110.769230769231,4488.205128205129
5438.9556,0.108716436,0.5443052,0.33333334,0.5522388,0,0.0,1.0,0.0,0.0,0.0,0,0,0.0,0.0,0,0,20.0,0.0,0.0,4659.48717948718,3938.9743589743593,4510.256410256411,4443.076923076924,4252.307692307693,4561.025641025642,4470.256410256411,4483.076923076924,4574.358974358975,4838.974358974359,4387.6923076923085,4281.025641025642,4240.000000000001,4545.128205128206
5439.237,0.12569903,0.56528294,0.33333334,0.5522388,0,0.0,1.0,0.0,0.0,0.0,0,0,0.0,0.0,0,0,56.0,0.0,0.0,4648.205128205129,3941.0256410256416,4498.974358974359,4441.538461538462,4247.179487179487,4552.820512820514,4458.461538461539,4470.256410256411,4491.794871794872,4769.2307692307695,4386.153846153847,4275.8974358974365,4170.769230769231,4567.179487179488
5439.237,0.12569903,0.56528294,0.33333334,0.5522388,0,0.0,1.0,0.0,0.0,0.0,0,0,0.0,0.0,0,0,56.0,0.0,0.0,4648.205128205129,3941.0256410256416,4498.974358974359,4441.538461538462,4247.179487179487,4552.820512820514,4458.461538461539,4470.256410256411,4491.794871794872,4769.2307692307695,4386.153846153847,4275.8974358974365,4170.769230769231,4567.179487179488
5439.7373,0.082627155,0.5860347,0.33333334,0.5522388,0,0.0,0.32501337,0.0,0.0,0.0,0,0,0.0,0.0,0,0,120.0,0.0,183.0,4667.179487179488,3948.205128205129,4517.435897435898,4454.358974358975,4262.564102564103,4568.717948717949,4465.128205128206,4591.794871794872,4877.948717948719,5220.512820512821,4440.000000000001,4301.538461538462,4606.153846153847,4530.256410256411
5439.831,0.082627155,0.5860347,0.33333334,0.5522388,0,0.0,1.0,0.0,0.0,0.0,0,0,0.0,0.0,0,0,3.0,0.0,558.0,4655.8974358974365,3940.5128205128212,4492.820512820514,4447.179487179487,4261.538461538462,4565.641025641026,4461.025641025642,4484.615384615385,3960.0000000000005,4763.589743589744,4388.205128205129,4282.564102564103,4190.769230769231,4557.435897435898
5440.238,0.048435494,0.60097325,0.33333334,0.5522388,0,0.0,1.0,0.0,0.0,0.0,0,0,0.0,0.0,0,0,55.0,0.0,0.0,4663.076923076924,3947.692307692308,4502.051282051282,4454.871794871796,4254.871794871796,4567.6923076923085,4460.512820512821,4461.025641025642,4449.2307692307695,4729.2307692307695,4382.051282051282,4281.538461538462,4130.769230769231,4539.48717948718
5440.4565,0.048435494,0.60097325,0.33333334,0.5522388,0,0.0,1.0,0.0,0.0,0.0,0,0,0.0,0.0,0,0,83.0,0.0,496.0,4668.205128205129,3962.0512820512827,4509.743589743591,4460.000000000001,4257.948717948719,4571.794871794872,4451.794871794872,4466.666666666667,4444.615384615385,4741.025641025642,4385.641025641026,4266.153846153847,4150.256410256411,4501.025641025642
5440.7383,0.079537794,0.6088604,0.33333334,0.5522388,0,0.0,1.0,0.0,0.0,0.0,0,0,0.0,0.0,0,0,119.0,0.0,496.0,4692.307692307693,3960.0000000000005,4494.358974358975,4456.923076923077,4248.205128205129,4566.153846153847,4444.102564102564,4422.564102564103,4261.538461538462,4583.589743589744,4366.666666666667,4260.512820512821,4017.9487179487182,4520.512820512821
5440.7383,0.079537794,0.6088604,0.33333334,0.5522388,0,0.0,1.0,0.0,0.0,0.0,0,0,0.0,0.0,0,0,119.0,0.0,496.0,4692.307692307693,3960.0000000000005,4494.358974358975,4456.923076923077,4248.205128205129,4566.153846153847,4444.102564102564,4422.564102564103,4261.538461538462,4583.589743589744,4366.666666666667,4260.512820512821,4017.9487179487182,4520.512820512821
5441.239,0.03249092,0.6207979,0.33333334,0.5522388,0,0.0,1.0,0.0,0.0,0.0,0,0,0.0,0.0,0,0,54.0,0.0,0.0,4663.589743589744,3942.0512820512827,4500.512820512821,4448.717948717949,4258.461538461539,4569.743589743591,4438.974358974359,4457.435897435898,4335.8974358974365,4697.435897435898,4369.743589743591,4285.128205128206,4123.076923076924,4565.641025641026
5441.239,0.03249092,0.6207979,0.33333334,0.5522388,0,0.0,1.0,0.0,0.0,0.0,0,0,0.0,0.0,0,0,54.0,0.0,0.0,4663.589743589744,3942.0512820512827,4500.512820512821,4448.717948717949,4258.461538461539,4569.743589743591,4438.974358974359,4457.435897435898,4335.8974358974365,4697.435897435898,4369.743589743591,4285.128205128206,4123.076923076924,4565.641025641026
5441.7393,0.0013689088,0.62119836,0.33333334,0.5522388,0,0.0,1.0,0.0,0.0,0.0,0,0,0.0,0.0,0,0,118.0,0.0,1536.0,4662.564102564103,3943.076923076924,4498.461538461539,4451.794871794872,4247.6923076923085,4554.358974358975,4466.153846153847,4478.461538461539,4323.076923076924,4771.282051282052,4383.589743589744,4289.74358974359,4216.923076923077,4535.8974358974365
5441.958,0.0013689088,0.62119836,0.33333334,0.5522388,0,0.0,0.79133517,0.0,0.0,0.0,0,0,0.0,0.0,0,0,17.0,0.0,0.0,4667.179487179488,3946.666666666667,4502.051282051282,4458.974358974359,4250.256410256411,4556.410256410257,4466.666666666667,4470.769230769231,4521.538461538462,4778.974358974359,4379.48717948718,4292.820512820514,4184.615384615385,4571.794871794872
5442.2393,0.0,0.623246,0.33333334,0.5522388,0,0.0,1.0,0.0,0.0,0.0,0,0,0.0,0.0,0,0,53.0,0.0,0.0,4640.512820512821,3941.0256410256416,4482.051282051282,4445.128205128206,4228.717948717949,4534.358974358975,4460.000000000001,4424.615384615385,4049.23076923077,4574.871794871796,4363.589743589744,4270.769230769231,4085.1282051282055,4528.717948717949
5442.2393,0.0,0.623246,0.33333334,0.5522388,0,0.0,1.0,0.0,0.0,0.0,0,0,0.0,0.0,0,0,53.0,0.0,0.0,4640.512820512821,3941.0256410256416,4482.051282051282,4445.128205128206,4228.717948717949,4534.358974358975,4460.000000000001,4424.615384615385,4049.23076923077,4574.871794871796,4363.589743589744,4270.769230769231,4085.1282051282055,4528.717948717949
5442.7397,0.026661346,0.63576066,0.33333334,0.5522388,0,0.0,1.0,0.0,0.0,0.0,0,0,0.0,0.0,0,1,117.0,0.0,350.0,4659.48717948718,3950.7692307692314,4490.256410256411,4453.846153846154,4247.6923076923085,4528.717948717949,4466.153846153847,4452.820512820514,4100.512820512821,4667.6923076923085,4372.820512820514,4285.128205128206,4131.794871794872,4547.179487179488
5442.8965,0.026661346,0.63576066,0.33333334,0.5522388,0,0.0,1.0,0.0,0.0,0.0,0,0,0.0,0.0,0,0,8.0,0.0,6370.0,4655.384615384616,3944.615384615385,4500.512820512821,4445.128205128206,4231.794871794872,4542.051282051282,4459.48717948718,4423.076923076924,4394.358974358975,4604.102564102564,4362.051282051282,4277.435897435898,4069.23076923077,4533.846153846154
5443.24,0.05992209,0.6486573,0.33333334,0.5522388,0,0.0,1.0,0.0,0.0,0.0,0,0,0.0,0.0,0,0,52.0,0.0,0.0,4628.717948717949,3942.564102564103,4509.2307692307695,4443.589743589744,4233.333333333334,4556.410256410257,4460.512820512821,4534.871794871796,4471.794871794872,4975.384615384616,4410.256410256411,4296.923076923077,4491.282051282052,4559.48717948718
5443.24,0.05992209,0.6486573,0.33333334,0.5522388,0,0.0,1.0,0.0,0.0,0.0,0,0,0.0,0.0,0,0,52.0,0.0,0.0,4628.717948717949,3942.564102564103,4509.2307692307695,4443.589743589744,4233.333333333334,4556.410256410257,4460.512820512821,4534.871794871796,4471.794871794872,4975.384615384616,4410.256410256411,4296.923076923077,4491.282051282052,4559.48717948718
5443.7407,0.026336534,0.6605296,0.33333334,0.5522388,0,0.0,1.0,0.0,0.0,0.0,0,0,0.0,0.0,0,0,116.0,0.0,179.0,4618.974358974359,3941.538461538462,4488.205128205129,4442.051282051282,4245.128205128206,4561.538461538462,4464.102564102564,4424.615384615385,3947.1794871794878,4600.000000000001,4359.48717948718,4280.512820512821,4096.410256410257,4533.846153846154
5443.7407,0.026336534,0.6605296,0.33333334,0.5522388,0,0.0,1.0,0.0,0.0,0.0,0,0,0.0,0.0,0,0,116.0,0.0,179.0,4618.974358974359,3941.538461538462,4488.205128205129,4442.051282051282,4245.128205128206,4561.538461538462,4464.102564102564,4424.615384615385,3947.1794871794878,4600.000000000001,4359.48717948718,4280.512820512821,4096.410256410257,4533.846153846154
5444.241,0.0047048745,0.64906263,0.33333334,0.5522388,0,0.0,0.40063086,0.0,0.0,0.0,0,0,0.0,0.0,0,0,51.0,0.0,0.0,4614.358974358975,3943.589743589744,4498.974358974359,4442.051282051282,4254.358974358975,4570.256410256411,4449.743589743591,4462.564102564103,4157.435897435898,4767.179487179488,4371.794871794872,4288.205128205129,4248.205128205129,4557.948717948719
5444.335,0.0047048745,0.64906263,0.33333334,0.5522388,0,0.0,1.0,0.0,0.0,0.0,0,0,0.0,0.0,0,0,63.0,0.0,0.0,4619.48717948718,3941.538461538462,4509.2307692307695,4443.076923076924,4251.794871794872,4567.6923076923085,4457.435897435898,4450.769230769231,4376.410256410257,4728.205128205129,4367.6923076923085,4290.769230769231,4180.000000000001,4547.6923076923085
5444.7417,0.08276239,0.6313696,0.33333334,0.5522388,0,0.0,1.0,0.0,0.0,0.0,0,0,0.0,0.0,0,0,115.0,0.0,492.0,4613.846153846154,3941.0256410256416,4487.6923076923085,4442.051282051282,4248.717948717949,4568.205128205129,4457.948717948719,4424.615384615385,3885.6410256410263,4613.333333333334,4352.820512820514,4284.615384615385,4095.3846153846157,4564.102564102564
5444.9604,0.08276239,0.6313696,0.33333334,0.5522388,0,0.0,0.4902235,0.0,0.0,0.0,0,0,0.0,0.0,0,0,14.0,0.0,1545.0,4619.48717948718,3942.0512820512827,4490.256410256411,4443.076923076924,4247.6923076923085,4565.641025641026,4448.205128205129,4402.564102564103,3963.076923076924,4556.923076923077,4344.615384615385,4274.358974358975,4058.461538461539,4535.8974358974365
5445.242,0.096071154,0.6226312,0.33333334,0.5522388,0,0.0,1.0,0.0,0.0,0.0,0,0,0.0,0.0,0,0,50.0,0.0,0.0,4686.153846153847,3948.717948717949,4499.48717948718,4449.743589743591,4249.2307692307695,4569.2307692307695,4478.461538461539,4463.076923076924,4011.2820512820517,4757.435897435898,4365.641025641026,4295.384615384616,4201.025641025642,4542.564102564103
5445.242,0.096071154,0.6226312,0.33333334,0.5522388,0,0.0,1.0,0.0,0.0,0.0,0,0,0.0,0.0,0,0,50.0,0.0,0.0,4686.153846153847,3948.717948717949,4499.48717948718,4449.743589743591,4249.2307692307695,4569.2307692307695,4478.461538461539,4463.076923076924,4011.2820512820517,4757.435897435898,4365.641025641026,4295.384615384616,4201.025641025642,4542.564102564103
5445.7427,0.12682045,0.6310452,0.33333334,0.5522388,0,0.0,1.0,0.0,0.0,0.0,0,0,0.0,0.0,0,0,114.0,0.0,1543.0,4692.307692307693,3957.9487179487182,4500.000000000001,4456.410256410257,4250.256410256411,4566.666666666667,4468.717948717949,4443.589743589744,3930.7692307692314,4689.2307692307695,4353.846153846154,4290.256410256411,4126.153846153847,4567.179487179488
5445.7427,0.12682045,0.6310452,0.33333334,0.5522388,0,0.0,1.0,0.0,0.0,0.0,0,0,0.0,0.0,0,0,114.0,0.0,1543.0,4692.307692307693,3957.9487179487182,4500.000000000001,4456.410256410257,4250.256410256411,4566.666666666667,4468.717948717949,4443.589743589744,3930.7692307692314,4689.2307692307695,4353.846153846154,4290.256410256411,4126.153846153847,4567.179487179488
5446.2427,0.22522752,0.6399897,0.33333334,0.5522388,0,0.0,1.0,0.0,0.0,0.0,0,0,0.0,0.0,0,0,49.0,0.0,0.0,4668.717948717949,3943.076923076924,4500.000000000001,4446.666666666667,4244.615384615385,4555.8974358974365,4451.282051282052,4461.025641025642,4088.717948717949,4787.6923076923085,4368.205128205129,4284.102564102564,4300.000000000001,4522.564102564103
5446.2427,0.22522752,0.6399897,0.33333334,0.5522388,0,0.0,1.0,0.0,0.0,0.0,0,0,0.0,0.0,0,0,49.0,0.0,0.0,4668.717948717949,3943.076923076924,4500.000000000001,4446.666666666667,4244.615384615385,4555.8974358974365,4451.282051282052,4461.025641025642,4088.717948717949,4787.6923076923085,4368.205128205129,4284.102564102564,4300.000000000001,4522.564102564103
5446.743,0.29711664,0.6442278,0.33333334,0.5522388,0,0.0,1.0,0.0,0.0,0.0,0,0,0.0,0.0,0,0,113.0,0.0,350.0,4664.102564102564,3930.7692307692314,4490.256410256411,4444.102564102564,4247.6923076923085,4552.820512820514,4460.512820512821,4423.589743589744,3989.23076923077,4653.333333333334,4343.589743589744,4291.282051282052,4134.358974358975,4591.794871794872
5446.9624,0.29711664,0.6442278,0.33333334,0.5522388,0,0.0,0.4583667,0.0,0.0,0.0,0,0,0.0,0.0,0,0,12.0,0.0,179.0,4662.051282051282,3933.8461538461543,4485.641025641026,4441.538461538462,4245.128205128206,4552.820512820514,4460.512820512821,4417.435897435898,3917.435897435898,4634.358974358975,4342.564102564103,4291.282051282052,4114.871794871796,4599.48717948718
5447.2437,0.3746918,0.64460576,0.33333334,0.5522388,0,0.0,1.0,0.0,0.0,0.0,0,0,0.0,0.0,0,0,48.0,0.0,0.0,4677.948717948719,3942.564102564103,4495.384615384616,4445.128205128206,4249.74358974359,4556.923076923077,4453.846153846154,4435.8974358974365,4061.0256410256416,4698.974358974359,4348.717948717949,4296.923076923077,4162.564102564103,4581.025641025642
5447.2437,0.3746918,0.64460576,0.33333334,0.5522388,0,0.0,1.0,0.0,0.0,0.0,0,0,0.0,0.0,0,0,48.0,0.0,0.0,4677.948717948719,3942.564102564103,4495.384615384616,4445.128205128206,4249.74358974359,4556.923076923077,4453.846153846154,4435.8974358974365,4061.0256410256416,4698.974358974359,4348.717948717949,4296.923076923077,4162.564102564103,4581.025641025642
5447.744,0.33313045,0.64287335,0.33333334,0.5522388,0,0.0,0.43134713,0.0,0.0,0.0,0,0,0.0,0.0,0,0,112.0,0.0,179.0,4643.589743589744,3942.564102564103,4500.000000000001,4453.333333333334,4255.384615384616,4560.512820512821,4461.025641025642,4402.564102564103,4035.8974358974365,4608.717948717949,4336.923076923077,4281.025641025642,4110.256410256411,4538.974358974359
5447.963,0.33313045,0.64287335,0.33333334,0.5522388,0,0.0,0.39021984,0.0,0.0,0.0,0,0,0.0,0.0,0,0,11.0,0.0,492.0,4627.179487179488,3941.0256410256416,4492.307692307693,4444.102564102564,4250.769230769231,4555.384615384616,4461.538461538462,4400.512820512821,3913.8461538461543,4598.461538461539,4336.410256410257,4275.384615384616,4118.461538461539,4543.589743589744
5448.2446,0.39415777,0.6355921,0.33333334,0.5522388,0,0.0,0.33887717,0.0,0.0,0.0,0,0,0.0,0.0,0,0,47.0,0.0,0.0,4635.8974358974365,3942.0512820512827,4508.205128205129,4445.128205128206,4256.410256410257,4566.666666666667,4461.538461538462,4466.153846153847,4310.256410256411,4853.846153846154,4361.538461538462,4289.2307692307695,4335.384615384616,4557.435897435898
5448.3384,0.39415777,0.6355921,0.33333334,0.5522388,0,0.0,1.0,0.0,0.0,0.0,0,0,0.0,0.0,0,0,59.0,0.0,0.0,4647.179487179488,3937.9487179487182,4505.128205128206,4441.025641025642,4246.666666666667,4555.384615384616,4454.358974358975,4458.461538461539,4603.076923076924,4830.256410256411,4358.461538461539,4285.641025641026,4310.256410256411,4548.205128205129
5448.745,0.4908537,0.6313358,0.33333334,0.5522388,0,0.0,1.0,0.0,0.0,0.0,0,0,0.0,0.0,0,0,111.0,0.0,492.0,4623.076923076924,3942.564102564103,4500.000000000001,4444.102564102564,4250.256410256411,4557.435897435898,4449.2307692307695,4395.384615384616,4145.128205128206,4598.974358974359,4331.794871794872,4271.282051282052,4094.358974358975,4553.846153846154
5448.964,0.4908537,0.6313358,0.33333334,0.5522388,0,0.0,0.65290445,0.0,0.0,0.0,0,0,0.0,0.0,0,0,10.0,0.0,1549.0,4609.2307692307695,3938.9743589743593,4491.794871794872,4444.102564102564,4253.846153846154,4556.923076923077,4452.820512820514,4386.153846153847,3958.461538461539,4572.307692307693,4328.205128205129,4269.2307692307695,4084.615384615385,4558.461538461539
5449.2456,0.6419513,0.6260811,0.33333334,0.5522388,0,0.0,0.5099283,0.0,0.0,0.0,0,0,0.0,0.0,0,0,46.0,0.0,0.0,4622.051282051282,3939.48717948718,4500.000000000001,4443.589743589744,4253.846153846154,4556.923076923077,4451.794871794872,4377.948717948719,4169.74358974359,4556.923076923077,4324.102564102564,4264.615384615385,4063.076923076924,4541.025641025642
5449.4644,0.6419513,0.6260811,0.33333334,0.5522388,0,0.0,0.560973,0.0,0.0,0.0,0,0,0.0,0.0,0,0,74.0,0.0,1545.0,4622.051282051282,3941.538461538462,4497.435897435898,4444.102564102564,4258.461538461539,4555.8974358974365,4439.48717948718,4401.538461538462,4080.0000000000005,4649.2307692307695,4333.333333333334,4274.358974358975,4140.000000000001,4583.589743589744
5449.746,0.7500597,0.6255053,0.33333334,0.5522388,0,0.0,1.0,0.0,0.0,0.0,0,0,0.0,0.0,0,0,110.0,0.0,1545.0,4624.615384615385,3944.1025641025644,4507.6923076923085,4444.102564102564,4255.384615384616,4557.948717948719,4453.333333333334,4410.769230769231,4347.179487179487,4689.743589743591,4331.794871794872,4275.384615384616,4153.333333333334,4572.820512820514
5449.746,0.7500597,0.6255053,0.33333334,0.5522388,0,0.0,1.0,0.0,0.0,0.0,0,0,0.0,0.0,0,0,110.0,0.0,1545.0,4624.615384615385,3944.1025641025644,4507.6923076923085,4444.102564102564,4255.384615384616,4557.948717948719,4453.333333333334,4410.769230769231,4347.179487179487,4689.743589743591,4331.794871794872,4275.384615384616,4153.333333333334,4572.820512820514
5450.246,0.8597184,0.62961066,0.33333334,0.5522388,0,0.0,1.0,0.0,0.0,0.0,0,0,0.0,0.0,0,0,45.0,0.0,0.0,4617.948717948719,3943.589743589744,4502.564102564103,4444.615384615385,4245.641025641026,4553.333333333334,4442.051282051282,4349.2307692307695,4265.128205128206,4503.076923076924,4309.2307692307695,4251.282051282052,4009.7435897435903,4541.025641025642
5450.528,0.8597184,0.62961066,0.33333334,0.5522388,0,0.0,1.0,0.0,0.0,0.0,0,0,0.0,0.0,0,1,81.0,0.0,350.0,4648.205128205129,3941.0256410256416,4516.923076923077,4445.128205128206,4246.153846153847,4551.794871794872,4469.2307692307695,4421.538461538462,4723.589743589744,4772.307692307693,4331.282051282052,4280.000000000001,4200.000000000001,4597.435897435898
5450.7466,0.96655214,0.6309446,0.33333334,0.5522388,0,0.0,1.0,0.0,0.0,0.0,0,0,0.0,0.0,0,1,109.0,0.0,350.0,4655.384615384616,3940.0000000000005,4507.6923076923085,4446.153846153847,4244.615384615385,4544.615384615385,4460.512820512821,4406.153846153847,4507.179487179488,4715.384615384616,4324.102564102564,4280.000000000001,4149.2307692307695,4609.2307692307695
5450.872,0.96655214,0.6309446,0.33333334,0.5522388,0,0.0,1.0,0.0,0.0,0.0,0,0,0.0,0.0,0,0,125.0,0.0,350.0,4638.461538461539,3940.5128205128212,4489.2307692307695,4442.564102564103,4238.461538461539,4546.666666666667,4458.461538461539,4420.000000000001,4090.7692307692314,4737.948717948719,4332.820512820514,4278.461538461539,4204.615384615385,4591.794871794872
5451.255,0.8929585,0.63453645,0.33333334,0.5522388,0,0.0,1.0,0.0,0.0,0.0,0,0,0.0,0.0,0,0,44.0,0.0,0.0,4650.256410256411,3942.0512820512827,4503.589743589744,4442.564102564103,4236.410256410257,4542.564102564103,4462.564102564103,4386.153846153847,4470.769230769231,4640.000000000001,4316.410256410257,4271.282051282052,4101.538461538462,4564.102564102564
5451.474,0.8929585,0.63453645,0.33333334,0.5522388,0,0.0,0.47788134,0.0,0.0,0.0,0,0,0.0,0.0,0,0,72.0,0.0,6438.0,4651.794871794872,3940.0000000000005,4501.538461538462,4444.615384615385,4245.641025641026,4551.794871794872,4461.538461538462,4393.846153846154,4297.435897435898,4650.256410256411,4317.435897435898,4280.512820512821,4092.307692307693,4594.358974358975
5451.7554,0.93261415,0.637901,0.33333334,0.5522388,0,0.0,0.4135026,0.0,0.0,0.0,0,0,0.0,0.0,0,0,108.0,0.0,179.0,4640.000000000001,3943.589743589744,4510.256410256411,4446.153846153847,4246.153846153847,4554.871794871796,4466.153846153847,4407.179487179487,4584.102564102564,4722.564102564103,4324.615384615385,4273.333333333334,4172.307692307693,4578.974358974359
5451.9746,0.93261415,0.637901,0.33333334,0.5522388,0,0.0,0.38496536,0.0,0.0,0.0,0,0,0.0,0.0,0,0,7.0,0.0,903.0,4637.435897435898,3943.589743589744,4504.615384615385,4453.333333333334,4245.128205128206,4554.871794871796,4465.641025641026,4393.333333333334,4390.769230769231,4661.025641025642,4316.923076923077,4275.384615384616,4117.948717948719,4564.615384615385
5452.256,1.0,0.63634926,0.33333334,0.5522388,0,0.0,1.0,0.0,0.0,0.0,0,0,0.0,0.0,0,0,43.0,0.0,0.0,4612.820512820514,3940.5128205128212,4501.025641025642,4443.589743589744,4238.974358974359,4551.282051282052,4441.025641025642,4343.076923076924,4389.743589743591,4492.307692307693,4302.051282051282,4247.179487179487,4017.9487179487182,4522.051282051282
5452.256,1.0,0.63634926,0.33333334,0.5522388,0,0.0,1.0,0.0,0.0,0.0,0,0,0.0,0.0,0,0,43.0,0.0,0.0,4612.820512820514,3940.5128205128212,4501.025641025642,4443.589743589744,4238.974358974359,4551.282051282052,4441.025641025642,4343.076923076924,4389.743589743591,4492.307692307693,4302.051282051282,4247.179487179487,4017.9487179487182,4522.051282051282
5452.7563,1.0,0.62656695,0.33333334,0.5522388,0,0.0,1.0,0.0,0.0,0.0,0,0,0.0,0.0,0,0,107.0,0.0,492.0,4613.846153846154,3940.0000000000005,4505.128205128206,4445.128205128206,4247.179487179487,4554.871794871796,4457.948717948719,4374.871794871796,4526.666666666667,4625.128205128206,4311.794871794872,4253.846153846154,4125.128205128206,4522.051282051282
5452.975,1.0,0.62656695,0.33333334,0.5522388,0,0.0,0.6505014,0.0,0.0,0.0,0,0,0.0,0.0,0,0,6.0,0.0,358.0,4621.025641025642,3942.564102564103,4509.2307692307695,4449.743589743591,4248.717948717949,4556.923076923077,4453.333333333334,4387.179487179487,4505.641025641026,4668.205128205129,4314.358974358975,4266.153846153847,4141.538461538462,4530.769230769231
5453.257,0.9039175,0.6188263,0.33333334,0.5522388,0,0.0,0.40485814,0.0,0.0,0.0,0,0,0.0,0.0,0,0,42.0,0.0,0.0,4640.512820512821,3943.076923076924,4504.102564102564,4450.769230769231,4249.74358974359,4558.461538461539,4454.871794871796,4382.564102564103,4552.307692307693,4665.128205128206,4310.256410256411,4268.717948717949,4125.128205128206,4528.205128205129
5453.4756,0.9039175,0.6188263,0.33333334,0.5522388,0,0.0,0.46256125,0.0,0.0,0.0,0,0,0.0,0.0,0,0,70.0,0.0,358.0,4635.384615384616,3941.538461538462,4509.743589743591,4451.282051282052,4247.6923076923085,4556.923076923077,4445.641025641026,4373.333333333334,4498.461538461539,4631.282051282052,4308.717948717949,4264.102564102564,4095.8974358974365,4543.589743589744
5453.7573,0.92360497,0.610267,0.33333334,0.5522388,0,0.0,0.5738371,0.0,0.0,0.0,0,0,0.0,0.0,0,0,106.0,0.0,1547.0,4623.589743589744,3930.2564102564106,4516.410256410257,4445.128205128206,4248.717948717949,4558.461538461539,4453.333333333334,4429.743589743591,4748.717948717949,4860.512820512821,4335.384615384616,4272.307692307693,4337.435897435898,4524.615384615385
5453.976,0.92360497,0.610267,0.33333334,0.5522388,0,0.0,1.0,0.0,0.0,0.0,0,0,0.0,0.0,0,0,5.0,0.0,573.0,4654.358974358975,3941.0256410256416,4508.717948717949,4451.794871794872,4246.153846153847,4555.8974358974365,4455.384615384616,4369.743589743591,4556.410256410257,4640.000000000001,4303.589743589744,4270.769230769231,4092.820512820513,4527.6923076923085
5454.258,0.8654186,0.600808,0.33333334,0.5522388,0,0.0,0.81562454,0.0,0.0,0.0,0,0,0.0,0.0,0,0,41.0,0.0,0.0,4644.615384615385,3940.0000000000005,4502.564102564103,4446.666666666667,4252.820512820514,4567.6923076923085,4452.307692307693,4370.256410256411,4493.846153846154,4644.615384615385,4302.051282051282,4262.051282051282,4092.307692307693,4540.000000000001
5454.4766,0.8654186,0.600808,0.33333334,0.5522388,0,0.0,0.37784868,0.0,0.0,0.0,0,0,0.0,0.0,0,0,69.0,0.0,573.0,4658.974358974359,3940.0000000000005,4507.179487179488,4446.666666666667,4248.717948717949,4560.512820512821,4441.025641025642,4368.717948717949,4567.6923076923085,4638.974358974359,4300.000000000001,4263.076923076924,4093.8461538461543,4525.641025641026
5454.758,0.86692095,0.5911239,0.33333334,0.5522388,0,0.0,0.5690555,0.0,0.0,0.0,0,0,0.0,0.0,0,0,105.0,0.0,351.0,4644.615384615385,3941.0256410256416,4498.461538461539,4456.923076923077,4246.666666666667,4562.051282051282,4447.179487179487,4350.256410256411,4397.435897435898,4587.179487179488,4295.8974358974365,4257.435897435898,4058.461538461539,4508.717948717949
5454.977,0.86692095,0.5911239,0.33333334,0.5522388,0,0.0,0.65490496,0.0,0.0,0.0,0,0,0.0,0.0,0,0,4.0,0.0,582.0,4632.307692307693,3929.2307692307695,4503.589743589744,4445.128205128206,4244.615384615385,4555.8974358974365,4436.923076923077,4343.589743589744,4490.769230769231,4567.6923076923085,4291.282051282052,4255.8974358974365,4056.9230769230776,4528.205128205129
5455.2583,0.8955371,0.5871499,0.33333334,0.5522388,0,0.0,0.7260874,0.0,0.0,0.0,0,0,0.0,0.0,0,0,40.0,0.0,0.0,4618.461538461539,3941.0256410256416,4499.48717948718,4458.461538461539,4247.6923076923085,4557.948717948719,4440.000000000001,4361.025641025642,4373.333333333334,4616.410256410257,4294.871794871796,4254.871794871796,4102.051282051282,4513.333333333334
5455.4775,0.8955371,0.5871499,0.33333334,0.5522388,0,0.0,0.9672632,0.0,0.0,0.0,0,0,0.0,0.0,0,0,68.0,0.0,582.0,4615.8974358974365,3937.9487179487182,4502.564102564103,4450.256410256411,4246.153846153847,4556.410256410257,4424.615384615385,4325.128205128206,4436.410256410257,4513.333333333334,4281.538461538462,4247.6923076923085,4022.0512820512827,4490.769230769231
5455.759,0.8893045,0.5937127,0.33333334,0.5522388,0,0.0,1.0,0.0,0.0,0.0,0,0,0.0,0.0,0,0,104.0,0.0,179.0,4624.102564102564,3927.692307692308,4496.923076923077,4443.076923076924,4247.6923076923085,4554.871794871796,4433.333333333334,4371.794871794872,4388.717948717949,4683.076923076924,4297.948717948719,4259.48717948718,4162.051282051282,4537.948717948719
5455.759,0.8893045,0.5937127,0.33333334,0.5522388,0,0.0,1.0,0.0,0.0,0.0,0,0,0.0,0.0,0,0,104.0,0.0,179.0,4624.102564102564,3927.692307692308,4496.923076923077,4443.076923076924,4247.6923076923085,4554.871794871796,4433.333333333334,4371.794871794872,4388.717948717949,4683.076923076924,4297.948717948719,4259.48717948718,4162.051282051282,4537.948717948719
5456.2593,0.8181143,0.6060616,0.33333334,0.5522388,0,0.0,0.40324712,0.0,0.0,0.0,0,0,0.0,0.0,0,0,39.0,0.0,0.0,4638.974358974359,3926.1538461538466,4490.256410256411,4443.589743589744,4248.205128205129,4553.846153846154,4437.948717948719,4368.205128205129,4301.538461538462,4665.128205128206,4294.871794871796,4258.974358974359,4132.307692307693,4544.102564102564
5456.478,0.8181143,0.6060616,0.33333334,0.5522388,0,0.0,0.5189624,0.0,0.0,0.0,0,0,0.0,0.0,0,0,67.0,0.0,558.0,4647.6923076923085,3932.307692307693,4503.076923076924,4444.615384615385,4254.358974358975,4558.974358974359,4455.384615384616,4398.974358974359,4612.307692307693,4792.820512820514,4305.641025641026,4271.794871794872,4209.74358974359,4558.974358974359
5456.76,0.8260603,0.6236252,0.33333334,0.5522388,0,0.0,0.54471594,0.0,0.0,0.0,0,0,0.0,0.0,0,0,103.0,0.0,492.0,4645.128205128206,3928.717948717949,4483.589743589744,4443.076923076924,4243.076923076924,4550.769230769231,4449.2307692307695,4374.871794871796,4237.948717948719,4680.000000000001,4300.000000000001,4264.102564102564,4159.48717948718,4523.076923076924
5456.9785,0.8260603,0.6236252,0.33333334,0.5522388,0,0.0,0.5084515,0.0,0.0,0.0,0,0,0.0,0.0,0,0,2.0,0.0,500.0,4638.974358974359,3941.538461538462,4503.076923076924,4448.717948717949,4257.435897435898,4559.48717948718,4455.384615384616,4399.48717948718,4571.794871794872,4783.589743589744,4306.666666666667,4267.179487179487,4217.948717948719,4533.846153846154
5457.2603,0.79183775,0.64077985,0.33333334,0.5522388,0,0.0,0.63587403,0.0,0.0,0.0,0,0,0.0,0.0,0,0,38.0,0.0,0.0,4633.333333333334,3942.564102564103,4482.564102564103,4443.589743589744,4246.666666666667,4554.358974358975,4433.846153846154,4355.384615384616,4114.358974358975,4593.846153846154,4292.820512820514,4246.153846153847,4093.333333333334,4482.564102564103
5457.354,0.79183775,0.64077985,0.33333334,0.5522388,0,0.0,1.0,0.0,0.0,0.0,0,0,0.0,0.0,0,0,50.0,0.0,0.0,4612.820512820514,3942.564102564103,4484.615384615385,4443.589743589744,4245.128205128206,4553.846153846154,4434.871794871796,4321.025641025642,3927.692307692308,4485.128205128206,4281.538461538462,4243.589743589744,4024.615384615385,4471.794871794872
5457.7607,0.7306354,0.646411,0.33333334,0.5522388,0,0.0,0.49179268,0.0,0.0,0.0,0,0,0.0,0.0,0,0,102.0,0.0,1552.0,4602.051282051282,3927.692307692308,4469.743589743591,4438.461538461539,4238.974358974359,4548.205128205129,4431.282051282052,4317.435897435898,3992.307692307693,4486.153846153847,4274.871794871796,4235.384615384616,4037.435897435898,4477.435897435898
5457.9795,0.7306354,0.646411,0.33333334,0.5522388,0,0.0,0.7836457,0.0,0.0,0.0,0,0,0.0,0.0,0,0,1.0,0.0,455.0,4615.384615384616,3941.538461538462,4488.205128205129,4442.564102564103,4243.076923076924,4552.307692307693,4435.8974358974365,4346.666666666667,4297.435897435898,4595.384615384616,4281.538461538462,4246.666666666667,4086.666666666667,4489.743589743591
5458.261,0.7443726,0.64104766,0.33333334,0.5522388,0,0.0,0.5915357,0.0,0.0,0.0,0,0,0.0,0.0,0,0,37.0,0.0,0.0,4606.666666666667,3930.2564102564106,4484.615384615385,4443.076923076924,4247.179487179487,4554.871794871796,4431.282051282052,4338.974358974359,4028.205128205129,4566.153846153847,4282.051282051282,4240.000000000001,4075.3846153846157,4504.102564102564
5458.48,0.7443726,0.64104766,0.33333334,0.5522388,0,0.0,0.3664591,0.0,0.0,0.0,0,0,0.0,0.0,0,0,65.0,0.0,455.0,4640.000000000001,3938.9743589743593,4492.307692307693,4444.615384615385,4247.179487179487,4553.333333333334,4439.48717948718,4356.410256410257,4298.461538461539,4653.846153846154,4283.589743589744,4255.8974358974365,4105.128205128206,4525.128205128206
5458.761,0.6615514,0.63490045,0.33333334,0.5522388,0,0.0,0.4040672,0.0,0.0,0.0,0,0,0.0,0.0,0,0,101.0,0.0,351.0,4641.025641025642,3941.538461538462,4489.743589743591,4444.615384615385,4241.025641025642,4546.153846153847,4431.794871794872,4374.871794871796,4113.333333333334,4689.743589743591,4292.820512820514,4262.051282051282,4167.6923076923085,4524.102564102564
5458.9805,0.6615514,0.63490045,0.33333334,0.5522388,0,0.0,0.9573897,0.0,0.0,0.0,0,0,0.0,0.0,0,0,0.0,0.0,380.0,4629.743589743591,3946.1538461538466,4497.948717948719,4453.333333333334,4248.205128205129,4555.384615384616,4433.333333333334,4390.769230769231,4334.871794871796,4764.102564102564,4297.435897435898,4256.410256410257,4207.179487179487,4537.948717948719
5459.2617,0.6991384,0.62541294,0.33333334,0.5522388,0,0.0,0.82501906,0.0,0.0,0.0,0,0,0.0,0.0,0,0,36.0,0.0,0.0,4639.48717948718,3944.1025641025644,4495.384615384616,4446.666666666667,4238.974358974359,4551.794871794872,4444.615384615385,4425.128205128206,4204.102564102564,4867.6923076923085,4315.384615384616,4275.384615384616,4321.025641025642,4552.307692307693
5459.356,0.6991384,0.62541294,0.33333334,0.5522388,0,0.0,1.0,0.0,0.0,0.0,0,0,0.0,0.0,0,0,48.0,0.0,0.0,4654.871794871796,3941.0256410256416,4508.205128205129,4448.717948717949,4246.153846153847,4552.820512820514,4453.846153846154,4435.384615384616,4423.589743589744,4890.256410256411,4314.358974358975,4277.435897435898,4314.871794871796,4552.307692307693
5459.762,0.82524174,0.6336116,0.33333334,0.5522388,0,0.0,1.0,0.0,0.0,0.0,0,0,0.0,0.0,0,0,100.0,0.0,179.0,4699.48717948718,3942.564102564103,4492.307692307693,4442.564102564103,4238.461538461539,4544.615384615385,4453.846153846154,4453.333333333334,4136.923076923077,4899.48717948718,4325.641025641026,4286.153846153847,4306.153846153847,4603.076923076924
5459.762,0.82524174,0.6336116,0.33333334,0.5522388,0,0.0,1.0,0.0,0.0,0.0,0,0,0.0,0.0,0,0,100.0,0.0,179.0,4699.48717948718,3942.564102564103,4492.307692307693,4442.564102564103,4238.461538461539,4544.615384615385,4453.846153846154,4453.333333333334,4136.923076923077,4899.48717948718,4325.641025641026,4286.153846153847,4306.153846153847,4603.076923076924
5460.2627,0.92167276,0.63135374,0.33333334,0.5522388,0,0.0,0.3547034,0.0,0.0,0.0,0,0,0.0,0.0,0,0,35.0,0.0,0.0,4678.974358974359,3940.5128205128212,4493.333333333334,4446.666666666667,4248.717948717949,4551.794871794872,4461.538461538462,4463.589743589744,4093.8461538461543,4888.717948717949,4336.923076923077,4297.435897435898,4307.6923076923085,4583.076923076924
5460.482,0.92167276,0.63135374,0.33333334,0.5522388,0,0.0,0.8165223,0.0,0.0,0.0,0,0,0.0,0.0,0,0,63.0,0.0,0.0,4659.48717948718,3943.589743589744,4483.076923076924,4443.076923076924,4244.102564102564,4546.153846153847,4449.743589743591,4412.307692307693,4053.8461538461543,4697.948717948719,4321.538461538462,4268.717948717949,4183.589743589744,4522.564102564103
5460.763,0.9410331,0.63114375,0.33333334,0.5522388,0,0.0,1.0,0.0,0.0,0.0,0,0,0.0,0.0,0,0,99.0,0.0,494.0,4657.435897435898,3941.538461538462,4482.051282051282,4443.076923076924,4247.6923076923085,4551.794871794872,4461.025641025642,4407.6923076923085,3883.589743589744,4673.333333333334,4319.48717948718,4274.358974358975,4167.6923076923085,4499.48717948718
5460.982,0.9410331,0.63114375,0.33333334,0.5522388,0,0.0,0.367354,0.0,0.0,0.0,0,0,0.0,0.0,0,0,127.0,0.0,494.0,4641.538461538462,3931.2820512820517,4490.256410256411,4443.076923076924,4253.846153846154,4555.384615384616,4453.846153846154,4442.564102564103,4131.282051282052,4801.025641025642,4333.333333333334,4286.153846153847,4269.74358974359,4559.48717948718
5461.2637,0.8351619,0.62499166,0.33333334,0.5522388,0,0.0,0.5523384,0.0,0.0,0.0,0,0,0.0,0.0,0,0,34.0,0.0,0.0,4627.179487179488,3943.589743589744,4494.358974358975,4443.076923076924,4249.74358974359,4554.358974358975,4449.743589743591,4415.384615384616,3917.9487179487182,4698.974358974359,4325.641025641026,4278.974358974359,4192.307692307693,4523.076923076924
5461.4824,0.8351619,0.62499166,0.33333334,0.5522388,0,0.0,0.62993675,0.0,0.0,0.0,0,0,0.0,0.0,0,0,62.0,0.0,0.0,4656.410256410257,3941.538461538462,4482.564102564103,4444.102564102564,4246.666666666667,4552.820512820514,4453.846153846154,4416.923076923077,4033.8461538461543,4697.948717948719,4322.051282051282,4283.076923076924,4174.358974358975,4533.846153846154
5461.764,0.7577205,0.62438166,0.33333334,0.5522388,0,0.0,0.60811645,0.0,0.0,0.0,0,0,0.0,0.0,0,0,98.0,0.0,1549.0,4676.410256410257,3942.0512820512827,4498.461538461539,4445.641025641026,4248.205128205129,4554.871794871796,4435.384615384616,4453.846153846154,4071.2820512820517,4815.8974358974365,4340.512820512821,4293.846153846154,4266.153846153847,4592.307692307693
5461.983,0.7577205,0.62438166,0.33333334,0.5522388,0,0.0,0.4296267,0.0,0.0,0.0,0,0,0.0,0.0,0,0,126.0,0.0,1549.0,4653.333333333334,3943.076923076924,4482.051282051282,4444.615384615385,4243.589743589744,4552.307692307693,4443.076923076924,4423.076923076924,3989.7435897435903,4704.615384615386,4324.102564102564,4284.102564102564,4183.589743589744,4560.000000000001
5462.2646,0.7048953,0.6171929,0.33333334,0.5522388,0,0.0,0.87472475,0.0,0.0,0.0,0,0,0.0,0.0,0,0,33.0,0.0,0.0,4641.025641025642,3949.7435897435903,4487.179487179488,4448.717948717949,4235.8974358974365,4550.769230769231,4447.179487179487,4390.256410256411,3831.2820512820517,4594.358974358975,4314.871794871796,4274.871794871796,4097.948717948719,4509.743589743591
5462.4834,0.7048953,0.6171929,0.33333334,0.5522388,0,0.0,0.9178285,0.0,0.0,0.0,0,0,0.0,0.0,0,0,61.0,0.0,0.0,4705.128205128206,3964.615384615385,4493.333333333334,4460.000000000001,4234.871794871796,4541.538461538462,4439.48717948718,4423.076923076924,4012.820512820513,4733.333333333334,4322.564102564103,4287.179487179487,4154.358974358975,4589.743589743591
5462.765,0.62510705,0.6416518,0.33333334,0.5522388,0,0.0,0.7352861,0.0,0.0,0.0,0,0,0.0,0.0,0,0,97.0,0.0,352.0,4635.384615384616,3943.076923076924,4491.794871794872,4446.666666666667,4234.871794871796,4542.564102564103,4444.615384615385,4388.717948717949,3841.0256410256416,4588.717948717949,4312.307692307693,4278.461538461539,4112.820512820514,4515.8974358974365
5462.984,0.62510705,0.6416518,0.33333334,0.5522388,0,0.0,0.54853815,0.0,0.0,0.0,0,0,0.0,0.0,0,0,125.0,0.0,352.0,4620.512820512821,3941.538461538462,4479.48717948718,4444.615384615385,4236.410256410257,4548.717948717949,4441.538461538462,4385.641025641026,3882.564102564103,4596.923076923077,4312.307692307693,4265.641025641026,4123.076923076924,4509.743589743591
5463.265,0.5674685,0.66551954,0.33333334,0.5522388,0,0.0,0.50128555,0.0,0.0,0.0,0,0,0.0,0.0,0,0,32.0,0.0,0.0,4618.974358974359,3940.5128205128212,4493.846153846154,4444.102564102564,4235.8974358974365,4545.128205128206,4439.48717948718,4392.820512820514,3918.9743589743593,4613.846153846154,4315.384615384616,4265.641025641026,4138.974358974359,4507.179487179488
5463.4844,0.5674685,0.66551954,0.33333334,0.5522388,0,0.0,0.63600755,0.0,0.0,0.0,0,0,0.0,0.0,0,0,60.0,0.0,0.0,4620.000000000001,3937.9487179487182,4478.461538461539,4444.102564102564,4227.179487179487,4525.641025641026,4438.974358974359,4370.256410256411,3834.8717948717954,4551.282051282052,4307.6923076923085,4262.564102564103,4102.564102564103,4498.974358974359
5463.7656,0.5450736,0.6606856,0.33333334,0.5522388,0,0.0,0.43562126,0.0,0.0,0.0,0,0,0.0,0.0,0,0,96.0,0.0,179.0,4593.846153846154,3926.666666666667,4493.846153846154,4434.871794871796,4231.282051282052,4537.435897435898,4436.410256410257,4364.615384615385,3885.1282051282055,4546.153846153847,4308.717948717949,4255.384615384616,4116.410256410257,4471.794871794872
5463.985,0.5450736,0.6606856,0.33333334,0.5522388,0,0.0,0.41992566,0.0,0.0,0.0,0,0,0.0,0.0,0,0,124.0,0.0,179.0,4590.256410256411,3922.564102564103,4488.717948717949,4436.923076923077,4233.333333333334,4535.384615384616,4444.102564102564,4375.8974358974365,3895.8974358974365,4603.589743589744,4308.717948717949,4262.051282051282,4163.076923076924,4488.717948717949
5464.266,0.48980418,0.65762943,0.33333334,0.5522388,0,0.0,0.9444281,0.0,0.0,0.0,0,0,0.0,0.0,0,0,31.0,0.0,0.0,4603.589743589744,3925.1282051282055,4495.8974358974365,4429.2307692307695,4231.794871794872,4535.384615384616,4449.2307692307695,4388.717948717949,4053.8461538461543,4646.153846153847,4314.358974358975,4265.128205128206,4184.102564102564,4489.2307692307695
5464.36,0.48980418,0.65762943,0.33333334,0.5522388,0,0.0,1.0,0.0,0.0,0.0,0,0,0.0,0.0,0,0,43.0,0.0,0.0,4606.153846153847,3932.307692307693,4520.512820512821,4444.102564102564,4250.769230769231,4552.820512820514,4453.333333333334,4434.871794871796,4761.538461538462,4836.923076923077,4326.666666666667,4272.307692307693,4278.461538461539,4532.307692307693
5464.7666,0.46669003,0.6447245,0.33333334,0.5522388,0,0.0,0.6745839,0.0,0.0,0.0,0,0,0.0,0.0,0,0,95.0,0.0,494.0,4610.769230769231,3930.7692307692314,4504.615384615385,4441.025641025642,4238.461538461539,4548.205128205129,4442.051282051282,4394.871794871796,4101.025641025642,4665.641025641026,4313.846153846154,4262.051282051282,4152.820512820514,4521.538461538462
5464.9854,0.46669003,0.6447245,0.33333334,0.5522388,0,0.0,0.44186467,0.0,0.0,0.0,0,0,0.0,0.0,0,0,123.0,0.0,494.0,4613.846153846154,3929.7435897435903,4494.871794871796,4442.564102564103,4243.589743589744,4552.307692307693,4426.153846153847,4379.48717948718,3883.589743589744,4606.153846153847,4308.205128205129,4261.025641025642,4103.589743589744,4536.923076923077
5465.267,0.3944036,0.6440559,0.33333334,0.5522388,0,0.0,0.8529853,0.0,0.0,0.0,0,0,0.0,0.0,0,0,30.0,0.0,0.0,4615.8974358974365,3940.5128205128212,4508.205128205129,4442.564102564103,4248.205128205129,4554.358974358975,4438.461538461539,4403.589743589744,4142.564102564103,4683.589743589744,4317.948717948719,4270.256410256411,4147.6923076923085,4557.435897435898
5465.486,0.3944036,0.6440559,0.33333334,0.5522388,0,0.0,0.86992675,0.0,0.0,0.0,0,0,0.0,0.0,0,0,58.0,0.0,0.0,4632.820512820514,3943.589743589744,4503.589743589744,4444.615384615385,4246.666666666667,4553.846153846154,4449.2307692307695,4412.820512820514,4025.1282051282055,4717.435897435898,4317.435897435898,4280.512820512821,4165.128205128206,4564.102564102564
5465.7676,0.35037494,0.64417046,0.33333334,0.5522388,0,0.0,0.5104389,0.0,0.0,0.0,0,0,0.0,0.0,0,0,94.0,0.0,1550.0,4622.051282051282,3931.7948717948725,4502.564102564103,4433.333333333334,4239.48717948718,4552.307692307693,4444.615384615385,4394.358974358975,4177.435897435898,4668.717948717949,4315.8974358974365,4271.794871794872,4137.435897435898,4560.512820512821
5465.9863,0.35037494,0.64417046,0.33333334,0.5522388,0,0.0,0.5321954,0.0,0.0,0.0,0,0,0.0,0.0,0,0,122.0,0.0,1550.0,4636.923076923077,3945.6410256410263,4502.564102564103,4444.102564102564,4248.717948717949,4556.410256410257,4448.717948717949,4406.666666666667,4029.23076923077,4692.820512820514,4318.974358974359,4274.358974358975,4143.589743589744,4550.769230769231
5466.268,0.311011,0.64292634,0.33333334,0.5522388,0,0.0,0.66127443,0.0,0.0,0.0,0,0,0.0,0.0,0,0,29.0,0.0,0.0,4638.974358974359,3945.6410256410263,4514.358974358975,4444.102564102564,4249.74358974359,4557.435897435898,4455.8974358974365,4437.948717948719,4387.6923076923085,4808.205128205129,4326.666666666667,4283.076923076924,4225.128205128206,4583.076923076924
5466.487,0.311011,0.64292634,0.33333334,0.5522388,0,0.0,0.5914898,0.0,0.0,0.0,0,0,0.0,0.0,0,0,57.0,0.0,0.0,4610.256410256411,3934.8717948717954,4494.871794871796,4434.358974358975,4244.102564102564,4553.333333333334,4449.2307692307695,4404.102564102564,4031.2820512820517,4666.666666666667,4317.948717948719,4270.769230769231,4145.641025641026,4578.461538461539
5466.7686,0.29771045,0.6467567,0.33333334,0.5522388,0,0.0,0.53889763,0.0,0.0,0.0,0,0,0.0,0.0,0,0,93.0,0.0,352.0,4620.512820512821,3943.076923076924,4516.410256410257,4443.589743589744,4252.307692307693,4560.512820512821,4457.948717948719,4434.871794871796,4421.025641025642,4802.564102564103,4327.6923076923085,4281.538461538462,4215.384615384616,4586.153846153847
5466.9873,0.29771045,0.6467567,0.33333334,0.5522388,0,0.0,0.3669467,0.0,0.0,0.0,0,0,0.0,0.0,0,0,121.0,0.0,352.0,4625.128205128206,3944.1025641025644,4501.538461538462,4444.102564102564,4250.256410256411,4558.461538461539,4466.153846153847,4418.974358974359,4123.589743589744,4721.025641025642,4321.025641025642,4276.410256410257,4176.923076923077,4554.871794871796
5467.2686,0.25370038,0.635635,0.33333334,0.5522388,0,0.0,0.351077,0.0,0.0,0.0,0,0,0.0,0.0,0,0,28.0,0.0,0.0,4611.282051282052,3943.076923076924,4517.435897435898,4444.615384615385,4263.589743589744,4570.256410256411,4460.512820512821,4443.076923076924,4441.538461538462,4826.153846153847,4331.282051282052,4274.358974358975,4252.820512820514,4580.512820512821
5467.488,0.25370038,0.635635,0.33333334,0.5522388,0,0.0,0.3911214,0.0,0.0,0.0,0,0,0.0,0.0,0,0,56.0,0.0,0.0,4626.666666666667,3943.589743589744,4511.794871794872,4445.641025641026,4258.461538461539,4569.743589743591,4465.641025641026,4443.076923076924,4244.102564102564,4803.589743589744,4333.846153846154,4276.923076923077,4254.871794871796,4565.641025641026
5467.769,0.2798885,0.63457733,0.33333334,0.5522388,0,0.0,0.7223441,0.0,0.0,0.0,0,0,0.0,0.0,0,0,92.0,0.0,177.0,4633.846153846154,3948.717948717949,4517.948717948719,4456.923076923077,4253.846153846154,4569.2307692307695,4464.102564102564,4449.743589743591,4453.333333333334,4834.871794871796,4335.8974358974365,4284.102564102564,4257.435897435898,4548.205128205129
5467.9883,0.2798885,0.63457733,0.33333334,0.5522388,0,0.0,1.0,0.0,0.0,0.0,0,0,0.0,0.0,0,0,120.0,0.0,177.0,4629.743589743591,3940.5128205128212,4510.256410256411,4444.102564102564,4247.179487179487,4555.384615384616,4474.358974358975,4451.282051282052,4274.871794871796,4802.564102564103,4337.435897435898,4277.435897435898,4260.000000000001,4574.871794871796
5468.2695,0.27580944,0.6288082,0.33333334,0.5522388,0,0.0,0.67964065,0.0,0.0,0.0,0,0,0.0,0.0,0,0,27.0,0.0,0.0,4648.717948717949,3947.692307692308,4520.000000000001,4449.2307692307695,4254.358974358975,4562.564102564103,4484.615384615385,4478.461538461539,4574.871794871796,4931.794871794872,4345.641025641026,4296.410256410257,4308.717948717949,4588.717948717949
5468.489,0.27580944,0.6288082,0.33333334,0.5522388,0,0.0,0.5419375,0.0,0.0,0.0,0,0,0.0,0.0,0,0,55.0,0.0,0.0,4631.282051282052,3943.076923076924,4506.666666666667,4443.589743589744,4247.179487179487,4554.871794871796,4472.820512820514,4428.717948717949,4222.051282051282,4722.564102564103,4327.179487179487,4278.974358974359,4178.974358974359,4550.256410256411
5468.77,0.25817567,0.6251271,0.33333334,0.5522388,0,0.0,0.7144908,0.0,0.0,0.0,0,0,0.0,0.0,0,0,91.0,0.0,494.0,4615.8974358974365,3929.7435897435903,4501.538461538462,4430.769230769231,4240.000000000001,4553.846153846154,4468.205128205129,4410.769230769231,4413.333333333334,4676.410256410257,4327.6923076923085,4277.435897435898,4147.6923076923085,4568.717948717949
5468.989,0.25817567,0.6251271,0.33333334,0.5522388,0,0.0,0.6572153,0.0,0.0,0.0,0,0,0.0,0.0,0,0,119.0,0.0,494.0,4618.461538461539,3938.9743589743593,4503.076923076924,4442.564102564103,4247.179487179487,4554.871794871796,4469.743589743591,4404.102564102564,4243.076923076924,4651.794871794872,4323.076923076924,4272.307692307693,4116.923076923077,4563.076923076924
5469.2705,0.22024864,0.62072504,0.33333334,0.5522388,0,0.0,0.43295324,0.0,0.0,0.0,0,0,0.0,0.0,0,0,26.0,0.0,0.0,4636.410256410257,3943.589743589744,4511.794871794872,4445.128205128206,4249.2307692307695,4558.974358974359,4468.205128205129,4433.333333333334,4513.333333333334,4763.076923076924,4329.743589743591,4284.102564102564,4182.564102564103,4601.538461538462
5469.4893,0.22024864,0.62072504,0.33333334,0.5522388,0,0.0,0.4924127,0.0,0.0,0.0,0,0,0.0,0.0,0,0,54.0,0.0,0.0,4639.48717948718,3941.0256410256416,4509.743589743591,4444.102564102564,4240.512820512821,4555.8974358974365,4457.435897435898,4440.000000000001,4410.256410256411,4781.025641025642,4336.410256410257,4285.641025641026,4223.076923076924,4590.256410256411
5469.771,0.1674525,0.6162451,0.33333334,0.5522388,0,0.0,0.53709215,0.0,0.0,0.0,0,0,0.0,0.0,0,0,90.0,0.0,1548.0,4616.410256410257,3926.666666666667,4501.025641025642,4438.461538461539,4229.74358974359,4547.6923076923085,4458.461538461539,4402.564102564103,4469.743589743591,4663.589743589744,4322.051282051282,4275.384615384616,4145.128205128206,4564.615384615385
5469.9897,0.1674525,0.6162451,0.33333334,0.5522388,0,0.0,0.0,0.0,0.050180867,0.0,0,0,0.0,0.0,0,0,118.0,0.0,1548.0,4601.538461538462,3928.717948717949,4500.512820512821,4441.538461538462,4231.282051282052,4553.333333333334,4446.153846153847,4393.846153846154,4314.871794871796,4616.410256410257,4317.948717948719,4266.153846153847,4121.538461538462,4564.615384615385
5470.2715,0.18167466,0.6118936,0.33333334,0.5522388,0,0.0,0.29329306,0.0,0.0,0.0,0,0,0.0,0.0,0,0,25.0,0.0,0.0,4606.666666666667,3932.820512820513,4504.102564102564,4442.051282051282,4224.102564102564,4554.871794871796,4435.384615384616,4390.256410256411,4468.205128205129,4626.666666666667,4317.435897435898,4265.128205128206,4121.538461538462,4552.820512820514
