timestamp,excitement,frustration,meditation,engagementBoredom,blink,clench,laugh,smile,eyebrow,furrowBrow,lookLeft,lookRight,smirkLeft,smirkRight,winkLeft,winkRight,eeg0,eeg1,eeg2,eeg3,eeg4,eeg5,eeg6,eeg7,eeg8,eeg9,eeg10,eeg11,eeg12,eeg13,eeg14,eeg15,eeg16
3279.8733,0.7721006,0.5310676,0.33333334,0.5522388,0,0.0,0.0,0.0,0.024046741,0.0,0,0,0.0,0.0,0,0,94.0,0.0,8033.0,4470.256410256411,3906.1538461538466,4398.461538461539,4418.974358974359,4135.384615384616,4423.076923076924,4398.461538461539,4608.717948717949,4316.923076923077,4741.025641025642,4735.384615384616,4346.153846153847,4307.6923076923085,4116.923076923077
3280.0923,0.7721006,0.5310676,0.33333334,0.5522388,0,0.0,0.0,0.0,0.030939274,0.0,0,0,0.0,0.0,0,0,122.0,0.0,8033.0,4461.538461538462,3893.8461538461543,4404.102564102564,4412.820512820514,4151.794871794872,4445.641025641026,4440.000000000001,4742.051282051282,4359.48717948718,4815.8974358974365,4861.538461538462,4369.743589743591,4359.48717948718,4159.48717948718
3280.3738,0.75518376,0.5310676,0.33333334,0.5522388,0,0.0,0.0,0.0,0.022669831,0.0,0,0,0.0,0.0,0,0,29.0,0.0,0.0,4496.410256410257,3900.0000000000005,4422.564102564103,4419.48717948718,4184.102564102564,4484.615384615385,4389.2307692307695,4595.384615384616,4271.794871794872,4629.2307692307695,4759.48717948718,4352.820512820514,4275.8974358974365,4194.358974358975
3280.5928,0.75518376,0.5310676,0.33333334,0.5522388,0,0.0,0.0,0.0,0.023831893,0.0,0,0,0.0,0.0,0,0,57.0,0.0,0.0,4514.871794871796,3894.8717948717954,4423.076923076924,4415.8974358974365,4193.846153846154,4495.384615384616,4376.923076923077,4607.6923076923085,4283.589743589744,4570.769230769231,4726.666666666667,4337.435897435898,4266.153846153847,4227.6923076923085
3280.8743,0.69243777,0.5310676,0.33333334,0.5522388,0,0.0,0.0,0.0,0.014666604,0.0,0,0,0.0,0.0,0,0,93.0,0.0,905.0,4512.307692307693,3899.48717948718,4426.153846153847,4414.358974358975,4199.48717948718,4502.564102564103,4378.974358974359,4355.384615384616,4151.794871794872,4455.384615384616,4621.538461538462,4327.179487179487,4167.6923076923085,4256.410256410257
3281.0933,0.69243777,0.5310676,0.33333334,0.5522388,0,0.0,0.0,0.0,0.007239901,0.0,0,0,0.0,0.0,0,0,121.0,0.0,905.0,4501.025641025642,3901.0256410256416,4423.076923076924,4411.282051282052,4183.076923076924,4487.6923076923085,4382.051282051282,4401.538461538462,4206.666666666667,4414.871794871796,4598.461538461539,4314.871794871796,4189.2307692307695,4256.410256410257
3281.3748,0.59173363,0.5310676,0.33333334,0.5522388,0,0.0,0.0,0.0,0.0052229236,0.0,0,0,0.0,0.0,0,0,28.0,0.0,0.0,4509.743589743591,3919.48717948718,4429.2307692307695,4415.8974358974365,4199.48717948718,4501.538461538462,4396.410256410257,4308.717948717949,4187.179487179487,4437.948717948719,4610.256410256411,4328.205128205129,4167.6923076923085,4247.179487179487
3281.5935,0.59173363,0.5310676,0.33333334,0.5522388,0,0.0,0.0,0.0,0.005094077,0.0,0,0,0.0,0.0,0,0,56.0,0.0,0.0,4546.153846153847,3910.2564102564106,4457.435897435898,4425.641025641026,4214.871794871796,4514.871794871796,4417.948717948719,4516.410256410257,4274.871794871796,4467.6923076923085,4741.025641025642,4353.846153846154,4253.846153846154,4310.256410256411
3281.875,0.56423175,0.5310676,0.33333334,0.5522388,0,0.0,0.0,0.0,0.0056252563,0.0,0,0,0.0,0.0,0,0,92.0,0.0,4405.0,4571.282051282052,3906.666666666667,4455.8974358974365,4425.641025641026,4213.846153846154,4509.2307692307695,4380.512820512821,4346.666666666667,4181.025641025642,4428.717948717949,4637.948717948719,4338.974358974359,4157.435897435898,4336.923076923077
3282.094,0.56423175,0.5310676,0.33333334,0.5522388,0,0.0,0.0,0.0,0.010532019,0.0,0,0,0.0,0.0,0,0,120.0,0.0,4405.0,4606.153846153847,3902.0512820512827,4468.717948717949,4423.076923076924,4209.2307692307695,4502.564102564103,4376.923076923077,4386.153846153847,4207.179487179487,4425.641025641026,4657.948717948719,4349.2307692307695,4202.564102564103,4354.358974358975
3282.3755,0.46157387,0.5310676,0.33333334,0.5522388,0,0.0,0.0,0.0,0.01335612,0.0,0,0,0.0,0.0,0,0,27.0,0.0,0.0,4646.153846153847,3907.1794871794878,4511.794871794872,4431.794871794872,4212.820512820514,4504.102564102564,4398.461538461539,4681.538461538462,4291.282051282052,4640.000000000001,4928.205128205129,4405.641025641026,4293.333333333334,4471.282051282052
3282.5945,0.46157387,0.5310676,0.33333334,0.5522388,0,0.0,0.0,0.0,0.011768742,0.0,0,0,0.0,0.0,0,0,55.0,0.0,0.0,4623.589743589744,3902.0512820512827,4495.384615384616,4429.743589743591,4212.820512820514,4504.615384615385,4396.923076923077,4363.076923076924,4177.948717948719,4392.307692307693,4673.846153846154,4345.641025641026,4182.051282051282,4418.974358974359
3282.876,0.4743503,0.5310676,0.33333334,0.5522388,0,0.0,0.0,0.0,0.0069049844,0.0,0,0,0.0,0.0,0,0,91.0,0.0,433.0,4610.769230769231,3904.1025641025644,4490.769230769231,4427.6923076923085,4212.307692307693,4502.564102564103,4384.102564102564,4253.846153846154,4061.0256410256416,4292.307692307693,4505.128205128206,4310.256410256411,4015.8974358974365,4411.282051282052
3283.095,0.4743503,0.5310676,0.33333334,0.5522388,0,0.0,0.0,0.0,0.0055286596,0.0,0,0,0.0,0.0,0,0,119.0,0.0,433.0,4563.076923076924,3908.205128205129,4469.743589743591,4425.641025641026,4206.153846153847,4495.384615384616,4386.153846153847,3992.820512820513,4012.820512820513,4070.7692307692314,4287.179487179487,4267.6923076923085,3964.615384615385,4389.2307692307695
3283.3765,0.45942196,0.5310676,0.33333334,0.5522388,0,0.0,0.0,0.0,0.0029019848,0.0,0,0,0.0,0.0,0,0,26.0,0.0,0.0,4580.000000000001,3924.615384615385,4484.615384615385,4433.333333333334,4212.820512820514,4501.025641025642,4393.333333333334,4268.717948717949,4081.538461538462,4274.871794871796,4465.641025641026,4302.564102564103,4026.666666666667,4416.923076923077
3283.5952,0.45942196,0.5310676,0.33333334,0.5522388,0,0.0,0.0,0.0,0.0027905388,0.0,0,0,0.0,0.0,0,0,54.0,0.0,0.0,4542.051282051282,3920.0000000000005,4461.025641025642,4431.282051282052,4214.871794871796,4505.128205128206,4348.717948717949,3915.3846153846157,3949.2307692307695,3974.8717948717954,4140.512820512821,4251.282051282052,3897.9487179487182,4376.410256410257
3283.8767,0.47757226,0.5310676,0.33333334,0.5522388,0,0.0,0.0,0.0,0.0022049472,0.0,0,0,0.0,0.0,0,0,90.0,0.0,8033.0,4545.128205128206,3909.7435897435903,4470.256410256411,4429.2307692307695,4223.076923076924,4510.769230769231,4347.179487179487,4224.615384615385,4089.23076923077,4206.666666666667,4232.307692307693,4272.820512820514,4011.7948717948725,4380.000000000001
3284.0957,0.47757226,0.5310676,0.33333334,0.5522388,0,0.0,0.0,0.0,0.0034610461,0.0,0,0,0.0,0.0,0,0,118.0,0.0,8033.0,4541.025641025642,3919.48717948718,4473.333333333334,4436.923076923077,4238.461538461539,4530.256410256411,4351.282051282052,4111.282051282052,4096.410256410257,4188.205128205129,4295.8974358974365,4282.051282051282,4018.9743589743593,4385.128205128206
3284.3772,0.46036917,0.5310676,0.33333334,0.5522388,0,0.0,0.0,0.0,0.0019462302,0.0,0,0,0.0,0.0,0,0,25.0,0.0,0.0,4573.846153846154,3922.0512820512827,4485.128205128206,4436.410256410257,4232.820512820514,4522.564102564103,4357.948717948719,4414.358974358975,4189.74358974359,4329.2307692307695,4391.282051282052,4301.025641025642,4150.769230769231,4396.923076923077
3284.5962,0.46036917,0.5310676,0.33333334,0.5522388,0,0.0,0.0,0.0,0.0020581512,0.0,0,0,0.0,0.0,0,0,53.0,0.0,0.0,4557.948717948719,3925.1282051282055,4476.923076923077,4429.2307692307695,4233.333333333334,4522.051282051282,4350.769230769231,4204.615384615385,4135.8974358974365,4252.307692307693,4326.666666666667,4290.769230769231,4068.205128205129,4405.641025641026
3284.8777,0.5105092,0.5310676,0.33333334,0.5522388,0,0.0,0.0,0.0,0.0025153502,0.0,0,0,0.0,0.0,0,0,89.0,0.0,847.0,4591.794871794872,3917.9487179487182,4495.384615384616,4441.538461538462,4238.974358974359,4527.179487179488,4366.666666666667,4552.307692307693,4216.923076923077,4383.589743589744,4464.615384615385,4313.846153846154,4210.256410256411,4423.076923076924
3285.0967,0.5105092,0.5310676,0.33333334,0.5522388,0,0.0,0.0,0.0,0.0027804319,0.0,0,0,0.0,0.0,0,0,117.0,0.0,847.0,4586.666666666667,3923.076923076924,4488.717948717949,4439.48717948718,4232.307692307693,4521.538461538462,4356.923076923077,4317.435897435898,4149.2307692307695,4322.051282051282,4381.538461538462,4304.615384615385,4092.307692307693,4405.128205128206
3285.3782,0.5360786,0.5310676,0.33333334,0.5522388,0,0.0,0.0,0.0,0.0023029184,0.0,0,0,0.0,0.0,0,0,24.0,0.0,0.0,4613.846153846154,3921.0256410256416,4490.256410256411,4438.974358974359,4231.282051282052,4521.538461538462,4350.256410256411,4550.769230769231,4213.333333333334,4359.48717948718,4376.923076923077,4306.666666666667,4196.923076923077,4391.282051282052
3285.597,0.5360786,0.5310676,0.33333334,0.5522388,0,0.0,0.0,0.0,0.0023479136,0.0,0,0,0.0,0.0,0,0,52.0,0.0,0.0,4564.102564102564,3916.410256410257,4462.051282051282,4434.358974358975,4226.666666666667,4516.923076923077,4360.000000000001,4147.6923076923085,4034.8717948717954,4149.74358974359,4102.051282051282,4258.974358974359,3965.6410256410263,4312.820512820514
3285.8784,0.50166726,0.5310676,0.33333334,0.5522388,0,0.0,0.0,0.0,0.0021308041,0.0,0,0,0.0,0.0,0,0,88.0,0.0,4185.0,4595.8974358974365,3927.692307692308,4496.923076923077,4440.000000000001,4235.8974358974365,4527.179487179488,4376.410256410257,4605.128205128206,4259.48717948718,4414.871794871796,4398.461538461539,4312.307692307693,4231.794871794872,4373.333333333334
3286.0974,0.50166726,0.5310676,0.33333334,0.5522388,0,0.0,0.0,0.0,0.0023479166,0.0,0,0,0.0,0.0,0,0,116.0,0.0,4185.0,4602.564102564103,3932.307692307693,4493.846153846154,4443.589743589744,4242.564102564103,4530.256410256411,4375.384615384616,4577.948717948719,4239.48717948718,4440.000000000001,4482.051282051282,4327.179487179487,4229.74358974359,4392.820512820514
3286.379,0.48240966,0.5310676,0.33333334,0.5522388,0,0.0,0.0,0.0,0.002303578,0.0,0,0,0.0,0.0,0,0,23.0,0.0,0.0,4638.974358974359,3932.820512820513,4496.923076923077,4440.512820512821,4234.871794871796,4529.2307692307695,4368.717948717949,4614.358974358975,4323.076923076924,4467.179487179487,4453.846153846154,4313.333333333334,4278.974358974359,4404.102564102564
3286.598,0.48240966,0.5310676,0.33333334,0.5522388,0,0.0,0.0,0.0,0.0025837915,0.0,0,0,0.0,0.0,0,0,51.0,0.0,0.0,4625.641025641026,3933.8461538461543,4498.461538461539,4442.051282051282,4241.538461538462,4531.794871794872,4378.974358974359,4666.666666666667,4278.461538461539,4492.820512820514,4535.8974358974365,4333.846153846154,4263.076923076924,4427.179487179487
3286.8794,0.45431,0.5310676,0.33333334,0.5522388,0,0.0,0.0,0.0,0.0026155054,0.0,0,0,0.0,0.0,0,0,87.0,0.0,437.0,4636.923076923077,3925.1282051282055,4496.923076923077,4433.333333333334,4234.871794871796,4528.717948717949,4382.564102564103,4615.384615384616,4350.256410256411,4526.153846153847,4532.307692307693,4326.666666666667,4313.846153846154,4461.538461538462
3287.0984,0.45431,0.5310676,0.33333334,0.5522388,0,0.0,0.0,0.0,0.0026752448,0.0,0,0,0.0,0.0,0,0,115.0,0.0,437.0,4637.948717948719,3921.0256410256416,4507.179487179488,4441.025641025642,4240.000000000001,4528.717948717949,4396.410256410257,4733.333333333334,4298.461538461539,4571.282051282052,4564.102564102564,4333.846153846154,4287.6923076923085,4470.769230769231
3287.38,0.4599745,0.5310676,0.33333334,0.5522388,0,0.0,0.0,0.0,0.0029441377,0.0,0,0,0.0,0.0,0,0,22.0,0.0,0.0,4654.871794871796,3935.3846153846157,4509.743589743591,4445.128205128206,4243.589743589744,4537.435897435898,4411.282051282052,4570.256410256411,4330.769230769231,4540.512820512821,4586.153846153847,4333.333333333334,4312.307692307693,4470.769230769231
3287.5986,0.4599745,0.5310676,0.33333334,0.5522388,0,0.0,0.0,0.0,0.0034239045,0.0,0,0,0.0,0.0,0,0,50.0,0.0,0.0,4677.435897435898,3935.3846153846157,4516.410256410257,4444.102564102564,4239.48717948718,4531.282051282052,4417.435897435898,4783.589743589744,4348.717948717949,4630.256410256411,4697.948717948719,4350.256410256411,4328.717948717949,4502.564102564103
3287.8801,0.45107585,0.5310676,0.33333334,0.5522388,0,0.0,0.0,0.0,0.0031392118,0.0,0,0,0.0,0.0,0,0,86.0,0.0,8033.0,4686.666666666667,3936.410256410257,4512.307692307693,4444.615384615385,4237.948717948719,4533.846153846154,4429.743589743591,4445.641025641026,4293.333333333334,4472.820512820514,4535.384615384616,4318.974358974359,4285.641025641026,4439.48717948718
3288.099,0.45107585,0.5310676,0.33333334,0.5522388,0,0.0,0.0,0.0,0.003993039,0.0,0,0,0.0,0.0,0,0,114.0,0.0,8033.0,4691.282051282052,3939.48717948718,4514.358974358975,4446.153846153847,4241.025641025642,4532.820512820514,4438.461538461539,4608.205128205129,4323.589743589744,4542.564102564103,4541.538461538462,4314.871794871796,4297.948717948719,4458.461538461539
3288.3806,0.44727913,0.5310676,0.33333334,0.5522388,0,0.0,0.0,0.0,0.003988364,0.0,0,0,0.0,0.0,0,0,21.0,0.0,0.0,4699.48717948718,3931.7948717948725,4511.794871794872,4444.102564102564,4232.820512820514,4525.641025641026,4448.205128205129,4398.461538461539,4275.8974358974365,4416.923076923077,4562.564102564103,4312.307692307693,4272.820512820514,4517.435897435898
3288.5996,0.44727913,0.5310676,0.33333334,0.5522388,0,0.0,0.0,0.0,0.005011698,0.0,0,0,0.0,0.0,0,0,49.0,0.0,0.0,4681.538461538462,3925.6410256410263,4508.717948717949,4438.974358974359,4231.282051282052,4521.538461538462,4455.8974358974365,4416.410256410257,4206.153846153847,4366.153846153847,4395.8974358974365,4285.641025641026,4179.48717948718,4485.641025641026
3288.881,0.47568727,0.5310676,0.33333334,0.5522388,0,0.0,0.0,0.0,0.002843378,0.0,0,0,0.0,0.0,0,0,85.0,0.0,800.0,4694.871794871796,3928.717948717949,4512.820512820514,4442.051282051282,4234.871794871796,4526.153846153847,4462.051282051282,4253.333333333334,4220.000000000001,4315.384615384616,4472.820512820514,4293.333333333334,4189.2307692307695,4461.538461538462
3289.1,0.47568727,0.5310676,0.33333334,0.5522388,0,0.0,0.0,0.0,0.0033736725,0.0,0,0,0.0,0.0,0,0,113.0,0.0,800.0,4697.948717948719,3937.9487179487182,4526.153846153847,4448.717948717949,4236.923076923077,4530.769230769231,4476.923076923077,4501.538461538462,4290.769230769231,4489.2307692307695,4567.6923076923085,4313.846153846154,4277.948717948719,4502.564102564103
3289.3816,0.47446826,0.5310676,0.33333334,0.5522388,0,0.0,0.0,0.0,0.003180442,0.0,0,0,0.0,0.0,0,0,20.0,0.0,0.0,4697.435897435898,3936.410256410257,4518.974358974359,4445.128205128206,4233.333333333334,4524.102564102564,4468.205128205129,4190.769230769231,4261.025641025642,4287.6923076923085,4466.666666666667,4289.74358974359,4210.769230769231,4487.179487179488
3289.6003,0.47446826,0.5310676,0.33333334,0.5522388,0,0.0,0.0,0.0,0.004000361,0.0,0,0,0.0,0.0,0,0,48.0,0.0,0.0,4684.102564102564,3932.820512820513,4511.282051282052,4445.128205128206,4233.846153846154,4526.153846153847,4463.589743589744,4267.6923076923085,4201.025641025642,4278.461538461539,4356.410256410257,4274.358974358975,4168.205128205129,4442.564102564103
3289.8818,0.48307443,0.5310676,0.33333334,0.5522388,0,0.0,0.0,0.0,0.0029339893,0.0,0,0,0.0,0.0,0,0,84.0,0.0,3942.0,4656.923076923077,3926.1538461538466,4495.8974358974365,4436.410256410257,4222.564102564103,4520.512820512821,4458.461538461539,3838.461538461539,4079.48717948718,3942.564102564103,4083.076923076924,4225.128205128206,4007.1794871794878,4378.461538461539
3290.1008,0.48307443,0.5310676,0.33333334,0.5522388,0,0.0,0.0,0.0,0.0025974007,0.0,0,0,0.0,0.0,0,0,112.0,0.0,3942.0,4627.179487179488,3928.717948717949,4497.435897435898,4434.871794871796,4229.74358974359,4522.564102564103,4462.051282051282,4036.9230769230776,4196.923076923077,4126.666666666667,4164.615384615385,4243.589743589744,4136.923076923077,4405.128205128206
3290.3823,0.39533892,0.5310676,0.33333334,0.5522388,0,0.0,0.0,0.0,0.0045712492,0.0,0,0,0.0,0.0,0,0,19.0,0.0,0.0,4643.076923076924,3927.692307692308,4500.512820512821,4438.974358974359,4239.48717948718,4532.307692307693,4444.615384615385,4037.435897435898,4195.384615384616,4208.205128205129,4348.717948717949,4273.846153846154,4121.538461538462,4449.2307692307695
3290.6013,0.39533892,0.5310676,0.33333334,0.5522388,0,0.0,0.0,0.0,0.0037453466,0.0,0,0,0.0,0.0,0,0,47.0,0.0,0.0,4652.307692307693,3932.307692307693,4514.358974358975,4444.615384615385,4240.000000000001,4531.282051282052,4462.051282051282,4259.48717948718,4340.000000000001,4415.384615384616,4541.538461538462,4309.743589743591,4288.717948717949,4476.923076923077
3290.8828,0.372365,0.5310676,0.33333334,0.5522388,0,0.0,0.0,0.0,0.0028327648,0.0,0,0,0.0,0.0,0,0,83.0,0.0,448.0,4673.846153846154,3929.2307692307695,4516.923076923077,4440.000000000001,4238.461538461539,4527.6923076923085,4461.538461538462,4297.435897435898,4289.74358974359,4374.871794871796,4594.358974358975,4319.48717948718,4226.153846153847,4521.025641025642
3291.1018,0.372365,0.5310676,0.33333334,0.5522388,0,0.0,0.0,0.0,0.0032898807,0.0,0,0,0.0,0.0,0,0,111.0,0.0,448.0,4640.512820512821,3925.6410256410263,4491.794871794872,4443.589743589744,4241.025641025642,4532.820512820514,4445.128205128206,4122.564102564103,4242.051282051282,4305.641025641026,4449.2307692307695,4292.820512820514,4181.025641025642,4498.461538461539
3291.3833,0.3902076,0.5310676,0.33333334,0.5522388,0,0.0,0.0,0.0,0.0036118482,0.0,0,0,0.0,0.0,0,0,18.0,0.0,0.0,4565.641025641026,3925.6410256410263,4467.179487179487,4438.461538461539,4232.820512820514,4523.589743589744,4428.717948717949,3932.307692307693,4132.820512820514,4146.666666666667,4242.051282051282,4262.051282051282,4054.8717948717954,4503.076923076924
3291.6023,0.3902076,0.5310676,0.33333334,0.5522388,0,0.0,0.0,0.0,0.0025838206,0.0,0,0,0.0,0.0,0,0,46.0,0.0,0.0,4541.538461538462,3918.9743589743593,4450.769230769231,4440.512820512821,4233.846153846154,4522.564102564103,4407.179487179487,3787.1794871794878,4055.8974358974365,3987.1794871794878,4067.1794871794878,4225.128205128206,3992.820512820513,4465.128205128206
3291.8835,0.38482794,0.5310676,0.33333334,0.5522388,0,0.0,0.0,0.0,0.0016940637,0.0,0,0,0.0,0.0,0,0,82.0,0.0,8033.0,4534.871794871796,3929.7435897435903,4434.871794871796,4445.128205128206,4250.769230769231,4539.48717948718,4384.615384615385,3870.7692307692314,4085.6410256410263,4096.410256410257,4119.48717948718,4234.871794871796,4017.9487179487182,4438.461538461539
3292.1025,0.38482794,0.5310676,0.33333334,0.5522388,0,0.0,0.0,0.0,0.003500531,0.0,0,0,0.0,0.0,0,0,110.0,0.0,8033.0,4536.923076923077,3931.7948717948725,4450.769230769231,4447.179487179487,4249.74358974359,4532.307692307693,4384.102564102564,3872.307692307693,4162.564102564103,4109.2307692307695,4164.102564102564,4243.589743589744,4061.0256410256416,4467.179487179487
3292.384,0.3855484,0.5310676,0.33333334,0.5522388,0,0.0,0.0,0.0,0.002442897,0.0,0,0,0.0,0.0,0,0,17.0,0.0,0.0,4524.615384615385,3927.1794871794878,4430.769230769231,4440.512820512821,4239.48717948718,4526.153846153847,4377.435897435898,3907.692307692308,4066.666666666667,4097.948717948719,4098.974358974359,4235.8974358974365,4024.615384615385,4466.666666666667
3292.603,0.3855484,0.5310676,0.33333334,0.5522388,0,0.0,0.0,0.0,0.0024302544,0.0,0,0,0.0,0.0,0,0,45.0,0.0,0.0,4551.794871794872,3935.8974358974365,4445.641025641026,4450.769230769231,4249.74358974359,4536.410256410257,4386.153846153847,3873.333333333334,4147.6923076923085,4125.641025641026,4170.256410256411,4244.102564102564,4066.666666666667,4452.307692307693
3292.8845,0.33068445,0.5310676,0.33333334,0.5522388,0,0.0,0.0,0.0,0.0024767343,0.0,0,0,0.0,0.0,0,0,81.0,0.0,830.0,4520.512820512821,3922.0512820512827,4427.6923076923085,4438.974358974359,4233.333333333334,4524.102564102564,4378.974358974359,3835.3846153846157,4002.564102564103,4032.820512820513,3908.205128205129,4200.512820512821,3976.9230769230776,4387.6923076923085
3293.1035,0.33068445,0.5310676,0.33333334,0.5522388,0,0.0,0.0,0.0,0.0024591761,0.0,0,0,0.0,0.0,0,0,109.0,0.0,830.0,4527.6923076923085,3929.7435897435903,4433.333333333334,4444.102564102564,4240.512820512821,4529.743589743591,4385.128205128206,3824.615384615385,4100.512820512821,4074.358974358975,4053.333333333334,4222.564102564103,4022.564102564103,4399.48717948718
3293.385,0.33669287,0.5310676,0.33333334,0.5522388,0,0.0,0.0,0.0,0.0026853513,0.0,0,0,0.0,0.0,0,0,16.0,0.0,0.0,4565.128205128206,3925.1282051282055,4459.48717948718,4445.641025641026,4236.410256410257,4529.743589743591,4389.2307692307695,4240.512820512821,4201.025641025642,4347.6923076923085,4183.589743589744,4254.358974358975,4166.666666666667,4426.153846153847
3293.604,0.33669287,0.5310676,0.33333334,0.5522388,0,0.0,0.0,0.0,0.0022109991,0.0,0,0,0.0,0.0,0,0,44.0,0.0,0.0,4528.205128205129,3917.435897435898,4434.871794871796,4436.923076923077,4235.8974358974365,4526.153846153847,4368.205128205129,3787.692307692308,4090.2564102564106,4050.7692307692314,3915.3846153846157,4201.538461538462,4023.589743589744,4383.076923076924
3293.8855,0.34526262,0.5310676,0.33333334,0.5522388,0,0.0,0.0,0.0,0.0027980397,0.0,0,0,0.0,0.0,0,0,80.0,0.0,3997.0,4554.358974358975,3927.692307692308,4451.794871794872,4445.641025641026,4242.564102564103,4539.48717948718,4386.153846153847,4308.717948717949,4238.461538461539,4357.948717948719,4233.333333333334,4260.000000000001,4189.74358974359,4398.461538461539
3294.1042,0.34526262,0.5310676,0.33333334,0.5522388,0,0.0,0.0,0.0,0.0026677253,0.0,0,0,0.0,0.0,0,0,108.0,0.0,3997.0,4591.794871794872,3922.0512820512827,4462.051282051282,4444.615384615385,4239.48717948718,4534.871794871796,4389.743589743591,4342.051282051282,4265.128205128206,4362.564102564103,4371.282051282052,4280.000000000001,4216.410256410257,4449.2307692307695
3294.3857,0.31180033,0.5310676,0.33333334,0.5522388,0,0.0,0.0,0.0,0.002109384,0.0,0,0,0.0,0.0,0,0,15.0,0.0,448.0,4594.871794871796,3921.538461538462,4472.820512820514,4440.512820512821,4238.461538461539,4531.794871794872,4405.128205128206,4542.564102564103,4303.589743589744,4553.333333333334,4405.641025641026,4288.717948717949,4274.871794871796,4461.538461538462
3294.6047,0.31180033,0.5310676,0.33333334,0.5522388,0,0.0,0.0,0.0,0.0033796723,0.0,0,0,0.0,0.0,0,0,43.0,0.0,0.0,4560.000000000001,3933.8461538461543,4480.000000000001,4450.769230769231,4249.74358974359,4538.974358974359,4414.358974358975,4409.743589743591,4256.923076923077,4432.307692307693,4422.564102564103,4287.179487179487,4220.512820512821,4476.923076923077
3294.8862,0.28119716,0.5310676,0.33333334,0.5522388,0,0.0,0.0,0.0,0.005639695,0.0,0,0,0.0,0.0,0,0,79.0,0.0,448.0,4562.564102564103,3928.717948717949,4485.641025641026,4446.153846153847,4245.641025641026,4534.358974358975,4412.820512820514,4541.538461538462,4248.717948717949,4553.846153846154,4378.461538461539,4283.076923076924,4235.384615384616,4473.333333333334
3295.1052,0.28119716,0.5310676,0.33333334,0.5522388,0,0.0,0.0,0.0,0.005259797,0.0,0,0,0.0,0.0,0,0,107.0,0.0,448.0,4553.333333333334,3917.9487179487182,4468.205128205129,4436.410256410257,4236.410256410257,4526.153846153847,4408.717948717949,4273.846153846154,4155.8974358974365,4315.384615384616,4175.8974358974365,4245.641025641026,4133.846153846154,4442.051282051282
3295.3867,0.22284679,0.5310676,0.33333334,0.5522388,0,0.0,0.0,0.0,0.0026392068,0.0,0,0,0.0,0.0,0,0,14.0,0.0,8033.0,4542.564102564103,3926.1538461538466,4456.410256410257,4426.666666666667,4240.000000000001,4528.205128205129,4404.102564102564,4308.717948717949,4100.000000000001,4265.128205128206,4067.1794871794878,4224.102564102564,4061.0256410256416,4385.641025641026
3295.6057,0.22284679,0.5310676,0.33333334,0.5522388,0,0.0,0.0,0.0,0.0030175357,0.0,0,0,0.0,0.0,0,0,42.0,0.0,0.0,4565.641025641026,3928.205128205129,4466.666666666667,4416.410256410257,4232.820512820514,4522.564102564103,4409.2307692307695,4270.769230769231,4133.333333333334,4288.717948717949,4095.8974358974365,4230.256410256411,4088.205128205129,4414.358974358975
3295.8872,0.15786752,0.5310676,0.33333334,0.5522388,0,0.0,0.0,0.0,0.0020985163,0.0,0,0,0.0,0.0,0,0,78.0,0.0,8033.0,4592.820512820514,3925.1282051282055,4484.102564102564,4424.615384615385,4231.282051282052,4526.666666666667,4427.6923076923085,4474.358974358975,4262.051282051282,4485.128205128206,4258.461538461539,4258.974358974359,4238.461538461539,4412.820512820514
3296.106,0.15786752,0.5310676,0.33333334,0.5522388,0,0.0,0.0,0.0,0.002244778,0.0,0,0,0.0,0.0,0,0,106.0,0.0,8033.0,4584.102564102564,3917.9487179487182,4477.948717948719,4419.48717948718,4228.717948717949,4516.923076923077,4426.666666666667,4371.282051282052,4210.769230769231,4400.512820512821,4168.717948717949,4246.153846153847,4158.974358974359,4413.846153846154
3296.3875,0.1491487,0.5310676,0.33333334,0.5522388,0,0.0,0.0,0.0,0.0035094453,0.0,0,0,0.0,0.0,0,0,13.0,0.0,795.0,4650.769230769231,3925.6410256410263,4516.410256410257,4433.333333333334,4243.589743589744,4531.282051282052,4445.128205128206,4677.435897435898,4417.435897435898,4717.435897435898,4538.974358974359,4308.717948717949,4392.307692307693,4458.974358974359
3296.6064,0.1491487,0.5310676,0.33333334,0.5522388,0,0.0,0.0,0.0,0.0032475642,0.0,0,0,0.0,0.0,0,0,41.0,0.0,0.0,4632.307692307693,3922.0512820512827,4500.000000000001,4430.769230769231,4242.564102564103,4531.794871794872,4442.564102564103,4583.076923076924,4287.179487179487,4596.410256410257,4432.307692307693,4289.74358974359,4272.820512820514,4448.205128205129
3296.888,0.18717623,0.5310676,0.33333334,0.5522388,0,0.0,0.0,0.0,0.0035889372,0.0,0,0,0.0,0.0,0,0,77.0,0.0,788.0,4689.2307692307695,3933.8461538461543,4522.564102564103,4442.051282051282,4258.461538461539,4546.153846153847,4470.256410256411,4746.153846153847,4454.871794871796,4766.666666666667,4669.743589743591,4330.256410256411,4434.871794871796,4468.205128205129
3297.107,0.18717623,0.5310676,0.33333334,0.5522388,0,0.0,0.0,0.0,0.0037587418,0.0,0,0,0.0,0.0,0,0,105.0,0.0,788.0,4680.512820512821,3929.7435897435903,4518.974358974359,4436.410256410257,4248.717948717949,4536.923076923077,4467.179487179487,4682.051282051282,4374.871794871796,4720.000000000001,4573.846153846154,4312.820512820514,4367.6923076923085,4459.48717948718
3297.3884,0.209181,0.5310676,0.33333334,0.5522388,0,0.0,0.0,0.0,0.0037485466,0.0,0,0,0.0,0.0,0,0,12.0,0.0,3887.0,4661.025641025642,3933.333333333334,4502.051282051282,4441.538461538462,4252.820512820514,4545.641025641026,4457.948717948719,4618.974358974359,4358.974358974359,4604.615384615385,4549.2307692307695,4306.666666666667,4356.410256410257,4462.051282051282
3297.6074,0.209181,0.5310676,0.33333334,0.5522388,0,0.0,0.0,0.0,0.004071612,0.0,0,0,0.0,0.0,0,0,40.0,0.0,0.0,4696.410256410257,3925.6410256410263,4534.871794871796,4441.538461538462,4249.2307692307695,4536.923076923077,4472.307692307693,4814.871794871796,4475.384615384616,4845.641025641026,4769.743589743591,4345.128205128206,4467.6923076923085,4541.025641025642
3297.889,0.20601673,0.5310676,0.33333334,0.5522388,0,0.0,0.0,0.0,0.0053146565,0.0,0,0,0.0,0.0,0,0,76.0,0.0,3897.0,4637.948717948719,3920.5128205128212,4484.102564102564,4430.256410256411,4242.564102564103,4533.333333333334,4456.410256410257,4388.205128205129,4248.717948717949,4367.6923076923085,4363.076923076924,4270.769230769231,4212.307692307693,4472.820512820514
3298.1077,0.20601673,0.5310676,0.33333334,0.5522388,0,0.0,0.0,0.0,0.003189436,0.0,0,0,0.0,0.0,0,0,104.0,0.0,3897.0,4658.974358974359,3932.307692307693,4498.974358974359,4441.538461538462,4249.74358974359,4545.641025641026,4461.025641025642,4606.153846153847,4319.48717948718,4580.000000000001,4527.179487179488,4307.179487179487,4322.564102564103,4503.589743589744
3298.3892,0.22324981,0.5310676,0.33333334,0.5522388,0,0.0,0.0,0.0,0.003598362,0.0,0,0,0.0,0.0,0,0,11.0,0.0,450.0,4623.589743589744,3925.6410256410263,4485.128205128206,4440.000000000001,4248.205128205129,4546.666666666667,4456.923076923077,4358.461538461539,4268.717948717949,4348.717948717949,4397.435897435898,4276.923076923077,4218.974358974359,4467.179487179487
3298.6082,0.22324981,0.5310676,0.33333334,0.5522388,0,0.0,0.0,0.0,0.0022624373,0.0,0,0,0.0,0.0,0,0,39.0,0.0,0.0,4609.2307692307695,3922.0512820512827,4470.769230769231,4440.512820512821,4246.153846153847,4546.153846153847,4458.974358974359,4376.410256410257,4208.205128205129,4328.717948717949,4283.589743589744,4257.435897435898,4188.205128205129,4436.923076923077
3298.8896,0.21979976,0.5310676,0.33333334,0.5522388,0,0.0,0.0,0.0,0.0034874412,0.0,0,0,0.0,0.0,0,0,75.0,0.0,450.0,4630.769230769231,3915.8974358974365,4471.282051282052,4441.025641025642,4248.717948717949,4548.717948717949,4442.051282051282,4280.512820512821,4270.256410256411,4310.256410256411,4423.076923076924,4282.564102564103,4213.846153846154,4434.358974358975
3299.1086,0.21979976,0.5310676,0.33333334,0.5522388,0,0.0,0.0,0.0,0.00434111,0.0,0,0,0.0,0.0,0,0,103.0,0.0,450.0,4652.820512820514,3920.0000000000005,4488.717948717949,4439.48717948718,4241.538461538462,4544.615384615385,4444.615384615385,4492.307692307693,4347.6923076923085,4438.974358974359,4522.051282051282,4300.000000000001,4316.923076923077,4458.974358974359
3299.3901,0.17545405,0.5310676,0.33333334,0.5522388,0,0.0,0.0,0.0,0.0024227817,0.0,0,0,0.0,0.0,0,0,10.0,0.0,8033.0,4693.333333333334,3921.538461538462,4503.589743589744,4440.512820512821,4241.025641025642,4535.8974358974365,4446.153846153847,4484.615384615385,4352.307692307693,4406.153846153847,4598.461538461539,4318.461538461539,4295.384615384616,4486.153846153847
3299.6091,0.17545405,0.5310676,0.33333334,0.5522388,0,0.0,0.0,0.0,0.0035033198,0.0,0,0,0.0,0.0,0,0,38.0,0.0,0.0,4671.282051282052,3923.589743589744,4492.820512820514,4436.410256410257,4242.051282051282,4535.384615384616,4438.461538461539,4455.384615384616,4324.615384615385,4404.615384615385,4516.923076923077,4300.512820512821,4291.282051282052,4498.461538461539
3299.8906,0.17055303,0.5310676,0.33333334,0.5522388,0,0.0,0.0,0.0,0.0037192767,0.0,0,0,0.0,0.0,0,0,74.0,0.0,8033.0,4665.128205128206,3922.0512820512827,4488.205128205129,4438.461538461539,4240.000000000001,4535.384615384616,4471.282051282052,4262.564102564103,4244.102564102564,4305.641025641026,4477.948717948719,4299.48717948718,4210.769230769231,4498.461538461539
3300.1094,0.17055303,0.5310676,0.33333334,0.5522388,0,0.0,0.0,0.0,0.0035243235,0.0,0,0,0.0,0.0,0,0,102.0,0.0,8033.0,4682.051282051282,3925.1282051282055,4486.153846153847,4437.435897435898,4239.48717948718,4535.8974358974365,4461.538461538462,4364.615384615385,4266.153846153847,4342.051282051282,4476.410256410257,4295.8974358974365,4232.820512820514,4496.923076923077
3300.3909,0.13306478,0.5310676,0.33333334,0.5522388,0,0.0,0.0,0.0,0.0036757807,0.0,0,0,0.0,0.0,0,0,9.0,0.0,6833.0,4669.743589743591,3923.076923076924,4471.794871794872,4438.974358974359,4239.48717948718,4537.435897435898,4442.051282051282,4020.0000000000005,4128.717948717949,4197.435897435898,4318.461538461539,4269.2307692307695,4093.8461538461543,4469.2307692307695
3300.6099,0.13306478,0.5310676,0.33333334,0.5522388,0,0.0,0.0,0.0,0.0029344412,0.0,0,0,0.0,0.0,0,0,37.0,0.0,0.0,4655.384615384616,3923.076923076924,4459.48717948718,4440.512820512821,4242.564102564103,4535.384615384616,4428.205128205129,3973.333333333334,4147.179487179487,4149.2307692307695,4214.358974358975,4245.128205128206,4110.769230769231,4428.205128205129
3300.8914,0.10623533,0.5310676,0.33333334,0.5522388,0,0.0,0.0,0.0,0.0018753211,0.0,0,0,0.0,0.0,0,0,73.0,0.0,6780.0,4645.128205128206,3925.1282051282055,4442.051282051282,4441.538461538462,4245.128205128206,4540.000000000001,4407.179487179487,3865.6410256410263,4083.589743589744,4033.8461538461543,4128.717948717949,4233.333333333334,4036.410256410257,4424.615384615385
3301.1104,0.10623533,0.5310676,0.33333334,0.5522388,0,0.0,0.0,0.0,0.0024247896,0.0,0,0,0.0,0.0,0,0,101.0,0.0,915.0,4631.794871794872,3928.205128205129,4435.384615384616,4441.025641025642,4247.179487179487,4537.948717948719,4401.025641025642,3834.358974358975,4098.974358974359,4067.692307692308,4085.1282051282055,4221.025641025642,4057.435897435898,4409.743589743591
3301.3918,0.105974086,0.5310676,0.33333334,0.5522388,0,0.0,0.0,0.0,0.004209521,0.0,0,0,0.0,0.0,0,0,8.0,0.0,8033.0,4626.666666666667,3931.2820512820517,4446.666666666667,4443.589743589744,4257.435897435898,4548.205128205129,4403.589743589744,3984.615384615385,4172.307692307693,4178.974358974359,4221.538461538462,4258.974358974359,4108.205128205129,4391.794871794872
3301.6108,0.105974086,0.5310676,0.33333334,0.5522388,0,0.0,0.0,0.0,0.0031626504,0.0,0,0,0.0,0.0,0,0,36.0,0.0,0.0,4563.076923076924,3936.410256410257,4405.128205128206,4441.538461538462,4261.025641025642,4546.666666666667,4381.025641025642,3644.615384615385,3981.538461538462,3883.589743589744,3889.7435897435903,4188.717948717949,3911.7948717948725,4302.051282051282
3301.8923,0.10842504,0.5310676,0.33333334,0.5522388,0,0.0,0.0,0.0,0.0031984213,0.0,0,0,0.0,0.0,0,0,72.0,0.0,8033.0,4607.6923076923085,3940.5128205128212,4440.000000000001,4442.564102564103,4259.48717948718,4546.153846153847,4386.153846153847,4091.2820512820517,4210.769230769231,4281.025641025642,4282.051282051282,4283.589743589744,4159.48717948718,4443.076923076924
3302.111,0.10842504,0.5310676,0.33333334,0.5522388,0,0.0,0.0,0.0,0.00424969,0.0,0,0,0.0,0.0,0,0,100.0,0.0,4393.0,4607.6923076923085,3952.307692307693,4446.666666666667,4456.923076923077,4273.846153846154,4559.48717948718,4387.179487179487,4156.923076923077,4277.948717948719,4345.641025641026,4382.051282051282,4308.205128205129,4250.769230769231,4473.333333333334
3302.3926,0.12206507,0.5310676,0.33333334,0.5522388,0,0.0,0.0,0.0,0.005448354,0.0,0,0,0.0,0.0,0,0,7.0,0.0,6176.0,4592.820512820514,3936.9230769230776,4431.794871794872,4445.128205128206,4270.256410256411,4550.769230769231,4370.256410256411,4115.8974358974365,4181.025641025642,4276.923076923077,4222.051282051282,4273.333333333334,4105.128205128206,4460.512820512821
3302.6116,0.12206507,0.5310676,0.33333334,0.5522388,0,0.0,0.0,0.0,0.005095146,0.0,0,0,0.0,0.0,0,0,35.0,0.0,0.0,4583.076923076924,3936.410256410257,4431.794871794872,4442.051282051282,4264.102564102564,4549.2307692307695,4372.820512820514,3978.9743589743593,4167.6923076923085,4156.410256410257,4162.051282051282,4258.974358974359,4113.333333333334,4451.794871794872
3302.893,0.132873,0.5310676,0.33333334,0.5522388,0,0.0,0.0,0.0,0.0043116226,0.0,0,0,0.0,0.0,0,0,71.0,0.0,6188.0,4610.256410256411,3941.0256410256416,4450.769230769231,4445.128205128206,4265.641025641026,4549.743589743591,4373.333333333334,4271.282051282052,4252.820512820514,4420.000000000001,4377.435897435898,4300.000000000001,4182.051282051282,4488.205128205129
3303.112,0.132873,0.5310676,0.33333334,0.5522388,0,0.0,0.0,0.0,0.005085571,0.0,0,0,0.0,0.0,0,0,99.0,0.0,413.0,4750.769230769231,3941.538461538462,4474.871794871796,4443.589743589744,4267.179487179487,4552.820512820514,4396.410256410257,4529.2307692307695,4426.666666666667,4644.615384615385,4763.076923076924,4387.6923076923085,4415.384615384616,4558.974358974359
3303.3936,0.18207686,0.5310676,0.33333334,0.5522388,0,0.0,0.0,0.0,0.006367792,0.0,0,0,0.0,0.0,0,0,6.0,0.0,266.0,4726.666666666667,3941.538461538462,4466.666666666667,4443.076923076924,4263.076923076924,4546.666666666667,4396.410256410257,4606.153846153847,4305.128205128206,4641.538461538462,4725.641025641026,4367.179487179487,4295.384615384616,4572.820512820514
3303.6125,0.18207686,0.5310676,0.33333334,0.5522388,0,0.0,0.0,0.0,0.012421407,0.0,0,0,0.0,0.0,0,0,34.0,0.0,0.0,4738.461538461539,3941.0256410256416,4481.025641025642,4442.564102564103,4258.461538461539,4549.2307692307695,4416.410256410257,4490.256410256411,4292.307692307693,4582.051282051282,4686.666666666667,4366.666666666667,4292.820512820514,4602.051282051282
3303.894,0.22383678,0.5310676,0.33333334,0.5522388,0,0.0,0.0,0.0,0.008662733,0.0,0,0,0.0,0.0,0,0,70.0,0.0,265.0,4751.282051282052,3944.615384615385,4497.948717948719,4442.564102564103,4258.461538461539,4548.205128205129,4424.102564102564,4764.615384615386,4363.589743589744,4748.205128205129,4872.820512820514,4388.717948717949,4362.564102564103,4621.538461538462
3304.113,0.22383678,0.5310676,0.33333334,0.5522388,0,0.0,0.0,0.0,0.008355228,0.0,0,0,0.0,0.0,0,0,98.0,0.0,8033.0,4744.102564102564,3947.1794871794878,4501.538461538462,4452.307692307693,4270.769230769231,4554.358974358975,4428.717948717949,4500.000000000001,4240.000000000001,4564.102564102564,4696.410256410257,4356.923076923077,4204.102564102564,4625.641025641026
3304.3945,0.25113782,0.5310676,0.33333334,0.5522388,0,0.0,0.0,0.0,0.00605674,0.0,0,0,0.0,0.0,0,0,5.0,0.0,394.0,4692.307692307693,3940.0000000000005,4476.410256410257,4442.564102564103,4258.974358974359,4545.641025641026,4431.794871794872,4454.358974358975,4131.794871794872,4427.6923076923085,4434.358974358975,4298.974358974359,4110.769230769231,4557.435897435898
3304.6133,0.25113782,0.5310676,0.33333334,0.5522388,0,0.0,0.0,0.0,0.004860144,0.0,0,0,0.0,0.0,0,0,33.0,0.0,0.0,4746.153846153847,3941.538461538462,4508.205128205129,4443.076923076924,4260.000000000001,4551.794871794872,4456.923076923077,4572.307692307693,4245.641025641026,4578.974358974359,4736.410256410257,4364.102564102564,4207.6923076923085,4616.410256410257
3304.8948,0.25555116,0.5310676,0.33333334,0.5522388,0,0.0,0.0,0.0,0.005267032,0.0,0,0,0.0,0.0,0,0,69.0,0.0,394.0,4716.923076923077,3931.2820512820517,4492.820512820514,4435.384615384616,4247.179487179487,4541.025641025642,4457.435897435898,4627.179487179488,4217.435897435898,4527.6923076923085,4556.410256410257,4319.48717948718,4222.051282051282,4618.461538461539
3305.1138,0.25555116,0.5310676,0.33333334,0.5522388,0,0.0,0.0,0.0,0.005941168,0.0,0,0,0.0,0.0,0,0,97.0,0.0,932.0,4710.769230769231,3934.358974358975,4500.512820512821,4441.025641025642,4250.769230769231,4542.564102564103,4443.076923076924,4503.589743589744,4176.923076923077,4477.948717948719,4583.589743589744,4324.102564102564,4153.846153846154,4637.435897435898
3305.3953,0.3188156,0.5310676,0.33333334,0.5522388,0,0.0,0.0,0.0,0.004475532,0.0,0,0,0.0,0.0,0,0,4.0,0.0,404.0,4708.205128205129,3920.5128205128212,4499.48717948718,4431.794871794872,4247.179487179487,4542.051282051282,4460.000000000001,4606.666666666667,4165.641025641026,4475.8974358974365,4498.461538461539,4308.205128205129,4175.8974358974365,4612.820512820514
3305.6143,0.3188156,0.5310676,0.33333334,0.5522388,0,0.0,0.0,0.0,0.00401302,0.0,0,0,0.0,0.0,0,0,32.0,0.0,0.0,4709.743589743591,3938.461538461539,4495.384615384616,4436.923076923077,4248.205128205129,4541.538461538462,4468.205128205129,4529.743589743591,4184.615384615385,4462.051282051282,4495.8974358974365,4311.282051282052,4170.256410256411,4604.615384615385
3305.8958,0.33485427,0.5310676,0.33333334,0.5522388,0,0.0,0.0,0.0,0.005133344,0.0,0,0,0.0,0.0,0,0,68.0,0.0,404.0,4717.948717948719,3935.8974358974365,4514.358974358975,4444.102564102564,4253.333333333334,4543.589743589744,4476.410256410257,4713.846153846154,4283.589743589744,4589.2307692307695,4608.717948717949,4331.794871794872,4262.051282051282,4630.769230769231
3306.1147,0.33485427,0.5310676,0.33333334,0.5522388,0,0.0,0.0,0.0,0.00490633,0.0,0,0,0.0,0.0,0,0,96.0,0.0,4378.0,4715.8974358974365,3937.9487179487182,4510.256410256411,4444.102564102564,4253.846153846154,4546.153846153847,4487.6923076923085,4635.384615384616,4226.666666666667,4510.769230769231,4567.179487179488,4323.589743589744,4218.974358974359,4609.743589743591
3306.3962,0.31527913,0.5310676,0.33333334,0.5522388,0,0.0,0.0,0.0,0.0040927404,0.0,0,0,0.0,0.0,0,0,3.0,0.0,383.0,4746.666666666667,3936.9230769230776,4520.512820512821,4444.615384615385,4247.179487179487,4543.076923076924,4498.461538461539,4723.589743589744,4324.615384615385,4595.8974358974365,4638.461538461539,4332.307692307693,4302.051282051282,4602.564102564103
3306.615,0.31527913,0.5310676,0.33333334,0.5522388,0,0.0,0.0,0.0,0.004276425,0.0,0,0,0.0,0.0,0,0,31.0,0.0,0.0,4723.589743589744,3938.9743589743593,4515.384615384616,4447.179487179487,4251.282051282052,4544.615384615385,4507.6923076923085,4701.025641025642,4231.282051282052,4553.333333333334,4597.435897435898,4330.256410256411,4230.769230769231,4606.153846153847
3306.8965,0.3297839,0.5310676,0.33333334,0.5522388,0,0.0,0.0,0.0,0.0045747315,0.0,0,0,0.0,0.0,0,0,67.0,0.0,384.0,4722.564102564103,3945.1282051282055,4518.461538461539,4448.717948717949,4251.282051282052,4546.153846153847,4506.153846153847,4546.153846153847,4230.256410256411,4481.538461538462,4490.256410256411,4309.2307692307695,4223.076923076924,4578.461538461539
3307.1155,0.3297839,0.5310676,0.33333334,0.5522388,0,0.0,0.0,0.0,0.00407362,0.0,0,0,0.0,0.0,0,0,95.0,0.0,405.0,4682.051282051282,3938.9743589743593,4492.307692307693,4442.564102564103,4241.538461538462,4543.076923076924,4488.717948717949,4427.179487179487,4101.538461538462,4277.435897435898,4247.6923076923085,4262.051282051282,4076.9230769230776,4544.615384615385
3307.397,0.3397214,0.5310676,0.33333334,0.5522388,0,0.0,0.0,0.0,0.0028387369,0.0,0,0,0.0,0.0,0,0,2.0,0.0,416.0,4659.48717948718,3935.8974358974365,4485.128205128206,4438.461538461539,4245.641025641026,4545.641025641026,4474.358974358975,4182.564102564103,4126.153846153847,4245.128205128206,4187.179487179487,4249.74358974359,4100.000000000001,4537.435897435898
3307.616,0.3397214,0.5310676,0.33333334,0.5522388,0,0.0,0.0,0.0,0.0022364364,0.0,0,0,0.0,0.0,0,0,30.0,0.0,0.0,4669.2307692307695,3940.0000000000005,4487.6923076923085,4443.589743589744,4253.333333333334,4547.179487179488,4464.102564102564,4322.564102564103,4134.358974358975,4243.076923076924,4193.333333333334,4250.769230769231,4098.461538461539,4488.205128205129
3307.8975,0.3139528,0.5310676,0.33333334,0.5522388,0,0.0,0.0,0.0,0.0018749489,0.0,0,0,0.0,0.0,0,0,66.0,0.0,417.0,4643.076923076924,3936.9230769230776,4473.333333333334,4441.025641025642,4247.179487179487,4547.179487179488,4447.6923076923085,3998.461538461539,4104.102564102564,4099.48717948718,4058.461538461539,4231.794871794872,4038.9743589743593,4491.794871794872
3308.1165,0.3139528,0.5310676,0.33333334,0.5522388,0,0.0,0.0,0.0,0.0021592372,0.0,0,0,0.0,0.0,0,0,94.0,0.0,8033.0,4636.923076923077,3932.820512820513,4470.256410256411,4437.435897435898,4242.564102564103,4544.615384615385,4453.846153846154,4122.051282051282,4120.512820512821,4161.538461538462,4043.076923076924,4230.256410256411,4070.7692307692314,4482.564102564103
3308.398,0.31393987,0.5310676,0.33333334,0.5522388,0,0.0,0.0,0.0,0.0022764415,0.0,0,0,0.0,0.0,0,0,1.0,0.0,318.0,4650.256410256411,3945.1282051282055,4485.128205128206,4445.128205128206,4249.2307692307695,4548.717948717949,4445.128205128206,4068.717948717949,4242.564102564103,4227.179487179487,4190.769230769231,4265.128205128206,4210.769230769231,4517.948717948719
3308.6167,0.31393987,0.5310676,0.33333334,0.5522388,0,0.0,0.0,0.0,0.00254132,0.0,0,0,0.0,0.0,0,0,29.0,0.0,0.0,4649.743589743591,3937.9487179487182,4477.948717948719,4443.589743589744,4233.846153846154,4531.282051282052,4449.743589743591,4140.512820512821,4203.076923076924,4237.948717948719,4142.051282051282,4253.333333333334,4148.205128205129,4515.384615384616
3308.8982,0.27897146,0.5310676,0.33333334,0.5522388,0,0.0,0.0,0.0,0.0023006445,0.0,0,0,0.0,0.0,0,0,65.0,0.0,318.0,4687.179487179488,3937.9487179487182,4498.974358974359,4446.666666666667,4240.512820512821,4544.615384615385,4463.589743589744,4088.717948717949,4299.48717948718,4290.256410256411,4317.435897435898,4284.102564102564,4262.051282051282,4535.8974358974365
3309.1172,0.27897146,0.5310676,0.33333334,0.5522388,0,0.0,0.0,0.0,0.0021057036,0.0,0,0,0.0,0.0,0,0,93.0,0.0,908.0,4651.282051282052,3929.7435897435903,4471.282051282052,4441.025641025642,4233.333333333334,4534.871794871796,4445.641025641026,4036.9230769230776,4166.666666666667,4173.846153846154,4079.48717948718,4238.974358974359,4145.641025641026,4500.512820512821
3309.3987,0.22070758,0.5310676,0.33333334,0.5522388,0,0.0,0.0,0.0,0.001844379,0.0,0,0,0.0,0.0,0,0,0.0,0.0,495.0,4628.717948717949,3936.9230769230776,4466.153846153847,4443.589743589744,4241.538461538462,4542.051282051282,4446.666666666667,3818.9743589743593,4129.2307692307695,4037.9487179487182,4050.2564102564106,4238.974358974359,4062.0512820512827,4486.666666666667
3309.6177,0.22070758,0.5310676,0.33333334,0.5522388,0,0.0,0.0,0.0,0.0019316624,0.0,0,0,0.0,0.0,0,0,28.0,0.0,0.0,4650.769230769231,3929.2307692307695,4480.000000000001,4444.615384615385,4240.512820512821,4538.974358974359,4461.025641025642,4032.820512820513,4245.641025641026,4196.923076923077,4163.589743589744,4258.974358974359,4208.717948717949,4507.6923076923085
3309.8992,0.21710876,0.5310676,0.33333334,0.5522388,0,0.0,0.0,0.0,0.0015915753,0.0,0,0,0.0,0.0,0,0,64.0,0.0,496.0,4655.384615384616,3932.820512820513,4477.948717948719,4441.025641025642,4240.000000000001,4539.48717948718,4451.282051282052,3880.512820512821,4188.717948717949,4131.794871794872,4160.512820512821,4257.435897435898,4112.307692307693,4498.461538461539
3310.1182,0.21710876,0.5310676,0.33333334,0.5522388,0,0.0,0.0,0.0,0.0032825773,0.0,0,0,0.0,0.0,0,1,92.0,0.0,4243.0,4675.8974358974365,3935.8974358974365,4503.076923076924,4446.666666666667,4250.769230769231,4545.641025641026,4478.461538461539,4243.589743589744,4409.2307692307695,4473.846153846154,4483.589743589744,4317.435897435898,4362.051282051282,4565.641025641026
3310.3997,0.22590663,0.5310676,0.33333334,0.5522388,0,0.0,0.0,0.0,0.0037511762,0.0,0,0,0.0,0.0,0,1,128.0,0.0,4243.0,4698.461538461539,3929.2307692307695,4508.717948717949,4433.333333333334,4237.948717948719,4531.794871794872,4490.769230769231,4151.794871794872,4280.000000000001,4320.512820512821,4463.589743589744,4313.333333333334,4220.512820512821,4591.282051282052
3310.6184,0.22590663,0.5310676,0.33333334,0.5522388,0,0.0,0.0,0.0,0.0033076913,0.0,0,0,0.0,0.0,0,0,27.0,0.0,0.0,4716.923076923077,3930.7692307692314,4515.8974358974365,4441.025641025642,4247.179487179487,4539.48717948718,4484.102564102564,4192.307692307693,4331.794871794872,4407.179487179487,4501.538461538462,4316.410256410257,4297.435897435898,4585.641025641026
3310.9,0.19337541,0.5310676,0.33333334,0.5522388,0,0.0,0.0,0.0,0.0031458393,0.0,0,0,0.0,0.0,0,0,63.0,0.0,0.0,4723.589743589744,3937.435897435898,4516.410256410257,4445.641025641026,4253.846153846154,4540.512820512821,4501.025641025642,4264.615384615385,4256.410256410257,4346.666666666667,4535.384615384616,4328.205128205129,4214.358974358975,4612.307692307693
3311.119,0.19337541,0.5310676,0.33333334,0.5522388,0,0.0,0.0,0.0,0.0034309498,0.0,0,0,0.0,0.0,0,0,91.0,0.0,422.0,4709.743589743591,3930.7692307692314,4506.666666666667,4439.48717948718,4243.076923076924,4528.205128205129,4488.205128205129,4082.564102564103,4225.128205128206,4295.8974358974365,4394.358974358975,4297.948717948719,4196.923076923077,4593.846153846154
3311.4004,0.13032943,0.5310676,0.33333334,0.5522388,0,0.0,0.0,0.0,0.0036372053,0.0,0,0,0.0,0.0,0,0,127.0,0.0,422.0,4722.051282051282,3923.076923076924,4499.48717948718,4433.846153846154,4237.948717948719,4523.589743589744,4500.000000000001,4073.333333333334,4109.2307692307695,4194.871794871796,4368.205128205129,4294.358974358975,4062.564102564103,4604.102564102564
3311.6194,0.13032943,0.5310676,0.33333334,0.5522388,0,0.0,0.0,0.0,0.004389131,0.0,0,0,0.0,0.0,0,0,26.0,0.0,0.0,4788.717948717949,3934.358974358975,4519.48717948718,4438.974358974359,4247.179487179487,4534.871794871796,4511.794871794872,4352.307692307693,4296.923076923077,4444.615384615385,4671.794871794872,4347.6923076923085,4259.48717948718,4619.48717948718
3311.901,0.1490976,0.5310676,0.33333334,0.5522388,0,0.0,0.0,0.0,0.005870331,0.0,0,0,0.0,0.0,0,0,62.0,0.0,0.0,4780.000000000001,3942.0512820512827,4517.435897435898,4440.000000000001,4250.769230769231,4538.974358974359,4506.666666666667,4354.871794871796,4200.512820512821,4360.512820512821,4560.000000000001,4334.358974358975,4189.74358974359,4594.358974358975
3312.1199,0.1490976,0.5310676,0.33333334,0.5522388,0,0.0,0.0,0.0,0.004605162,0.0,0,0,0.0,0.0,0,0,90.0,0.0,8033.0,4783.076923076924,3940.5128205128212,4517.948717948719,4434.358974358975,4243.076923076924,4532.820512820514,4510.256410256411,4150.769230769231,4209.2307692307695,4283.589743589744,4498.974358974359,4314.358974358975,4143.589743589744,4592.820512820514
3312.4014,0.13538232,0.5310676,0.33333334,0.5522388,0,0.0,0.0,0.0,0.0033505703,0.0,0,0,0.0,0.0,0,0,126.0,0.0,8033.0,4798.461538461539,3951.7948717948725,4529.2307692307695,4442.564102564103,4256.410256410257,4544.102564102564,4517.435897435898,4501.025641025642,4258.974358974359,4436.923076923077,4627.6923076923085,4346.666666666667,4235.384615384616,4605.641025641026
3312.62,0.13538232,0.5310676,0.33333334,0.5522388,0,0.0,0.0,0.0,0.0035072912,0.0,0,0,0.0,0.0,0,0,25.0,0.0,0.0,4775.384615384616,3946.1538461538466,4512.820512820514,4441.538461538462,4257.948717948719,4543.076923076924,4515.8974358974365,4205.128205128206,4160.512820512821,4271.282051282052,4492.820512820514,4311.794871794872,4103.076923076924,4592.307692307693
3312.9016,0.1314507,0.5310676,0.33333334,0.5522388,0,0.0,0.0,0.0,0.0034123263,0.0,0,0,0.0,0.0,0,0,61.0,0.0,0.0,4738.461538461539,3947.1794871794878,4509.2307692307695,4441.538461538462,4251.282051282052,4538.461538461539,4517.435897435898,4409.743589743591,4166.666666666667,4397.948717948719,4518.974358974359,4323.589743589744,4148.205128205129,4626.153846153847
3313.1206,0.1314507,0.5310676,0.33333334,0.5522388,0,0.0,0.0,0.0,0.0032389231,0.0,0,0,0.0,0.0,0,0,89.0,0.0,857.0,4738.974358974359,3941.538461538462,4507.179487179488,4439.48717948718,4250.256410256411,4538.974358974359,4524.102564102564,4208.717948717949,4130.256410256411,4257.435897435898,4477.435897435898,4314.358974358975,4096.923076923077,4617.948717948719
3313.402,0.084678784,0.5310676,0.33333334,0.5522388,0,0.0,0.0,0.0,0.0028428873,0.0,0,0,0.0,0.0,0,0,125.0,0.0,857.0,4756.410256410257,3952.820512820513,4524.102564102564,4449.743589743591,4263.076923076924,4552.820512820514,4528.717948717949,4609.743589743591,4257.435897435898,4586.153846153847,4638.974358974359,4350.769230769231,4242.564102564103,4619.48717948718
3313.621,0.084678784,0.5310676,0.33333334,0.5522388,0,0.0,0.0,0.0,0.0039725294,0.0,0,0,0.0,0.0,0,0,24.0,0.0,0.0,4743.076923076924,3958.461538461539,4509.2307692307695,4452.307692307693,4261.025641025642,4550.769230769231,4521.025641025642,4195.8974358974365,4124.102564102564,4243.589743589744,4418.974358974359,4308.205128205129,4093.333333333334,4533.333333333334
3313.9026,0.041551664,0.5310676,0.33333334,0.5522388,0,0.0,0.0,0.0,0.0036243869,0.0,0,0,0.0,0.0,0,0,60.0,0.0,0.0,4722.564102564103,3952.307692307693,4520.000000000001,4451.282051282052,4258.974358974359,4547.6923076923085,4531.794871794872,4467.6923076923085,4158.461538461539,4427.179487179487,4426.153846153847,4313.846153846154,4131.282051282052,4493.846153846154
3314.1216,0.041551664,0.5310676,0.33333334,0.5522388,0,0.0,0.0,0.0,0.0028326113,0.0,0,0,0.0,0.0,0,0,88.0,0.0,4059.0,4746.153846153847,3945.1282051282055,4516.923076923077,4444.615384615385,4262.564102564103,4548.717948717949,4533.333333333334,4353.846153846154,4173.333333333334,4368.205128205129,4480.000000000001,4321.538461538462,4148.205128205129,4535.384615384616
3314.403,0.016113266,0.5310676,0.33333334,0.5522388,0,0.0,0.0,0.0,0.002694224,0.0,0,0,0.0,0.0,0,0,124.0,0.0,4059.0,4722.564102564103,3950.2564102564106,4532.307692307693,4446.153846153847,4261.538461538462,4548.205128205129,4535.384615384616,4537.435897435898,4203.076923076924,4536.410256410257,4501.538461538462,4324.615384615385,4169.74358974359,4515.8974358974365
3314.622,0.016113266,0.5310676,0.33333334,0.5522388,0,0.0,0.0,0.0,0.0026552095,0.0,0,0,0.0,0.0,0,0,23.0,0.0,0.0,4713.333333333334,3947.1794871794878,4523.589743589744,4443.589743589744,4251.794871794872,4543.589743589744,4548.205128205129,4393.846153846154,4158.461538461539,4373.846153846154,4452.820512820514,4315.8974358974365,4124.615384615385,4528.205128205129
3314.9036,0.005702452,0.5310676,0.33333334,0.5522388,0,0.0,0.0,0.0,0.0031879642,0.0,0,0,0.0,0.0,0,0,59.0,0.0,0.0,4750.769230769231,3949.7435897435903,4544.102564102564,4447.179487179487,4260.512820512821,4549.2307692307695,4547.179487179488,4715.8974358974365,4331.794871794872,4744.102564102564,4757.435897435898,4374.871794871796,4326.153846153847,4617.435897435898
3315.1223,0.005702452,0.5310676,0.33333334,0.5522388,0,0.0,0.0,0.0,0.00429225,0.0,0,0,0.0,0.0,0,0,87.0,0.0,430.0,4741.025641025642,3943.076923076924,4541.025641025642,4439.48717948718,4253.846153846154,4543.589743589744,4544.102564102564,4629.2307692307695,4328.205128205129,4644.615384615385,4667.179487179488,4361.025641025642,4312.307692307693,4618.461538461539
3315.4038,0.0,0.5310676,0.33333334,0.5522388,0,0.0,0.0,0.0,0.0048528784,0.0,0,0,0.0,0.0,0,0,123.0,0.0,430.0,4764.102564102564,3948.717948717949,4550.256410256411,4445.128205128206,4252.820512820514,4544.615384615385,4560.000000000001,4806.666666666667,4404.102564102564,4844.615384615386,4881.538461538462,4392.820512820514,4402.051282051282,4648.717948717949
3315.6228,0.0,0.5310676,0.33333334,0.5522388,0,0.0,0.0,0.0,0.005309168,0.0,0,0,0.0,0.0,0,0,22.0,0.0,0.0,4791.794871794872,3950.2564102564106,4550.256410256411,4442.564102564103,4257.948717948719,4548.717948717949,4562.564102564103,4803.589743589744,4415.384615384616,4815.8974358974365,4898.461538461539,4405.641025641026,4418.974358974359,4677.435897435898
3315.9043,0.06289012,0.5310676,0.33333334,0.5522388,0,0.0,0.0,0.0,0.0076466147,0.0,0,0,0.0,0.0,0,0,58.0,0.0,0.0,4792.820512820514,3949.7435897435903,4551.794871794872,4446.153846153847,4257.435897435898,4546.153846153847,4566.153846153847,4783.076923076924,4355.384615384616,4788.205128205129,4914.358974358975,4389.743589743591,4368.717948717949,4664.615384615386
3316.1233,0.06289012,0.5310676,0.33333334,0.5522388,0,0.0,0.0,0.0,0.0069733076,0.0,0,0,0.0,0.0,0,0,86.0,0.0,8033.0,4803.076923076924,3952.820512820513,4559.48717948718,4453.846153846154,4256.410256410257,4547.179487179488,4562.564102564103,4787.6923076923085,4328.205128205129,4776.923076923077,4841.538461538462,4386.666666666667,4343.589743589744,4684.615384615386
3316.4048,0.090267755,0.5310676,0.33333334,0.5522388,0,0.0,0.0,0.0,0.0056746453,0.0,0,0,0.0,0.0,0,0,122.0,0.0,8033.0,4794.358974358975,3945.6410256410263,4551.282051282052,4454.871794871796,4257.435897435898,4548.205128205129,4554.871794871796,4720.512820512821,4282.051282051282,4688.717948717949,4791.282051282052,4366.666666666667,4303.589743589744,4684.615384615386
3316.6238,0.090267755,0.5310676,0.33333334,0.5522388,0,0.0,0.0,0.0,0.00625767,0.0,0,0,0.0,0.0,0,0,21.0,0.0,0.0,4752.307692307693,3941.538461538462,4532.820512820514,4449.2307692307695,4244.615384615385,4538.974358974359,4540.512820512821,4518.461538461539,4103.076923076924,4473.846153846154,4505.128205128206,4319.48717948718,4093.333333333334,4657.948717948719
3316.9053,0.1248655,0.5310676,0.33333334,0.5522388,0,0.0,0.0,0.0,0.0033592887,0.0,0,0,0.0,0.0,0,0,57.0,0.0,0.0,4755.8974358974365,3943.076923076924,4532.307692307693,4451.794871794872,4248.717948717949,4543.076923076924,4548.205128205129,4604.615384615385,4207.6923076923085,4575.8974358974365,4582.564102564103,4336.923076923077,4218.461538461539,4682.564102564103
3317.124,0.1248655,0.5310676,0.33333334,0.5522388,0,0.0,0.0,0.0,0.0024096058,0.0,0,0,0.0,0.0,0,0,85.0,0.0,852.0,4752.307692307693,3945.1282051282055,4529.743589743591,4450.256410256411,4245.641025641026,4541.538461538462,4534.871794871796,4570.256410256411,4220.000000000001,4545.641025641026,4523.076923076924,4325.641025641026,4204.102564102564,4661.025641025642
3317.4055,0.12104628,0.5310676,0.33333334,0.5522388,0,0.0,0.0,0.0,0.0025108925,0.0,0,0,0.0,0.0,0,0,121.0,0.0,852.0,4728.205128205129,3944.1025641025644,4527.179487179488,4444.615384615385,4242.564102564103,4539.48717948718,4534.358974358975,4369.743589743591,4169.74358974359,4329.2307692307695,4343.076923076924,4290.256410256411,4156.410256410257,4633.333333333334
3317.6245,0.12104628,0.5310676,0.33333334,0.5522388,1,0.0,0.0,0.0,0.0023428225,0.0,0,0,0.0,0.0,0,0,20.0,0.0,0.0,4753.846153846154,3945.6410256410263,4537.435897435898,4445.128205128206,4245.641025641026,4542.564102564103,4532.820512820514,4585.641025641026,4264.615384615385,4566.666666666667,4548.717948717949,4329.743589743591,4255.384615384616,4674.358974358975
3317.906,0.115998805,0.5310676,0.33333334,0.5522388,0,0.0,0.0,0.0,0.0025629457,0.0,0,0,0.0,0.0,0,0,56.0,0.0,0.0,4720.000000000001,3943.589743589744,4541.025641025642,4444.615384615385,4243.589743589744,4543.076923076924,4534.358974358975,4343.076923076924,4231.282051282052,4324.102564102564,4376.410256410257,4296.410256410257,4194.871794871796,4642.051282051282
3318.125,0.115998805,0.5310676,0.33333334,0.5522388,0,0.0,0.0,0.0,0.0024774696,0.0,0,0,0.0,0.0,0,0,84.0,0.0,4109.0,4732.820512820514,3942.0512820512827,4538.974358974359,4441.538461538462,4241.538461538462,4543.589743589744,4524.615384615385,4466.153846153847,4209.2307692307695,4438.461538461539,4408.717948717949,4307.179487179487,4206.153846153847,4642.051282051282
3318.4065,0.12011444,0.5310676,0.33333334,0.5522388,0,0.0,0.0,0.0,0.0029651606,0.0,0,0,0.0,0.0,0,0,120.0,0.0,4109.0,4710.769230769231,3937.9487179487182,4515.384615384616,4438.461538461539,4240.000000000001,4543.076923076924,4518.461538461539,4165.641025641026,4188.205128205129,4213.333333333334,4295.384615384616,4278.974358974359,4144.615384615385,4646.666666666667
3318.6255,0.12011444,0.5310676,0.33333334,0.5522388,0,0.0,0.0,0.0,0.0038768114,0.0,0,0,0.0,0.0,0,0,19.0,0.0,0.0,4651.794871794872,3938.9743589743593,4484.102564102564,4441.025641025642,4246.153846153847,4545.128205128206,4493.333333333334,4221.538461538462,4137.948717948719,4197.948717948719,4105.128205128206,4246.666666666667,4086.666666666667,4624.615384615385
3318.907,0.16504766,0.5310676,0.33333334,0.5522388,0,0.0,0.0,0.0,0.0027040967,0.0,0,0,0.0,0.0,0,0,55.0,0.0,0.0,4527.179487179488,3936.410256410257,4404.102564102564,4443.076923076924,4261.025641025642,4555.8974358974365,4444.102564102564,3450.7692307692314,3917.9487179487182,3681.0256410256416,3605.6410256410263,4151.282051282052,3830.7692307692314,4532.820512820514
3319.1257,0.16504766,0.5310676,0.33333334,0.5522388,0,0.0,0.0,0.0,0.0030149992,0.0,0,0,0.0,0.0,0,0,83.0,0.0,427.0,4425.128205128206,3937.435897435898,4355.384615384616,4441.025641025642,4264.102564102564,4560.512820512821,4409.2307692307695,3358.9743589743593,3873.8461538461543,3594.8717948717954,3339.48717948718,4095.8974358974365,3770.7692307692314,4476.410256410257
3319.4072,0.2932961,0.5310676,0.33333334,0.5522388,0,0.0,0.0,0.0,0.0053850333,0.0,0,0,0.0,0.0,0,0,119.0,0.0,427.0,4375.384615384616,3929.7435897435903,4326.153846153847,4440.512820512821,4260.000000000001,4562.564102564103,4365.641025641026,3143.0769230769233,3816.410256410257,3351.2820512820517,3108.717948717949,4059.48717948718,3682.0512820512827,4430.256410256411
3319.6262,0.2932961,0.5310676,0.33333334,0.5522388,0,0.0,0.0,0.0,0.025985263,0.0,0,0,0.0,0.0,0,0,18.0,0.0,0.0,4413.333333333334,3938.461538461539,4359.48717948718,4449.743589743591,4273.333333333334,4568.205128205129,4364.102564102564,3490.2564102564106,4081.0256410256416,3796.410256410257,3465.641025641026,4127.6923076923085,3970.2564102564106,4443.589743589744
3319.9077,0.46810052,0.5310676,0.33333334,0.5522388,0,0.0,0.0,0.0,0.01637815,0.0,0,0,0.0,0.0,0,0,54.0,0.0,0.0,4439.48717948718,3931.7948717948725,4366.666666666667,4442.051282051282,4258.974358974359,4551.794871794872,4373.846153846154,3363.589743589744,4071.7948717948725,3677.9487179487182,3421.538461538462,4128.205128205129,3933.8461538461543,4388.205128205129
3320.1267,0.46810052,0.5310676,0.33333334,0.5522388,0,0.0,0.0,0.0,0.007051341,0.0,0,0,0.0,0.0,0,0,82.0,0.0,8033.0,4480.512820512821,3928.205128205129,4402.051282051282,4443.076923076924,4255.384615384616,4551.794871794872,4382.564102564103,3734.358974358975,4267.6923076923085,4033.8461538461543,3755.3846153846157,4186.153846153847,4156.923076923077,4416.923076923077
3320.4082,0.5328261,0.5310676,0.33333334,0.5522388,0,0.0,0.0,0.0,0.0070752543,0.0,0,0,0.0,0.0,0,0,118.0,0.0,8033.0,4528.717948717949,3949.2307692307695,4444.615384615385,4451.282051282052,4270.256410256411,4566.666666666667,4408.205128205129,4101.538461538462,4402.564102564103,4357.435897435898,4327.6923076923085,4302.051282051282,4339.48717948718,4534.358974358975
3320.6272,0.5328261,0.5310676,0.33333334,0.5522388,0,0.0,0.0,0.0,0.00405643,0.0,0,0,0.0,0.0,0,0,17.0,0.0,0.0,4567.179487179488,3943.076923076924,4468.205128205129,4451.282051282052,4266.666666666667,4562.051282051282,4426.153846153847,4438.461538461539,4510.769230769231,4540.000000000001,4476.923076923077,4318.974358974359,4451.282051282052,4568.717948717949
3320.9087,0.48292005,0.5310676,0.33333334,0.5522388,0,0.0,0.0,0.0,0.0035196529,0.0,0,0,0.0,0.0,0,0,53.0,0.0,0.0,4637.435897435898,3946.1538461538466,4489.2307692307695,4450.256410256411,4260.512820512821,4554.871794871796,4444.615384615385,4387.6923076923085,4417.435897435898,4518.974358974359,4578.461538461539,4341.538461538462,4390.769230769231,4592.307692307693
3321.1274,0.48292005,0.5310676,0.33333334,0.5522388,0,0.0,0.0,0.0,0.004386446,0.0,0,0,0.0,0.0,0,0,81.0,0.0,864.0,4677.435897435898,3949.7435897435903,4504.615384615385,4444.102564102564,4257.948717948719,4551.794871794872,4458.461538461539,4677.435897435898,4502.564102564103,4700.000000000001,4711.794871794872,4363.589743589744,4486.666666666667,4612.307692307693
3321.409,0.43704623,0.5310676,0.33333334,0.5522388,0,0.0,0.0,0.0,0.0070623304,0.0,0,0,0.0,0.0,0,0,117.0,0.0,864.0,4691.282051282052,3951.7948717948725,4513.333333333334,4451.794871794872,4257.948717948719,4552.307692307693,4471.282051282052,4471.794871794872,4384.102564102564,4556.410256410257,4683.589743589744,4360.512820512821,4373.333333333334,4598.461538461539
3321.628,0.43704623,0.5310676,0.33333334,0.5522388,0,0.0,0.0,0.0,0.007166545,0.0,0,0,0.0,0.0,0,0,16.0,0.0,0.0,4696.410256410257,3937.9487179487182,4509.2307692307695,4441.538461538462,4246.666666666667,4541.025641025642,4470.256410256411,4333.846153846154,4272.307692307693,4394.358974358975,4497.948717948719,4318.974358974359,4258.461538461539,4562.564102564103
3321.8782,0.35550886,0.5310676,0.33333334,0.5522388,0,0.0,0.0,0.0,0.0066800835,0.0,0,0,0.0,0.0,0,0,48.0,0.0,0.0,4740.512820512821,3937.435897435898,4517.948717948719,4443.076923076924,4248.205128205129,4543.076923076924,4483.589743589744,4217.948717948719,4264.615384615385,4412.307692307693,4518.461538461539,4318.974358974359,4245.128205128206,4529.2307692307695
3322.1284,0.35550886,0.5310676,0.33333334,0.5522388,0,0.0,0.0,0.0,0.0040154955,0.0,0,0,0.0,0.0,0,0,80.0,0.0,4074.0,4723.076923076924,3936.410256410257,4508.205128205129,4440.512820512821,4245.641025641026,4538.974358974359,4488.205128205129,4162.564102564103,4180.512820512821,4304.102564102564,4429.743589743591,4304.615384615385,4168.205128205129,4525.641025641026
3322.3787,0.3577468,0.5310676,0.33333334,0.5522388,0,0.0,0.0,0.0,0.0031883556,0.0,0,0,0.0,0.0,0,0,112.0,0.0,4074.0,4727.179487179488,3937.9487179487182,4516.410256410257,4438.461538461539,4242.564102564103,4540.512820512821,4502.564102564103,4134.871794871796,4193.846153846154,4319.48717948718,4480.512820512821,4305.128205128206,4162.051282051282,4521.538461538462
3322.629,0.3577468,0.5310676,0.33333334,0.5522388,0,0.0,0.0,0.0,0.0025684454,0.0,0,0,0.0,0.0,0,0,15.0,0.0,429.0,4764.102564102564,3950.2564102564106,4531.794871794872,4453.846153846154,4254.871794871796,4550.769230769231,4507.6923076923085,4401.025641025642,4294.358974358975,4473.846153846154,4648.717948717949,4353.333333333334,4281.538461538462,4556.923076923077
3322.9104,0.39883322,0.5310676,0.33333334,0.5522388,0,0.0,0.0,0.0,0.0036034249,0.0,0,0,0.0,0.0,0,0,51.0,0.0,0.0,4726.153846153847,3943.589743589744,4517.435897435898,4443.589743589744,4254.358974358975,4546.153846153847,4503.589743589744,4184.615384615385,4152.820512820514,4370.769230769231,4482.051282051282,4315.8974358974365,4124.102564102564,4547.179487179488
3323.1292,0.39883322,0.5310676,0.33333334,0.5522388,0,0.0,0.0,0.0,0.004433571,0.0,0,0,0.0,0.0,0,0,79.0,0.0,429.0,4720.000000000001,3944.615384615385,4515.384615384616,4447.179487179487,4253.846153846154,4550.769230769231,4502.051282051282,4036.410256410257,4164.615384615385,4219.48717948718,4392.820512820514,4291.282051282052,4130.256410256411,4531.794871794872
3323.3794,0.3769562,0.5310676,0.33333334,0.5522388,0,0.0,0.0,0.0,0.0029795992,0.0,0,0,0.0,0.0,0,0,111.0,0.0,429.0,4718.461538461539,3942.564102564103,4511.794871794872,4442.051282051282,4252.820512820514,4549.2307692307695,4504.615384615385,3994.358974358975,4115.384615384616,4178.974358974359,4371.794871794872,4294.358974358975,4047.1794871794878,4549.2307692307695
3323.6296,0.3769562,0.5310676,0.33333334,0.5522388,0,0.0,0.0,0.0,0.0028132638,0.0,0,0,0.0,0.0,0,0,14.0,0.0,8033.0,4690.256410256411,3939.48717948718,4512.307692307693,4443.589743589744,4253.846153846154,4549.743589743591,4500.000000000001,3986.1538461538466,4114.358974358975,4155.384615384616,4284.102564102564,4278.461538461539,4070.7692307692314,4538.974358974359
3323.88,0.33168837,0.5310676,0.33333334,0.5522388,0,0.0,0.0,0.0,0.002407127,0.0,0,0,0.0,0.0,0,0,46.0,0.0,0.0,4687.179487179488,3933.8461538461543,4496.410256410257,4434.358974358975,4250.256410256411,4543.076923076924,4489.2307692307695,3833.8461538461543,4061.538461538462,4038.461538461539,4174.358974358975,4256.923076923077,3979.48717948718,4527.179487179488
3324.1301,0.33168837,0.5310676,0.33333334,0.5522388,0,0.0,0.0,0.0,0.0034419713,0.0,0,0,0.0,0.0,0,0,78.0,0.0,8033.0,4677.435897435898,3940.0000000000005,4506.666666666667,4442.051282051282,4257.435897435898,4551.282051282052,4497.435897435898,4038.461538461539,4138.974358974359,4184.102564102564,4274.358974358975,4278.461538461539,4075.3846153846157,4534.358974358975
3324.3804,0.28528005,0.5310676,0.33333334,0.5522388,0,0.0,0.0,0.0,0.003232237,0.0,0,0,0.0,0.0,0,0,110.0,0.0,8033.0,4706.666666666667,3934.8717948717954,4500.000000000001,4443.589743589744,4256.410256410257,4553.846153846154,4486.153846153847,4012.307692307693,4095.3846153846157,4137.435897435898,4251.794871794872,4270.769230769231,4046.666666666667,4524.102564102564
3324.6306,0.28528005,0.5310676,0.33333334,0.5522388,0,0.0,0.0,0.0,0.0036469607,0.0,0,0,0.0,0.0,0,0,13.0,0.0,880.0,4721.025641025642,3936.9230769230776,4512.307692307693,4442.051282051282,4252.307692307693,4545.641025641026,4492.307692307693,4095.3846153846157,4166.153846153847,4225.128205128206,4291.794871794872,4284.102564102564,4081.538461538462,4550.769230769231
3324.8809,0.21740986,0.5310676,0.33333334,0.5522388,0,0.0,0.0,0.0,0.0034798398,0.0,0,0,0.0,0.0,0,1,45.0,0.0,0.0,4709.743589743591,3935.8974358974365,4507.6923076923085,4443.076923076924,4246.153846153847,4543.076923076924,4500.000000000001,4084.1025641025644,4125.641025641026,4204.102564102564,4267.6923076923085,4285.641025641026,4069.7435897435903,4550.769230769231
3325.1074,0.21740986,0.5310676,0.33333334,0.5522388,0,0.0,0.0,0.0,0.0037220235,0.0,0,0,0.0,0.0,0,0,77.0,0.0,882.0,4719.48717948718,3930.2564102564106,4503.589743589744,4437.435897435898,4240.512820512821,4540.512820512821,4490.256410256411,4088.717948717949,4129.74358974359,4220.512820512821,4299.48717948718,4286.666666666667,4057.435897435898,4561.025641025642
3325.389,0.16154985,0.5310676,0.33333334,0.5522388,0,0.0,0.0,0.0,0.0039374423,0.0,0,0,0.0,0.0,0,0,113.0,0.0,882.0,4711.794871794872,3934.358974358975,4508.205128205129,4442.564102564103,4244.102564102564,4545.128205128206,4490.256410256411,4379.48717948718,4190.256410256411,4455.8974358974365,4336.410256410257,4298.461538461539,4146.666666666667,4551.282051282052
3325.608,0.16154985,0.5310676,0.33333334,0.5522388,0,0.0,0.0,0.0,0.0038404516,0.0,0,0,0.0,0.0,0,0,12.0,0.0,4111.0,4726.666666666667,3938.461538461539,4513.333333333334,4443.076923076924,4242.051282051282,4542.051282051282,4507.6923076923085,4206.153846153847,4191.794871794872,4330.256410256411,4368.205128205129,4297.435897435898,4124.102564102564,4561.538461538462
3325.8972,0.17642175,0.5310676,0.33333334,0.5522388,0,0.0,0.0,0.0,0.0039101224,0.0,0,0,0.0,0.0,0,0,48.0,0.0,0.0,4747.179487179488,3944.1025641025644,4517.435897435898,4444.615384615385,4246.666666666667,4547.6923076923085,4507.6923076923085,4579.48717948718,4275.384615384616,4620.000000000001,4505.641025641026,4328.205128205129,4260.000000000001,4570.769230769231
3326.1162,0.17642175,0.5310676,0.33333334,0.5522388,0,0.0,0.0,0.0,0.0039362665,0.0,0,0,0.0,0.0,0,0,76.0,0.0,4106.0,4711.794871794872,3953.8461538461543,4529.743589743591,4454.358974358975,4251.794871794872,4549.2307692307695,4509.743589743591,4396.923076923077,4223.589743589744,4505.128205128206,4514.358974358975,4326.666666666667,4172.820512820514,4584.102564102564
3326.3977,0.12409838,0.5310676,0.33333334,0.5522388,0,0.0,0.0,0.0,0.004101539,0.0,0,0,0.0,0.0,0,0,112.0,0.0,4106.0,4707.6923076923085,3945.6410256410263,4515.8974358974365,4443.589743589744,4250.769230769231,4546.153846153847,4498.461538461539,4577.435897435898,4220.000000000001,4549.2307692307695,4358.974358974359,4298.974358974359,4223.076923076924,4555.8974358974365
3326.6167,0.12409838,0.5310676,0.33333334,0.5522388,0,0.0,0.0,0.0,0.0034366937,0.0,0,0,0.0,0.0,0,0,11.0,0.0,425.0,4692.820512820514,3951.7948717948725,4518.974358974359,4455.384615384616,4257.435897435898,4552.307692307693,4509.2307692307695,4426.153846153847,4218.974358974359,4514.871794871796,4407.179487179487,4308.205128205129,4177.435897435898,4559.48717948718
3326.8982,0.08787493,0.5310676,0.33333334,0.5522388,0,0.0,0.0,0.0,0.0033045458,0.0,0,0,0.0,0.0,0,0,47.0,0.0,0.0,4640.000000000001,3950.2564102564106,4495.8974358974365,4444.615384615385,4251.794871794872,4544.102564102564,4488.205128205129,4357.948717948719,4155.8974358974365,4395.384615384616,4140.512820512821,4255.384615384616,4115.384615384616,4531.282051282052
3327.1172,0.08787493,0.5310676,0.33333334,0.5522388,0,0.0,0.0,0.0,0.0033520856,0.0,0,0,0.0,0.0,0,0,75.0,0.0,424.0,4666.666666666667,3946.666666666667,4502.564102564103,4449.2307692307695,4252.820512820514,4542.051282051282,4490.256410256411,4395.384615384616,4193.846153846154,4486.666666666667,4280.512820512821,4290.769230769231,4143.076923076924,4555.384615384616
3327.3987,0.06951103,0.5310676,0.33333334,0.5522388,0,0.0,0.0,0.0,0.0039506075,0.0,0,0,0.0,0.0,0,0,111.0,0.0,424.0,4695.8974358974365,3953.8461538461543,4529.743589743591,4451.794871794872,4263.076923076924,4549.2307692307695,4500.000000000001,4753.846153846154,4364.102564102564,4742.051282051282,4529.743589743591,4332.820512820514,4364.615384615385,4594.358974358975
3327.6174,0.06951103,0.5310676,0.33333334,0.5522388,0,0.0,0.0,0.0,0.0037246281,0.0,0,0,0.0,0.0,0,0,10.0,0.0,8033.0,4680.000000000001,3952.820512820513,4512.820512820514,4448.205128205129,4261.538461538462,4556.410256410257,4498.974358974359,4617.948717948719,4268.717948717949,4648.717948717949,4469.2307692307695,4323.076923076924,4254.871794871796,4592.820512820514
3327.899,0.037872586,0.5310676,0.33333334,0.5522388,0,0.0,0.0,0.0,0.0038250003,0.0,0,0,0.0,0.0,0,0,46.0,0.0,0.0,4688.205128205129,3943.076923076924,4515.384615384616,4444.615384615385,4260.000000000001,4549.743589743591,4493.846153846154,4586.153846153847,4256.410256410257,4573.846153846154,4376.923076923077,4301.538461538462,4251.282051282052,4589.2307692307695
3328.118,0.037872586,0.5310676,0.33333334,0.5522388,0,0.0,0.0,0.0,0.0038452386,0.0,0,0,0.0,0.0,0,0,74.0,0.0,8033.0,4666.666666666667,3949.7435897435903,4517.948717948719,4452.820512820514,4267.6923076923085,4561.025641025642,4493.846153846154,4616.410256410257,4262.564102564103,4607.179487179488,4387.179487179487,4308.717948717949,4257.435897435898,4566.666666666667
3328.3994,0.0,0.5310676,0.33333334,0.5522388,0,0.0,0.0,0.0,0.0032549326,0.0,0,0,0.0,0.0,0,0,110.0,0.0,8033.0,4671.282051282052,3935.3846153846157,4516.923076923077,4444.102564102564,4260.000000000001,4557.948717948719,4488.717948717949,4350.256410256411,4232.820512820514,4433.333333333334,4229.2307692307695,4276.923076923077,4212.820512820514,4538.974358974359
3328.6184,0.0,0.5310676,0.33333334,0.5522388,0,0.0,0.0,0.0,0.0030886251,0.0,0,0,0.0,0.0,0,0,9.0,0.0,6226.0,4637.435897435898,3946.666666666667,4502.051282051282,4451.282051282052,4271.282051282052,4564.102564102564,4492.307692307693,4507.6923076923085,4213.846153846154,4523.589743589744,4257.435897435898,4284.102564102564,4177.435897435898,4522.564102564103
3328.9,0.031478457,0.5310676,0.33333334,0.5522388,0,0.0,0.0,0.0,0.0037805522,0.0,0,0,0.0,0.0,0,0,45.0,0.0,0.0,4625.128205128206,3937.9487179487182,4487.6923076923085,4441.538461538462,4258.974358974359,4554.871794871796,4475.8974358974365,4160.512820512821,4131.794871794872,4252.820512820514,4072.307692307693,4238.461538461539,4088.717948717949,4486.153846153847
3329.119,0.031478457,0.5310676,0.33333334,0.5522388,0,0.0,0.0,0.0,0.004111277,0.0,0,0,0.0,0.0,0,0,73.0,0.0,6126.0,4644.615384615385,3948.717948717949,4500.512820512821,4447.179487179487,4256.410256410257,4557.435897435898,4495.384615384616,4500.512820512821,4243.076923076924,4539.48717948718,4260.000000000001,4284.102564102564,4204.615384615385,4515.8974358974365
3329.4004,0.047105975,0.5310676,0.33333334,0.5522388,0,0.0,0.0,0.0,0.0047229896,0.0,0,0,0.0,0.0,0,0,109.0,0.0,903.0,4675.384615384616,3945.6410256410263,4512.820512820514,4446.666666666667,4257.948717948719,4557.435897435898,4494.871794871796,4478.461538461539,4330.769230769231,4608.717948717949,4449.743589743591,4317.435897435898,4309.743589743591,4564.615384615385
3329.6191,0.047105975,0.5310676,0.33333334,0.5522388,0,0.0,0.0,0.0,0.005144066,0.0,0,0,0.0,0.0,0,0,8.0,0.0,8033.0,4653.846153846154,3945.1282051282055,4505.641025641026,4448.205128205129,4266.153846153847,4561.538461538462,4490.769230769231,4603.076923076924,4316.923076923077,4661.025641025642,4416.410256410257,4314.358974358975,4298.974358974359,4559.48717948718
3329.9006,0.018711274,0.5310676,0.33333334,0.5522388,0,0.0,0.0,0.0,0.0050688325,0.0,0,0,0.0,0.0,0,0,44.0,0.0,0.0,4629.2307692307695,3932.820512820513,4487.179487179488,4440.000000000001,4250.256410256411,4545.128205128206,4480.000000000001,4126.153846153847,4156.410256410257,4245.128205128206,4149.2307692307695,4251.794871794872,4124.615384615385,4552.820512820514
3330.1196,0.018711274,0.5310676,0.33333334,0.5522388,0,0.0,0.0,0.0,0.005629764,0.0,0,0,0.0,0.0,0,0,72.0,0.0,8033.0,4656.410256410257,3945.6410256410263,4501.025641025642,4450.256410256411,4260.512820512821,4561.025641025642,4490.256410256411,4560.000000000001,4317.948717948719,4653.333333333334,4423.589743589744,4317.948717948719,4303.589743589744,4567.179487179488
3330.4011,0.035566017,0.5310676,0.33333334,0.5522388,0,0.0,0.0,0.0,0.0060220673,0.0,0,0,0.0,0.0,0,0,108.0,0.0,4231.0,4667.179487179488,3939.48717948718,4500.000000000001,4447.179487179487,4257.435897435898,4555.384615384616,4490.769230769231,4281.025641025642,4298.461538461539,4416.923076923077,4361.025641025642,4296.923076923077,4279.48717948718,4557.435897435898
3330.62,0.035566017,0.5310676,0.33333334,0.5522388,0,0.0,0.0,0.0,0.006680281,0.0,0,0,0.0,0.0,0,0,7.0,0.0,6098.0,4659.48717948718,3952.307692307693,4508.205128205129,4458.974358974359,4266.153846153847,4564.615384615385,4489.2307692307695,4500.000000000001,4309.2307692307695,4638.974358974359,4414.871794871796,4312.307692307693,4303.076923076924,4543.589743589744
3330.9016,0.010425089,0.5310676,0.33333334,0.5522388,0,0.0,0.0,0.0,0.0073384442,0.0,0,0,0.0,0.0,0,0,43.0,0.0,0.0,4664.615384615386,3943.589743589744,4487.6923076923085,4443.076923076924,4251.794871794872,4555.384615384616,4475.384615384616,4157.948717948719,4255.384615384616,4287.179487179487,4261.538461538462,4274.358974358975,4249.74358974359,4532.820512820514
3331.1206,0.010425089,0.5310676,0.33333334,0.5522388,0,0.0,0.0,0.0,0.0055377237,0.0,0,0,0.0,0.0,0,0,71.0,0.0,6125.0,4683.076923076924,3945.1282051282055,4495.384615384616,4444.615384615385,4256.410256410257,4553.333333333334,4473.846153846154,4498.974358974359,4335.384615384616,4625.641025641026,4449.2307692307695,4314.871794871796,4320.000000000001,4581.025641025642
3331.402,0.017986987,0.5310676,0.33333334,0.5522388,0,0.0,0.0,0.0,0.0058314875,0.0,0,0,0.0,0.0,0,0,107.0,0.0,412.0,4697.948717948719,3945.6410256410263,4490.769230769231,4446.153846153847,4255.8974358974365,4554.358974358975,4474.871794871796,4177.435897435898,4268.205128205129,4313.846153846154,4355.384615384616,4288.205128205129,4270.256410256411,4556.923076923077
3331.6208,0.017986987,0.5310676,0.33333334,0.5522388,0,0.0,0.0,0.0,0.005934789,0.0,0,0,0.0,0.0,0,0,6.0,0.0,260.0,4698.974358974359,3946.1538461538466,4490.769230769231,4445.641025641026,4262.564102564103,4554.358974358975,4479.48717948718,4405.128205128206,4285.128205128206,4537.948717948719,4417.948717948719,4307.179487179487,4276.410256410257,4556.923076923077
3331.9023,0.00609752,0.5310676,0.33333334,0.5522388,0,0.0,0.0,0.0,0.005615798,0.0,0,0,0.0,0.0,0,0,42.0,0.0,0.0,4687.179487179488,3946.666666666667,4476.923076923077,4445.641025641026,4254.871794871796,4553.846153846154,4464.615384615385,4054.8717948717954,4245.128205128206,4195.384615384616,4229.74358974359,4267.6923076923085,4225.128205128206,4541.025641025642
3332.1213,0.00609752,0.5310676,0.33333334,0.5522388,0,0.0,0.0,0.0,0.0054667485,0.0,0,0,0.0,0.0,0,0,70.0,0.0,260.0,4695.384615384616,3945.1282051282055,4483.076923076924,4446.666666666667,4261.025641025642,4552.820512820514,4473.333333333334,4280.000000000001,4258.461538461539,4413.846153846154,4323.589743589744,4285.641025641026,4240.000000000001,4543.589743589744
3332.4028,0.0,0.5310676,0.33333334,0.5522388,0,0.0,0.0,0.0,0.0051940535,0.0,0,0,0.0,0.0,0,0,106.0,0.0,8033.0,4697.435897435898,3950.2564102564106,4481.025641025642,4450.769230769231,4265.128205128206,4560.000000000001,4474.358974358975,4152.820512820514,4257.948717948719,4291.282051282052,4384.102564102564,4298.461538461539,4244.102564102564,4544.102564102564
3332.6218,0.0,0.5310676,0.33333334,0.5522388,0,0.0,0.0,0.0,0.0061344383,0.0,0,0,0.0,0.0,0,0,5.0,0.0,398.0,4683.589743589744,3947.692307692308,4475.384615384616,4444.615384615385,4254.358974358975,4548.205128205129,4475.384615384616,4158.461538461539,4205.641025641026,4293.333333333334,4271.282051282052,4268.717948717949,4187.6923076923085,4538.461538461539
3332.9033,0.0,0.5310676,0.33333334,0.5522388,0,0.0,0.0,0.0,0.007106359,0.0,0,0,0.0,0.0,0,0,41.0,0.0,0.0,4684.615384615386,3944.1025641025644,4475.8974358974365,4446.666666666667,4260.512820512821,4558.974358974359,4475.8974358974365,3967.692307692308,4137.435897435898,4091.2820512820517,4212.820512820514,4266.666666666667,4124.102564102564,4527.6923076923085
3333.1223,0.0,0.5310676,0.33333334,0.5522388,0,0.0,0.0,0.0,0.006666304,0.0,0,0,0.0,0.0,0,0,69.0,0.0,394.0,4667.179487179488,3945.1282051282055,4466.666666666667,4441.025641025642,4258.461538461539,4549.743589743591,4477.435897435898,4063.076923076924,4185.641025641026,4176.410256410257,4152.307692307693,4251.794871794872,4166.153846153847,4505.128205128206
3333.4038,0.0,0.5310676,0.33333334,0.5522388,0,0.0,0.0,0.0,0.00729322,0.0,0,0,0.0,0.0,0,0,105.0,0.0,944.0,4658.461538461539,3940.5128205128212,4477.948717948719,4442.564102564103,4258.974358974359,4552.307692307693,4495.384615384616,3963.589743589744,4142.564102564103,4080.0000000000005,4181.025641025642,4263.076923076924,4123.076923076924,4513.333333333334
3333.6226,0.0,0.5310676,0.33333334,0.5522388,0,0.0,0.0,0.0,0.0074377283,0.0,0,0,0.0,0.0,0,0,4.0,0.0,398.0,4641.538461538462,3936.9230769230776,4473.333333333334,4443.076923076924,4267.6923076923085,4555.8974358974365,4481.025641025642,4039.48717948718,4204.615384615385,4180.000000000001,4174.358974358975,4257.435897435898,4184.102564102564,4491.794871794872
3333.904,0.02439081,0.5310676,0.33333334,0.5522388,0,0.0,0.0,0.0,0.008497993,0.0,0,0,0.0,0.0,0,0,40.0,0.0,0.0,4652.820512820514,3942.564102564103,4467.6923076923085,4441.538461538462,4260.000000000001,4556.410256410257,4481.538461538462,3894.358974358975,4125.128205128206,3996.9230769230776,4068.205128205129,4244.615384615385,4093.8461538461543,4497.435897435898
3334.123,0.02439081,0.5310676,0.33333334,0.5522388,0,0.0,0.0,0.0,0.009442374,0.0,0,0,0.0,0.0,0,0,68.0,0.0,391.0,4677.435897435898,3940.5128205128212,4490.769230769231,4446.153846153847,4265.641025641026,4556.923076923077,4488.717948717949,4187.6923076923085,4342.564102564103,4318.974358974359,4370.769230769231,4299.48717948718,4310.769230769231,4538.461538461539
3334.4045,0.02830381,0.5310676,0.33333334,0.5522388,0,0.0,0.0,0.0,0.009038698,0.0,0,0,0.0,0.0,0,0,104.0,0.0,4362.0,4678.461538461539,3947.1794871794878,4494.358974358975,4454.358974358975,4268.717948717949,4562.051282051282,4486.666666666667,4155.8974358974365,4300.000000000001,4265.641025641026,4363.076923076924,4314.358974358975,4245.641025641026,4565.128205128206
3334.6235,0.02830381,0.5310676,0.33333334,0.5522388,0,0.0,0.0,0.0,0.008445268,0.0,0,0,0.0,0.0,0,0,3.0,0.0,373.0,4644.102564102564,3942.564102564103,4475.384615384616,4448.717948717949,4258.461538461539,4555.384615384616,4476.410256410257,4063.589743589744,4252.820512820514,4181.538461538462,4220.000000000001,4269.2307692307695,4229.2307692307695,4532.820512820514
3334.905,0.0,0.5310676,0.33333334,0.5522388,0,0.0,0.0,0.0,0.008488821,0.0,0,0,0.0,0.0,0,0,39.0,0.0,0.0,4663.589743589744,3943.076923076924,4473.846153846154,4445.641025641026,4255.8974358974365,4555.8974358974365,4480.512820512821,3927.692307692308,4134.358974358975,4066.1538461538466,4153.846153846154,4267.6923076923085,4106.153846153847,4526.153846153847
3335.124,0.0,0.5310676,0.33333334,0.5522388,0,0.0,0.0,0.0,0.007761352,0.0,0,0,0.0,0.0,0,0,67.0,0.0,373.0,4698.974358974359,3946.666666666667,4499.48717948718,4451.282051282052,4252.820512820514,4551.282051282052,4501.025641025642,4187.6923076923085,4335.384615384616,4322.051282051282,4418.461538461539,4307.179487179487,4293.846153846154,4534.871794871796
3335.4055,0.0,0.5310676,0.33333334,0.5522388,0,0.0,0.0,0.0,0.007414641,0.0,0,0,0.0,0.0,0,0,103.0,0.0,395.0,4665.128205128206,3941.0256410256416,4485.641025641026,4447.6923076923085,4253.333333333334,4551.282051282052,4494.871794871796,3877.435897435898,4088.717948717949,4018.9743589743593,4122.051282051282,4254.871794871796,4048.717948717949,4494.871794871796
3335.6243,0.0,0.5310676,0.33333334,0.5522388,0,0.0,0.0,0.0,0.0074394643,0.0,0,0,0.0,0.0,0,0,2.0,0.0,397.0,4705.641025641026,3944.1025641025644,4495.384615384616,4445.641025641026,4249.74358974359,4548.717948717949,4497.435897435898,4068.205128205129,4192.307692307693,4205.128205128206,4318.461538461539,4284.102564102564,4178.974358974359,4535.8974358974365
3335.9058,0.031808354,0.5310676,0.33333334,0.5522388,0,0.0,0.0,0.0,0.006719673,0.0,0,0,0.0,0.0,0,0,38.0,0.0,0.0,4724.102564102564,3955.3846153846157,4516.923076923077,4452.307692307693,4253.333333333334,4550.769230769231,4506.666666666667,4142.051282051282,4178.461538461539,4314.871794871796,4372.820512820514,4311.794871794872,4155.8974358974365,4533.333333333334
3336.1248,0.031808354,0.5310676,0.33333334,0.5522388,0,0.0,0.0,0.0,0.00677165,0.0,0,0,0.0,0.0,0,0,66.0,0.0,397.0,4722.051282051282,3958.9743589743593,4523.076923076924,4456.410256410257,4255.384615384616,4553.333333333334,4532.307692307693,4235.8974358974365,4264.102564102564,4397.948717948719,4529.2307692307695,4331.282051282052,4245.641025641026,4549.2307692307695
3336.4062,0.0,0.5310676,0.33333334,0.5522388,0,0.0,0.0,0.0,0.007231078,0.0,0,0,0.0,0.0,0,0,102.0,0.0,8033.0,4714.358974358975,3953.8461538461543,4509.2307692307695,4453.846153846154,4256.410256410257,4555.384615384616,4523.076923076924,4157.435897435898,4151.282051282052,4368.717948717949,4398.461538461539,4318.974358974359,4128.205128205129,4535.8974358974365
3336.6252,0.0,0.5310676,0.33333334,0.5522388,0,0.0,0.0,0.0,0.0070825024,0.0,0,0,0.0,0.0,0,0,1.0,0.0,307.0,4700.000000000001,3947.1794871794878,4504.615384615385,4449.2307692307695,4251.282051282052,4547.179487179488,4522.564102564103,4032.307692307693,4141.538461538462,4207.6923076923085,4355.8974358974365,4295.384615384616,4128.717948717949,4528.205128205129
3336.9067,0.0,0.5310676,0.33333334,0.5522388,0,0.0,0.0,0.0,0.0063567706,0.0,0,0,0.0,0.0,0,0,37.0,0.0,0.0,4717.948717948719,3950.7692307692314,4522.564102564103,4456.923076923077,4257.435897435898,4557.435897435898,4537.435897435898,4320.000000000001,4190.256410256411,4543.076923076924,4534.871794871796,4353.333333333334,4187.6923076923085,4561.538461538462
3337.1257,0.0,0.5310676,0.33333334,0.5522388,0,0.0,0.0,0.0,0.0064327,0.0,0,0,0.0,0.0,0,0,65.0,0.0,307.0,4727.179487179488,3955.8974358974365,4525.128205128206,4454.871794871796,4260.000000000001,4557.435897435898,4540.000000000001,4313.846153846154,4273.846153846154,4495.8974358974365,4568.717948717949,4351.282051282052,4243.589743589744,4563.076923076924
3337.4072,0.03126882,0.5310676,0.33333334,0.5522388,0,0.0,0.0,0.0,0.008416445,0.0,0,0,0.0,0.0,0,0,101.0,0.0,936.0,4724.102564102564,3959.48717948718,4524.102564102564,4456.923076923077,4270.769230769231,4563.076923076924,4538.461538461539,4449.743589743591,4228.205128205129,4608.717948717949,4634.358974358975,4370.769230769231,4226.153846153847,4608.717948717949
3337.6262,0.03126882,0.5310676,0.33333334,0.5522388,0,0.0,0.0,0.0,0.010361858,0.0,0,0,0.0,0.0,0,0,0.0,0.0,468.0,4683.076923076924,3948.205128205129,4506.153846153847,4451.282051282052,4267.179487179487,4562.051282051282,4526.153846153847,4074.358974358975,4105.641025641026,4245.641025641026,4377.435897435898,4304.102564102564,4089.7435897435903,4594.871794871796
3337.9075,0.05575586,0.5310676,0.33333334,0.5522388,0,0.0,0.0,0.0,0.008604773,0.0,0,0,0.0,0.0,0,0,36.0,0.0,0.0,4668.717948717949,3942.0512820512827,4492.307692307693,4451.282051282052,4272.820512820514,4566.153846153847,4510.256410256411,4125.128205128206,4081.0256410256416,4287.6923076923085,4312.820512820514,4301.025641025642,4045.1282051282055,4618.461538461539
3338.1265,0.05575586,0.5310676,0.33333334,0.5522388,0,0.0,0.0,0.0,0.005948501,0.0,0,0,0.0,0.0,0,0,64.0,0.0,468.0,4665.128205128206,3936.9230769230776,4493.333333333334,4444.615384615385,4260.000000000001,4555.384615384616,4514.358974358975,3902.564102564103,4040.0000000000005,4080.0000000000005,4217.435897435898,4274.358974358975,3993.8461538461543,4619.48717948718
3338.408,0.10172122,0.5310676,0.33333334,0.5522388,0,0.0,0.0,0.0,0.0058255084,0.0,0,0,0.0,0.0,0,0,100.0,0.0,4298.0,4639.48717948718,3924.615384615385,4473.846153846154,4442.051282051282,4250.769230769231,4547.6923076923085,4501.025641025642,3702.564102564103,3885.1282051282055,3882.0512820512827,3902.0512820512827,4204.615384615385,3838.461538461539,4546.153846153847
3338.627,0.10172122,0.5310676,0.33333334,0.5522388,0,0.0,0.0,0.0,0.0053597027,0.0,0,0,0.0,0.0,0,0,128.0,0.0,4298.0,4657.948717948719,3930.2564102564106,4489.743589743591,4444.102564102564,4248.717948717949,4553.846153846154,4516.923076923077,3875.8974358974365,4083.076923076924,4053.8461538461543,4095.8974358974365,4252.820512820514,4019.48717948718,4596.410256410257
3338.9084,0.114541665,0.5310676,0.33333334,0.5522388,0,0.0,0.0,0.0,0.0054951385,0.0,0,0,0.0,0.0,0,0,35.0,0.0,0.0,4664.102564102564,3935.8974358974365,4482.564102564103,4445.128205128206,4256.410256410257,4554.871794871796,4509.2307692307695,4058.461538461539,4097.435897435898,4217.435897435898,4176.923076923077,4267.179487179487,4038.9743589743593,4593.846153846154
3339.1274,0.114541665,0.5310676,0.33333334,0.5522388,0,0.0,0.0,0.0,0.004626471,0.0,0,0,0.0,0.0,0,0,63.0,0.0,0.0,4658.974358974359,3928.205128205129,4486.666666666667,4447.179487179487,4261.538461538462,4557.948717948719,4494.358974358975,3802.0512820512827,4054.358974358975,4010.2564102564106,4065.1282051282055,4246.666666666667,3980.0000000000005,4594.871794871796
3339.409,0.09197104,0.5310676,0.33333334,0.5522388,0,0.0,0.0,0.0,0.004455799,0.0,0,0,0.0,0.0,0,0,99.0,0.0,401.0,4676.410256410257,3943.589743589744,4481.025641025642,4450.256410256411,4266.666666666667,4559.48717948718,4498.461538461539,4235.384615384616,4186.153846153847,4325.128205128206,4275.384615384616,4293.846153846154,4114.871794871796,4607.6923076923085
3339.628,0.09197104,0.5310676,0.33333334,0.5522388,0,0.0,0.0,0.0,0.005047162,0.0,0,0,0.0,0.0,0,0,127.0,0.0,401.0,4684.102564102564,3944.1025641025644,4496.923076923077,4453.333333333334,4264.615384615385,4556.410256410257,4501.025641025642,4034.8717948717954,4157.948717948719,4218.974358974359,4252.820512820514,4289.74358974359,4104.615384615385,4609.2307692307695
3339.9094,0.05578717,0.5310676,0.33333334,0.5522388,0,0.0,0.0,0.0,0.0051401984,0.0,0,0,0.0,0.0,0,0,34.0,0.0,0.0,4670.769230769231,3932.820512820513,4491.794871794872,4442.051282051282,4254.358974358975,4541.538461538462,4510.769230769231,4242.564102564103,4169.2307692307695,4327.179487179487,4205.641025641026,4274.871794871796,4112.820512820514,4597.948717948719
3340.1282,0.05578717,0.5310676,0.33333334,0.5522388,0,0.0,0.0,0.0,0.005138923,0.0,0,0,0.0,0.0,0,0,62.0,0.0,0.0,4714.358974358975,3940.5128205128212,4511.282051282052,4446.666666666667,4254.358974358975,4542.051282051282,4528.205128205129,4222.564102564103,4212.307692307693,4324.615384615385,4355.8974358974365,4311.282051282052,4159.48717948718,4615.8974358974365
3340.4097,0.06411731,0.5310676,0.33333334,0.5522388,0,0.0,0.0,0.0,0.006576071,0.0,0,0,0.0,0.0,0,0,98.0,0.0,8033.0,4745.128205128206,3949.2307692307695,4532.820512820514,4449.2307692307695,4252.820512820514,4544.615384615385,4533.333333333334,4576.410256410257,4340.512820512821,4664.615384615386,4578.974358974359,4356.410256410257,4322.051282051282,4622.051282051282
3340.6287,0.06411731,0.5310676,0.33333334,0.5522388,0,0.0,0.0,0.0,0.0068250643,0.0,0,0,0.0,0.0,0,0,126.0,0.0,8033.0,4745.641025641026,3950.2564102564106,4529.2307692307695,4447.179487179487,4249.74358974359,4538.461538461539,4536.410256410257,4295.384615384616,4190.256410256411,4369.2307692307695,4377.435897435898,4321.538461538462,4149.74358974359,4594.871794871796
3340.9102,0.04848603,0.5310676,0.33333334,0.5522388,0,0.0,0.0,0.0,0.007468276,0.0,0,0,0.0,0.0,0,0,33.0,0.0,0.0,4754.358974358975,3960.0000000000005,4535.8974358974365,4453.846153846154,4256.923076923077,4548.205128205129,4540.512820512821,4534.358974358975,4281.025641025642,4623.076923076924,4521.025641025642,4347.6923076923085,4257.435897435898,4590.256410256411
3341.1292,0.04848603,0.5310676,0.33333334,0.5522388,0,0.0,0.0,0.0,0.00689737,0.0,0,0,0.0,0.0,0,0,61.0,0.0,0.0,4751.282051282052,3958.461538461539,4532.307692307693,4452.820512820514,4257.435897435898,4547.179487179488,4538.974358974359,4395.384615384616,4230.256410256411,4488.717948717949,4470.769230769231,4349.743589743591,4182.051282051282,4606.153846153847
3341.4106,0.07461434,0.5310676,0.33333334,0.5522388,0,0.0,0.0,0.0,0.008269848,0.0,0,0,0.0,0.0,0,0,97.0,0.0,976.0,4734.871794871796,3948.717948717949,4518.974358974359,4443.589743589744,4252.820512820514,4540.000000000001,4536.923076923077,4385.128205128206,4161.538461538462,4475.8974358974365,4311.282051282052,4311.794871794872,4128.717948717949,4554.871794871796
3341.6296,0.07461434,0.5310676,0.33333334,0.5522388,0,0.0,0.0,0.0,0.009615192,0.0,0,0,0.0,0.0,0,0,125.0,0.0,976.0,4774.358974358975,3958.461538461539,4544.102564102564,4453.846153846154,4259.48717948718,4555.384615384616,4554.871794871796,4520.000000000001,4294.358974358975,4612.307692307693,4597.948717948719,4390.769230769231,4241.538461538462,4595.384615384616
3341.8796,0.11227141,0.5310676,0.33333334,0.5522388,0,0.0,0.0,0.0,0.008252532,0.0,0,0,0.0,0.0,0,0,28.0,0.0,0.0,4762.564102564103,3953.333333333334,4534.871794871796,4448.205128205129,4253.846153846154,4541.025641025642,4538.974358974359,4327.6923076923085,4163.589743589744,4418.461538461539,4433.846153846154,4351.282051282052,4119.48717948718,4575.8974358974365
3342.13,0.11227141,0.5310676,0.33333334,0.5522388,0,0.0,0.0,0.0,0.008241006,0.0,0,0,0.0,0.0,0,0,60.0,0.0,0.0,4766.153846153847,3961.0256410256416,4545.128205128206,4460.512820512821,4260.512820512821,4551.282051282052,4553.846153846154,4500.000000000001,4255.384615384616,4608.717948717949,4548.205128205129,4375.384615384616,4219.48717948718,4584.615384615385
3342.3801,0.12172294,0.5310676,0.33333334,0.5522388,0,0.0,0.0,0.0,0.0077479524,0.0,0,0,0.0,0.0,0,0,92.0,0.0,4366.0,4810.769230769231,3962.564102564103,4552.307692307693,4449.2307692307695,4255.384615384616,4546.153846153847,4552.307692307693,4565.641025641026,4280.512820512821,4649.2307692307695,4672.307692307693,4391.794871794872,4249.2307692307695,4616.410256410257
3342.6304,0.12172294,0.5310676,0.33333334,0.5522388,0,0.0,0.0,0.0,0.0075407955,0.0,0,0,0.0,0.0,0,0,124.0,0.0,4366.0,4838.461538461539,3968.717948717949,4574.871794871796,4454.358974358975,4254.871794871796,4547.6923076923085,4568.205128205129,4758.461538461539,4393.846153846154,4834.871794871796,4834.358974358975,4423.589743589744,4386.153846153847,4665.641025641026
3342.8806,0.15883645,0.5310676,0.33333334,0.5522388,0,0.0,0.0,0.0,0.009287762,0.0,0,0,0.0,0.0,0,0,27.0,0.0,0.0,4817.948717948719,3951.7948717948725,4552.820512820514,4444.102564102564,4244.615384615385,4539.48717948718,4572.820512820514,4678.461538461539,4295.384615384616,4766.666666666667,4749.743589743591,4402.564102564103,4277.948717948719,4675.8974358974365
3343.1309,0.15883645,0.5310676,0.33333334,0.5522388,0,0.0,0.0,0.0,0.009915759,0.0,0,0,0.0,0.0,0,0,59.0,0.0,0.0,4816.410256410257,3956.410256410257,4543.589743589744,4452.820512820514,4254.871794871796,4547.179487179488,4562.051282051282,4675.8974358974365,4259.48717948718,4755.8974358974365,4749.2307692307695,4393.333333333334,4269.74358974359,4678.461538461539
3343.381,0.2141433,0.5310676,0.33333334,0.5522388,0,0.0,0.0,0.0,0.010657994,0.0,0,0,0.0,0.0,0,0,91.0,0.0,389.0,4766.153846153847,3952.307692307693,4531.282051282052,4452.307692307693,4243.589743589744,4539.48717948718,4551.282051282052,4433.846153846154,4080.5128205128212,4520.512820512821,4469.2307692307695,4329.743589743591,4095.3846153846157,4624.615384615385
3343.6313,0.2141433,0.5310676,0.33333334,0.5522388,0,0.0,0.0,0.0,0.008905993,0.0,0,0,0.0,0.0,0,0,123.0,0.0,389.0,4751.282051282052,3952.307692307693,4515.8974358974365,4447.6923076923085,4247.179487179487,4540.000000000001,4534.871794871796,4332.820512820514,4072.307692307693,4448.717948717949,4303.589743589744,4302.564102564103,4028.717948717949,4613.333333333334
3343.8816,0.19543244,0.5310676,0.33333334,0.5522388,0,0.0,0.0,0.0,0.008813867,0.0,0,0,0.0,0.0,0,0,26.0,0.0,0.0,4774.358974358975,3957.435897435898,4528.717948717949,4451.282051282052,4254.871794871796,4544.102564102564,4540.512820512821,4483.589743589744,4178.461538461539,4582.051282051282,4486.153846153847,4329.743589743591,4156.923076923077,4612.820512820514
3344.1316,0.19543244,0.5310676,0.33333334,0.5522388,0,0.0,0.0,0.0,0.010004159,0.0,0,0,0.0,0.0,0,0,58.0,0.0,0.0,4771.282051282052,3946.666666666667,4530.256410256411,4448.205128205129,4247.6923076923085,4536.410256410257,4541.538461538462,4355.384615384616,4102.564102564103,4468.717948717949,4318.461538461539,4299.48717948718,4081.538461538462,4546.666666666667
3344.3818,0.16853683,0.5310676,0.33333334,0.5522388,0,0.0,0.0,0.0,0.01067087,0.0,0,0,0.0,0.0,0,0,90.0,0.0,8033.0,4771.282051282052,3944.615384615385,4530.769230769231,4447.179487179487,4241.025641025642,4535.8974358974365,4465.128205128206,4376.410256410257,4147.6923076923085,4525.128205128206,4304.102564102564,4291.282051282052,4105.128205128206,4566.666666666667
3344.632,0.16853683,0.5310676,0.33333334,0.5522388,0,0.0,0.0,0.0,0.015403277,0.0,0,0,0.0,0.0,0,0,122.0,0.0,8033.0,4737.948717948719,3937.435897435898,4506.666666666667,4443.589743589744,4241.538461538462,4529.2307692307695,4422.564102564103,4360.000000000001,4156.410256410257,4493.333333333334,4321.538461538462,4294.358974358975,4124.102564102564,4669.2307692307695
3344.8823,0.18149537,0.5310676,0.33333334,0.5522388,0,0.0,0.0,0.0,0.01061155,0.0,0,0,0.0,0.0,0,0,25.0,0.0,0.0,4740.000000000001,3933.8461538461543,4514.358974358975,4440.512820512821,4244.615384615385,4532.307692307693,4442.051282051282,4412.820512820514,4202.051282051282,4603.589743589744,4308.717948717949,4299.48717948718,4163.589743589744,4642.051282051282
3345.1326,0.18149537,0.5310676,0.33333334,0.5522388,0,0.0,0.0,0.0,0.007298996,0.0,0,0,0.0,0.0,0,0,57.0,0.0,0.0,4705.128205128206,3938.9743589743593,4504.102564102564,4446.153846153847,4254.871794871796,4545.128205128206,4430.769230769231,4308.717948717949,4170.769230769231,4457.948717948719,4251.794871794872,4280.512820512821,4153.333333333334,4610.256410256411
3345.3828,0.11766068,0.5310676,0.33333334,0.5522388,0,0.0,0.0,0.0,0.008313321,0.0,0,0,0.0,0.0,0,0,89.0,0.0,986.0,4678.461538461539,3948.205128205129,4482.564102564103,4448.205128205129,4268.205128205129,4549.2307692307695,4412.820512820514,4291.282051282052,4190.769230769231,4500.512820512821,4172.820512820514,4268.205128205129,4134.358974358975,4581.538461538462
3345.633,0.11766068,0.5310676,0.33333334,0.5522388,0,0.0,0.0,0.0,0.009552682,0.0,0,0,0.0,0.0,0,0,121.0,0.0,986.0,4628.717948717949,3941.538461538462,4451.282051282052,4448.717948717949,4261.025641025642,4550.256410256411,4397.435897435898,4020.5128205128212,4075.3846153846157,4213.846153846154,3887.692307692308,4213.333333333334,4025.1282051282055,4508.205128205129
3345.8833,0.10381844,0.5310676,0.33333334,0.5522388,0,0.0,0.0,0.0,0.0086486535,0.0,0,0,0.0,0.0,0,0,24.0,0.0,0.0,4686.666666666667,3952.820512820513,4476.923076923077,4442.564102564103,4255.8974358974365,4545.128205128206,4396.923076923077,4183.076923076924,4215.384615384616,4408.205128205129,4096.410256410257,4260.512820512821,4157.948717948719,4517.435897435898
3346.1333,0.10381844,0.5310676,0.33333334,0.5522388,0,0.0,0.0,0.0,0.007843991,0.0,0,0,0.0,0.0,0,0,56.0,0.0,0.0,4674.358974358975,3956.9230769230776,4468.717948717949,4443.076923076924,4257.435897435898,4547.6923076923085,4403.589743589744,4147.6923076923085,4179.48717948718,4331.282051282052,4035.3846153846157,4244.615384615385,4159.48717948718,4485.128205128206
3346.3835,0.14160153,0.5310676,0.33333334,0.5522388,0,0.0,0.0,0.0,0.008658919,0.0,0,0,0.0,0.0,0,0,88.0,0.0,4389.0,4715.384615384616,3960.5128205128212,4502.564102564103,4450.256410256411,4257.435897435898,4552.820512820514,4423.076923076924,4524.102564102564,4452.820512820514,4746.666666666667,4469.2307692307695,4342.564102564103,4411.794871794872,4578.461538461539
3346.6338,0.14160153,0.5310676,0.33333334,0.5522388,0,0.0,0.0,0.0,0.008133098,0.0,0,0,0.0,0.0,0,0,120.0,0.0,4389.0,4705.128205128206,3947.692307692308,4484.102564102564,4445.641025641026,4248.205128205129,4543.589743589744,4414.871794871796,4313.333333333334,4297.435897435898,4500.000000000001,4269.74358974359,4289.2307692307695,4291.282051282052,4509.743589743591
3346.884,0.16271533,0.5310676,0.33333334,0.5522388,0,0.0,0.0,0.0,0.007270629,0.0,0,0,0.0,0.0,0,0,23.0,0.0,0.0,4680.000000000001,3949.7435897435903,4481.025641025642,4449.2307692307695,4257.435897435898,4548.717948717949,4422.051282051282,4190.256410256411,4206.153846153847,4409.2307692307695,4174.358974358975,4275.8974358974365,4181.025641025642,4486.153846153847
3347.1343,0.16271533,0.5310676,0.33333334,0.5522388,0,0.0,0.0,0.0,0.007300481,0.0,0,0,0.0,0.0,0,0,55.0,0.0,0.0,4690.769230769231,3946.666666666667,4482.051282051282,4448.717948717949,4260.000000000001,4549.2307692307695,4426.666666666667,4292.820512820514,4322.051282051282,4481.025641025642,4304.615384615385,4294.358974358975,4302.051282051282,4511.794871794872
3347.3845,0.18536474,0.5310676,0.33333334,0.5522388,0,0.0,0.0,0.0,0.007593325,0.0,0,0,0.0,0.0,0,0,87.0,0.0,392.0,4670.769230769231,3934.8717948717954,4472.820512820514,4441.538461538462,4248.717948717949,4544.102564102564,4429.743589743591,4124.615384615385,4216.410256410257,4304.615384615385,4134.871794871796,4266.153846153847,4187.6923076923085,4505.641025641026
3347.6348,0.18536474,0.5310676,0.33333334,0.5522388,0,0.0,0.0,0.0,0.007193205,0.0,0,0,0.0,0.0,0,0,119.0,0.0,392.0,4688.717948717949,3929.7435897435903,4486.153846153847,4441.025641025642,4242.051282051282,4534.358974358975,4441.025641025642,4273.846153846154,4298.974358974359,4475.384615384616,4279.48717948718,4297.948717948719,4284.615384615385,4529.2307692307695
3347.885,0.19199777,0.5310676,0.33333334,0.5522388,0,0.0,0.0,0.0,0.006970687,0.0,0,0,0.0,0.0,0,0,22.0,0.0,0.0,4719.48717948718,3944.1025641025644,4512.820512820514,4442.051282051282,4250.256410256411,4545.641025641026,4451.282051282052,4402.051282051282,4397.948717948719,4620.512820512821,4557.435897435898,4360.000000000001,4404.102564102564,4568.205128205129
3348.1353,0.19199777,0.5310676,0.33333334,0.5522388,0,0.0,0.0,0.0,0.007444983,0.0,0,0,0.0,0.0,0,0,54.0,0.0,0.0,4694.358974358975,3948.205128205129,4489.743589743591,4446.153846153847,4256.410256410257,4545.128205128206,4451.794871794872,4237.948717948719,4230.769230769231,4433.333333333334,4288.717948717949,4300.000000000001,4238.974358974359,4528.717948717949
3348.3853,0.14818904,0.5310676,0.33333334,0.5522388,0,0.0,0.0,0.0,0.0077802446,0.0,0,0,0.0,0.0,0,0,86.0,0.0,8033.0,4655.384615384616,3948.717948717949,4458.974358974359,4451.794871794872,4257.435897435898,4547.179487179488,4434.871794871796,3866.1538461538466,4083.076923076924,4019.48717948718,3926.666666666667,4225.128205128206,4055.8974358974365,4430.256410256411
3348.6355,0.14818904,0.5310676,0.33333334,0.5522388,0,0.0,0.0,0.0,0.007259556,0.0,0,0,0.0,0.0,0,0,118.0,0.0,8033.0,4630.769230769231,3956.410256410257,4450.769230769231,4454.871794871796,4270.769230769231,4560.000000000001,4421.025641025642,3731.794871794872,4055.8974358974365,3909.2307692307695,3847.692307692308,4206.666666666667,4016.410256410257,4421.025641025642
3348.8857,0.17208081,0.5310676,0.33333334,0.5522388,0,0.0,0.0,0.0,0.008241427,0.0,0,0,0.0,0.0,0,0,21.0,0.0,0.0,4654.871794871796,3948.205128205129,4461.538461538462,4450.256410256411,4256.923076923077,4547.6923076923085,4426.666666666667,3892.307692307693,4160.000000000001,4071.7948717948725,4002.564102564103,4246.666666666667,4144.615384615385,4466.666666666667
3349.136,0.17208081,0.5310676,0.33333334,0.5522388,0,0.0,0.0,0.0,0.0077618007,0.0,0,0,0.0,0.0,0,0,53.0,0.0,0.0,4657.435897435898,3954.8717948717954,4476.410256410257,4453.333333333334,4259.48717948718,4550.256410256411,4438.461538461539,3903.076923076924,4174.871794871796,4133.333333333334,4105.128205128206,4270.256410256411,4143.589743589744,4475.384615384616
3349.3862,0.14062457,0.5310676,0.33333334,0.5522388,0,0.0,0.0,0.0,0.007156727,0.0,0,0,0.0,0.0,0,0,85.0,0.0,972.0,4632.307692307693,3945.1282051282055,4462.564102564103,4450.256410256411,4255.8974358974365,4546.666666666667,4436.410256410257,3864.615384615385,4148.717948717949,4078.9743589743593,4001.538461538462,4247.6923076923085,4120.000000000001,4456.923076923077
3349.6365,0.14062457,0.5310676,0.33333334,0.5522388,0,0.0,0.0,0.0,0.0056845993,0.0,0,0,0.0,0.0,0,0,117.0,0.0,972.0,4667.179487179488,3948.717948717949,4482.051282051282,4449.743589743591,4256.923076923077,4549.2307692307695,4439.48717948718,3906.666666666667,4170.769230769231,4136.923076923077,4116.923076923077,4272.307692307693,4143.076923076924,4483.589743589744
3349.8867,0.14842515,0.5310676,0.33333334,0.5522388,0,0.0,0.0,0.0,0.005784638,0.0,0,0,0.0,0.0,0,0,20.0,0.0,0.0,4648.717948717949,3957.9487179487182,4490.256410256411,4457.435897435898,4267.6923076923085,4560.512820512821,4440.000000000001,4057.435897435898,4244.615384615385,4279.48717948718,4250.256410256411,4300.512820512821,4205.641025641026,4490.769230769231
3350.137,0.14842515,0.5310676,0.33333334,0.5522388,0,0.0,0.0,0.0,0.006020675,0.0,0,0,0.0,0.0,0,0,52.0,0.0,0.0,4675.384615384616,3952.307692307693,4492.820512820514,4451.282051282052,4255.8974358974365,4550.256410256411,4444.615384615385,4025.1282051282055,4222.564102564103,4244.615384615385,4236.410256410257,4306.153846153847,4183.589743589744,4521.538461538462
3350.387,0.10527912,0.5310676,0.33333334,0.5522388,0,0.0,0.0,0.0,0.0059101707,0.0,0,0,0.0,0.0,0,0,84.0,0.0,4311.0,4671.282051282052,3953.8461538461543,4490.769230769231,4448.205128205129,4257.435897435898,4555.8974358974365,4459.48717948718,4062.0512820512827,4213.333333333334,4279.48717948718,4283.076923076924,4309.743589743591,4173.846153846154,4529.2307692307695
3350.6372,0.10527912,0.5310676,0.33333334,0.5522388,0,0.0,0.0,0.0,0.0068759066,0.0,0,0,0.0,0.0,0,0,116.0,0.0,4311.0,4677.435897435898,3949.7435897435903,4490.769230769231,4441.538461538462,4251.794871794872,4548.205128205129,4458.461538461539,4056.9230769230776,4248.205128205129,4247.6923076923085,4249.74358974359,4307.179487179487,4198.974358974359,4537.948717948719
3350.8875,0.07469071,0.5310676,0.33333334,0.5522388,0,0.0,0.0,0.0,0.006872393,0.0,0,0,0.0,0.0,0,0,19.0,0.0,0.0,4698.974358974359,3944.615384615385,4500.512820512821,4442.564102564103,4239.48717948718,4541.025641025642,4466.153846153847,4077.9487179487187,4165.641025641026,4297.948717948719,4314.871794871796,4320.000000000001,4141.025641025642,4561.538461538462
3351.1377,0.07469071,0.5310676,0.33333334,0.5522388,0,0.0,0.0,0.0,0.0069479733,0.0,0,0,0.0,0.0,0,0,51.0,0.0,0.0,4690.769230769231,3944.1025641025644,4502.564102564103,4439.48717948718,4239.48717948718,4537.435897435898,4468.717948717949,4018.9743589743593,4156.410256410257,4199.48717948718,4208.717948717949,4296.410256410257,4114.358974358975,4537.948717948719
3351.388,0.071835145,0.5310676,0.33333334,0.5522388,0,0.0,0.0,0.0,0.007148557,0.0,0,0,0.0,0.0,0,0,83.0,0.0,398.0,4673.333333333334,3946.666666666667,4487.6923076923085,4435.8974358974365,4242.564102564103,4538.974358974359,4468.205128205129,3977.435897435898,4075.3846153846157,4183.076923076924,4172.307692307693,4287.179487179487,4044.1025641025644,4530.256410256411
3351.6382,0.071835145,0.5310676,0.33333334,0.5522388,0,0.0,0.0,0.0,0.0070687397,0.0,0,0,0.0,0.0,0,0,115.0,0.0,398.0,4676.410256410257,3940.5128205128212,4489.743589743591,4438.461538461539,4238.974358974359,4536.410256410257,4484.615384615385,3993.8461538461543,4086.1538461538466,4164.615384615385,4146.153846153847,4276.923076923077,4054.8717948717954,4526.153846153847
3351.8884,0.08213587,0.5310676,0.33333334,0.5522388,0,0.0,0.0,0.0,0.007319349,0.0,0,0,0.0,0.0,0,0,18.0,0.0,0.0,4687.179487179488,3954.8717948717954,4495.8974358974365,4440.512820512821,4241.538461538462,4542.564102564103,4489.2307692307695,4254.358974358975,4170.769230769231,4406.666666666667,4330.769230769231,4324.102564102564,4122.564102564103,4558.974358974359
3352.1387,0.08213587,0.5310676,0.33333334,0.5522388,0,0.0,0.0,0.0,0.0067082183,0.0,0,0,0.0,0.0,0,0,50.0,0.0,0.0,4712.820512820514,3960.0000000000005,4526.153846153847,4444.615384615385,4253.846153846154,4546.666666666667,4508.717948717949,4355.384615384616,4275.8974358974365,4526.666666666667,4533.333333333334,4359.48717948718,4238.974358974359,4588.205128205129
3352.3887,0.13109086,0.5310676,0.33333334,0.5522388,0,0.0,0.0,0.0,0.0068250997,0.0,0,0,0.0,0.0,0,0,82.0,0.0,8033.0,4731.282051282052,3957.9487179487182,4533.333333333334,4453.333333333334,4252.307692307693,4549.743589743591,4512.820512820514,4562.564102564103,4327.179487179487,4692.820512820514,4637.948717948719,4384.615384615385,4294.871794871796,4622.564102564103
3352.639,0.13109086,0.5310676,0.33333334,0.5522388,0,0.0,0.0,0.0,0.0072228895,0.0,0,0,0.0,0.0,0,0,114.0,0.0,8033.0,4741.538461538462,3945.6410256410263,4527.179487179488,4444.615384615385,4238.974358974359,4540.512820512821,4507.6923076923085,4475.384615384616,4271.282051282052,4625.128205128206,4622.051282051282,4364.615384615385,4230.256410256411,4613.846153846154
3352.8892,0.14042403,0.5310676,0.33333334,0.5522388,0,0.0,0.0,0.0,0.00840597,0.0,0,0,0.0,0.0,0,0,17.0,0.0,0.0,4748.717948717949,3954.8717948717954,4528.717948717949,4452.307692307693,4245.641025641026,4547.179487179488,4522.564102564103,4520.000000000001,4235.384615384616,4616.923076923077,4522.051282051282,4351.282051282052,4196.923076923077,4602.051282051282
3353.1394,0.14042403,0.5310676,0.33333334,0.5522388,0,0.0,0.0,0.0,0.0074837063,0.0,0,0,0.0,0.0,0,0,49.0,0.0,0.0,4749.2307692307695,3958.9743589743593,4533.333333333334,4455.384615384616,4255.384615384616,4557.435897435898,4509.2307692307695,4521.025641025642,4239.48717948718,4626.153846153847,4631.794871794872,4364.102564102564,4193.846153846154,4617.435897435898
3353.3896,0.10811165,0.5310676,0.33333334,0.5522388,0,0.0,0.0,0.0,0.0068327473,0.0,0,0,0.0,0.0,0,0,81.0,0.0,971.0,4712.307692307693,3949.2307692307695,4516.410256410257,4450.769230769231,4252.307692307693,4552.307692307693,4507.6923076923085,4414.871794871796,4153.333333333334,4524.615384615385,4413.333333333334,4319.48717948718,4129.2307692307695,4580.512820512821
3353.64,0.10811165,0.5310676,0.33333334,0.5522388,0,0.0,0.0,0.0,0.0075895186,0.0,0,0,0.0,0.0,0,0,113.0,0.0,971.0,4699.48717948718,3943.589743589744,4511.282051282052,4444.102564102564,4247.6923076923085,4545.641025641026,4510.256410256411,4357.948717948719,4141.538461538462,4451.282051282052,4322.564102564103,4293.846153846154,4118.461538461539,4564.102564102564
3353.765,0.10811165,0.5310676,0.33333334,0.5522388,0,0.0,0.0,0.0,0.007989084,0.0,0,0,0.0,0.0,0,0,0.0,0.0,465.0,4728.717948717949,3941.0256410256416,4516.923076923077,4445.128205128206,4250.769230769231,4549.2307692307695,4510.769230769231,4159.48717948718,4226.666666666667,4283.076923076924,4422.051282051282,4306.153846153847,4222.564102564103,4584.615384615385
3354.0151,0.13105766,0.5310676,0.33333334,0.5522388,0,0.0,0.0,0.0,0.008033449,0.0,0,0,0.0,0.0,0,0,35.0,0.0,0.0,4720.512820512821,3947.692307692308,4515.384615384616,4446.153846153847,4257.435897435898,4557.948717948719,4515.384615384616,4223.589743589744,4127.179487179487,4340.512820512821,4378.974358974359,4320.000000000001,4080.5128205128212,4569.743589743591
3354.2654,0.13105766,0.5310676,0.33333334,0.5522388,0,0.0,0.0,0.0,0.007213389,0.0,0,0,0.0,0.0,0,0,67.0,0.0,369.0,4671.794871794872,3943.076923076924,4486.666666666667,4442.564102564103,4253.333333333334,4550.769230769231,4492.307692307693,3922.564102564103,3942.564102564103,4062.564102564103,4013.8461538461543,4237.948717948719,3916.9230769230776,4509.743589743591
3354.5156,0.10323843,0.5310676,0.33333334,0.5522388,0,0.0,0.0,0.0,0.0066760327,0.0,0,0,0.0,0.0,0,0,99.0,0.0,398.0,4680.512820512821,3945.1282051282055,4493.333333333334,4443.076923076924,4254.358974358975,4549.2307692307695,4491.794871794872,4076.9230769230776,4046.1538461538466,4184.102564102564,4092.307692307693,4254.871794871796,3998.9743589743593,4526.153846153847
3354.7659,0.10323843,0.5310676,0.33333334,0.5522388,0,0.0,0.0,0.0,0.006262764,0.0,0,0,0.0,0.0,0,0,2.0,0.0,396.0,4699.48717948718,3937.9487179487182,4503.589743589744,4436.410256410257,4243.589743589744,4540.000000000001,4501.538461538462,4237.948717948719,4145.128205128206,4348.717948717949,4176.410256410257,4277.948717948719,4081.538461538462,4570.769230769231
3355.016,0.054500695,0.5310676,0.33333334,0.5522388,0,0.0,0.0,0.0,0.006538982,0.0,0,0,0.0,0.0,0,0,34.0,0.0,0.0,4680.000000000001,3942.564102564103,4493.846153846154,4444.102564102564,4248.717948717949,4540.512820512821,4488.717948717949,4170.769230769231,4130.769230769231,4278.461538461539,4115.384615384616,4260.512820512821,4073.8461538461543,4555.8974358974365
3355.2664,0.054500695,0.5310676,0.33333334,0.5522388,0,0.0,0.0,0.0,0.0070224986,0.0,0,0,0.0,0.0,0,0,66.0,0.0,396.0,4687.179487179488,3949.2307692307695,4510.769230769231,4448.717948717949,4254.871794871796,4547.6923076923085,4497.948717948719,4306.666666666667,4208.205128205129,4418.974358974359,4247.6923076923085,4291.794871794872,4144.102564102564,4582.051282051282
3355.5164,0.020563599,0.5310676,0.33333334,0.5522388,0,0.0,0.0,0.0,0.0056975167,0.0,0,0,0.0,0.0,0,0,98.0,0.0,8033.0,4717.435897435898,3962.0512820512827,4513.333333333334,4450.769230769231,4259.48717948718,4552.307692307693,4489.743589743591,4459.48717948718,4277.948717948719,4565.641025641026,4433.333333333334,4321.538461538462,4226.153846153847,4611.282051282052
3355.7666,0.020563599,0.5310676,0.33333334,0.5522388,0,0.0,0.0,0.0,0.005604567,0.0,0,0,0.0,0.0,0,0,1.0,0.0,301.0,4708.717948717949,3957.435897435898,4522.564102564103,4450.256410256411,4253.846153846154,4548.717948717949,4494.358974358975,4476.410256410257,4237.948717948719,4579.48717948718,4414.871794871796,4322.564102564103,4202.051282051282,4624.102564102564
3356.0168,0.0011868421,0.5310676,0.33333334,0.5522388,0,0.0,0.0,0.0,0.0059710923,0.0,0,0,0.0,0.0,0,0,33.0,0.0,0.0,4747.6923076923085,3954.358974358975,4529.2307692307695,4449.2307692307695,4257.435897435898,4547.6923076923085,4505.128205128206,4599.48717948718,4305.128205128206,4689.743589743591,4502.051282051282,4335.384615384616,4268.205128205129,4617.948717948719
3356.267,0.0011868421,0.5310676,0.33333334,0.5522388,0,0.0,0.0,0.0,0.006417714,0.0,0,0,0.0,0.0,0,0,65.0,0.0,302.0,4734.358974358975,3953.333333333334,4526.666666666667,4449.743589743591,4254.871794871796,4544.615384615385,4506.153846153847,4553.333333333334,4245.641025641026,4637.948717948719,4443.076923076924,4323.589743589744,4223.589743589744,4615.384615384616
3356.5173,0.015723422,0.5310676,0.33333334,0.5522388,0,0.0,0.0,0.0,0.0067630922,0.0,0,0,0.0,0.0,0,0,97.0,0.0,948.0,4694.871794871796,3951.7948717948725,4516.410256410257,4445.128205128206,4255.384615384616,4543.076923076924,4517.435897435898,4561.025641025642,4237.435897435898,4667.6923076923085,4396.410256410257,4310.256410256411,4229.74358974359,4607.179487179488
3356.7676,0.015723422,0.5310676,0.33333334,0.5522388,0,0.0,0.0,0.0,0.0069988854,0.0,0,0,0.0,0.0,0,0,0.0,0.0,463.0,4716.923076923077,3955.3846153846157,4539.48717948718,4446.666666666667,4264.102564102564,4555.8974358974365,4536.410256410257,4633.846153846154,4313.846153846154,4717.435897435898,4621.538461538462,4348.717948717949,4296.923076923077,4662.564102564103
3357.0178,0.03897363,0.5310676,0.33333334,0.5522388,0,0.0,0.0,0.0,0.007465032,0.0,0,0,0.0,0.0,0,0,32.0,0.0,0.0,4703.076923076924,3945.6410256410263,4517.435897435898,4445.641025641026,4256.923076923077,4548.717948717949,4510.256410256411,4547.179487179488,4251.794871794872,4667.6923076923085,4369.743589743591,4304.102564102564,4225.641025641026,4629.743589743591
3357.268,0.03897363,0.5310676,0.33333334,0.5522388,0,0.0,0.0,0.0,0.0070894514,0.0,0,0,0.0,0.0,0,0,64.0,0.0,464.0,4727.6923076923085,3947.1794871794878,4531.282051282052,4441.538461538462,4249.74358974359,4543.589743589744,4520.512820512821,4519.48717948718,4276.410256410257,4612.307692307693,4423.076923076924,4305.641025641026,4265.128205128206,4594.358974358975
3357.5183,0.034217373,0.5310676,0.33333334,0.5522388,0,0.0,0.0,0.0,0.0064009135,0.0,0,0,0.0,0.0,0,0,96.0,0.0,4289.0,4725.128205128206,3945.1282051282055,4525.128205128206,4438.461538461539,4253.846153846154,4545.641025641026,4509.2307692307695,4617.948717948719,4333.333333333334,4763.076923076924,4464.102564102564,4326.153846153847,4318.461538461539,4614.358974358975
3357.7683,0.034217373,0.5310676,0.33333334,0.5522388,0,0.0,0.0,0.0,0.006795699,0.0,0,0,0.0,0.0,0,0,128.0,0.0,4289.0,4728.205128205129,3937.9487179487182,4515.384615384616,4433.333333333334,4247.179487179487,4538.974358974359,4492.820512820514,4375.384615384616,4229.2307692307695,4491.282051282052,4234.871794871796,4274.871794871796,4218.974358974359,4575.384615384616
3358.0186,0.012574932,0.5310676,0.33333334,0.5522388,0,0.0,0.0,0.0,0.007577515,0.0,0,0,0.0,0.0,0,0,31.0,0.0,0.0,4770.256410256411,3944.615384615385,4546.666666666667,4446.153846153847,4263.589743589744,4555.384615384616,4506.666666666667,4753.333333333334,4468.205128205129,4881.538461538462,4714.358974358975,4379.48717948718,4448.205128205129,4643.589743589744
3358.2688,0.012574932,0.5310676,0.33333334,0.5522388,0,0.0,0.0,0.0,0.0064968215,0.0,0,0,0.0,0.0,0,0,63.0,0.0,0.0,4760.512820512821,3938.461538461539,4536.410256410257,4436.410256410257,4252.820512820514,4545.641025641026,4520.000000000001,4612.820512820514,4373.333333333334,4717.435897435898,4680.512820512821,4355.8974358974365,4368.717948717949,4664.615384615386
3358.519,0.06310983,0.5310676,0.33333334,0.5522388,0,0.0,0.0,0.0,0.0074459766,0.0,0,0,0.0,0.0,0,0,95.0,0.0,398.0,4735.8974358974365,3946.1538461538466,4528.717948717949,4435.384615384616,4250.256410256411,4544.615384615385,4522.051282051282,4528.717948717949,4250.769230769231,4668.717948717949,4460.512820512821,4328.717948717949,4265.641025641026,4650.769230769231
3358.7693,0.06310983,0.5310676,0.33333334,0.5522388,0,0.0,0.0,0.0,0.0072983517,0.0,0,0,0.0,0.0,0,0,127.0,0.0,398.0,4725.128205128206,3945.6410256410263,4531.282051282052,4431.282051282052,4246.153846153847,4541.538461538462,4534.871794871796,4402.051282051282,4244.102564102564,4514.358974358975,4385.128205128206,4306.666666666667,4261.538461538462,4625.641025641026
3359.0195,0.07573097,0.5310676,0.33333334,0.5522388,0,0.0,0.0,0.0,0.0062334375,0.0,0,0,0.0,0.0,0,0,30.0,0.0,0.0,4736.410256410257,3948.717948717949,4527.6923076923085,4405.641025641026,4249.2307692307695,4546.666666666667,4522.051282051282,4325.641025641026,4193.333333333334,4473.846153846154,4346.666666666667,4305.641025641026,4190.256410256411,4609.743589743591
3359.2698,0.07573097,0.5310676,0.33333334,0.5522388,0,0.0,0.0,0.0,0.005942303,0.0,0,0,0.0,0.0,0,0,62.0,0.0,0.0,4697.435897435898,3949.2307692307695,4501.538461538462,4384.102564102564,4245.641025641026,4544.615384615385,4509.2307692307695,4084.1025641025644,4120.512820512821,4221.025641025642,4021.538461538462,4247.6923076923085,4068.717948717949,4555.8974358974365
3359.52,0.046517808,0.5310676,0.33333334,0.5522388,0,0.0,0.0,0.0,0.005257846,0.0,0,0,0.0,0.0,0,0,94.0,0.0,8033.0,4704.102564102564,3951.7948717948725,4500.512820512821,4415.384615384616,4247.179487179487,4545.128205128206,4494.871794871796,3998.9743589743593,4116.923076923077,4140.000000000001,4026.1538461538466,4249.2307692307695,4071.7948717948725,4529.743589743591
3359.77,0.046517808,0.5310676,0.33333334,0.5522388,0,0.0,0.0,0.0,0.007169839,0.0,0,0,0.0,0.0,0,0,126.0,0.0,8033.0,4703.589743589744,3950.7692307692314,4512.307692307693,4437.435897435898,4246.153846153847,4549.2307692307695,4504.102564102564,4317.435897435898,4293.333333333334,4472.820512820514,4348.205128205129,4326.153846153847,4270.256410256411,4602.051282051282
3360.0203,0.007969784,0.5310676,0.33333334,0.5522388,0,0.0,0.0,0.0,0.0059137917,0.0,0,0,0.0,0.0,0,0,29.0,0.0,0.0,4722.564102564103,3952.820512820513,4514.358974358975,4454.358974358975,4251.282051282052,4550.769230769231,4509.2307692307695,4177.948717948719,4269.74358974359,4334.871794871796,4317.435897435898,4317.435897435898,4266.666666666667,4575.8974358974365
3360.2705,0.007969784,0.5310676,0.33333334,0.5522388,0,0.0,0.0,0.0,0.005546186,0.0,0,0,0.0,0.0,0,0,61.0,0.0,0.0,4707.179487179488,3956.9230769230776,4511.282051282052,4458.461538461539,4254.358974358975,4551.794871794872,4507.6923076923085,4272.820512820514,4286.153846153847,4440.512820512821,4362.051282051282,4328.717948717949,4262.564102564103,4576.923076923077
3360.5208,0.0,0.5310676,0.33333334,0.5522388,0,0.0,0.0,0.0,0.0055964687,0.0,0,0,0.0,0.0,0,0,93.0,0.0,926.0,4685.641025641026,3951.2820512820517,4478.974358974359,4451.282051282052,4244.102564102564,4544.615384615385,4491.794871794872,3886.1538461538466,4125.128205128206,4063.076923076924,3992.307692307693,4251.282051282052,4089.7435897435903,4499.48717948718
3360.771,0.0,0.5310676,0.33333334,0.5522388,0,0.0,0.0,0.0,0.005271416,0.0,0,0,0.0,0.0,0,0,125.0,0.0,926.0,4765.128205128206,3949.7435897435903,4502.564102564103,4453.846153846154,4238.461538461539,4533.846153846154,4487.6923076923085,4086.666666666667,4251.794871794872,4302.051282051282,4271.282051282052,4306.153846153847,4207.179487179487,4588.205128205129
3361.0525,0.0,0.5310676,0.33333334,0.5522388,0,0.0,0.0,0.0,0.004185761,0.0,0,0,0.0,0.0,0,0,32.0,0.0,0.0,4755.384615384616,3957.9487179487182,4511.282051282052,4457.435897435898,4242.564102564103,4546.153846153847,4504.102564102564,4092.307692307693,4240.000000000001,4283.076923076924,4366.666666666667,4336.410256410257,4212.307692307693,4587.179487179488
3361.2715,0.0,0.5310676,0.33333334,0.5522388,0,0.0,0.0,0.0,0.00503216,0.0,0,0,0.0,0.0,0,0,60.0,0.0,0.0,4785.128205128206,3952.307692307693,4512.307692307693,4456.923076923077,4239.48717948718,4534.871794871796,4507.179487179488,4114.871794871796,4233.846153846154,4313.846153846154,4338.461538461539,4326.153846153847,4211.282051282052,4612.307692307693
