timestamp,excitement,frustration,meditation,engagementBoredom,blink,clench,laugh,smile,eyebrow,furrowBrow,lookLeft,lookRight,smirkLeft,smirkRight,winkLeft,winkRight,eeg0,eeg1,eeg2,eeg3,eeg4,eeg5,eeg6,eeg7,eeg8,eeg9,eeg10,eeg11,eeg12,eeg13,eeg14,eeg15,eeg16
3090.531,0.81596255,0.5310676,0.33333334,0.5522388,0,0.0,0.0,0.0,0.006154883,0.0,0,0,0.0,0.0,0,0,5.0,0.0,363.0,4629.2307692307695,3936.410256410257,4461.538461538462,4444.102564102564,4264.615384615385,4568.205128205129,4386.666666666667,3836.9230769230776,4045.6410256410263,3998.9743589743593,3830.7692307692314,4194.871794871796,3996.410256410257,4396.410256410257
3090.7812,0.7026742,0.5310676,0.33333334,0.5522388,0,0.0,0.0,0.0,0.008806514,0.0,0,0,0.0,0.0,0,0,37.0,0.0,0.0,4671.282051282052,3944.615384615385,4490.256410256411,4449.743589743591,4269.2307692307695,4575.8974358974365,4396.410256410257,4107.179487179487,4181.538461538462,4332.307692307693,4149.2307692307695,4260.512820512821,4137.948717948719,4404.615384615385
3091.0312,0.7026742,0.5310676,0.33333334,0.5522388,0,0.0,0.0,0.0,0.0071468325,0.0,0,0,0.0,0.0,0,0,69.0,0.0,361.0,4648.717948717949,3930.7692307692314,4456.923076923077,4440.512820512821,4258.461538461539,4564.102564102564,4381.025641025642,3692.307692307693,3882.564102564103,3831.2820512820517,3582.0512820512827,4142.051282051282,3834.8717948717954,4248.717948717949
3091.2815,0.62826306,0.5310676,0.33333334,0.5522388,0,0.0,0.0,0.0,0.0077601247,0.0,0,0,0.0,0.0,0,0,101.0,0.0,778.0,4676.410256410257,3927.1794871794878,4482.564102564103,4435.384615384616,4256.410256410257,4564.102564102564,4403.589743589744,4138.974358974359,4175.8974358974365,4362.051282051282,4118.974358974359,4248.205128205129,4150.256410256411,4363.589743589744
3091.5317,0.62826306,0.5310676,0.33333334,0.5522388,0,0.0,0.0,0.0,0.008791056,0.0,0,0,0.0,0.0,0,0,4.0,0.0,368.0,4659.48717948718,3928.717948717949,4490.769230769231,4440.512820512821,4256.923076923077,4564.102564102564,4418.974358974359,4255.384615384616,4261.538461538462,4433.846153846154,4260.000000000001,4266.153846153847,4231.794871794872,4397.948717948719
3091.782,0.5320114,0.5310676,0.33333334,0.5522388,0,0.0,0.0,0.0,0.005795389,0.0,0,0,0.0,0.0,0,0,36.0,0.0,0.0,4700.512820512821,3933.333333333334,4507.179487179488,4440.512820512821,4256.410256410257,4573.333333333334,4422.051282051282,4554.358974358975,4346.666666666667,4654.358974358975,4443.589743589744,4311.794871794872,4317.435897435898,4411.794871794872
3092.0322,0.5320114,0.5310676,0.33333334,0.5522388,0,0.0,0.0,0.0,0.0056702355,0.0,0,0,0.0,0.0,0,0,68.0,0.0,368.0,4702.051282051282,3928.205128205129,4510.256410256411,4440.512820512821,4257.435897435898,4572.307692307693,4429.2307692307695,4576.410256410257,4378.461538461539,4747.6923076923085,4601.538461538462,4335.384615384616,4356.923076923077,4454.871794871796
3092.2825,0.5448966,0.5310676,0.33333334,0.5522388,0,0.0,0.0,0.0,0.006342342,0.0,0,0,0.0,0.0,0,0,100.0,0.0,4023.0,4727.6923076923085,3931.7948717948725,4517.435897435898,4439.48717948718,4256.410256410257,4565.128205128206,4435.8974358974365,4846.153846153847,4434.358974358975,4887.179487179488,4835.384615384616,4380.512820512821,4424.102564102564,4554.871794871796
3092.5327,0.5448966,0.5310676,0.33333334,0.5522388,0,0.0,0.0,0.0,0.009936155,0.0,0,0,0.0,0.0,0,0,3.0,0.0,350.0,4782.564102564103,3947.1794871794878,4550.256410256411,4443.589743589744,4238.461538461539,4542.564102564103,4478.461538461539,5079.487179487181,4596.410256410257,5134.358974358975,5134.871794871796,4440.000000000001,4591.282051282052,4602.564102564103
3092.783,0.5994375,0.5310676,0.33333334,0.5522388,0,0.0,0.0,0.0,0.013039994,0.0,0,0,0.0,0.0,0,0,35.0,0.0,0.0,4742.564102564103,3936.410256410257,4527.179487179488,4439.48717948718,4240.000000000001,4545.641025641026,4474.871794871796,4847.6923076923085,4386.666666666667,4889.2307692307695,4812.820512820514,4376.923076923077,4382.564102564103,4584.615384615385
3093.0332,0.5994375,0.5310676,0.33333334,0.5522388,0,0.0,0.0,0.0,0.013530041,0.0,0,0,0.0,0.0,0,0,75.0,0.0,359.0,4740.512820512821,3947.692307692308,4527.179487179488,4451.282051282052,4256.923076923077,4561.025641025642,4474.358974358975,4850.769230769231,4352.820512820514,4842.564102564103,4868.717948717949,4372.820512820514,4368.205128205129,4547.179487179488
3093.2832,0.62822413,0.5310676,0.33333334,0.5522388,0,0.0,0.0,0.0,0.012906243,0.0,0,0,0.0,0.0,0,0,99.0,0.0,359.0,4762.564102564103,3942.0512820512827,4533.846153846154,4445.128205128206,4270.769230769231,4580.512820512821,4473.333333333334,4783.076923076924,4331.282051282052,4822.051282051282,4914.358974358975,4381.538461538462,4335.8974358974365,4555.8974358974365
3093.5334,0.62822413,0.5310676,0.33333334,0.5522388,0,0.0,0.0,0.0,0.01360607,0.0,0,0,0.0,0.0,0,0,2.0,0.0,358.0,4812.307692307693,3948.205128205129,4563.076923076924,4454.871794871796,4289.74358974359,4593.846153846154,4477.948717948719,5027.179487179488,4458.974358974359,5037.948717948719,5185.641025641026,4432.307692307693,4480.000000000001,4548.717948717949
3093.7837,0.5523749,0.5310676,0.33333334,0.5522388,0,0.0,0.0,0.0,0.016441155,0.0,0,0,0.0,0.0,0,0,34.0,0.0,0.0,4708.205128205129,3948.717948717949,4521.025641025642,4451.282051282052,4241.025641025642,4535.8974358974365,4471.282051282052,4742.564102564103,4234.358974358975,4760.512820512821,4740.512820512821,4355.8974358974365,4245.641025641026,4452.307692307693
3094.034,0.5523749,0.5310676,0.33333334,0.5522388,0,0.0,0.0,0.0,0.009698832,0.0,0,0,0.0,0.0,0,0,66.0,0.0,356.0,4730.769230769231,3955.8974358974365,4516.410256410257,4448.717948717949,4251.282051282052,4548.717948717949,4457.435897435898,4620.000000000001,4148.205128205129,4551.794871794872,4488.717948717949,4303.076923076924,4138.461538461539,4508.205128205129
3094.2842,0.5946431,0.5310676,0.33333334,0.5522388,0,0.0,0.0,0.0,0.006019876,0.0,0,0,0.0,0.0,0,0,98.0,0.0,8033.0,4690.769230769231,3956.410256410257,4505.641025641026,4445.641025641026,4264.102564102564,4569.2307692307695,4442.564102564103,4489.2307692307695,4120.000000000001,4488.205128205129,4516.410256410257,4299.48717948718,4114.358974358975,4515.384615384616
3094.5344,0.5946431,0.5310676,0.33333334,0.5522388,0,0.0,0.0,0.0,0.013868795,0.0,0,0,0.0,0.0,0,0,1.0,0.0,277.0,4715.384615384616,3955.3846153846157,4512.820512820514,4449.743589743591,4257.948717948719,4562.564102564103,4439.48717948718,4495.384615384616,4141.025641025642,4415.8974358974365,4329.2307692307695,4267.6923076923085,4122.564102564103,4508.717948717949
3094.7847,0.5537663,0.5310676,0.33333334,0.5522388,0,0.0,0.0,0.0,0.015431353,0.0,0,0,0.0,0.0,0,0,33.0,0.0,0.0,4703.589743589744,3938.9743589743593,4522.564102564103,4442.051282051282,4262.051282051282,4573.846153846154,4461.538461538462,4530.256410256411,4236.410256410257,4536.923076923077,4518.974358974359,4305.641025641026,4206.666666666667,4492.820512820514
3095.035,0.5537663,0.5310676,0.33333334,0.5522388,0,0.0,0.0,0.0,0.0076108444,0.0,0,0,0.0,0.0,0,0,65.0,0.0,276.0,4555.8974358974365,3927.692307692308,4434.871794871796,4438.461538461539,4278.974358974359,4591.794871794872,4400.512820512821,3465.641025641026,3682.0512820512827,3694.8717948717954,3468.717948717949,4092.307692307693,3662.564102564103,4338.461538461539
3095.285,0.5196339,0.5310676,0.33333334,0.5522388,0,0.0,0.0,0.0,0.010538461,0.0,0,0,0.0,0.0,0,0,97.0,0.0,812.0,4350.769230769231,3908.717948717949,4293.333333333334,4440.512820512821,4283.589743589744,4595.384615384616,4247.179487179487,2124.6153846153848,2963.0769230769233,2282.051282051282,2099.4871794871797,3754.8717948717954,2839.4871794871797,4124.615384615385
3095.5352,0.5196339,0.5310676,0.33333334,0.5522388,0,0.0,0.0,0.0,0.017365584,0.0,0,0,0.0,0.0,0,0,0.0,0.0,391.0,4407.6923076923085,3922.0512820512827,4357.435897435898,4437.948717948719,4275.384615384616,4581.538461538462,4262.564102564103,2724.6153846153848,3608.205128205129,3026.666666666667,2603.589743589744,3902.0512820512827,3473.333333333334,4194.871794871796
3095.7854,0.656433,0.5310676,0.33333334,0.5522388,0,0.0,0.0,0.0,0.015032905,0.0,0,0,0.0,0.0,0,0,32.0,0.0,0.0,4492.307692307693,3923.589743589744,4402.564102564103,4434.871794871796,4256.410256410257,4562.564102564103,4296.410256410257,3500.0000000000005,4068.717948717949,3750.7692307692314,3288.2051282051284,4053.333333333334,3963.076923076924,4303.589743589744
3096.0356,0.656433,0.5310676,0.33333334,0.5522388,0,0.0,0.0,0.0,0.008295927,0.0,0,0,0.0,0.0,0,0,64.0,0.0,391.0,4632.307692307693,3935.3846153846157,4482.051282051282,4445.641025641026,4250.256410256411,4555.8974358974365,4330.256410256411,4537.948717948719,4594.358974358975,4611.282051282052,4266.666666666667,4258.461538461539,4517.435897435898,4431.282051282052
3096.286,0.6722124,0.5310676,0.33333334,0.5522388,0,0.0,0.0,0.0,0.0064721582,0.0,0,0,0.0,0.0,0,0,96.0,0.0,3942.0,4573.333333333334,3930.7692307692314,4467.6923076923085,4442.564102564103,4213.333333333334,4506.153846153847,4370.256410256411,4180.000000000001,4333.846153846154,4286.666666666667,3869.7435897435903,4177.948717948719,4244.615384615385,4380.000000000001
3096.5361,0.6722124,0.5310676,0.33333334,0.5522388,0,0.0,0.0,0.0,0.007254278,0.0,0,0,0.0,0.0,0,0,128.0,0.0,3942.0,4739.48717948718,3932.307692307693,4566.153846153847,4446.666666666667,4232.820512820514,4530.256410256411,4464.615384615385,5217.948717948719,5041.025641025642,5316.923076923078,5268.717948717949,4451.282051282052,4995.8974358974365,4548.717948717949
3096.7864,0.6471213,0.5310676,0.33333334,0.5522388,0,0.0,0.0,0.0,0.013378525,0.0,0,0,0.0,0.0,0,0,31.0,0.0,0.0,5022.051282051283,4047.692307692308,4797.435897435898,4534.871794871796,4302.051282051282,4594.871794871796,4629.743589743591,7009.743589743591,6617.435897435898,7106.153846153847,6931.282051282052,4972.307692307693,6691.282051282052,4811.282051282052
3097.0366,0.6471213,0.5310676,0.33333334,0.5522388,0,0.0,0.0,0.0,0.024605833,0.0,0,0,0.0,0.0,0,0,63.0,0.0,0.0,5155.384615384616,4175.8974358974365,4938.461538461539,4646.153846153847,4407.179487179487,4700.512820512821,4737.435897435898,7528.71794871795,7082.051282051283,7578.461538461539,7469.23076923077,5249.743589743591,7284.615384615386,4941.025641025642
3097.2869,0.77946675,0.5310676,0.33333334,0.5522388,0,0.0,0.0,0.0,0.033221807,0.0,0,0,0.0,0.0,0,0,95.0,0.0,358.0,4782.051282051282,3926.1538461538466,4491.794871794872,4432.307692307693,4179.48717948718,4483.076923076924,4536.410256410257,3978.9743589743593,3325.641025641026,3850.2564102564106,4091.7948717948725,4185.128205128206,3424.1025641025644,4576.923076923077
3097.5369,0.77946675,0.5310676,0.33333334,0.5522388,0,0.0,0.0,0.0,0.021624083,0.0,0,0,0.0,0.0,0,0,127.0,0.0,358.0,4713.846153846154,3885.1282051282055,4435.384615384616,4397.948717948719,4169.2307692307695,4477.948717948719,4494.871794871796,3203.589743589744,3133.8461538461543,3318.461538461539,3234.8717948717954,4029.7435897435903,3164.1025641025644,4543.589743589744
3097.787,0.897329,0.5310676,0.33333334,0.5522388,0,0.0,0.0,0.0,0.020731354,0.0,0,0,0.0,0.0,0,0,30.0,0.0,0.0,4736.410256410257,3873.8461538461543,4460.512820512821,4392.307692307693,4173.846153846154,4477.948717948719,4491.282051282052,3703.076923076924,3690.7692307692314,3802.564102564103,3733.333333333334,4144.615384615385,3674.358974358975,4668.717948717949
3098.0374,0.897329,0.5310676,0.33333334,0.5522388,0,0.0,0.0,0.0,0.013369387,0.0,0,0,0.0,0.0,0,0,62.0,0.0,0.0,4785.641025641026,3889.2307692307695,4500.000000000001,4404.615384615385,4201.538461538462,4498.461538461539,4491.282051282052,4225.128205128206,4050.2564102564106,4243.076923076924,4294.871794871796,4262.051282051282,4027.1794871794878,4702.051282051282
3098.2876,0.9396959,0.5310676,0.33333334,0.5522388,0,0.0,0.0,0.0,0.009845662,0.0,0,0,0.0,0.0,0,0,94.0,0.0,7855.0,4796.410256410257,3908.717948717949,4517.435897435898,4420.512820512821,4224.102564102564,4523.076923076924,4507.6923076923085,4447.179487179487,4186.153846153847,4412.307692307693,4518.974358974359,4312.820512820514,4175.384615384616,4671.282051282052
3098.5378,0.9396959,0.5310676,0.33333334,0.5522388,0,0.0,0.0,0.0,0.008883632,0.0,0,0,0.0,0.0,0,0,126.0,0.0,7855.0,4814.871794871796,3913.8461538461543,4530.256410256411,4424.102564102564,4231.794871794872,4527.179487179488,4510.769230769231,4470.256410256411,4282.564102564103,4524.102564102564,4669.743589743591,4341.025641025642,4253.846153846154,4673.333333333334
3098.788,0.8702103,0.5310676,0.33333334,0.5522388,0,0.0,0.0,0.0,0.0097325,0.0,0,0,0.0,0.0,0,0,29.0,0.0,0.0,4877.948717948719,3931.2820512820517,4569.743589743591,4431.282051282052,4244.615384615385,4543.076923076924,4544.615384615385,4976.410256410257,4521.025641025642,4912.307692307693,5116.923076923077,4440.512820512821,4503.589743589744,4706.666666666667
3099.0383,0.8702103,0.5310676,0.33333334,0.5522388,0,0.0,0.0,0.0,0.009503044,0.0,0,0,0.0,0.0,0,0,61.0,0.0,0.0,4926.153846153847,3933.333333333334,4611.282051282052,4434.871794871796,4241.025641025642,4540.000000000001,4581.538461538462,5326.666666666667,4705.128205128206,5208.717948717949,5470.769230769231,4529.743589743591,4712.307692307693,4803.589743589744
3099.2886,0.9490803,0.5310676,0.33333334,0.5522388,0,0.0,0.0,0.0,0.017211214,0.0,0,0,0.0,0.0,0,0,93.0,0.0,794.0,4944.102564102564,3934.8717948717954,4611.794871794872,4433.333333333334,4238.461538461539,4537.435897435898,4597.435897435898,5277.948717948719,4582.051282051282,5167.6923076923085,5463.076923076924,4520.512820512821,4599.48717948718,4810.769230769231
3099.5386,0.9490803,0.5310676,0.33333334,0.5522388,0,0.0,0.0,0.0,0.0074781757,0.0,0,0,0.0,0.0,0,0,125.0,0.0,794.0,5049.743589743591,3950.2564102564106,4679.48717948718,4449.743589743591,4247.6923076923085,4553.333333333334,4671.794871794872,5979.487179487181,4994.871794871796,5850.256410256411,6092.820512820514,4689.2307692307695,5028.205128205129,4937.948717948719
3099.7888,1.0,0.5310676,0.33333334,0.5522388,0,0.0,0.0,0.0,0.014075545,0.0,0,0,0.0,0.0,0,1,28.0,0.0,0.0,4942.051282051283,3942.564102564103,4603.076923076924,4451.282051282052,4250.256410256411,4556.410256410257,4629.743589743591,5027.6923076923085,4270.769230769231,4818.461538461539,5233.846153846154,4472.307692307693,4311.794871794872,4820.512820512821
3100.039,1.0,0.5310676,0.33333334,0.5522388,0,0.0,0.0,0.0,0.0094261225,0.0,0,0,0.0,0.0,0,0,60.0,0.0,0.0,4810.256410256411,3922.564102564103,4513.333333333334,4436.410256410257,4238.461538461539,4545.641025641026,4558.974358974359,3828.717948717949,3683.0769230769233,3823.076923076924,4074.8717948717954,4234.358974358975,3674.358974358975,4665.641025641026
3100.2893,1.0,0.5310676,0.33333334,0.5522388,0,0.0,0.0,0.0,0.0064574755,0.0,0,0,0.0,0.0,0,0,92.0,0.0,3949.0,4707.6923076923085,3930.7692307692314,4462.051282051282,4443.076923076924,4242.051282051282,4548.205128205129,4516.410256410257,3210.2564102564106,3390.7692307692314,3305.641025641026,3425.641025641026,4110.769230769231,3353.8461538461543,4569.2307692307695
3100.5396,1.0,0.5310676,0.33333334,0.5522388,0,0.0,0.0,0.0,0.00460425,0.0,0,0,0.0,0.0,0,0,124.0,0.0,3949.0,4680.512820512821,3937.9487179487182,4455.8974358974365,4446.153846153847,4247.179487179487,4556.923076923077,4482.564102564103,3277.435897435898,3538.9743589743593,3321.0256410256416,3276.923076923077,4089.7435897435903,3450.7692307692314,4515.384615384616
3100.7898,0.93580204,0.5310676,0.33333334,0.5522388,0,0.0,0.0,0.0,0.015085203,0.0,0,0,0.0,0.0,0,0,27.0,0.0,0.0,4673.846153846154,3936.410256410257,4451.282051282052,4443.076923076924,4241.025641025642,4546.153846153847,4446.666666666667,3187.1794871794878,3652.307692307693,3338.9743589743593,3251.2820512820517,4089.23076923077,3536.9230769230776,4505.128205128206
3101.04,0.93580204,0.5310676,0.33333334,0.5522388,0,0.0,0.0,0.0,0.013720049,0.0,0,0,0.0,0.0,0,0,59.0,0.0,0.0,4705.641025641026,3944.615384615385,4494.871794871796,4457.948717948719,4259.48717948718,4564.102564102564,4478.974358974359,3833.8461538461543,4124.102564102564,3963.589743589744,4015.3846153846157,4241.025641025642,4043.589743589744,4611.282051282052
3101.2903,0.9359139,0.5310676,0.33333334,0.5522388,0,0.0,0.0,0.0,0.007937362,0.0,0,0,0.0,0.0,0,0,91.0,0.0,364.0,4743.589743589744,3937.435897435898,4518.461538461539,4452.307692307693,4259.48717948718,4556.410256410257,4490.769230769231,4029.23076923077,4233.846153846154,4173.333333333334,4290.769230769231,4296.410256410257,4168.717948717949,4674.358974358975
3101.5403,0.9359139,0.5310676,0.33333334,0.5522388,0,0.0,0.0,0.0,0.004675402,0.0,0,0,0.0,0.0,0,0,123.0,0.0,364.0,4787.179487179488,3945.1282051282055,4548.717948717949,4459.48717948718,4264.102564102564,4560.000000000001,4509.743589743591,4416.410256410257,4428.205128205129,4501.538461538462,4725.128205128206,4378.974358974359,4365.641025641026,4720.512820512821
3101.7905,0.87529683,0.5310676,0.33333334,0.5522388,0,0.0,0.0,0.0,0.0044437437,0.0,0,0,0.0,0.0,0,0,26.0,0.0,0.0,4785.128205128206,3938.9743589743593,4528.717948717949,4451.794871794872,4269.74358974359,4564.615384615385,4495.384615384616,4414.358974358975,4336.410256410257,4411.794871794872,4603.589743589744,4362.564102564103,4305.641025641026,4750.769230769231
3102.0408,0.87529683,0.5310676,0.33333334,0.5522388,0,0.0,0.0,0.0,0.007709322,0.0,0,0,0.0,0.0,0,0,58.0,0.0,0.0,4811.794871794872,3943.076923076924,4525.128205128206,4449.743589743591,4266.666666666667,4561.538461538462,4473.333333333334,4150.769230769231,4222.051282051282,4285.641025641026,4503.076923076924,4332.307692307693,4205.641025641026,4724.102564102564
3102.291,0.7966097,0.5310676,0.33333334,0.5522388,0,0.0,0.0,0.0,0.0114855375,0.0,0,0,0.0,0.0,0,0,90.0,0.0,8033.0,4826.666666666667,3950.2564102564106,4501.538461538462,4452.307692307693,4269.2307692307695,4566.666666666667,4461.538461538462,3801.538461538462,4043.076923076924,4011.7948717948725,4141.025641025642,4257.948717948719,4002.0512820512827,4651.794871794872
3102.5413,0.7966097,0.5310676,0.33333334,0.5522388,0,0.0,0.0,0.0,0.009487095,0.0,0,0,0.0,0.0,0,0,122.0,0.0,8033.0,4841.538461538462,3942.564102564103,4517.435897435898,4451.794871794872,4267.179487179487,4564.102564102564,4465.641025641026,4097.435897435898,4177.948717948719,4241.538461538462,4456.923076923077,4324.615384615385,4163.589743589744,4657.948717948719
3102.7915,0.6668676,0.5310676,0.33333334,0.5522388,0,0.0,0.0,0.0,0.003832094,0.0,0,0,0.0,0.0,0,0,25.0,0.0,0.0,4782.564102564103,3936.9230769230776,4501.538461538462,4450.256410256411,4265.641025641026,4566.666666666667,4471.282051282052,3790.2564102564106,4042.0512820512827,4006.666666666667,4121.538461538462,4257.435897435898,4004.615384615385,4640.000000000001
3103.0417,0.6668676,0.5310676,0.33333334,0.5522388,0,0.0,0.0,0.0,0.0025394694,0.0,0,0,0.0,0.0,0,0,57.0,0.0,0.0,4807.179487179488,3937.435897435898,4515.8974358974365,4452.307692307693,4269.74358974359,4570.256410256411,4475.384615384616,3955.3846153846157,4130.256410256411,4160.512820512821,4299.48717948718,4291.794871794872,4107.179487179487,4648.717948717949
3103.292,0.5920623,0.5310676,0.33333334,0.5522388,0,0.0,0.0,0.0,0.0048552547,0.0,0,0,0.0,0.0,0,0,89.0,0.0,765.0,4785.128205128206,3930.2564102564106,4516.410256410257,4445.641025641026,4257.948717948719,4559.48717948718,4501.538461538462,3934.358974358975,4132.820512820514,4139.48717948718,4268.717948717949,4285.641025641026,4091.7948717948725,4654.871794871796
3103.5422,0.5920623,0.5310676,0.33333334,0.5522388,0,0.0,0.0,0.0,0.005011467,0.0,0,0,0.0,0.0,0,0,121.0,0.0,765.0,4797.435897435898,3930.7692307692314,4522.051282051282,4442.051282051282,4248.205128205129,4551.282051282052,4510.256410256411,3951.7948717948725,4114.358974358975,4156.923076923077,4285.128205128206,4295.384615384616,4094.8717948717954,4675.384615384616
3103.7922,0.5206485,0.5310676,0.33333334,0.5522388,0,0.0,0.0,0.0,0.0052646096,0.0,0,0,0.0,0.0,0,0,24.0,0.0,0.0,4798.461538461539,3941.0256410256416,4541.538461538462,4455.384615384616,4262.051282051282,4563.589743589744,4521.025641025642,4234.871794871796,4256.410256410257,4376.410256410257,4533.846153846154,4345.128205128206,4219.48717948718,4701.025641025642
3104.0425,0.5206485,0.5310676,0.33333334,0.5522388,0,0.0,0.0,0.0,0.005180131,0.0,0,0,0.0,0.0,0,0,56.0,0.0,0.0,4789.2307692307695,3941.538461538462,4536.923076923077,4449.743589743591,4254.358974358975,4554.871794871796,4527.6923076923085,4196.410256410257,4187.179487179487,4273.846153846154,4435.384615384616,4323.589743589744,4162.051282051282,4669.2307692307695
3104.2927,0.4299208,0.5310676,0.33333334,0.5522388,0,0.0,0.0,0.0,0.0055413237,0.0,0,0,0.0,0.0,0,0,88.0,0.0,3930.0,4816.410256410257,3936.9230769230776,4544.615384615385,4441.538461538462,4244.615384615385,4543.076923076924,4533.846153846154,4145.641025641026,4191.794871794872,4329.2307692307695,4437.435897435898,4321.025641025642,4161.538461538462,4648.205128205129
3104.543,0.4299208,0.5310676,0.33333334,0.5522388,0,0.0,0.0,0.0,0.0034036967,0.0,0,0,0.0,0.0,0,0,120.0,0.0,3930.0,4793.333333333334,3956.410256410257,4534.358974358975,4452.307692307693,4250.256410256411,4545.641025641026,4522.564102564103,4021.0256410256416,4077.435897435898,4167.179487179487,4266.153846153847,4291.282051282052,4046.666666666667,4618.461538461539
3104.7932,0.38144347,0.5310676,0.33333334,0.5522388,0,0.0,0.0,0.0,0.00500865,0.0,0,0,0.0,0.0,0,0,23.0,0.0,0.0,4758.461538461539,3957.435897435898,4520.000000000001,4454.358974358975,4250.769230769231,4549.743589743591,4502.051282051282,3753.333333333334,3911.7948717948725,3893.333333333334,3866.1538461538466,4213.333333333334,3867.1794871794878,4562.564102564103
3105.0435,0.38144347,0.5310676,0.33333334,0.5522388,0,0.0,0.0,0.0,0.0043164785,0.0,0,0,0.0,0.0,0,0,55.0,0.0,0.0,4763.076923076924,3953.8461538461543,4531.794871794872,4449.743589743591,4251.282051282052,4553.846153846154,4506.153846153847,3972.307692307693,4101.025641025642,4140.512820512821,4158.461538461539,4272.820512820514,4046.666666666667,4576.923076923077
3105.2937,0.37773186,0.5310676,0.33333334,0.5522388,0,0.0,0.0,0.0,0.0057879356,0.0,0,0,0.0,0.0,0,0,87.0,0.0,374.0,4754.871794871796,3955.3846153846157,4528.205128205129,4451.794871794872,4239.48717948718,4544.615384615385,4505.128205128206,3960.0000000000005,4056.410256410257,4125.641025641026,4072.307692307693,4256.923076923077,4036.410256410257,4569.743589743591
3105.544,0.37773186,0.5310676,0.33333334,0.5522388,0,0.0,0.0,0.0,0.0040255054,0.0,0,0,0.0,0.0,0,0,119.0,0.0,374.0,4724.615384615386,3960.5128205128212,4524.102564102564,4455.384615384616,4244.102564102564,4550.769230769231,4491.282051282052,3856.410256410257,4054.8717948717954,4060.0000000000005,3956.9230769230776,4231.794871794872,3992.820512820513,4530.769230769231
3105.794,0.38852626,0.5310676,0.33333334,0.5522388,0,0.0,0.0,0.0,0.0052756025,0.0,0,0,0.0,0.0,0,1,22.0,0.0,0.0,4770.769230769231,3964.1025641025644,4541.538461538462,4457.435897435898,4248.205128205129,4559.48717948718,4505.128205128206,4167.6923076923085,4184.102564102564,4320.512820512821,4279.48717948718,4294.358974358975,4157.948717948719,4580.000000000001
3106.0442,0.38852626,0.5310676,0.33333334,0.5522388,0,0.0,0.0,0.0,0.003988822,0.0,0,0,0.0,0.0,0,1,54.0,0.0,0.0,4750.256410256411,3953.8461538461543,4529.743589743591,4452.820512820514,4238.974358974359,4548.717948717949,4505.128205128206,4031.7948717948725,4110.256410256411,4157.948717948719,4082.564102564103,4255.8974358974365,4050.2564102564106,4558.461538461539
3106.2944,0.36747313,0.5310676,0.33333334,0.5522388,0,0.0,0.0,0.0,0.0026265727,0.0,0,0,0.0,0.0,0,0,86.0,0.0,8033.0,4737.948717948719,3950.7692307692314,4527.6923076923085,4451.794871794872,4238.974358974359,4550.769230769231,4490.769230769231,4038.461538461539,4062.564102564103,4155.384615384616,4002.0512820512827,4243.589743589744,4043.076923076924,4556.923076923077
3106.5447,0.36747313,0.5310676,0.33333334,0.5522388,0,0.0,0.0,0.0,0.0059201033,0.0,0,0,0.0,0.0,0,0,118.0,0.0,8033.0,4674.871794871796,3943.076923076924,4474.358974358975,4447.179487179487,4238.461538461539,4549.2307692307695,4441.538461538462,3362.0512820512827,3791.2820512820517,3681.538461538462,3336.923076923077,4114.358974358975,3730.7692307692314,4440.000000000001
3106.795,0.43440512,0.5310676,0.33333334,0.5522388,0,0.0,0.0,0.0,0.0079416195,0.0,0,0,0.0,0.0,0,0,21.0,0.0,0.0,4638.974358974359,3934.8717948717954,4464.615384615385,4446.153846153847,4237.435897435898,4546.153846153847,4415.384615384616,3302.564102564103,3778.9743589743593,3588.205128205129,3209.2307692307695,4088.205128205129,3693.8461538461543,4411.282051282052
3107.0452,0.43440512,0.5310676,0.33333334,0.5522388,0,0.0,0.0,0.0,0.010775718,0.0,0,0,0.0,0.0,0,0,53.0,0.0,0.0,4712.307692307693,3939.48717948718,4514.358974358975,4450.769230769231,4243.589743589744,4561.538461538462,4435.384615384616,4192.820512820514,4328.205128205129,4333.846153846154,4071.7948717948725,4252.820512820514,4250.256410256411,4557.435897435898
3107.2954,0.4999797,0.5310676,0.33333334,0.5522388,0,0.0,0.0,0.0,0.008043239,0.0,0,0,0.0,0.0,0,0,85.0,0.0,766.0,4735.8974358974365,3941.538461538462,4531.794871794872,4453.333333333334,4235.8974358974365,4552.820512820514,4462.051282051282,4398.461538461539,4376.923076923077,4503.589743589744,4292.820512820514,4293.846153846154,4309.743589743591,4568.205128205129
3107.5457,0.4999797,0.5310676,0.33333334,0.5522388,0,0.0,0.0,0.0,0.0047064093,0.0,0,0,0.0,0.0,0,0,117.0,0.0,766.0,4742.051282051282,3946.1538461538466,4548.205128205129,4460.000000000001,4237.948717948719,4553.846153846154,4482.564102564103,4680.000000000001,4528.205128205129,4778.974358974359,4553.333333333334,4346.153846153847,4486.153846153847,4615.384615384616
3107.796,0.50714606,0.5310676,0.33333334,0.5522388,0,0.0,0.0,0.0,0.004469076,0.0,0,0,0.0,0.0,0,0,20.0,0.0,0.0,4764.615384615386,3946.1538461538466,4544.102564102564,4453.846153846154,4247.179487179487,4554.871794871796,4488.205128205129,4729.2307692307695,4449.743589743591,4744.102564102564,4585.641025641026,4346.153846153847,4428.717948717949,4613.333333333334
3108.046,0.50714606,0.5310676,0.33333334,0.5522388,0,0.0,0.0,0.0,0.006049146,0.0,0,0,0.0,0.0,0,0,52.0,0.0,0.0,4753.846153846154,3943.076923076924,4527.179487179488,4448.205128205129,4243.076923076924,4544.615384615385,4475.384615384616,4533.846153846154,4304.102564102564,4599.48717948718,4403.076923076924,4311.282051282052,4274.871794871796,4621.538461538462
3108.2961,0.42339918,0.5310676,0.33333334,0.5522388,0,0.0,0.0,0.0,0.00580903,0.0,0,0,0.0,0.0,0,0,84.0,0.0,3978.0,4779.48717948718,3945.1282051282055,4529.743589743591,4451.794871794872,4241.025641025642,4543.076923076924,4465.128205128206,4566.666666666667,4308.717948717949,4582.564102564103,4419.48717948718,4312.307692307693,4259.48717948718,4603.076923076924
3108.5464,0.42339918,0.5310676,0.33333334,0.5522388,0,0.0,0.0,0.0,0.004666284,0.0,0,0,0.0,0.0,0,0,116.0,0.0,3978.0,4777.435897435898,3937.9487179487182,4532.820512820514,4452.307692307693,4247.6923076923085,4552.820512820514,4474.358974358975,4604.615384615385,4322.564102564103,4677.435897435898,4494.871794871796,4317.435897435898,4309.2307692307695,4635.8974358974365
3108.7966,0.3692036,0.5310676,0.33333334,0.5522388,0,0.0,0.0,0.0,0.005311389,0.0,0,0,0.0,0.0,0,0,19.0,0.0,0.0,4782.051282051282,3945.6410256410263,4546.666666666667,4450.769230769231,4250.256410256411,4550.256410256411,4483.589743589744,4756.410256410257,4353.846153846154,4726.153846153847,4574.358974358975,4337.435897435898,4339.48717948718,4632.307692307693
3109.0469,0.3692036,0.5310676,0.33333334,0.5522388,0,0.0,0.0,0.0,0.0048592463,0.0,0,0,0.0,0.0,0,0,51.0,0.0,0.0,4789.743589743591,3944.1025641025644,4534.358974358975,4448.717948717949,4247.6923076923085,4546.666666666667,4470.256410256411,4523.589743589744,4262.564102564103,4600.512820512821,4463.076923076924,4313.333333333334,4254.871794871796,4608.717948717949
3109.297,0.27919263,0.5310676,0.33333334,0.5522388,0,0.0,0.0,0.0,0.0062328614,0.0,0,0,0.0,0.0,0,0,83.0,0.0,375.0,4781.538461538462,3944.615384615385,4529.2307692307695,4446.666666666667,4250.769230769231,4548.205128205129,4462.564102564103,4564.102564102564,4209.74358974359,4564.615384615385,4323.076923076924,4292.307692307693,4192.820512820514,4560.512820512821
3109.5474,0.27919263,0.5310676,0.33333334,0.5522388,0,0.0,0.0,0.0,0.005635713,0.0,0,0,0.0,0.0,0,0,115.0,0.0,375.0,4797.948717948719,3949.2307692307695,4531.282051282052,4449.2307692307695,4246.666666666667,4544.102564102564,4478.974358974359,4465.641025641026,4242.051282051282,4525.128205128206,4307.179487179487,4282.564102564103,4213.333333333334,4542.564102564103
3109.7976,0.2623867,0.5310676,0.33333334,0.5522388,0,0.0,0.0,0.0,0.0054771714,0.0,0,0,0.0,0.0,0,0,18.0,0.0,0.0,4798.974358974359,3950.2564102564106,4531.794871794872,4448.205128205129,4250.769230769231,4548.205128205129,4475.384615384616,4571.794871794872,4271.282051282052,4560.000000000001,4362.564102564103,4293.333333333334,4249.74358974359,4569.2307692307695
3110.0476,0.2623867,0.5310676,0.33333334,0.5522388,0,0.0,0.0,0.0,0.0053661466,0.0,0,0,0.0,0.0,0,0,50.0,0.0,0.0,4784.102564102564,3942.564102564103,4529.743589743591,4444.102564102564,4245.641025641026,4546.153846153847,4481.538461538462,4495.8974358974365,4294.358974358975,4555.384615384616,4389.2307692307695,4297.948717948719,4254.871794871796,4586.666666666667
3110.2979,0.22967106,0.5310676,0.33333334,0.5522388,0,0.0,0.0,0.0,0.005149285,0.0,0,0,0.0,0.0,0,0,82.0,0.0,8033.0,4796.410256410257,3946.666666666667,4546.153846153847,4456.410256410257,4255.384615384616,4551.282051282052,4495.384615384616,4621.538461538462,4358.461538461539,4640.512820512821,4467.179487179487,4318.461538461539,4343.076923076924,4581.538461538462
3110.548,0.22967106,0.5310676,0.33333334,0.5522388,0,0.0,0.0,0.0,0.0049106004,0.0,0,0,0.0,0.0,0,0,114.0,0.0,8033.0,4813.333333333334,3941.538461538462,4543.589743589744,4449.2307692307695,4247.179487179487,4545.641025641026,4491.282051282052,4453.333333333334,4285.641025641026,4513.846153846154,4395.8974358974365,4297.435897435898,4251.794871794872,4564.102564102564
3110.7983,0.17585304,0.5310676,0.33333334,0.5522388,0,0.0,0.0,0.0,0.0051761437,0.0,0,0,0.0,0.0,0,0,17.0,0.0,0.0,4819.48717948718,3947.1794871794878,4549.743589743591,4452.307692307693,4251.282051282052,4555.8974358974365,4501.538461538462,4535.8974358974365,4328.717948717949,4601.538461538462,4487.6923076923085,4316.923076923077,4309.743589743591,4581.538461538462
3111.0486,0.17585304,0.5310676,0.33333334,0.5522388,0,0.0,0.0,0.0,0.0055765864,0.0,0,0,0.0,0.0,0,0,49.0,0.0,0.0,4823.589743589744,3948.205128205129,4558.974358974359,4450.256410256411,4256.410256410257,4548.717948717949,4509.743589743591,4573.333333333334,4393.846153846154,4642.051282051282,4554.871794871796,4328.205128205129,4356.410256410257,4601.538461538462
3111.2988,0.15616935,0.5310676,0.33333334,0.5522388,0,0.0,0.0,0.0,0.0064254412,0.0,0,0,0.0,0.0,0,0,81.0,0.0,799.0,4854.871794871796,3949.2307692307695,4567.6923076923085,4447.179487179487,4252.307692307693,4544.615384615385,4517.435897435898,4786.153846153847,4435.384615384616,4815.384615384616,4838.974358974359,4390.769230769231,4436.923076923077,4656.923076923077
3111.549,0.15616935,0.5310676,0.33333334,0.5522388,0,0.0,0.0,0.0,0.007754318,0.0,0,0,0.0,0.0,0,0,113.0,0.0,799.0,4850.769230769231,3953.8461538461543,4554.871794871796,4448.717948717949,4247.6923076923085,4544.102564102564,4499.48717948718,4604.102564102564,4348.717948717949,4652.820512820514,4660.000000000001,4356.923076923077,4335.8974358974365,4641.538461538462
3111.7993,0.16776466,0.5310676,0.33333334,0.5522388,0,0.0,0.0,0.0,0.0075262156,0.0,0,0,0.0,0.0,0,0,16.0,0.0,0.0,4808.205128205129,3956.410256410257,4527.6923076923085,4453.333333333334,4260.512820512821,4552.820512820514,4479.48717948718,4213.333333333334,4166.153846153847,4306.666666666667,4288.717948717949,4282.564102564103,4143.589743589744,4592.820512820514
3112.0493,0.16776466,0.5310676,0.33333334,0.5522388,0,0.0,0.0,0.0,0.005007544,0.0,0,0,0.0,0.0,0,0,48.0,0.0,0.0,4798.974358974359,3949.7435897435903,4537.435897435898,4448.205128205129,4259.48717948718,4553.846153846154,4474.358974358975,4223.076923076924,4147.6923076923085,4289.74358974359,4268.205128205129,4279.48717948718,4146.153846153847,4600.512820512821
3112.2996,0.14557093,0.5310676,0.33333334,0.5522388,0,0.0,0.0,0.0,0.005037293,0.0,0,0,0.0,0.0,0,0,80.0,0.0,4157.0,4800.000000000001,3954.358974358975,4543.076923076924,4453.846153846154,4262.564102564103,4557.948717948719,4477.435897435898,4273.333333333334,4244.615384615385,4398.974358974359,4436.923076923077,4312.820512820514,4213.333333333334,4620.000000000001
3112.5498,0.14557093,0.5310676,0.33333334,0.5522388,0,0.0,0.0,0.0,0.004908299,0.0,0,0,0.0,0.0,0,0,112.0,0.0,4157.0,4760.512820512821,3947.692307692308,4519.48717948718,4452.307692307693,4258.461538461539,4552.820512820514,4458.974358974359,3946.1538461538466,4103.589743589744,4094.8717948717954,4076.410256410257,4237.948717948719,4069.23076923077,4570.769230769231
3112.8,0.16599256,0.5310676,0.33333334,0.5522388,0,0.0,0.0,0.0,0.0047529796,0.0,0,0,0.0,0.0,0,0,15.0,0.0,372.0,4735.8974358974365,3942.564102564103,4504.102564102564,4447.179487179487,4255.384615384616,4548.205128205129,4429.743589743591,3813.8461538461543,4032.307692307693,3942.564102564103,3887.1794871794878,4207.179487179487,3995.3846153846157,4553.846153846154
3113.0503,0.16599256,0.5310676,0.33333334,0.5522388,0,0.0,0.0,0.0,0.005312108,0.0,0,0,0.0,0.0,0,0,47.0,0.0,0.0,4758.974358974359,3950.2564102564106,4532.820512820514,4449.2307692307695,4250.256410256411,4547.179487179488,4467.6923076923085,4155.8974358974365,4219.48717948718,4269.74358974359,4280.000000000001,4287.6923076923085,4206.153846153847,4617.435897435898
3113.3005,0.16506279,0.5310676,0.33333334,0.5522388,0,0.0,0.0,0.0,0.0052203713,0.0,0,0,0.0,0.0,0,0,79.0,0.0,372.0,4795.8974358974365,3950.7692307692314,4550.256410256411,4453.333333333334,4259.48717948718,4550.769230769231,4476.923076923077,4270.256410256411,4359.48717948718,4457.948717948719,4556.923076923077,4336.410256410257,4323.076923076924,4653.846153846154
3113.5508,0.16506279,0.5310676,0.33333334,0.5522388,0,0.0,0.0,0.0,0.0043213367,0.0,0,0,0.0,0.0,0,0,111.0,0.0,372.0,4765.641025641026,3951.7948717948725,4524.615384615385,4451.282051282052,4258.974358974359,4553.333333333334,4459.48717948718,4014.358974358975,4195.8974358974365,4192.307692307693,4221.538461538462,4272.307692307693,4154.358974358975,4620.000000000001
3113.801,0.16810583,0.5310676,0.33333334,0.5522388,0,0.0,0.0,0.0,0.00493736,0.0,0,0,0.0,0.0,0,0,14.0,0.0,8033.0,4755.384615384616,3943.076923076924,4519.48717948718,4442.051282051282,4250.256410256411,4545.128205128206,4463.076923076924,3880.512820512821,4109.2307692307695,4060.5128205128212,4069.7435897435903,4243.589743589744,4083.589743589744,4606.153846153847
3114.0513,0.16810583,0.5310676,0.33333334,0.5522388,0,0.0,0.0,0.0,0.0039696153,0.0,0,0,0.0,0.0,0,0,46.0,0.0,0.0,4817.435897435898,3953.333333333334,4546.153846153847,4454.871794871796,4257.435897435898,4549.743589743591,4484.615384615385,4300.000000000001,4293.333333333334,4390.256410256411,4475.384615384616,4330.256410256411,4268.717948717949,4648.205128205129
3114.3013,0.15408367,0.5310676,0.33333334,0.5522388,0,0.0,0.0,0.0,0.0060401154,0.0,0,0,0.0,0.0,0,0,78.0,0.0,8033.0,4854.358974358975,3958.461538461539,4573.333333333334,4450.769230769231,4265.128205128206,4554.358974358975,4493.333333333334,4547.179487179488,4396.923076923077,4572.820512820514,4757.948717948719,4382.564102564103,4366.666666666667,4687.179487179488
3114.5515,0.15408367,0.5310676,0.33333334,0.5522388,0,0.0,0.0,0.0,0.006717275,0.0,0,0,0.0,0.0,0,0,110.0,0.0,8033.0,4812.820512820514,3966.1538461538466,4542.564102564103,4453.846153846154,4261.025641025642,4552.307692307693,4500.000000000001,4162.051282051282,4184.102564102564,4324.615384615385,4392.307692307693,4321.538461538462,4152.307692307693,4630.256410256411
3114.8018,0.14951868,0.5310676,0.33333334,0.5522388,0,0.0,0.0,0.0,0.008179837,0.0,0,0,0.0,0.0,0,0,13.0,0.0,795.0,4810.256410256411,3954.8717948717954,4531.794871794872,4449.743589743591,4257.435897435898,4548.205128205129,4475.8974358974365,3945.6410256410263,4066.666666666667,4120.512820512821,4214.871794871796,4273.846153846154,4056.9230769230776,4635.8974358974365
3115.052,0.14951868,0.5310676,0.33333334,0.5522388,0,0.0,0.0,0.0,0.0055828565,0.0,0,0,0.0,0.0,0,0,45.0,0.0,0.0,4741.538461538462,3952.820512820513,4515.384615384616,4456.923076923077,4267.179487179487,4552.307692307693,4473.333333333334,3767.692307692308,4041.538461538462,3975.3846153846157,3975.8974358974365,4224.102564102564,4004.615384615385,4586.153846153847
3115.3022,0.1252476,0.5310676,0.33333334,0.5522388,0,0.0,0.0,0.0,0.0042779283,0.0,0,0,0.0,0.0,0,0,77.0,0.0,796.0,4750.769230769231,3948.717948717949,4516.923076923077,4449.743589743591,4257.948717948719,4543.589743589744,4464.615384615385,3758.461538461539,4022.564102564103,3984.615384615385,4002.564102564103,4232.307692307693,3985.6410256410263,4613.333333333334
3115.5525,0.1252476,0.5310676,0.33333334,0.5522388,0,0.0,0.0,0.0,0.0048945756,0.0,0,0,0.0,0.0,0,0,109.0,0.0,796.0,4710.769230769231,3947.1794871794878,4502.564102564103,4451.282051282052,4261.538461538462,4551.282051282052,4446.666666666667,3711.794871794872,4000.5128205128212,3875.8974358974365,3811.2820512820517,4197.435897435898,3954.358974358975,4574.358974358975
3115.8027,0.096863896,0.5310676,0.33333334,0.5522388,0,0.0,0.0,0.0,0.0039678426,0.0,0,0,0.0,0.0,0,0,12.0,0.0,4155.0,4688.717948717949,3954.358974358975,4495.384615384616,4452.307692307693,4260.000000000001,4549.743589743591,4432.820512820514,3576.9230769230776,3965.1282051282055,3844.615384615385,3725.1282051282055,4177.435897435898,3921.0256410256416,4549.2307692307695
3116.053,0.096863896,0.5310676,0.33333334,0.5522388,0,0.0,0.0,0.0,0.0035514622,0.0,0,0,0.0,0.0,0,0,44.0,0.0,0.0,4660.512820512821,3944.1025641025644,4471.282051282052,4443.589743589744,4254.358974358975,4551.282051282052,4428.205128205129,3527.1794871794878,3899.48717948718,3711.794871794872,3436.9230769230776,4133.846153846154,3827.692307692308,4512.307692307693
3116.303,0.15537117,0.5310676,0.33333334,0.5522388,0,0.0,0.0,0.0,0.005387507,0.0,0,0,0.0,0.0,0,0,76.0,0.0,4162.0,4663.589743589744,3955.3846153846157,4481.538461538462,4452.820512820514,4266.666666666667,4557.435897435898,4416.410256410257,3582.564102564103,4039.48717948718,3871.2820512820517,3664.1025641025644,4164.615384615385,3973.8461538461543,4502.564102564103
3116.5532,0.15537117,0.5310676,0.33333334,0.5522388,0,0.0,0.0,0.0,0.006198568,0.0,0,0,0.0,0.0,0,0,108.0,0.0,4162.0,4648.717948717949,3946.1538461538466,4485.641025641026,4445.128205128206,4255.384615384616,4549.2307692307695,4431.282051282052,3770.2564102564106,4057.435897435898,3953.333333333334,3669.7435897435903,4174.358974358975,4007.692307692308,4542.051282051282
3116.8035,0.16533667,0.5310676,0.33333334,0.5522388,0,0.0,0.0,0.0,0.006705534,0.0,0,0,0.0,0.0,0,0,11.0,0.0,382.0,4656.923076923077,3950.2564102564106,4498.461538461539,4452.307692307693,4258.974358974359,4557.435897435898,4417.435897435898,3975.8974358974365,4209.2307692307695,4204.102564102564,4010.7692307692314,4230.256410256411,4125.641025641026,4585.641025641026
3117.0537,0.16533667,0.5310676,0.33333334,0.5522388,0,0.0,0.0,0.0,0.0052493527,0.0,0,0,0.0,0.0,0,0,43.0,0.0,0.0,4675.8974358974365,3947.692307692308,4500.000000000001,4452.820512820514,4257.948717948719,4553.333333333334,4425.128205128206,4176.923076923077,4275.384615384616,4379.48717948718,4186.153846153847,4264.615384615385,4225.128205128206,4622.051282051282
3117.304,0.20768541,0.5310676,0.33333334,0.5522388,0,0.0,0.0,0.0,0.004227739,0.0,0,0,0.0,0.0,0,0,75.0,0.0,382.0,4625.128205128206,3942.564102564103,4468.717948717949,4449.743589743591,4253.846153846154,4556.410256410257,4401.538461538462,3777.9487179487182,4050.2564102564106,4015.3846153846157,3755.8974358974365,4175.384615384616,3992.820512820513,4566.153846153847
3117.5542,0.20768541,0.5310676,0.33333334,0.5522388,0,0.0,0.0,0.0,0.004362147,0.0,0,0,0.0,0.0,0,0,107.0,0.0,382.0,4624.615384615385,3939.48717948718,4478.974358974359,4452.820512820514,4257.435897435898,4563.076923076924,4408.205128205129,4079.48717948718,4160.512820512821,4248.717948717949,3940.5128205128212,4216.410256410257,4134.871794871796,4607.6923076923085
3117.8044,0.2260677,0.5310676,0.33333334,0.5522388,1,0.0,0.0,0.0,0.0030867842,0.0,0,0,0.0,0.0,0,0,10.0,0.0,8033.0,4654.358974358975,3943.076923076924,4488.717948717949,4451.794871794872,4253.846153846154,4556.410256410257,4416.923076923077,4193.333333333334,4201.538461538462,4307.6923076923085,4095.8974358974365,4241.025641025642,4163.589743589744,4641.025641025642
3118.0547,0.2260677,0.5310676,0.33333334,0.5522388,0,0.0,0.0,0.0,0.0044313483,0.0,0,0,0.0,0.0,0,0,42.0,0.0,0.0,4601.538461538462,3927.692307692308,4457.435897435898,4446.153846153847,4246.666666666667,4553.333333333334,4400.000000000001,3913.333333333334,4015.8974358974365,4038.9743589743593,3708.205128205129,4161.538461538462,3981.538461538462,4570.769230769231
3118.3047,0.26003286,0.5310676,0.33333334,0.5522388,0,0.0,0.0,0.0,0.006096551,0.0,0,0,0.0,0.0,0,0,74.0,0.0,8033.0,4626.666666666667,3942.564102564103,4473.333333333334,4452.307692307693,4254.358974358975,4558.461538461539,4414.358974358975,3996.9230769230776,4101.025641025642,4139.48717948718,3782.0512820512827,4177.435897435898,4055.3846153846157,4529.743589743591
3118.555,0.26003286,0.5310676,0.33333334,0.5522388,0,0.0,0.0,0.0,0.0065352353,0.0,0,0,0.0,0.0,0,0,106.0,0.0,8033.0,4702.564102564103,3935.3846153846157,4474.871794871796,4443.589743589744,4240.512820512821,4548.717948717949,4399.48717948718,4089.23076923077,4189.2307692307695,4241.538461538462,3829.2307692307695,4180.512820512821,4126.153846153847,4510.256410256411
3118.8052,0.22216627,0.5310676,0.33333334,0.5522388,0,0.0,0.0,0.0,0.0069458433,0.0,0,0,0.0,0.0,0,0,9.0,0.0,6321.0,4753.846153846154,3934.358974358975,4485.641025641026,4444.102564102564,4234.358974358975,4544.102564102564,4406.153846153847,4320.000000000001,4252.820512820514,4406.666666666667,4057.9487179487182,4231.794871794872,4205.641025641026,4516.410256410257
3119.0554,0.22216627,0.5310676,0.33333334,0.5522388,0,0.0,0.0,0.0,0.005673226,0.0,0,0,0.0,0.0,0,0,41.0,0.0,0.0,4785.641025641026,3940.5128205128212,4498.461538461539,4455.8974358974365,4239.48717948718,4550.256410256411,4429.2307692307695,4503.589743589744,4330.256410256411,4566.666666666667,4264.615384615385,4265.128205128206,4285.641025641026,4519.48717948718
3119.3057,0.28055325,0.5310676,0.33333334,0.5522388,0,0.0,0.0,0.0,0.0036631878,0.0,0,0,0.0,0.0,0,0,73.0,0.0,6292.0,4772.820512820514,3946.1538461538466,4503.076923076924,4452.307692307693,4237.948717948719,4548.205128205129,4439.48717948718,4469.2307692307695,4290.256410256411,4552.820512820514,4254.358974358975,4263.589743589744,4264.615384615385,4526.153846153847
3119.556,0.28055325,0.5310676,0.33333334,0.5522388,0,0.0,0.0,0.0,0.0032165004,0.0,0,0,0.0,0.0,0,0,105.0,0.0,800.0,4838.461538461539,3943.589743589744,4552.307692307693,4450.256410256411,4233.333333333334,4548.717948717949,4462.564102564103,4915.8974358974365,4552.820512820514,4912.307692307693,4766.666666666667,4358.461538461539,4534.871794871796,4620.000000000001
3119.8062,0.29849064,0.5310676,0.33333334,0.5522388,0,0.0,0.0,0.0,0.00582647,0.0,0,0,0.0,0.0,0,0,8.0,0.0,8033.0,4848.205128205129,3952.820512820513,4566.666666666667,4452.820512820514,4236.410256410257,4547.6923076923085,4480.512820512821,4918.461538461539,4601.538461538462,5012.820512820514,4963.076923076924,4383.076923076924,4621.538461538462,4657.948717948719
3120.0564,0.29849064,0.5310676,0.33333334,0.5522388,0,0.0,0.0,0.0,0.008018599,0.0,0,0,0.0,0.0,0,0,40.0,0.0,0.0,4843.076923076924,3958.9743589743593,4577.948717948719,4455.384615384616,4241.538461538462,4546.666666666667,4493.333333333334,5021.025641025642,4557.948717948719,5047.179487179488,5036.410256410257,4402.564102564103,4562.564102564103,4700.512820512821
3120.3066,0.40167326,0.5310676,0.33333334,0.5522388,0,0.0,0.0,0.0,0.013389162,0.0,0,0,0.0,0.0,0,0,72.0,0.0,8033.0,4863.589743589744,3962.564102564103,4577.948717948719,4460.000000000001,4247.179487179487,4555.8974358974365,4504.615384615385,4936.410256410257,4518.974358974359,4975.384615384616,5076.923076923077,4406.666666666667,4536.923076923077,4712.820512820514
3120.5566,0.40167326,0.5310676,0.33333334,0.5522388,0,0.0,0.0,0.0,0.016437411,0.0,0,0,0.0,0.0,0,0,104.0,0.0,4148.0,4839.48717948718,3947.692307692308,4553.333333333334,4452.820512820514,4242.051282051282,4546.666666666667,4489.2307692307695,4788.205128205129,4302.051282051282,4731.794871794872,4695.8974358974365,4337.948717948719,4329.743589743591,4686.153846153847
3120.807,0.4644823,0.5310676,0.33333334,0.5522388,0,0.0,0.0,0.0,0.0077539906,0.0,0,0,0.0,0.0,0,0,7.0,0.0,5517.0,4816.923076923077,3942.564102564103,4531.282051282052,4446.666666666667,4240.000000000001,4543.076923076924,4481.025641025642,4401.025641025642,4114.871794871796,4383.589743589744,4308.205128205129,4264.102564102564,4112.307692307693,4624.615384615385
3121.0571,0.4644823,0.5310676,0.33333334,0.5522388,0,0.0,0.0,0.0,0.003487622,0.0,0,0,0.0,0.0,0,0,39.0,0.0,0.0,4783.589743589744,3946.1538461538466,4517.435897435898,4445.641025641026,4246.666666666667,4546.666666666667,4480.000000000001,4335.384615384616,4131.794871794872,4338.461538461539,4175.384615384616,4242.051282051282,4121.538461538462,4594.358974358975
3121.3074,0.44505748,0.5310676,0.33333334,0.5522388,0,0.0,0.0,0.0,0.004532445,0.0,0,0,0.0,0.0,0,0,71.0,0.0,5546.0,4681.025641025642,3944.615384615385,4455.8974358974365,4453.333333333334,4244.102564102564,4528.717948717949,4402.051282051282,3487.1794871794878,3703.589743589744,3673.333333333334,3388.205128205129,4082.0512820512827,3662.564102564103,4473.333333333334
3121.5576,0.44505748,0.5310676,0.33333334,0.5522388,0,0.0,0.0,0.0,0.005386609,0.0,0,0,0.0,0.0,0,0,103.0,0.0,393.0,4529.2307692307695,3931.7948717948725,4374.871794871796,4447.179487179487,4264.102564102564,4556.923076923077,4296.410256410257,2678.461538461539,3398.9743589743593,2968.2051282051284,2628.2051282051284,3920.5128205128212,3308.717948717949,4313.846153846154
3121.8079,0.5029638,0.5310676,0.33333334,0.5522388,0,0.0,0.0,0.0,0.015341841,0.0,0,0,0.0,0.0,0,0,6.0,0.0,287.0,4635.384615384616,3942.0512820512827,4448.717948717949,4448.717948717949,4263.076923076924,4559.48717948718,4346.153846153847,3621.538461538462,4078.461538461539,3883.589743589744,3472.820512820513,4108.205128205129,3981.538461538462,4437.948717948719
3122.058,0.5029638,0.5310676,0.33333334,0.5522388,0,0.0,0.0,0.0,0.012326428,0.0,0,0,0.0,0.0,0,0,38.0,0.0,0.0,4650.769230769231,3945.1282051282055,4467.179487179487,4452.307692307693,4266.153846153847,4558.461538461539,4362.051282051282,3908.717948717949,4198.461538461539,4078.461538461539,3752.307692307693,4164.615384615385,4111.794871794872,4482.051282051282
3122.3083,0.56075716,0.5310676,0.33333334,0.5522388,0,0.0,0.0,0.0,0.0049602487,0.0,0,0,0.0,0.0,0,0,70.0,0.0,290.0,4644.102564102564,3942.0512820512827,4458.461538461539,4442.564102564103,4260.000000000001,4553.333333333334,4339.48717948718,3856.9230769230776,4230.769230769231,4079.48717948718,3729.7435897435903,4155.8974358974365,4154.358974358975,4504.615384615385
3122.5583,0.56075716,0.5310676,0.33333334,0.5522388,0,0.0,0.0,0.0,0.0037310445,0.0,0,0,0.0,0.0,0,0,102.0,0.0,8033.0,4611.794871794872,3943.589743589744,4433.846153846154,4446.153846153847,4266.666666666667,4557.435897435898,4325.128205128206,3751.794871794872,4117.948717948719,3928.205128205129,3581.538461538462,4127.6923076923085,4032.820512820513,4491.794871794872
3122.8086,0.5233067,0.5310676,0.33333334,0.5522388,0,0.0,0.0,0.0,0.004252774,0.0,0,0,0.0,0.0,0,0,5.0,0.0,393.0,4666.153846153847,3946.1538461538466,4472.307692307693,4454.358974358975,4274.871794871796,4562.051282051282,4372.307692307693,4051.7948717948725,4340.000000000001,4256.410256410257,4052.820512820513,4211.794871794872,4281.025641025642,4548.717948717949
3123.0588,0.5233067,0.5310676,0.33333334,0.5522388,0,0.0,0.0,0.0,0.0058008446,0.0,0,0,0.0,0.0,0,0,37.0,0.0,0.0,4852.307692307693,3948.205128205129,4557.435897435898,4454.871794871796,4261.538461538462,4551.794871794872,4435.384615384616,5009.2307692307695,4854.871794871796,5050.769230769231,5014.358974358975,4398.461538461539,4812.820512820514,4704.102564102564
3123.309,0.5191518,0.5310676,0.33333334,0.5522388,0,0.0,0.0,0.0,0.0037215415,0.0,0,0,0.0,0.0,0,0,69.0,0.0,395.0,4898.974358974359,3960.0000000000005,4588.717948717949,4460.512820512821,4250.769230769231,4530.256410256411,4475.384615384616,5217.948717948719,4744.102564102564,5170.769230769231,5154.358974358975,4433.846153846154,4766.153846153847,4758.461538461539
3123.5593,0.5191518,0.5310676,0.33333334,0.5522388,0,0.0,0.0,0.0,0.02079918,0.0,0,0,0.0,0.0,0,0,101.0,0.0,766.0,4842.051282051283,3956.410256410257,4557.435897435898,4459.48717948718,4269.2307692307695,4554.871794871796,4480.000000000001,4710.769230769231,4464.615384615385,4731.282051282052,4835.384615384616,4354.871794871796,4474.358974358975,4679.48717948718
3123.8096,0.5237325,0.5310676,0.33333334,0.5522388,0,0.0,0.0,0.0,0.008395056,0.0,0,0,0.0,0.0,0,0,4.0,0.0,402.0,4775.8974358974365,3962.0512820512827,4516.923076923077,4461.538461538462,4281.538461538462,4569.2307692307695,4458.461538461539,4313.333333333334,4226.153846153847,4326.666666666667,4446.666666666667,4276.410256410257,4220.512820512821,4638.461538461539
3124.0598,0.5237325,0.5310676,0.33333334,0.5522388,0,0.0,0.0,0.0,0.007146313,0.0,0,0,0.0,0.0,0,0,36.0,0.0,0.0,4748.205128205129,3945.1282051282055,4495.8974358974365,4446.666666666667,4266.666666666667,4557.435897435898,4445.128205128206,3992.307692307693,4127.6923076923085,4178.974358974359,4157.435897435898,4225.641025641026,4109.2307692307695,4632.307692307693
3124.31,0.5456923,0.5310676,0.33333334,0.5522388,0,0.0,0.0,0.0,0.0043942137,0.0,0,0,0.0,0.0,0,0,68.0,0.0,403.0,4690.769230769231,3944.615384615385,4485.641025641026,4433.846153846154,4267.6923076923085,4563.589743589744,4416.923076923077,3753.8461538461543,4033.333333333334,3996.9230769230776,3965.1282051282055,4189.74358974359,3993.8461538461543,4653.846153846154
3124.5603,0.5456923,0.5310676,0.33333334,0.5522388,0,0.0,0.0,0.0,0.004952394,0.0,0,0,0.0,0.0,0,0,100.0,0.0,4033.0,4643.589743589744,3941.0256410256416,4450.769230769231,4432.820512820514,4263.076923076924,4554.871794871796,4368.717948717949,3596.9230769230776,3938.461538461539,3786.1538461538466,3634.358974358975,4133.846153846154,3858.9743589743593,4634.871794871796
3124.8103,0.52279466,0.5310676,0.33333334,0.5522388,0,0.0,0.0,0.0,0.0050136345,0.0,0,0,0.0,0.0,0,0,3.0,0.0,387.0,4588.205128205129,3938.461538461539,4425.641025641026,4445.128205128206,4269.2307692307695,4557.435897435898,4337.948717948719,3466.1538461538466,3886.1538461538466,3752.307692307693,3583.589743589744,4122.564102564103,3851.2820512820517,4645.128205128206
3125.0605,0.52279466,0.5310676,0.33333334,0.5522388,0,0.0,0.0,0.0,0.0054354207,0.0,0,0,0.0,0.0,0,0,35.0,0.0,0.0,4553.333333333334,3936.410256410257,4406.666666666667,4453.333333333334,4272.307692307693,4562.564102564103,4296.410256410257,3444.615384615385,3902.564102564103,3692.820512820513,3453.333333333334,4104.615384615385,3824.615384615385,4630.769230769231
3125.3108,0.49604377,0.5310676,0.33333334,0.5522388,0,0.0,0.0,0.0,0.003755664,0.0,0,0,0.0,0.0,0,0,67.0,0.0,388.0,4541.025641025642,3934.358974358975,4403.589743589744,4454.358974358975,4267.179487179487,4560.000000000001,4280.000000000001,3358.9743589743593,3901.0256410256416,3618.9743589743593,3383.0769230769233,4087.692307692308,3821.0256410256416,4573.846153846154
3125.561,0.49604377,0.5310676,0.33333334,0.5522388,0,0.0,0.0,0.0,0.008063326,0.0,0,0,0.0,0.0,0,0,99.0,0.0,408.0,4547.6923076923085,3930.7692307692314,4417.435897435898,4458.461538461539,4265.128205128206,4561.025641025642,4280.000000000001,3401.538461538462,3992.307692307693,3737.9487179487182,3394.3589743589746,4092.820512820513,3911.2820512820517,4534.358974358975
3125.8113,0.57491904,0.5310676,0.33333334,0.5522388,0,0.0,0.0,0.0,0.010643645,0.0,0,0,0.0,0.0,0,0,2.0,0.0,416.0,4527.179487179488,3923.076923076924,4406.666666666667,4446.153846153847,4257.435897435898,4555.384615384616,4264.615384615385,3336.410256410257,3931.2820512820517,3603.0769230769233,3228.717948717949,4062.0512820512827,3836.9230769230776,4503.076923076924
3126.0615,0.57491904,0.5310676,0.33333334,0.5522388,0,0.0,0.0,0.0,0.008524724,0.0,0,0,0.0,0.0,0,0,34.0,0.0,0.0,4574.358974358975,3920.5128205128212,4440.512820512821,4444.102564102564,4246.666666666667,4552.307692307693,4296.923076923077,3470.2564102564106,4022.0512820512827,3831.7948717948725,3500.0000000000005,4107.6923076923085,3941.0256410256416,4511.282051282052
3126.3118,0.49981815,0.5310676,0.33333334,0.5522388,0,0.0,0.0,0.0,0.008272393,0.0,0,0,0.0,0.0,0,0,66.0,0.0,417.0,4600.512820512821,3933.8461538461543,4455.8974358974365,4448.205128205129,4247.6923076923085,4548.717948717949,4305.641025641026,3655.3846153846157,4091.2820512820517,3928.205128205129,3588.205128205129,4129.2307692307695,4026.1538461538466,4477.948717948719
3126.562,0.49981815,0.5310676,0.33333334,0.5522388,0,0.0,0.0,0.0,0.0049982267,0.0,0,0,0.0,0.0,0,0,98.0,0.0,8033.0,4630.256410256411,3932.820512820513,4468.205128205129,4451.794871794872,4248.717948717949,4544.615384615385,4319.48717948718,3764.1025641025644,4192.307692307693,4105.641025641026,3800.512820512821,4159.48717948718,4110.256410256411,4489.743589743591
3126.812,0.5221794,0.5310676,0.33333334,0.5522388,0,0.0,0.0,0.0,0.0035515546,0.0,0,0,0.0,0.0,0,0,1.0,0.0,319.0,4683.589743589744,3940.0000000000005,4488.717948717949,4454.358974358975,4246.153846153847,4547.179487179488,4349.743589743591,4040.5128205128212,4275.384615384616,4315.8974358974365,4043.076923076924,4205.128205128206,4220.000000000001,4522.051282051282
3127.0623,0.5221794,0.5310676,0.33333334,0.5522388,0,0.0,0.0,0.0,0.0030799774,0.0,0,0,0.0,0.0,0,0,33.0,0.0,0.0,4711.282051282052,3944.615384615385,4512.820512820514,4454.358974358975,4255.384615384616,4556.410256410257,4374.871794871796,4411.282051282052,4400.512820512821,4557.435897435898,4393.333333333334,4267.179487179487,4379.48717948718,4591.282051282052
3127.3125,0.5136056,0.5310676,0.33333334,0.5522388,0,0.0,0.0,0.0,0.0044728518,0.0,0,0,0.0,0.0,0,0,65.0,0.0,320.0,4856.923076923077,3953.333333333334,4578.974358974359,4458.461538461539,4255.8974358974365,4553.846153846154,4423.589743589744,5058.974358974359,4720.000000000001,5081.025641025642,5049.2307692307695,4385.128205128206,4695.384615384616,4708.717948717949
3127.5627,0.5136056,0.5310676,0.33333334,0.5522388,0,0.0,0.0,0.0,0.003958849,0.0,0,0,0.0,0.0,0,0,97.0,0.0,748.0,4981.025641025642,3965.6410256410263,4628.205128205129,4460.512820512821,4249.2307692307695,4551.794871794872,4482.051282051282,5468.205128205129,4845.641025641026,5448.717948717949,5475.8974358974365,4478.461538461539,4895.384615384616,4773.333333333334
3127.813,0.5931726,0.5310676,0.33333334,0.5522388,0,0.0,0.0,0.0,0.0057371315,0.0,0,0,0.0,0.0,0,0,0.0,0.0,465.0,5049.2307692307695,3981.0256410256416,4672.307692307693,4471.282051282052,4258.974358974359,4557.435897435898,4559.48717948718,5653.846153846154,4880.000000000001,5599.487179487181,5655.8974358974365,4518.461538461539,4943.076923076924,4774.871794871796
3128.0632,0.5931726,0.5310676,0.33333334,0.5522388,0,0.0,0.0,0.0,0.011764467,0.0,0,0,0.0,0.0,0,0,32.0,0.0,0.0,4900.000000000001,3963.589743589744,4575.8974358974365,4470.256410256411,4270.769230769231,4563.589743589744,4489.2307692307695,4771.282051282052,4223.076923076924,4737.435897435898,4758.974358974359,4324.102564102564,4277.435897435898,4633.333333333334
3128.3135,0.69545615,0.5310676,0.33333334,0.5522388,0,0.0,0.0,0.0,0.009125806,0.0,0,0,0.0,0.0,0,0,64.0,0.0,465.0,4969.2307692307695,3946.1538461538466,4622.564102564103,4457.948717948719,4258.974358974359,4552.820512820514,4557.435897435898,5107.6923076923085,4443.076923076924,5055.384615384616,5176.410256410257,4400.512820512821,4488.717948717949,4742.051282051282
3128.5637,0.69545615,0.5310676,0.33333334,0.5522388,0,0.0,0.0,0.0,0.0052892477,0.0,0,0,0.0,0.0,0,0,96.0,0.0,4029.0,5026.153846153847,3957.435897435898,4655.8974358974365,4459.48717948718,4256.410256410257,4546.153846153847,4600.512820512821,5383.589743589744,4657.948717948719,5310.769230769231,5540.000000000001,4475.384615384616,4708.205128205129,4825.641025641026
3128.8137,0.7312303,0.5310676,0.33333334,0.5522388,0,0.0,0.0,0.0,0.0094506135,0.0,0,0,0.0,0.0,0,0,128.0,0.0,4029.0,4892.307692307693,3935.8974358974365,4573.333333333334,4461.538461538462,4284.102564102564,4582.051282051282,4554.358974358975,4917.435897435898,4262.564102564103,4895.8974358974365,4957.435897435898,4354.358974358975,4284.102564102564,4753.333333333334
3129.064,0.7312303,0.5310676,0.33333334,0.5522388,0,0.0,0.0,0.0,0.011510756,0.0,0,0,0.0,0.0,0,0,31.0,0.0,0.0,4927.179487179488,3935.3846153846157,4618.461538461539,4451.794871794872,4256.923076923077,4550.769230769231,4626.153846153847,5164.102564102564,4485.641025641026,5127.179487179488,5365.128205128206,4436.923076923077,4527.6923076923085,4830.769230769231
3129.3142,0.74248266,0.5310676,0.33333334,0.5522388,0,0.0,0.0,0.0,0.009926503,0.0,0,0,0.0,0.0,0,1,63.0,0.0,0.0,5047.6923076923085,3949.7435897435903,4687.179487179488,4460.512820512821,4259.48717948718,4559.48717948718,4700.512820512821,5758.974358974359,4798.974358974359,5722.564102564103,5918.974358974359,4569.743589743591,4870.256410256411,4880.512820512821
3129.5957,0.74248266,0.5310676,0.33333334,0.5522388,0,0.0,0.0,0.0,0.015821941,0.0,0,0,0.0,0.0,0,0,99.0,0.0,409.0,4969.743589743591,3951.2820512820517,4623.076923076924,4459.48717948718,4239.48717948718,4542.564102564103,4666.666666666667,5191.794871794872,4406.153846153847,5176.923076923077,5405.128205128206,4447.6923076923085,4453.333333333334,4760.000000000001
3129.8147,0.8309399,0.5310676,0.33333334,0.5522388,0,0.0,0.0,0.0,0.00843637,0.0,0,0,0.0,0.0,0,0,127.0,0.0,409.0,4905.128205128206,3949.2307692307695,4588.717948717949,4449.2307692307695,4228.717948717949,4529.743589743591,4633.846153846154,4852.820512820514,4081.538461538462,4769.2307692307695,4798.974358974359,4336.410256410257,4108.717948717949,4658.461538461539
3130.065,0.8309399,0.5310676,0.33333334,0.5522388,0,0.0,0.0,0.0,0.0054732733,0.0,0,0,0.0,0.0,0,0,30.0,0.0,0.0,4858.974358974359,3956.410256410257,4564.102564102564,4450.769230769231,4232.820512820514,4548.205128205129,4612.307692307693,4618.461538461539,4073.8461538461543,4636.923076923077,4660.000000000001,4307.6923076923085,4065.6410256410263,4614.358974358975
3130.3152,0.8659807,0.5310676,0.33333334,0.5522388,0,0.0,0.0,0.0,0.0037763931,0.0,0,0,0.0,0.0,0,0,62.0,0.0,0.0,4834.871794871796,3956.9230769230776,4549.2307692307695,4453.333333333334,4237.435897435898,4545.128205128206,4568.717948717949,4479.48717948718,4003.076923076924,4474.871794871796,4429.2307692307695,4274.358974358975,3991.7948717948725,4560.512820512821
3130.5654,0.8659807,0.5310676,0.33333334,0.5522388,0,0.0,0.0,0.0,0.003142624,0.0,0,0,0.0,0.0,0,0,94.0,0.0,8033.0,4752.307692307693,3947.692307692308,4516.410256410257,4450.256410256411,4241.538461538462,4547.6923076923085,4538.974358974359,4178.974358974359,3925.1282051282055,4195.8974358974365,4059.48717948718,4207.6923076923085,3874.358974358975,4507.179487179488
3130.8157,0.8369448,0.5310676,0.33333334,0.5522388,0,0.0,0.0,0.0,0.004011724,0.0,0,0,0.0,0.0,0,0,126.0,0.0,8033.0,4717.948717948719,3948.717948717949,4505.641025641026,4449.743589743591,4243.589743589744,4547.179487179488,4524.615384615385,4151.282051282052,4010.2564102564106,4233.333333333334,4085.6410256410263,4213.333333333334,3957.435897435898,4497.948717948719
3131.0657,0.8369448,0.5310676,0.33333334,0.5522388,0,0.0,0.0,0.0,0.007538215,0.0,0,0,0.0,0.0,0,0,29.0,0.0,0.0,4754.871794871796,3958.461538461539,4532.820512820514,4449.2307692307695,4243.076923076924,4543.076923076924,4528.717948717949,4469.2307692307695,4257.435897435898,4545.641025641026,4437.435897435898,4285.641025641026,4188.717948717949,4527.6923076923085
3131.316,0.81952333,0.5310676,0.33333334,0.5522388,0,0.0,0.0,0.0,0.0070916065,0.0,0,0,0.0,0.0,0,0,61.0,0.0,0.0,4779.48717948718,3955.3846153846157,4536.410256410257,4447.179487179487,4247.179487179487,4543.076923076924,4535.384615384616,4582.051282051282,4304.102564102564,4638.461538461539,4603.076923076924,4312.820512820514,4253.333333333334,4542.564102564103
3131.5662,0.81952333,0.5310676,0.33333334,0.5522388,0,0.0,0.0,0.0,0.0042615472,0.0,0,0,0.0,0.0,0,0,93.0,0.0,737.0,4761.025641025642,3952.307692307693,4533.333333333334,4450.769230769231,4248.205128205129,4542.564102564103,4522.051282051282,4563.076923076924,4319.48717948718,4626.666666666667,4581.025641025642,4314.871794871796,4260.512820512821,4532.820512820514
3131.8164,0.72935456,0.5310676,0.33333334,0.5522388,0,0.0,0.0,0.0,0.0045505515,0.0,0,0,0.0,0.0,0,0,125.0,0.0,737.0,4735.8974358974365,3949.2307692307695,4527.6923076923085,4450.256410256411,4231.794871794872,4514.358974358975,4517.435897435898,4549.2307692307695,4297.435897435898,4606.153846153847,4609.2307692307695,4313.846153846154,4240.512820512821,4564.615384615385
3132.0667,0.72935456,0.5310676,0.33333334,0.5522388,0,0.0,0.0,0.0,0.0056220368,0.0,0,0,0.0,0.0,0,0,28.0,0.0,0.0,4710.256410256411,3941.538461538462,4506.153846153847,4443.589743589744,4232.820512820514,4520.000000000001,4500.512820512821,4385.128205128206,4252.307692307693,4495.8974358974365,4464.615384615385,4289.74358974359,4210.256410256411,4563.589743589744
3132.317,0.6987976,0.5310676,0.33333334,0.5522388,0,0.0,0.0,0.0,0.0044932696,0.0,0,0,0.0,0.0,0,0,60.0,0.0,0.0,4749.743589743591,3943.076923076924,4527.6923076923085,4444.615384615385,4232.307692307693,4524.102564102564,4494.358974358975,4585.641025641026,4394.871794871796,4666.666666666667,4698.974358974359,4333.846153846154,4338.461538461539,4623.076923076924
3132.5671,0.6987976,0.5310676,0.33333334,0.5522388,0,0.0,0.0,0.0,0.004360389,0.0,0,0,0.0,0.0,0,1,92.0,0.0,3890.0,4755.8974358974365,3943.076923076924,4538.974358974359,4443.076923076924,4241.025641025642,4532.820512820514,4503.589743589744,4807.6923076923085,4440.512820512821,4777.435897435898,4852.307692307693,4362.564102564103,4382.051282051282,4665.128205128206
3132.8174,0.70756227,0.5310676,0.33333334,0.5522388,0,0.0,0.0,0.0,0.006402407,0.0,0,0,0.0,0.0,0,0,124.0,0.0,3890.0,4787.6923076923085,3945.6410256410263,4544.615384615385,4445.128205128206,4243.076923076924,4532.820512820514,4508.205128205129,4849.2307692307695,4454.871794871796,4795.8974358974365,5000.512820512821,4383.589743589744,4421.025641025642,4711.794871794872
3133.0674,0.70756227,0.5310676,0.33333334,0.5522388,0,0.0,0.0,0.0,0.015555897,0.0,0,0,0.0,0.0,0,0,27.0,0.0,0.0,4784.615384615386,3947.692307692308,4537.948717948719,4447.179487179487,4245.641025641026,4535.8974358974365,4508.717948717949,4773.333333333334,4349.2307692307695,4697.948717948719,4869.2307692307695,4367.6923076923085,4318.974358974359,4683.076923076924
3133.3176,0.6262479,0.5310676,0.33333334,0.5522388,0,0.0,0.0,0.0,0.0150806215,0.0,0,0,0.0,0.0,0,0,59.0,0.0,0.0,4810.769230769231,3950.7692307692314,4562.051282051282,4456.923076923077,4249.2307692307695,4543.076923076924,4536.410256410257,4837.435897435898,4396.410256410257,4731.794871794872,5016.923076923077,4390.769230769231,4362.051282051282,4675.384615384616
3133.5679,0.6262479,0.5310676,0.33333334,0.5522388,0,0.0,0.0,0.0,0.01039377,0.0,0,0,0.0,0.0,0,0,91.0,0.0,424.0,4835.8974358974365,3940.5128205128212,4561.538461538462,4444.615384615385,4229.74358974359,4533.333333333334,4549.2307692307695,4948.205128205129,4390.256410256411,4795.384615384616,5022.051282051283,4402.564102564103,4367.179487179487,4718.461538461539
3133.818,0.54512024,0.5310676,0.33333334,0.5522388,0,0.0,0.3254975,0.0,0.0,0.0,0,0,0.0,0.0,0,0,123.0,0.0,424.0,4856.410256410257,3941.0256410256416,4565.641025641026,4445.641025641026,4231.794871794872,4525.641025641026,4574.358974358975,4805.641025641026,4365.128205128206,4704.102564102564,5011.794871794872,4397.948717948719,4340.000000000001,4703.589743589744
3134.0684,0.54512024,0.5310676,0.33333334,0.5522388,0,0.0,0.0,0.0,0.012031812,0.0,0,0,0.0,0.0,0,0,26.0,0.0,0.0,4849.2307692307695,3940.5128205128212,4549.743589743591,4444.102564102564,4232.307692307693,4527.6923076923085,4572.307692307693,4625.641025641026,4217.948717948719,4495.384615384616,4837.948717948719,4362.051282051282,4182.051282051282,4646.666666666667
3134.3186,0.51545507,0.5310676,0.33333334,0.5522388,0,0.0,0.0,0.0,0.01105416,0.0,0,0,0.0,0.0,0,0,58.0,0.0,0.0,4878.974358974359,3943.076923076924,4571.282051282052,4447.6923076923085,4235.8974358974365,4532.820512820514,4584.615384615385,4669.743589743591,4265.641025641026,4582.051282051282,4927.6923076923085,4382.051282051282,4245.641025641026,4657.948717948719
3134.5688,0.51545507,0.5310676,0.33333334,0.5522388,0,0.0,0.0,0.0,0.009405173,0.0,0,0,0.0,0.0,0,0,90.0,0.0,8033.0,4889.2307692307695,3947.1794871794878,4575.8974358974365,4447.179487179487,4241.538461538462,4537.435897435898,4586.666666666667,4793.846153846154,4279.48717948718,4594.358974358975,4975.8974358974365,4392.820512820514,4252.820512820514,4688.205128205129
3134.819,0.48854116,0.5310676,0.33333334,0.5522388,0,0.0,0.0,0.0,0.013431796,0.0,0,0,0.0,0.0,0,0,122.0,0.0,8033.0,4865.128205128206,3955.3846153846157,4568.717948717949,4449.743589743591,4255.8974358974365,4547.179487179488,4570.769230769231,4715.8974358974365,4221.538461538462,4534.871794871796,4937.435897435898,4384.615384615385,4220.512820512821,4678.974358974359
3135.0693,0.48854116,0.5310676,0.33333334,0.5522388,0,0.0,0.0,0.0,0.0131378835,0.0,0,0,0.0,0.0,0,0,25.0,0.0,0.0,4866.153846153847,3955.8974358974365,4568.717948717949,4451.282051282052,4251.282051282052,4550.769230769231,4570.769230769231,4757.435897435898,4234.358974358975,4538.974358974359,4918.974358974359,4376.410256410257,4243.076923076924,4689.743589743591
3135.3193,0.4004876,0.5310676,0.33333334,0.5522388,0,0.0,0.0,0.0,0.015035179,0.0,0,0,0.0,0.0,0,0,57.0,0.0,0.0,4834.358974358975,3955.3846153846157,4558.974358974359,4455.384615384616,4256.923076923077,4553.846153846154,4557.435897435898,4683.589743589744,4190.769230769231,4473.846153846154,4841.025641025642,4362.564102564103,4192.307692307693,4730.769230769231
3135.5696,0.4004876,0.5310676,0.33333334,0.5522388,0,0.0,0.0,0.0,0.02168522,0.0,0,0,0.0,0.0,0,0,89.0,0.0,695.0,4809.743589743591,3956.410256410257,4555.384615384616,4450.769230769231,4253.846153846154,4551.282051282052,4553.846153846154,4630.256410256411,4184.102564102564,4473.846153846154,4776.410256410257,4360.000000000001,4189.74358974359,4711.794871794872
3135.8198,0.34180397,0.5310676,0.33333334,0.5522388,0,0.0,0.0,0.0,0.0037453838,0.0,0,0,0.0,0.0,0,0,121.0,0.0,695.0,4818.974358974359,3958.461538461539,4555.8974358974365,4452.820512820514,4255.384615384616,4555.384615384616,4536.410256410257,4618.974358974359,4170.769230769231,4429.2307692307695,4795.384615384616,4362.564102564103,4167.179487179487,4700.512820512821
3136.07,0.34180397,0.5310676,0.33333334,0.5522388,0,0.0,0.0,0.0,0.0029482867,0.0,0,0,0.0,0.0,0,0,24.0,0.0,0.0,4777.948717948719,3948.717948717949,4546.666666666667,4448.717948717949,4252.307692307693,4545.641025641026,4537.435897435898,4303.589743589744,4109.2307692307695,4300.512820512821,4547.179487179488,4325.641025641026,4067.692307692308,4672.307692307693
3136.3203,0.33728668,0.5310676,0.33333334,0.5522388,0,0.0,0.0,0.0,0.0036278663,0.0,0,0,0.0,0.0,0,0,56.0,0.0,0.0,4773.333333333334,3945.1282051282055,4534.871794871796,4446.666666666667,4251.282051282052,4544.102564102564,4523.589743589744,4270.256410256411,4076.410256410257,4252.307692307693,4445.641025641026,4307.6923076923085,4062.0512820512827,4662.051282051282
3136.5706,0.33728668,0.5310676,0.33333334,0.5522388,0,0.0,0.0,0.0,0.0034589285,0.0,0,0,0.0,0.0,0,0,88.0,0.0,3940.0,4759.48717948718,3949.2307692307695,4538.461538461539,4453.846153846154,4264.102564102564,4557.948717948719,4525.641025641026,4392.820512820514,4153.846153846154,4371.794871794872,4541.025641025642,4326.153846153847,4113.846153846154,4658.974358974359
3136.8208,0.3835458,0.5310676,0.33333334,0.5522388,0,0.0,0.0,0.0,0.01747495,0.0,0,0,0.0,0.0,0,0,120.0,0.0,3940.0,4563.076923076924,3788.205128205129,4375.384615384616,4365.641025641026,4030.2564102564106,4322.564102564103,4377.435897435898,2212.3076923076924,3014.8717948717954,2352.307692307693,2263.0769230769233,3859.48717948718,2860.512820512821,4456.923076923077
3137.071,0.3835458,0.5310676,0.33333334,0.5522388,0,0.0,0.0,0.0,0.019164354,0.0,0,0,0.0,0.0,0,0,23.0,0.0,0.0,4616.410256410257,3814.8717948717954,4432.820512820514,4375.8974358974365,4057.9487179487182,4355.384615384616,4375.8974358974365,2811.2820512820517,3669.7435897435903,3130.2564102564106,2813.8461538461543,4004.615384615385,3525.6410256410263,4506.666666666667
3137.321,0.5475203,0.5310676,0.33333334,0.5522388,0,0.0,0.0,0.0,0.025489034,0.0,0,0,0.0,0.0,0,0,55.0,0.0,0.0,4673.846153846154,3847.692307692308,4472.307692307693,4391.282051282052,4093.333333333334,4389.2307692307695,4405.128205128206,3355.3846153846157,4019.48717948718,3734.358974358975,3322.564102564103,4116.923076923077,3916.410256410257,4530.256410256411
3137.5713,0.5475203,0.5310676,0.33333334,0.5522388,0,0.0,0.0,0.0,0.01922661,0.0,0,0,0.0,0.0,0,0,87.0,0.0,424.0,4717.435897435898,3864.615384615385,4507.6923076923085,4403.589743589744,4125.641025641026,4420.512820512821,4427.179487179487,3910.2564102564106,4256.410256410257,4110.256410256411,3787.692307692308,4200.000000000001,4170.769230769231,4533.846153846154
3137.8215,0.69208294,0.5310676,0.33333334,0.5522388,0,0.0,0.0,0.0,0.00959188,0.0,0,0,0.0,0.0,0,0,119.0,0.0,424.0,4743.076923076924,3867.1794871794878,4515.384615384616,4404.615384615385,4139.48717948718,4429.2307692307695,4439.48717948718,4080.5128205128212,4288.205128205129,4192.820512820514,3936.410256410257,4223.589743589744,4218.461538461539,4522.564102564103
3138.0718,0.69208294,0.5310676,0.33333334,0.5522388,0,0.0,0.0,0.0,0.0037173266,0.0,0,0,0.0,0.0,0,0,22.0,0.0,0.0,4741.025641025642,3879.48717948718,4509.743589743591,4411.794871794872,4155.384615384616,4452.307692307693,4431.282051282052,4150.769230769231,4301.538461538462,4256.923076923077,4005.6410256410263,4232.307692307693,4232.307692307693,4503.076923076924
3138.322,0.6652758,0.5310676,0.33333334,0.5522388,0,0.0,0.0,0.0,0.006798098,0.0,0,0,0.0,0.0,0,0,54.0,0.0,0.0,4749.743589743591,3895.8974358974365,4524.615384615385,4415.8974358974365,4175.8974358974365,4470.769230769231,4446.153846153847,4456.410256410257,4450.769230769231,4562.051282051282,4348.205128205129,4294.358974358975,4401.025641025642,4542.564102564103
3138.5723,0.6652758,0.5310676,0.33333334,0.5522388,0,0.0,0.0,0.0,0.004156608,0.0,0,0,0.0,0.0,0,0,86.0,0.0,8033.0,4723.076923076924,3894.358974358975,4508.717948717949,4416.923076923077,4185.641025641026,4479.48717948718,4425.128205128206,4345.641025641026,4303.589743589744,4407.179487179487,4172.307692307693,4261.538461538462,4256.410256410257,4509.2307692307695
3138.8225,0.6500203,0.5310676,0.33333334,0.5522388,0,0.0,0.0,0.0,0.0031922748,0.0,0,0,0.0,0.0,0,0,118.0,0.0,8033.0,4729.743589743591,3898.9743589743593,4518.461538461539,4426.666666666667,4198.461538461539,4494.871794871796,4442.051282051282,4478.461538461539,4412.820512820514,4560.000000000001,4402.564102564103,4300.512820512821,4403.076923076924,4517.435897435898
3139.0728,0.6500203,0.5310676,0.33333334,0.5522388,0,0.0,0.0,0.0,0.0073592514,0.0,0,0,0.0,0.0,0,0,21.0,0.0,0.0,4786.153846153847,3909.7435897435903,4545.641025641026,4428.717948717949,4205.641025641026,4505.641025641026,4469.2307692307695,4858.974358974359,4563.589743589744,4904.102564102564,4813.846153846154,4378.974358974359,4561.538461538462,4550.769230769231
3139.3228,0.6607618,0.5310676,0.33333334,0.5522388,0,0.0,0.0,0.0,0.007881282,0.0,0,0,0.0,0.0,0,0,53.0,0.0,0.0,4822.564102564103,3925.1282051282055,4567.179487179488,4442.051282051282,4216.410256410257,4517.435897435898,4488.205128205129,4974.358974358975,4613.333333333334,5025.641025641026,5044.102564102564,4414.358974358975,4612.307692307693,4590.256410256411
3139.573,0.6607618,0.5310676,0.33333334,0.5522388,0,0.0,0.30407247,0.0,0.0,0.0,0,0,0.0,0.0,0,0,85.0,0.0,752.0,4838.974358974359,3934.8717948717954,4577.948717948719,4447.6923076923085,4224.102564102564,4525.128205128206,4507.179487179488,5065.128205128206,4595.384615384616,5090.256410256411,5120.512820512821,4428.205128205129,4614.358974358975,4606.666666666667
3139.8232,0.6542796,0.5310676,0.33333334,0.5522388,0,0.0,0.0,0.0,0.015539283,0.0,0,0,0.0,0.0,0,0,117.0,0.0,752.0,4776.410256410257,3929.7435897435903,4547.179487179488,4437.948717948719,4216.923076923077,4514.871794871796,4503.589743589744,4703.589743589744,4327.6923076923085,4731.282051282052,4730.256410256411,4354.871794871796,4351.794871794872,4579.48717948718
3140.0735,0.6542796,0.5310676,0.33333334,0.5522388,0,0.0,0.0,0.0,0.010227657,0.0,0,0,0.0,0.0,0,0,20.0,0.0,0.0,4785.128205128206,3932.820512820513,4549.743589743591,4440.000000000001,4218.461538461539,4512.307692307693,4506.153846153847,4805.641025641026,4365.641025641026,4751.794871794872,4764.615384615386,4364.102564102564,4357.948717948719,4630.769230769231
3140.3237,0.6253391,0.5310676,0.33333334,0.5522388,0,0.0,0.16921844,0.0,0.0,0.0,0,0,0.0,0.0,0,0,52.0,0.0,0.0,4750.769230769231,3938.461538461539,4523.589743589744,4441.025641025642,4228.717948717949,4525.128205128206,4504.615384615385,4657.435897435898,4275.8974358974365,4635.8974358974365,4681.538461538462,4345.641025641026,4286.153846153847,4627.179487179488
3140.574,0.6253391,0.5310676,0.33333334,0.5522388,0,0.0,0.19102407,0.0,0.0,0.0,0,0,0.0,0.0,0,0,84.0,0.0,3997.0,4726.666666666667,3945.1282051282055,4526.153846153847,4445.128205128206,4233.846153846154,4536.923076923077,4477.948717948719,4632.820512820514,4263.076923076924,4565.128205128206,4578.461538461539,4323.589743589744,4255.8974358974365,4623.589743589744
3140.8242,0.55376905,0.5310676,0.33333334,0.5522388,0,0.0,0.119209185,0.0,0.0,0.0,0,0,0.0,0.0,0,0,116.0,0.0,3997.0,4658.974358974359,3939.48717948718,4487.179487179488,4444.102564102564,4231.794871794872,4532.307692307693,4442.051282051282,4310.769230769231,4126.153846153847,4321.025641025642,4276.923076923077,4274.871794871796,4078.9743589743593,4606.153846153847
3141.0745,0.55376905,0.5310676,0.33333334,0.5522388,0,0.0,0.10189989,0.0,0.0,0.0,0,0,0.0,0.0,0,0,19.0,0.0,0.0,4685.128205128206,3936.410256410257,4497.948717948719,4444.102564102564,4233.333333333334,4530.769230769231,4450.769230769231,4502.564102564103,4240.000000000001,4460.000000000001,4477.948717948719,4307.6923076923085,4198.461538461539,4651.282051282052
3141.3247,0.5749165,0.5310676,0.33333334,0.5522388,0,0.0,0.058571674,0.0,0.0,0.0,0,0,0.0,0.0,0,0,51.0,0.0,0.0,4652.307692307693,3936.410256410257,4472.820512820514,4442.051282051282,4230.256410256411,4533.333333333334,4431.794871794872,4281.025641025642,4162.051282051282,4313.333333333334,4261.025641025642,4273.846153846154,4110.256410256411,4600.512820512821
3141.5747,0.5749165,0.5310676,0.33333334,0.5522388,0,0.0,0.0,0.0,0.003872843,0.0,0,0,0.0,0.0,0,0,83.0,0.0,422.0,4664.615384615386,3925.6410256410263,4473.846153846154,4436.410256410257,4220.512820512821,4523.076923076924,4437.948717948719,4211.794871794872,4163.589743589744,4285.128205128206,4182.564102564103,4256.410256410257,4111.282051282052,4567.6923076923085
3141.825,0.5120428,0.5310676,0.33333334,0.5522388,0,0.0,0.0,0.0,0.0024280583,0.0,0,0,0.0,0.0,0,0,115.0,0.0,422.0,4650.256410256411,3929.7435897435903,4470.769230769231,4437.948717948719,4230.769230769231,4534.358974358975,4430.769230769231,4178.974358974359,4155.8974358974365,4255.384615384616,4147.6923076923085,4248.717948717949,4092.307692307693,4532.820512820514
3142.0752,0.5120428,0.5310676,0.33333334,0.5522388,0,0.0,0.0,0.0,0.0016852007,0.0,0,0,0.0,0.0,0,0,18.0,0.0,0.0,4628.205128205129,3922.0512820512827,4460.512820512821,4444.615384615385,4232.307692307693,4530.769230769231,4398.974358974359,4078.461538461539,4148.717948717949,4201.538461538462,4052.820512820513,4236.923076923077,4076.9230769230776,4531.282051282052
3142.3254,0.52120733,0.5310676,0.33333334,0.5522388,0,0.0,0.0,0.0,0.0024490354,0.0,0,0,0.0,0.0,0,0,50.0,0.0,0.0,4649.743589743591,3924.1025641025644,4471.282051282052,4445.128205128206,4243.076923076924,4540.000000000001,4396.923076923077,4226.666666666667,4242.564102564103,4312.307692307693,4237.948717948719,4268.717948717949,4178.974358974359,4553.846153846154
3142.5757,0.52120733,0.5310676,0.33333334,0.5522388,0,0.0,0.0,0.0,0.0019902217,0.0,0,0,0.0,0.0,0,0,82.0,0.0,8033.0,4654.358974358975,3926.666666666667,4469.2307692307695,4444.615384615385,4242.564102564103,4541.025641025642,4398.974358974359,4203.076923076924,4244.615384615385,4342.564102564103,4214.358974358975,4269.74358974359,4182.051282051282,4551.794871794872
3142.826,0.46206966,0.5310676,0.33333334,0.5522388,0,0.0,0.0,0.0,0.0032928365,0.0,0,0,0.0,0.0,0,0,114.0,0.0,8033.0,4661.025641025642,3918.461538461539,4456.923076923077,4442.051282051282,4229.74358974359,4533.846153846154,4376.923076923077,4126.666666666667,4224.102564102564,4243.589743589744,4136.923076923077,4248.205128205129,4162.051282051282,4525.641025641026
3143.0762,0.46206966,0.5310676,0.33333334,0.5522388,0,0.0,0.0,0.0,0.0039773253,0.0,0,0,0.0,0.0,0,0,17.0,0.0,0.0,4695.384615384616,3926.666666666667,4480.000000000001,4454.871794871796,4243.076923076924,4542.051282051282,4383.589743589744,4347.179487179487,4310.769230769231,4432.307692307693,4416.410256410257,4300.000000000001,4268.205128205129,4549.2307692307695
3143.3264,0.44997665,0.5310676,0.33333334,0.5522388,0,0.0,0.0,0.0,0.0033677034,0.0,0,0,0.0,0.0,0,0,49.0,0.0,0.0,4740.512820512821,3930.7692307692314,4505.641025641026,4455.8974358974365,4248.205128205129,4543.589743589744,4399.48717948718,4690.769230769231,4407.179487179487,4636.923076923077,4704.102564102564,4348.205128205129,4363.589743589744,4607.6923076923085
3143.5764,0.44997665,0.5310676,0.33333334,0.5522388,0,0.0,0.12883046,0.0,0.0,0.0,0,0,0.0,0.0,0,0,81.0,0.0,726.0,4690.256410256411,3927.1794871794878,4476.410256410257,4446.666666666667,4239.48717948718,4536.923076923077,4392.307692307693,4210.769230769231,4223.076923076924,4325.641025641026,4293.333333333334,4277.948717948719,4156.410256410257,4547.6923076923085
3143.8267,0.39683986,0.5310676,0.33333334,0.5522388,0,0.0,0.122731715,0.0,0.0,0.0,0,0,0.0,0.0,0,0,113.0,0.0,726.0,4704.102564102564,3938.461538461539,4489.2307692307695,4452.820512820514,4246.666666666667,4547.179487179488,4414.871794871796,4362.564102564103,4263.589743589744,4369.743589743591,4447.6923076923085,4302.564102564103,4214.871794871796,4533.333333333334
3144.077,0.39683986,0.5310676,0.33333334,0.5522388,0,0.0,0.10247184,0.0,0.0,0.0,0,0,0.0,0.0,0,0,16.0,0.0,0.0,4677.948717948719,3936.410256410257,4474.358974358975,4446.666666666667,4248.717948717949,4541.538461538462,4399.48717948718,4120.512820512821,4188.205128205129,4250.769230769231,4231.282051282052,4265.128205128206,4116.923076923077,4496.410256410257
3144.3271,0.3371254,0.5310676,0.33333334,0.5522388,0,0.0,0.08696247,0.0,0.0,0.0,0,0,0.0,0.0,0,0,48.0,0.0,0.0,4684.615384615386,3940.5128205128212,4487.6923076923085,4444.102564102564,4246.153846153847,4540.000000000001,4398.461538461539,4151.794871794872,4201.025641025642,4240.512820512821,4272.307692307693,4270.256410256411,4157.948717948719,4488.717948717949
3144.5774,0.3371254,0.5310676,0.33333334,0.5522388,0,0.0,0.06453712,0.0,0.0,0.0,0,0,0.0,0.0,0,0,80.0,0.0,3836.0,4643.589743589744,3943.076923076924,4475.8974358974365,4442.564102564103,4247.6923076923085,4538.974358974359,4404.615384615385,4011.7948717948725,4161.025641025642,4162.564102564103,4107.6923076923085,4246.153846153847,4080.0000000000005,4466.666666666667
3144.8276,0.34154946,0.5310676,0.33333334,0.5522388,0,0.0,0.0,0.0,0.0045351083,0.0,0,0,0.0,0.0,0,0,112.0,0.0,3836.0,4688.205128205129,3941.538461538462,4500.000000000001,4448.717948717949,4249.2307692307695,4549.2307692307695,4414.871794871796,4270.256410256411,4270.256410256411,4317.948717948719,4381.538461538462,4292.820512820514,4212.820512820514,4487.179487179488
3145.078,0.34154946,0.5310676,0.33333334,0.5522388,0,0.0,0.0,0.0,0.006762316,0.0,0,0,0.0,0.0,0,0,15.0,0.0,436.0,4689.743589743591,3948.717948717949,4519.48717948718,4454.871794871796,4253.846153846154,4555.8974358974365,4444.102564102564,4447.179487179487,4354.358974358975,4478.461538461539,4557.435897435898,4327.179487179487,4316.410256410257,4502.051282051282
3145.3281,0.35397342,0.5310676,0.33333334,0.5522388,0,0.0,0.11512264,0.0,0.0,0.0,0,0,0.0,0.0,0,0,47.0,0.0,0.0,4662.564102564103,3938.9743589743593,4495.8974358974365,4444.102564102564,4245.641025641026,4544.615384615385,4443.589743589744,4163.589743589744,4229.74358974359,4268.205128205129,4306.666666666667,4278.461538461539,4183.076923076924,4477.948717948719
3145.5781,0.35397342,0.5310676,0.33333334,0.5522388,0,0.0,0.11504715,0.0,0.0,0.0,0,0,0.0,0.0,0,0,79.0,0.0,436.0,4668.205128205129,3952.307692307693,4513.846153846154,4453.846153846154,4252.307692307693,4555.384615384616,4469.2307692307695,4300.000000000001,4278.461538461539,4400.512820512821,4489.743589743591,4314.871794871796,4230.769230769231,4481.025641025642
3145.8284,0.32911313,0.5310676,0.33333334,0.5522388,0,0.0,0.0,0.0,0.0047285478,0.0,0,0,0.0,0.0,0,0,111.0,0.0,436.0,4661.538461538462,3944.1025641025644,4502.051282051282,4444.615384615385,4251.282051282052,4552.307692307693,4443.076923076924,4157.948717948719,4207.179487179487,4278.461538461539,4356.410256410257,4289.2307692307695,4153.333333333334,4474.358974358975
3146.0786,0.32911313,0.5310676,0.33333334,0.5522388,0,0.0,0.0,0.0,0.00438302,0.0,0,0,0.0,0.0,0,0,14.0,0.0,8033.0,4657.948717948719,3945.1282051282055,4495.8974358974365,4449.2307692307695,4254.358974358975,4554.358974358975,4438.974358974359,4136.923076923077,4215.8974358974365,4291.282051282052,4385.128205128206,4295.8974358974365,4168.205128205129,4492.307692307693
3146.3289,0.30930865,0.5310676,0.33333334,0.5522388,0,0.0,0.0,0.0,0.0043831137,0.0,0,0,0.0,0.0,0,0,46.0,0.0,0.0,4673.333333333334,3942.0512820512827,4518.461538461539,4450.256410256411,4255.384615384616,4553.846153846154,4457.435897435898,4455.384615384616,4318.461538461539,4502.564102564103,4647.6923076923085,4343.589743589744,4280.512820512821,4536.923076923077
3146.579,0.30930865,0.5310676,0.33333334,0.5522388,0,0.0,0.0,0.0,0.007391163,0.0,0,0,0.0,0.0,0,0,78.0,0.0,8033.0,4689.2307692307695,3943.076923076924,4523.589743589744,4453.846153846154,4257.948717948719,4559.48717948718,4465.641025641026,4528.717948717949,4342.051282051282,4567.179487179488,4746.666666666667,4363.076923076924,4321.025641025642,4568.205128205129
3146.8293,0.25569582,0.5310676,0.33333334,0.5522388,0,0.0,0.0,0.0,0.0075651607,0.0,0,0,0.0,0.0,0,0,110.0,0.0,8033.0,4697.948717948719,3941.538461538462,4527.179487179488,4451.794871794872,4262.564102564103,4571.282051282052,4458.974358974359,4441.025641025642,4321.538461538462,4501.538461538462,4671.794871794872,4348.717948717949,4283.076923076924,4581.025641025642
3147.0796,0.25569582,0.5310676,0.33333334,0.5522388,0,0.0,0.0,0.0,0.020925421,0.0,0,0,0.0,0.0,0,0,13.0,0.0,726.0,4809.2307692307695,3975.3846153846157,4656.410256410257,4453.846153846154,4609.2307692307695,5141.025641025642,4523.589743589744,6494.3589743589755,5557.948717948719,6542.564102564103,6451.794871794873,4778.461538461539,5690.769230769231,4716.923076923077
3147.3298,0.35549343,0.5310676,0.33333334,0.5522388,0,0.0,0.0,0.0,0.025062585,0.0,0,0,0.0,0.0,0,0,45.0,0.0,0.0,4774.358974358975,3958.9743589743593,4577.435897435898,4443.589743589744,4526.153846153847,5035.8974358974365,4488.717948717949,5714.3589743589755,4697.948717948719,5534.871794871796,5761.538461538462,4588.205128205129,4768.205128205129,4646.666666666667
3147.58,0.35549343,0.5310676,0.33333334,0.5522388,0,0.0,0.0,0.0,0.033397384,0.0,0,0,0.0,0.0,0,0,77.0,0.0,740.0,4780.512820512821,3955.8974358974365,4556.923076923077,4443.076923076924,4446.153846153847,4896.410256410257,4479.48717948718,5021.025641025642,4239.48717948718,4784.615384615386,5143.076923076924,4452.307692307693,4293.333333333334,4622.051282051282
3147.83,0.52283424,0.5310676,0.33333334,0.5522388,0,0.0,0.0,0.0,0.021327069,0.0,0,0,0.0,0.0,0,0,109.0,0.0,740.0,4759.48717948718,3953.333333333334,4537.435897435898,4446.153846153847,4383.589743589744,4792.820512820514,4473.846153846154,4425.128205128206,4026.666666666667,4407.179487179487,4786.666666666667,4372.820512820514,4058.9743589743593,4608.205128205129
3148.0803,0.52283424,0.5310676,0.33333334,0.5522388,1,0.0,0.0,0.0,0.019109918,0.0,0,0,0.0,0.0,0,0,12.0,0.0,4003.0,4746.153846153847,3942.0512820512827,4504.615384615385,4435.8974358974365,4326.153846153847,4700.000000000001,4450.256410256411,3912.307692307693,3800.512820512821,3916.410256410257,4280.512820512821,4265.128205128206,3806.1538461538466,4590.256410256411
3148.3306,0.5254219,0.5310676,0.33333334,0.5522388,0,0.0,0.0,0.0,0.006386091,0.0,0,0,0.0,0.0,0,0,44.0,0.0,0.0,4781.538461538462,3943.076923076924,4543.076923076924,4442.564102564103,4295.384615384616,4640.512820512821,4479.48717948718,4106.153846153847,3937.435897435898,4127.179487179487,4450.769230769231,4305.641025641026,3914.358974358975,4609.2307692307695
3148.5808,0.5254219,0.5310676,0.33333334,0.5522388,0,0.0,0.0,0.0,0.0040963595,0.0,0,0,0.0,0.0,0,0,76.0,0.0,4063.0,4722.564102564103,3949.2307692307695,4513.846153846154,4449.2307692307695,4272.820512820514,4596.923076923077,4455.384615384616,3800.0000000000005,3806.666666666667,3865.6410256410263,4035.8974358974365,4233.333333333334,3790.7692307692314,4559.48717948718
3148.831,0.49342152,0.5310676,0.33333334,0.5522388,0,0.0,0.0,0.0,0.0048948,0.0,0,0,0.0,0.0,0,0,108.0,0.0,4063.0,4683.076923076924,3940.0000000000005,4481.538461538462,4446.666666666667,4243.589743589744,4544.615384615385,4425.641025641026,3543.589743589744,3696.410256410257,3551.794871794872,3566.666666666667,4153.846153846154,3621.538461538462,4497.435897435898
3149.0813,0.49342152,0.5310676,0.33333334,0.5522388,0,0.0,0.0,0.0,0.004635734,0.0,0,0,0.0,0.0,0,0,11.0,0.0,424.0,4687.6923076923085,3937.9487179487182,4483.076923076924,4438.974358974359,4220.512820512821,4515.384615384616,4430.256410256411,3464.1025641025644,3790.7692307692314,3611.794871794872,3624.1025641025644,4163.589743589744,3721.538461538462,4487.179487179488
3149.3315,0.51549184,0.5310676,0.33333334,0.5522388,0,0.0,0.0,0.0,0.009885935,0.0,0,0,0.0,0.0,0,0,43.0,0.0,0.0,4729.743589743591,3952.307692307693,4513.333333333334,4449.743589743591,4227.179487179487,4507.179487179488,4431.794871794872,3939.48717948718,4031.7948717948725,4016.410256410257,3981.538461538462,4240.000000000001,3961.538461538462,4535.384615384616
3149.5818,0.51549184,0.5310676,0.33333334,0.5522388,0,0.0,0.0,0.0,0.009027295,0.0,0,0,0.0,0.0,0,0,75.0,0.0,416.0,4773.846153846154,3948.205128205129,4540.000000000001,4447.179487179487,4215.8974358974365,4495.384615384616,4448.717948717949,4306.153846153847,4214.871794871796,4382.051282051282,4339.48717948718,4307.6923076923085,4154.871794871796,4612.307692307693
3149.8318,0.54154307,0.5310676,0.33333334,0.5522388,0,0.0,0.0,0.0,0.0056356876,0.0,0,0,0.0,0.0,0,0,107.0,0.0,416.0,4701.538461538462,3944.615384615385,4502.051282051282,4448.205128205129,4210.769230769231,4485.128205128206,4405.641025641026,3992.820512820513,4059.48717948718,4090.2564102564106,3972.820512820513,4236.923076923077,3993.8461538461543,4576.410256410257
3150.082,0.54154307,0.5310676,0.33333334,0.5522388,0,0.0,0.0,0.0,0.0073251836,0.0,0,0,0.0,0.0,0,0,10.0,0.0,8033.0,4641.538461538462,3942.0512820512827,4467.6923076923085,4447.179487179487,4201.025641025642,4463.076923076924,4354.871794871796,3614.8717948717954,3914.358974358975,3785.6410256410263,3605.6410256410263,4160.000000000001,3831.2820512820517,4541.025641025642
3150.3323,0.5373709,0.5310676,0.33333334,0.5522388,0,0.0,0.0,0.0,0.007198224,0.0,0,0,0.0,0.0,0,0,42.0,0.0,0.0,4578.974358974359,3943.076923076924,4431.282051282052,4444.102564102564,4200.000000000001,4455.8974358974365,4314.871794871796,3382.564102564103,3863.076923076924,3610.2564102564106,3316.410256410257,4106.153846153847,3756.9230769230776,4493.846153846154
3150.5825,0.5373709,0.5310676,0.33333334,0.5522388,0,0.0,0.0,0.0,0.01563923,0.0,0,0,0.0,0.0,0,0,74.0,0.0,8033.0,4548.205128205129,3938.461538461539,4414.871794871796,4442.564102564103,4198.461538461539,4456.923076923077,4314.871794871796,3238.9743589743593,3834.8717948717954,3535.8974358974365,3206.1538461538466,4082.564102564103,3715.8974358974365,4400.000000000001
3150.8328,0.46869,0.5310676,0.33333334,0.5522388,0,0.0,0.0,0.0,0.046507183,0.0,0,0,0.0,0.0,0,0,106.0,0.0,8033.0,4513.846153846154,3933.333333333334,4411.282051282052,4441.538461538462,4191.794871794872,4446.153846153847,4331.282051282052,3253.333333333334,3927.1794871794878,3600.512820512821,3189.2307692307695,4080.5128205128212,3820.512820512821,4326.666666666667
3151.083,0.46869,0.5310676,0.33333334,0.5522388,0,0.0,0.0,0.0,0.037039477,0.0,0,0,0.0,0.0,0,0,9.0,0.0,5974.0,4526.666666666667,3937.9487179487182,4435.384615384616,4445.641025641026,4193.846153846154,4447.6923076923085,4347.6923076923085,3557.435897435898,4037.435897435898,3852.820512820513,3386.1538461538466,4130.256410256411,3935.3846153846157,4320.000000000001
3151.3333,0.4987171,0.5310676,0.33333334,0.5522388,0,0.0,0.0,0.0,0.0106049515,0.0,0,0,0.0,0.0,0,0,41.0,0.0,0.0,4573.333333333334,3945.1282051282055,4464.102564102564,4445.641025641026,4201.538461538462,4449.743589743591,4375.384615384616,4065.6410256410263,4305.128205128206,4326.666666666667,3832.307692307693,4217.948717948719,4221.025641025642,4381.538461538462
3151.5835,0.4987171,0.5310676,0.33333334,0.5522388,0,0.0,0.0,0.0,0.006925542,0.0,0,0,0.0,0.0,0,0,73.0,0.0,6169.0,4613.333333333334,3948.205128205129,4487.6923076923085,4451.282051282052,4199.48717948718,4456.923076923077,4384.102564102564,4385.641025641026,4387.179487179487,4559.48717948718,4104.615384615385,4268.205128205129,4323.589743589744,4411.282051282052
3151.8337,0.5605741,0.5310676,0.33333334,0.5522388,0,0.0,0.0,0.0,0.0030108124,0.0,0,0,0.0,0.0,0,0,105.0,0.0,765.0,4652.820512820514,3948.717948717949,4503.076923076924,4447.6923076923085,4208.205128205129,4464.615384615385,4393.846153846154,4607.179487179488,4461.025641025642,4707.179487179488,4317.435897435898,4304.102564102564,4426.153846153847,4471.794871794872
3152.0837,0.5605741,0.5310676,0.33333334,0.5522388,0,0.0,0.0,0.0,0.0031191092,0.0,0,0,0.0,0.0,0,0,8.0,0.0,8033.0,4703.076923076924,3948.717948717949,4514.871794871796,4450.769230769231,4212.820512820514,4480.000000000001,4398.974358974359,4657.948717948719,4495.384615384616,4822.051282051282,4494.871794871796,4328.717948717949,4480.000000000001,4493.846153846154
3152.334,0.5224563,0.5310676,0.33333334,0.5522388,0,0.0,0.0,0.0,0.00443766,0.0,0,0,0.0,0.0,0,0,40.0,0.0,0.0,4741.538461538462,3954.8717948717954,4530.256410256411,4454.358974358975,4221.538461538462,4484.615384615385,4413.846153846154,4900.512820512821,4555.8974358974365,4920.000000000001,4685.641025641026,4362.564102564103,4542.564102564103,4532.820512820514
3152.5842,0.5224563,0.5310676,0.33333334,0.5522388,0,0.0,0.0,0.0,0.00584991,0.0,0,0,0.0,0.0,0,0,72.0,0.0,8033.0,4743.076923076924,3949.2307692307695,4535.384615384616,4450.769230769231,4212.820512820514,4483.076923076924,4428.717948717949,4761.025641025642,4508.205128205129,4895.8974358974365,4698.974358974359,4355.8974358974365,4521.538461538462,4513.846153846154
3152.8345,0.55419827,0.5310676,0.33333334,0.5522388,0,0.0,0.0,0.0,0.007377549,0.0,0,0,0.0,0.0,0,0,104.0,0.0,4070.0,4769.2307692307695,3946.1538461538466,4544.102564102564,4443.076923076924,4207.6923076923085,4478.974358974359,4440.000000000001,4903.589743589744,4502.564102564103,4920.000000000001,4693.333333333334,4363.076923076924,4496.410256410257,4529.2307692307695
3153.0847,0.55419827,0.5310676,0.33333334,0.5522388,0,0.0,0.0,0.0,0.0111986175,0.0,0,0,0.0,0.0,0,0,7.0,0.0,5423.0,4731.282051282052,3947.692307692308,4538.461538461539,4446.666666666667,4228.717948717949,4505.641025641026,4446.666666666667,4771.282051282052,4450.256410256411,4871.794871794872,4727.6923076923085,4362.051282051282,4457.435897435898,4504.102564102564
3153.335,0.501581,0.5310676,0.33333334,0.5522388,0,0.0,0.0,0.0,0.011369707,0.0,0,0,0.0,0.0,0,0,39.0,0.0,0.0,4796.923076923077,3951.7948717948725,4562.564102564103,4448.205128205129,4236.923076923077,4516.923076923077,4460.512820512821,5045.128205128206,4577.435897435898,5038.461538461539,4936.410256410257,4400.000000000001,4559.48717948718,4552.307692307693
3153.5852,0.501581,0.5310676,0.33333334,0.5522388,0,0.0,0.0,0.0,0.006906324,0.0,0,0,0.0,0.0,0,0,71.0,0.0,5340.0,4791.794871794872,3942.564102564103,4562.051282051282,4445.128205128206,4231.282051282052,4513.846153846154,4463.589743589744,4939.48717948718,4516.410256410257,4992.820512820514,5015.8974358974365,4404.615384615385,4541.025641025642,4592.820512820514
3153.8354,0.51544863,0.5310676,0.33333334,0.5522388,0,0.0,0.0,0.0,0.010300407,0.0,0,0,0.0,0.0,0,1,103.0,0.0,424.0,4793.333333333334,3944.1025641025644,4559.48717948718,4444.615384615385,4230.256410256411,4515.8974358974365,4469.743589743591,4912.307692307693,4428.205128205129,4889.743589743591,4803.589743589744,4375.8974358974365,4426.153846153847,4561.538461538462
3154.0854,0.51544863,0.5310676,0.33333334,0.5522388,0,0.0,0.0,0.0,0.006778825,0.0,0,0,0.0,0.0,0,0,6.0,0.0,308.0,4780.512820512821,3945.6410256410263,4543.076923076924,4446.153846153847,4235.8974358974365,4523.589743589744,4460.000000000001,4663.076923076924,4302.051282051282,4698.974358974359,4597.948717948719,4333.846153846154,4294.358974358975,4509.2307692307695
3154.3357,0.5235735,0.5310676,0.33333334,0.5522388,0,0.0,0.0,0.0,0.0042798487,0.0,0,0,0.0,0.0,0,0,38.0,0.0,0.0,4728.205128205129,3947.692307692308,4529.2307692307695,4445.128205128206,4234.871794871796,4524.615384615385,4434.358974358975,4419.48717948718,4175.384615384616,4429.743589743591,4291.794871794872,4277.948717948719,4168.205128205129,4451.282051282052
3154.586,0.5235735,0.5310676,0.33333334,0.5522388,0,0.0,0.0,0.0,0.0036403635,0.0,0,0,0.0,0.0,0,0,70.0,0.0,308.0,4721.538461538462,3938.9743589743593,4518.974358974359,4438.974358974359,4233.846153846154,4527.6923076923085,4439.48717948718,4367.6923076923085,4196.923076923077,4410.769230769231,4243.076923076924,4272.820512820514,4156.923076923077,4435.8974358974365
3154.8362,0.4603152,0.5310676,0.33333334,0.5522388,0,0.0,0.0,0.0,0.0037074909,0.0,0,0,0.0,0.0,0,0,102.0,0.0,8033.0,4704.615384615386,3943.589743589744,4527.179487179488,4443.589743589744,4241.538461538462,4531.282051282052,4459.48717948718,4354.358974358975,4200.512820512821,4388.717948717949,4267.6923076923085,4275.384615384616,4173.846153846154,4418.974358974359
3155.0864,0.4603152,0.5310676,0.33333334,0.5522388,0,0.0,0.0,0.0,0.0034576475,0.0,0,0,0.0,0.0,0,0,5.0,0.0,415.0,4671.282051282052,3940.0000000000005,4498.461538461539,4438.461538461539,4241.025641025642,4533.333333333334,4464.615384615385,4191.794871794872,4173.846153846154,4274.358974358975,4110.769230769231,4246.153846153847,4133.846153846154,4413.846153846154
3155.3367,0.3699715,0.5310676,0.33333334,0.5522388,0,0.0,0.0,0.0,0.004539855,0.0,0,0,0.0,0.0,0,0,37.0,0.0,0.0,4671.794871794872,3943.076923076924,4505.641025641026,4439.48717948718,4242.564102564103,4540.000000000001,4448.205128205129,4229.74358974359,4205.128205128206,4283.076923076924,4180.000000000001,4253.333333333334,4158.974358974359,4415.8974358974365
3155.587,0.3699715,0.5310676,0.33333334,0.5522388,0,0.0,0.0,0.0,0.0035029836,0.0,0,0,0.0,0.0,0,0,69.0,0.0,415.0,4710.769230769231,3942.564102564103,4518.974358974359,4444.615384615385,4246.666666666667,4547.179487179488,4475.8974358974365,4421.025641025642,4320.000000000001,4489.743589743591,4443.589743589744,4300.512820512821,4272.307692307693,4470.769230769231
3155.8372,0.3612463,0.5310676,0.33333334,0.5522388,0,0.0,0.0,0.0,0.0037990743,0.0,0,0,0.0,0.0,0,0,101.0,0.0,751.0,4681.538461538462,3946.666666666667,4507.6923076923085,4444.102564102564,4252.820512820514,4554.358974358975,4467.6923076923085,4283.076923076924,4295.8974358974365,4390.256410256411,4361.538461538462,4283.076923076924,4238.461538461539,4470.769230769231
3156.0872,0.3612463,0.5310676,0.33333334,0.5522388,0,0.0,0.0,0.0,0.004857884,0.0,0,0,0.0,0.0,0,0,4.0,0.0,419.0,4665.128205128206,3941.538461538462,4507.6923076923085,4444.615384615385,4254.358974358975,4553.846153846154,4471.794871794872,4292.307692307693,4247.6923076923085,4363.589743589744,4384.102564102564,4282.564102564103,4212.307692307693,4495.8974358974365
3156.3374,0.28957477,0.5310676,0.33333334,0.5522388,0,0.0,0.0,0.0,0.004114075,0.0,0,0,0.0,0.0,0,0,36.0,0.0,0.0,4653.333333333334,3942.0512820512827,4492.307692307693,4442.564102564103,4253.333333333334,4554.358974358975,4458.974358974359,4146.666666666667,4257.435897435898,4263.076923076924,4262.051282051282,4263.589743589744,4192.820512820514,4510.769230769231
3156.5876,0.28957477,0.5310676,0.33333334,0.5522388,0,0.0,0.0,0.0,0.0040664505,0.0,0,0,0.0,0.0,0,0,68.0,0.0,419.0,4667.179487179488,3939.48717948718,4488.205128205129,4440.512820512821,4252.820512820514,4551.794871794872,4438.461538461539,4222.564102564103,4218.974358974359,4287.179487179487,4342.564102564103,4281.025641025642,4175.8974358974365,4541.538461538462
3156.838,0.26569146,0.5310676,0.33333334,0.5522388,0,0.0,0.0,0.0,0.0036215838,0.0,0,0,0.0,0.0,0,0,100.0,0.0,4010.0,4637.948717948719,3939.48717948718,4497.948717948719,4445.128205128206,4258.461538461539,4557.948717948719,4462.051282051282,4116.923076923077,4262.051282051282,4266.666666666667,4256.923076923077,4263.589743589744,4196.923076923077,4489.2307692307695
3157.0881,0.26569146,0.5310676,0.33333334,0.5522388,0,0.0,0.0,0.0,0.0035553174,0.0,0,0,0.0,0.0,0,0,3.0,0.0,399.0,4594.358974358975,3925.6410256410263,4464.102564102564,4433.333333333334,4250.256410256411,4554.358974358975,4424.615384615385,3697.9487179487182,4048.717948717949,3867.692307692308,3893.333333333334,4192.820512820514,3977.435897435898,4435.384615384616
3157.3384,0.28839615,0.5310676,0.33333334,0.5522388,0,0.0,0.0,0.0,0.003971844,0.0,0,0,0.0,0.0,0,0,35.0,0.0,0.0,4572.307692307693,3929.7435897435903,4451.794871794872,4438.461538461539,4252.820512820514,4556.410256410257,4426.666666666667,3767.1794871794878,4065.6410256410263,3915.8974358974365,3835.3846153846157,4191.282051282052,3996.410256410257,4425.128205128206
3157.5886,0.28839615,0.5310676,0.33333334,0.5522388,0,0.0,0.0,0.0,0.0049059973,0.0,0,0,0.0,0.0,0,0,67.0,0.0,399.0,4617.435897435898,3937.9487179487182,4476.923076923077,4441.538461538462,4256.923076923077,4567.179487179488,4427.6923076923085,3946.666666666667,4211.282051282052,4118.974358974359,4123.076923076924,4238.974358974359,4136.410256410257,4460.512820512821
3157.8389,0.2947532,0.5310676,0.33333334,0.5522388,0,0.0,0.0,0.0,0.0041532777,0.0,0,0,0.0,0.0,0,0,99.0,0.0,429.0,4664.102564102564,3936.410256410257,4511.794871794872,4442.051282051282,4243.076923076924,4557.948717948719,4446.153846153847,4164.615384615385,4330.769230769231,4374.358974358975,4435.384615384616,4297.435897435898,4256.410256410257,4530.256410256411
3158.089,0.2947532,0.5310676,0.33333334,0.5522388,0,0.0,0.0,0.0,0.0040066685,0.0,0,0,0.0,0.0,0,0,2.0,0.0,426.0,4651.794871794872,3933.333333333334,4489.743589743591,4443.076923076924,4240.000000000001,4552.820512820514,4425.641025641026,4017.9487179487182,4187.6923076923085,4163.589743589744,4276.923076923077,4265.128205128206,4122.564102564103,4542.051282051282
3158.339,0.2617832,0.5310676,0.33333334,0.5522388,0,0.0,0.0,0.0,0.0066147028,0.0,0,0,0.0,0.0,0,0,34.0,0.0,0.0,4591.282051282052,3923.076923076924,4450.769230769231,4437.435897435898,4239.48717948718,4557.435897435898,4377.435897435898,3665.6410256410263,4001.0256410256416,3824.615384615385,3835.8974358974365,4186.666666666667,3955.8974358974365,4495.8974358974365
3158.5894,0.2617832,0.5310676,0.33333334,0.5522388,0,0.0,0.0,0.0,0.004946484,0.0,0,0,0.0,0.0,0,0,66.0,0.0,426.0,4556.410256410257,3910.2564102564106,4422.051282051282,4427.6923076923085,4225.641025641026,4546.153846153847,4362.564102564103,3432.820512820513,3900.5128205128212,3668.205128205129,3575.3846153846157,4135.8974358974365,3852.307692307693,4434.871794871796
3158.8396,0.3194003,0.5310676,0.33333334,0.5522388,0,0.0,0.0,0.0,0.005500507,0.0,0,0,0.0,0.0,0,0,98.0,0.0,8033.0,4606.153846153847,3926.1538461538466,4462.051282051282,4445.128205128206,4243.076923076924,4561.025641025642,4369.2307692307695,3882.564102564103,4199.48717948718,4105.641025641026,4101.025641025642,4236.923076923077,4128.205128205129,4505.641025641026
3159.0898,0.3194003,0.5310676,0.33333334,0.5522388,0,0.0,0.0,0.0,0.004562185,0.0,0,0,0.0,0.0,0,0,1.0,0.0,328.0,4630.256410256411,3932.307692307693,4480.512820512821,4442.051282051282,4242.051282051282,4558.461538461539,4370.769230769231,4035.8974358974365,4288.205128205129,4248.205128205129,4289.74358974359,4271.794871794872,4218.974358974359,4540.512820512821
3159.34,0.36387864,0.5310676,0.33333334,0.5522388,0,0.0,0.0,0.0,0.0055558616,0.0,0,0,0.0,0.0,0,0,33.0,0.0,0.0,4668.717948717949,3937.9487179487182,4501.025641025642,4447.179487179487,4244.102564102564,4555.384615384616,4403.076923076924,4363.589743589744,4354.871794871796,4513.333333333334,4561.538461538462,4325.128205128206,4324.615384615385,4553.846153846154
3159.5903,0.36387864,0.5310676,0.33333334,0.5522388,0,0.0,0.0,0.0,0.005668165,0.0,0,0,0.0,0.0,0,0,65.0,0.0,328.0,4689.743589743591,3941.0256410256416,4512.820512820514,4447.179487179487,4251.794871794872,4561.025641025642,4421.025641025642,4449.743589743591,4393.333333333334,4589.2307692307695,4654.871794871796,4349.743589743591,4349.743589743591,4584.615384615385
3159.8406,0.384727,0.5310676,0.33333334,0.5522388,0,0.0,0.0,0.0,0.0059260554,0.0,0,0,0.0,0.0,0,0,97.0,0.0,773.0,4746.153846153847,3954.358974358975,4531.794871794872,4459.48717948718,4256.923076923077,4563.076923076924,4449.2307692307695,4704.102564102564,4368.717948717949,4750.769230769231,4827.6923076923085,4389.743589743591,4374.871794871796,4586.666666666667
3160.0986,0.384727,0.5310676,0.33333334,0.5522388,0,0.0,0.0,0.0,0.0082499795,0.0,0,0,0.0,0.0,0,0,0.0,0.0,484.0,4727.179487179488,3953.8461538461543,4524.615384615385,4455.384615384616,4261.538461538462,4569.2307692307695,4453.333333333334,4396.410256410257,4315.384615384616,4534.358974358975,4647.6923076923085,4344.102564102564,4288.205128205129,4542.051282051282
3160.3486,0.3869601,0.5310676,0.33333334,0.5522388,0,0.0,0.0,0.0,0.007845429,0.0,0,0,0.0,0.0,0,0,32.0,0.0,0.0,4812.307692307693,3955.3846153846157,4548.717948717949,4459.48717948718,4268.717948717949,4570.769230769231,4469.2307692307695,4755.384615384616,4348.205128205129,4784.102564102564,4843.589743589744,4393.333333333334,4354.871794871796,4546.666666666667
3160.5989,0.3869601,0.5310676,0.33333334,0.5522388,0,0.0,0.0,0.0,0.008989797,0.0,0,0,0.0,0.0,0,0,64.0,0.0,484.0,4782.051282051282,3953.8461538461543,4534.871794871796,4456.410256410257,4266.666666666667,4569.2307692307695,4459.48717948718,4396.923076923077,4227.179487179487,4525.128205128206,4665.128205128206,4340.000000000001,4220.512820512821,4535.8974358974365
3160.849,0.40665597,0.5310676,0.33333334,0.5522388,0,0.0,0.0,0.0,0.008513943,0.0,0,0,0.0,0.0,0,0,96.0,0.0,4104.0,4775.8974358974365,3943.589743589744,4525.128205128206,4450.769230769231,4261.538461538462,4560.512820512821,4445.641025641026,4395.8974358974365,4169.74358974359,4466.153846153847,4544.102564102564,4323.076923076924,4142.051282051282,4548.205128205129
3161.0994,0.40665597,0.5310676,0.33333334,0.5522388,0,0.0,0.0,0.0,0.005657346,0.0,0,0,0.0,0.0,0,0,128.0,0.0,4104.0,4781.025641025642,3945.6410256410263,4532.820512820514,4452.307692307693,4258.974358974359,4558.974358974359,4447.6923076923085,4375.384615384616,4210.769230769231,4496.923076923077,4646.153846153847,4336.923076923077,4198.974358974359,4570.256410256411
3161.3496,0.40210772,0.5310676,0.33333334,0.5522388,0,0.0,0.0,0.0,0.004987219,0.0,0,0,0.0,0.0,0,0,31.0,0.0,0.0,4755.384615384616,3942.564102564103,4526.153846153847,4445.641025641026,4254.358974358975,4554.871794871796,4452.820512820514,4373.846153846154,4152.307692307693,4438.461538461539,4504.615384615385,4321.538461538462,4120.512820512821,4561.025641025642
3161.5999,0.40210772,0.5310676,0.33333334,0.5522388,0,0.0,0.0,0.0,0.006125744,0.0,0,0,0.0,0.0,0,0,63.0,0.0,0.0,4742.564102564103,3944.1025641025644,4526.153846153847,4445.641025641026,4257.948717948719,4555.8974358974365,4462.051282051282,4352.307692307693,4158.461538461539,4465.128205128206,4568.717948717949,4324.615384615385,4150.769230769231,4577.948717948719
3161.85,0.37159878,0.5310676,0.33333334,0.5522388,0,0.0,0.0,0.0,0.006891467,0.0,0,0,0.0,0.0,0,0,95.0,0.0,417.0,4785.641025641026,3944.615384615385,4547.6923076923085,4444.615384615385,4255.8974358974365,4555.8974358974365,4484.615384615385,4695.8974358974365,4278.461538461539,4707.6923076923085,4734.358974358975,4370.256410256411,4255.8974358974365,4611.282051282052
3162.1003,0.37159878,0.5310676,0.33333334,0.5522388,0,0.0,0.0,0.0,0.0073177433,0.0,0,0,0.0,0.0,0,0,127.0,0.0,417.0,4770.256410256411,3961.0256410256416,4538.974358974359,4447.6923076923085,4254.871794871796,4549.2307692307695,4473.333333333334,4524.102564102564,4215.384615384616,4598.461538461539,4681.538461538462,4345.641025641026,4207.6923076923085,4621.538461538462
3162.3506,0.3667135,0.5310676,0.33333334,0.5522388,0,0.0,0.0,0.0,0.0072518378,0.0,0,0,0.0,0.0,0,0,30.0,0.0,0.0,4775.384615384616,3965.6410256410263,4531.282051282052,4452.820512820514,4254.358974358975,4550.256410256411,4477.948717948719,4582.564102564103,4216.923076923077,4610.256410256411,4606.666666666667,4344.615384615385,4203.076923076924,4620.512820512821
3162.6006,0.3667135,0.5310676,0.33333334,0.5522388,0,0.0,0.0,0.0,0.0068449304,0.0,0,0,0.0,0.0,0,0,62.0,0.0,0.0,4789.743589743591,3962.0512820512827,4557.435897435898,4455.8974358974365,4265.128205128206,4560.000000000001,4495.8974358974365,4739.48717948718,4315.8974358974365,4811.794871794872,4907.179487179488,4397.948717948719,4324.102564102564,4678.461538461539
3162.8508,0.35646436,0.5310676,0.33333334,0.5522388,0,0.0,0.0,0.0,0.008344334,0.0,0,0,0.0,0.0,0,0,94.0,0.0,8033.0,4734.358974358975,3945.1282051282055,4528.717948717949,4443.076923076924,4251.282051282052,4548.205128205129,4489.743589743591,4467.179487179487,4111.282051282052,4486.153846153847,4472.820512820514,4311.794871794872,4091.7948717948725,4640.000000000001
3163.0933,0.35646436,0.5310676,0.33333334,0.5522388,0,0.0,0.0,0.0,0.0069513093,0.0,0,0,0.0,0.0,0,0,126.0,0.0,8033.0,4769.2307692307695,3958.461538461539,4538.974358974359,4451.794871794872,4256.410256410257,4559.48717948718,4492.820512820514,4638.461538461539,4256.410256410257,4707.6923076923085,4751.794871794872,4360.512820512821,4232.820512820514,4681.025641025642
3163.3513,0.39619172,0.5310676,0.33333334,0.5522388,0,0.0,0.0,0.0,0.005574614,0.0,0,0,0.0,0.0,0,0,29.0,0.0,0.0,4764.615384615386,3950.7692307692314,4527.6923076923085,4450.769230769231,4254.871794871796,4555.8974358974365,4473.333333333334,4536.923076923077,4153.846153846154,4558.974358974359,4562.051282051282,4327.6923076923085,4145.641025641026,4648.717948717949
3163.6016,0.39619172,0.5310676,0.33333334,0.5522388,0,0.0,0.0,0.0,0.007917716,0.0,0,0,0.0,0.0,0,0,61.0,0.0,0.0,4716.923076923077,3935.3846153846157,4503.076923076924,4436.410256410257,4236.410256410257,4535.384615384616,4460.512820512821,4376.923076923077,4090.7692307692314,4430.769230769231,4327.179487179487,4287.6923076923085,4063.589743589744,4694.871794871796
3163.8518,0.3853914,0.5310676,0.33333334,0.5522388,0,0.0,0.0,0.0,0.006359339,0.0,0,0,0.0,0.0,0,0,93.0,0.0,807.0,4738.974358974359,3965.6410256410263,4541.538461538462,4464.102564102564,4270.769230769231,4568.717948717949,4477.435897435898,4695.8974358974365,4315.8974358974365,4738.461538461539,4742.051282051282,4365.128205128206,4301.025641025642,4714.358974358975
3164.102,0.3853914,0.5310676,0.33333334,0.5522388,0,0.0,0.0,0.0,0.013345052,0.0,0,0,0.0,0.0,0,0,125.0,0.0,807.0,4706.666666666667,3943.589743589744,4506.153846153847,4448.717948717949,4255.384615384616,4554.358974358975,4474.358974358975,4417.948717948719,4085.1282051282055,4457.435897435898,4333.333333333334,4287.6923076923085,4054.8717948717954,4673.333333333334
3164.3523,0.37153035,0.5310676,0.33333334,0.5522388,0,0.0,0.0,0.0,0.011361685,0.0,0,0,0.0,0.0,0,0,28.0,0.0,0.0,4702.051282051282,3933.8461538461543,4497.948717948719,4442.051282051282,4247.6923076923085,4543.076923076924,4480.512820512821,4405.641025641026,4066.666666666667,4417.435897435898,4284.615384615385,4277.435897435898,4051.2820512820517,4677.948717948719
3164.6023,0.37153035,0.5310676,0.33333334,0.5522388,0,0.0,0.0,0.0,0.0038399692,0.0,0,0,0.0,0.0,0,0,60.0,0.0,0.0,4718.974358974359,3943.589743589744,4504.615384615385,4450.256410256411,4253.333333333334,4554.871794871796,4477.948717948719,4464.615384615385,4171.282051282052,4499.48717948718,4307.179487179487,4284.102564102564,4121.025641025642,4661.025641025642
3164.8525,0.3346676,0.5310676,0.33333334,0.5522388,0,0.0,0.0,0.0,0.0045630336,0.0,0,0,0.0,0.0,0,0,92.0,0.0,4156.0,4697.435897435898,3942.0512820512827,4500.000000000001,4449.2307692307695,4250.769230769231,4547.179487179488,4452.307692307693,4253.846153846154,4019.48717948718,4263.589743589744,4049.7435897435903,4240.000000000001,3991.2820512820517,4562.051282051282
3165.1028,0.3346676,0.5310676,0.33333334,0.5522388,0,0.0,0.0,0.0,0.0045968266,0.0,0,0,0.0,0.0,0,0,124.0,0.0,4156.0,4639.48717948718,3940.0000000000005,4461.025641025642,4448.717948717949,4256.410256410257,4549.2307692307695,4426.153846153847,3818.9743589743593,3955.3846153846157,3951.7948717948725,3772.307692307693,4172.820512820514,3908.205128205129,4495.8974358974365
3165.353,0.35758457,0.5310676,0.33333334,0.5522388,0,0.0,0.0,0.0,0.0053262548,0.0,0,0,0.0,0.0,0,0,27.0,0.0,0.0,4612.307692307693,3935.8974358974365,4440.000000000001,4444.102564102564,4238.974358974359,4524.102564102564,4407.179487179487,3676.9230769230776,3898.461538461539,3807.692307692308,3508.205128205129,4121.025641025642,3805.6410256410263,4422.051282051282
3165.6033,0.35758457,0.5310676,0.33333334,0.5522388,0,0.0,0.0,0.0,0.013218913,0.0,0,0,0.0,0.0,0,0,59.0,0.0,0.0,4578.461538461539,3934.358974358975,4431.282051282052,4443.076923076924,4232.820512820514,4518.974358974359,4231.794871794872,3271.794871794872,3848.205128205129,3481.538461538462,3282.564102564103,4061.538461538462,3762.0512820512827,4431.794871794872
3165.8535,0.37100813,0.5310676,0.33333334,0.5522388,0,0.0,0.0,0.0,0.011840276,0.0,0,0,0.0,0.0,0,0,91.0,0.0,412.0,4613.333333333334,3938.461538461539,4454.358974358975,4445.641025641026,4241.538461538462,4527.6923076923085,4259.48717948718,3964.1025641025644,4157.948717948719,4091.7948717948725,3669.7435897435903,4158.461538461539,4072.307692307693,4460.512820512821
3166.1038,0.37100813,0.5310676,0.33333334,0.5522388,0,0.0,0.0,0.0,0.0152722085,0.0,0,0,0.0,0.0,0,0,123.0,0.0,412.0,4632.820512820514,3945.6410256410263,4485.128205128206,4457.948717948719,4249.2307692307695,4540.512820512821,4309.2307692307695,4263.589743589744,4333.846153846154,4493.333333333334,4054.8717948717954,4233.333333333334,4271.282051282052,4451.794871794872
3166.354,0.49587727,0.5310676,0.33333334,0.5522388,0,0.0,0.0,0.0,0.0076309927,0.0,0,0,0.0,0.0,0,0,26.0,0.0,0.0,4599.48717948718,3943.076923076924,4453.333333333334,4448.205128205129,4244.615384615385,4531.282051282052,4310.769230769231,4005.6410256410263,4182.051282051282,4194.358974358975,3728.717948717949,4169.74358974359,4100.512820512821,4372.820512820514
3166.6042,0.49587727,0.5310676,0.33333334,0.5522388,0,0.0,0.0,0.0,0.007756646,0.0,0,0,0.0,0.0,0,0,58.0,0.0,0.0,4656.923076923077,3946.1538461538466,4496.410256410257,4452.307692307693,4254.871794871796,4545.128205128206,4354.871794871796,4502.564102564103,4470.256410256411,4722.564102564103,4281.538461538462,4281.025641025642,4412.820512820514,4445.641025641026
3166.8542,0.5530447,0.5310676,0.33333334,0.5522388,0,0.0,0.0,0.0,0.0063264407,0.0,0,0,0.0,0.0,0,0,90.0,0.0,8033.0,4665.128205128206,3945.6410256410263,4499.48717948718,4454.358974358975,4250.256410256411,4545.128205128206,4385.641025641026,4534.358974358975,4469.743589743591,4693.846153846154,4424.102564102564,4298.461538461539,4437.948717948719,4450.256410256411
3167.1045,0.5530447,0.5310676,0.33333334,0.5522388,0,0.0,0.0,0.0,0.004441902,0.0,0,0,0.0,0.0,0,0,122.0,0.0,8033.0,4694.358974358975,3948.205128205129,4505.128205128206,4455.384615384616,4254.871794871796,4548.205128205129,4391.282051282052,4585.641025641026,4460.000000000001,4775.384615384616,4426.153846153847,4306.666666666667,4416.410256410257,4446.153846153847
3167.3547,0.5249732,0.5310676,0.33333334,0.5522388,0,0.0,0.0,0.0,0.0047832415,0.0,0,0,0.0,0.0,0,0,25.0,0.0,0.0,4676.410256410257,3942.564102564103,4488.717948717949,4449.2307692307695,4256.923076923077,4548.717948717949,4395.8974358974365,4463.589743589744,4388.717948717949,4624.615384615385,4351.794871794872,4277.948717948719,4359.48717948718,4430.769230769231
3167.605,0.5249732,0.5310676,0.33333334,0.5522388,0,0.0,0.0,0.0,0.005042769,0.0,0,0,0.0,0.0,0,0,57.0,0.0,0.0,4658.974358974359,3935.8974358974365,4471.282051282052,4445.641025641026,4247.6923076923085,4539.48717948718,4410.769230769231,4215.384615384616,4258.974358974359,4405.641025641026,4147.6923076923085,4242.564102564103,4228.205128205129,4400.000000000001
3167.8552,0.4974333,0.5310676,0.33333334,0.5522388,0,0.0,0.0,0.0,0.0043544834,0.0,0,0,0.0,0.0,0,0,89.0,0.0,813.0,4692.820512820514,3938.9743589743593,4494.871794871796,4445.128205128206,4241.538461538462,4532.307692307693,4434.358974358975,4442.564102564103,4404.615384615385,4606.666666666667,4400.000000000001,4291.794871794872,4365.128205128206,4461.025641025642
3168.1055,0.4974333,0.5310676,0.33333334,0.5522388,0,0.0,0.0,0.0,0.0053697885,0.0,0,0,0.0,0.0,0,0,121.0,0.0,813.0,4725.641025641026,3943.076923076924,4517.948717948719,4445.128205128206,4243.076923076924,4540.000000000001,4460.512820512821,4622.564102564103,4487.6923076923085,4821.538461538462,4700.512820512821,4348.205128205129,4484.615384615385,4511.282051282052
3168.3557,0.4795113,0.5310676,0.33333334,0.5522388,0,0.0,0.0,0.0,0.0068384064,0.0,0,0,0.0,0.0,0,0,24.0,0.0,0.0,4709.743589743591,3940.5128205128212,4508.717948717949,4442.051282051282,4244.102564102564,4538.974358974359,4457.435897435898,4595.384615384616,4406.666666666667,4746.153846153847,4625.641025641026,4338.461538461539,4390.256410256411,4539.48717948718
3168.606,0.4795113,0.5310676,0.33333334,0.5522388,0,0.0,0.0,0.0,0.0075451387,0.0,0,0,0.0,0.0,0,0,56.0,0.0,0.0,4696.410256410257,3931.2820512820517,4482.564102564103,4435.384615384616,4237.435897435898,4532.307692307693,4450.256410256411,4272.307692307693,4292.307692307693,4438.461538461539,4386.153846153847,4282.564102564103,4286.153846153847,4542.051282051282
3168.856,0.46715382,0.5310676,0.33333334,0.5522388,0,0.0,0.0,0.0,0.008324522,0.0,0,0,0.0,0.0,0,0,88.0,0.0,4238.0,4660.000000000001,3933.333333333334,4470.256410256411,4445.128205128206,4262.051282051282,4553.333333333334,4430.256410256411,4259.48717948718,4203.076923076924,4431.282051282052,4325.641025641026,4272.307692307693,4209.2307692307695,4547.6923076923085
3169.1062,0.46715382,0.5310676,0.33333334,0.5522388,0,0.0,0.0,0.0,0.0053083017,0.0,0,0,0.0,0.0,0,0,120.0,0.0,4238.0,4644.102564102564,3927.1794871794878,4442.051282051282,4436.923076923077,4254.871794871796,4544.102564102564,4398.461538461539,3912.307692307693,4078.9743589743593,4057.9487179487182,3970.2564102564106,4204.102564102564,4044.615384615385,4482.051282051282
3169.3564,0.39894792,0.5310676,0.33333334,0.5522388,0,0.0,0.0,0.0,0.004265254,0.0,0,0,0.0,0.0,0,0,23.0,0.0,0.0,4609.2307692307695,3921.538461538462,4444.102564102564,4441.538461538462,4252.820512820514,4551.794871794872,4404.615384615385,3771.2820512820517,4037.9487179487182,3967.692307692308,3948.205128205129,4192.820512820514,3993.333333333334,4468.717948717949
3169.6067,0.39894792,0.5310676,0.33333334,0.5522388,0,0.0,0.0,0.0,0.0059784157,0.0,0,0,0.0,0.0,0,0,55.0,0.0,0.0,4643.589743589744,3931.2820512820517,4458.461538461539,4447.179487179487,4260.000000000001,4555.8974358974365,4409.2307692307695,3913.333333333334,4156.410256410257,4086.666666666667,3986.1538461538466,4211.794871794872,4098.974358974359,4413.333333333334
3169.857,0.35803205,0.5310676,0.33333334,0.5522388,0,0.0,0.0,0.0,0.0059784804,0.0,0,0,0.0,0.0,0,0,87.0,0.0,414.0,4690.769230769231,3934.358974358975,4482.564102564103,4445.641025641026,4250.256410256411,4553.333333333334,4422.564102564103,4125.641025641026,4249.74358974359,4344.102564102564,4277.435897435898,4270.256410256411,4211.794871794872,4448.205128205129
3170.1072,0.35803205,0.5310676,0.33333334,0.5522388,0,0.0,0.0,0.0,0.0048614037,0.0,0,0,0.0,0.0,0,0,119.0,0.0,414.0,4688.717948717949,3930.7692307692314,4483.076923076924,4445.641025641026,4244.615384615385,4551.282051282052,4443.589743589744,4149.74358974359,4321.538461538462,4378.974358974359,4401.025641025642,4286.153846153847,4265.641025641026,4486.153846153847
3170.3574,0.32474318,0.5310676,0.33333334,0.5522388,0,0.0,0.0,0.0,0.004554868,0.0,0,0,0.0,0.0,0,0,22.0,0.0,0.0,4726.666666666667,3935.8974358974365,4498.974358974359,4445.128205128206,4246.153846153847,4548.205128205129,4443.589743589744,4367.179487179487,4316.410256410257,4514.358974358975,4500.000000000001,4318.974358974359,4286.666666666667,4537.435897435898
3170.6077,0.32474318,0.5310676,0.33333334,0.5522388,0,0.0,0.0,0.0,0.007195648,0.0,0,0,0.0,0.0,0,0,54.0,0.0,0.0,4704.615384615386,3918.461538461539,4486.666666666667,4438.974358974359,4234.358974358975,4531.282051282052,4444.102564102564,4132.307692307693,4237.435897435898,4342.564102564103,4413.333333333334,4286.666666666667,4193.846153846154,4562.051282051282
3170.8577,0.3151741,0.5310676,0.33333334,0.5522388,0,0.0,0.0,0.0,0.0060409745,0.0,0,0,0.0,0.0,0,0,86.0,0.0,8033.0,4686.153846153847,3923.589743589744,4491.794871794872,4438.974358974359,4231.794871794872,4535.384615384616,4465.641025641026,4232.307692307693,4239.48717948718,4377.435897435898,4424.615384615385,4296.410256410257,4196.410256410257,4602.564102564103
3171.108,0.3151741,0.5310676,0.33333334,0.5522388,0,0.0,0.0,0.0,0.0047893994,0.0,0,0,0.0,0.0,0,0,118.0,0.0,8033.0,4709.2307692307695,3926.1538461538466,4492.307692307693,4437.948717948719,4234.358974358975,4532.820512820514,4474.358974358975,4166.153846153847,4212.820512820514,4363.589743589744,4482.051282051282,4296.410256410257,4174.871794871796,4587.6923076923085
3171.3582,0.31251857,0.5310676,0.33333334,0.5522388,0,0.0,0.0,0.0,0.004493111,0.0,0,0,0.0,0.0,0,0,21.0,0.0,0.0,4724.102564102564,3937.435897435898,4504.615384615385,4443.589743589744,4241.538461538462,4536.410256410257,4474.871794871796,4403.076923076924,4308.717948717949,4502.564102564103,4609.2307692307695,4326.666666666667,4286.153846153847,4646.153846153847
3171.6084,0.31251857,0.5310676,0.33333334,0.5522388,0,0.0,0.0,0.0,0.005263145,0.0,0,0,0.0,0.0,0,0,53.0,0.0,0.0,4707.6923076923085,3937.435897435898,4494.358974358975,4448.205128205129,4237.948717948719,4532.820512820514,4474.358974358975,4083.589743589744,4149.2307692307695,4264.102564102564,4433.333333333334,4287.6923076923085,4117.948717948719,4605.641025641026
3171.8586,0.32285175,0.5310676,0.33333334,0.5522388,0,0.0,0.0,0.0,0.005384329,0.0,0,0,0.0,0.0,0,0,85.0,0.0,777.0,4694.871794871796,3933.8461538461543,4465.128205128206,4442.051282051282,4228.717948717949,4531.794871794872,4466.666666666667,3842.564102564103,4041.0256410256416,4027.1794871794878,4157.435897435898,4230.769230769231,4011.2820512820517,4533.333333333334
3172.109,0.32285175,0.5310676,0.33333334,0.5522388,0,0.0,0.0,0.0,0.0041713994,0.0,0,0,0.0,0.0,0,0,117.0,0.0,777.0,4706.666666666667,3943.589743589744,4482.051282051282,4460.512820512821,4250.256410256411,4546.153846153847,4487.6923076923085,4005.1282051282055,4129.2307692307695,4188.717948717949,4343.589743589744,4268.205128205129,4076.410256410257,4511.282051282052
