timestamp,excitement,frustration,meditation,engagementBoredom,blink,clench,laugh,smile,eyebrow,furrowBrow,lookLeft,lookRight,smirkLeft,smirkRight,winkLeft,winkRight,eeg0,eeg1,eeg2,eeg3,eeg4,eeg5,eeg6,eeg7,eeg8,eeg9,eeg10,eeg11,eeg12,eeg13,eeg14,eeg15,eeg16
4985.1904,0.9405428,0.9042349,0.33333334,0.5522388,0,0.0,0.37721935,0.0,0.0,0.0,0,0,0.0,0.0,0,0,34.0,0.0,0.0,4524.102564102564,3890.7692307692314,4496.410256410257,4246.153846153847,4279.48717948718,4597.948717948719,4127.6923076923085,4144.615384615385,3987.1794871794878,4280.000000000001,3976.410256410257,4206.153846153847,3795.3846153846157,4377.948717948719
4985.3467,0.91193545,0.8886712,0.33333334,0.5522388,0,0.0,1.0,0.0,0.0,0.0,0,0,0.0,0.0,0,0,58.0,0.0,0.0,4526.153846153847,3879.48717948718,4508.205128205129,4246.666666666667,4274.871794871796,4590.256410256411,4184.102564102564,4174.871794871796,4163.589743589744,4421.025641025642,4014.8717948717954,4216.410256410257,3921.538461538462,4387.6923076923085
4985.3467,0.91193545,0.8886712,0.33333334,0.5522388,0,0.0,1.0,0.0,0.0,0.0,0,0,0.0,0.0,0,0,58.0,0.0,0.0,4526.153846153847,3879.48717948718,4508.205128205129,4246.666666666667,4274.871794871796,4590.256410256411,4184.102564102564,4174.871794871796,4163.589743589744,4421.025641025642,4014.8717948717954,4216.410256410257,3921.538461538462,4387.6923076923085
4985.9097,0.827686,0.8746639,0.33333334,0.5522388,0,0.0,1.0,0.0,0.0,0.0,0,0,0.0,0.0,0,1,1.0,0.0,468.0,4603.076923076924,3897.435897435898,4522.051282051282,4264.615384615385,4244.615384615385,4561.538461538462,4314.871794871796,4309.743589743591,4879.48717948718,4998.974358974359,4166.153846153847,4266.153846153847,4346.666666666667,4518.461538461539
4985.9097,0.827686,0.8746639,0.33333334,0.5522388,0,0.0,1.0,0.0,0.0,0.0,0,0,0.0,0.0,0,1,1.0,0.0,468.0,4603.076923076924,3897.435897435898,4522.051282051282,4264.615384615385,4244.615384615385,4561.538461538462,4314.871794871796,4309.743589743591,4879.48717948718,4998.974358974359,4166.153846153847,4266.153846153847,4346.666666666667,4518.461538461539
4986.4414,0.80736566,0.8620573,0.33333334,0.5522388,0,0.0,0.8711242,0.0,0.0,0.0,0,0,0.0,0.0,0,0,66.0,0.0,468.0,4574.871794871796,3909.7435897435903,4511.794871794872,4278.461538461539,4215.8974358974365,4509.2307692307695,4369.743589743591,4295.384615384616,4595.8974358974365,4835.384615384616,4170.256410256411,4250.769230769231,4221.025641025642,4490.256410256411
4986.5664,0.80736566,0.8620573,0.33333334,0.5522388,0,0.0,0.8213256,0.0,0.0,0.0,0,0,0.0,0.0,0,0,85.0,0.0,298.0,4540.000000000001,3900.0000000000005,4516.410256410257,4279.48717948718,4218.974358974359,4506.153846153847,4388.717948717949,4286.153846153847,4450.769230769231,4750.256410256411,4165.641025641026,4241.538461538462,4172.820512820514,4473.333333333334
4986.942,0.76632947,0.8507114,0.33333334,0.5522388,0,0.0,1.0,0.0,0.0,0.0,0,0,0.0,0.0,0,0,4.0,0.0,581.0,4557.435897435898,3892.307692307693,4510.769230769231,4294.871794871796,4215.384615384616,4490.256410256411,4433.333333333334,4311.282051282052,4570.769230769231,4852.307692307693,4197.435897435898,4250.769230769231,4235.8974358974365,4479.48717948718
4986.942,0.76632947,0.8507114,0.33333334,0.5522388,0,0.0,1.0,0.0,0.0,0.0,0,0,0.0,0.0,0,0,4.0,0.0,581.0,4557.435897435898,3892.307692307693,4510.769230769231,4294.871794871796,4215.384615384616,4490.256410256411,4433.333333333334,4311.282051282052,4570.769230769231,4852.307692307693,4197.435897435898,4250.769230769231,4235.8974358974365,4479.48717948718
4987.3486,0.7918808,0.84050006,0.33333334,0.5522388,0,0.0,1.0,0.0,0.0,0.0,0,0,0.0,0.0,0,0,56.0,0.0,0.0,4551.794871794872,3909.2307692307695,4517.435897435898,4312.307692307693,4214.358974358975,4490.256410256411,4454.358974358975,4332.307692307693,4539.48717948718,4874.358974358975,4229.2307692307695,4247.179487179487,4270.769230769231,4434.871794871796
4987.3486,0.7918808,0.84050006,0.33333334,0.5522388,0,0.0,1.0,0.0,0.0,0.0,0,0,0.0,0.0,0,0,56.0,0.0,0.0,4551.794871794872,3909.2307692307695,4517.435897435898,4312.307692307693,4214.358974358975,4490.256410256411,4454.358974358975,4332.307692307693,4539.48717948718,4874.358974358975,4229.2307692307695,4247.179487179487,4270.769230769231,4434.871794871796
4987.849,0.7894126,0.95602006,0.33333334,0.5522388,0,0.0,1.0,0.0,0.0,0.0,0,0,0.0,0.0,0,0,120.0,0.0,366.0,4560.000000000001,3900.5128205128212,4508.205128205129,4323.076923076924,4198.974358974359,4491.794871794872,4457.948717948719,4342.051282051282,4507.179487179488,4855.8974358974365,4251.794871794872,4250.769230769231,4258.461538461539,4433.846153846154
4987.849,0.7894126,0.95602006,0.33333334,0.5522388,0,0.0,1.0,0.0,0.0,0.0,0,0,0.0,0.0,0,0,120.0,0.0,366.0,4560.000000000001,3900.5128205128212,4508.205128205129,4323.076923076924,4198.974358974359,4491.794871794872,4457.948717948719,4342.051282051282,4507.179487179488,4855.8974358974365,4251.794871794872,4250.769230769231,4258.461538461539,4433.846153846154
4988.3496,0.84670985,1.0,0.33333334,0.5522388,0,0.0,1.0,0.0,0.0,0.0,0,0,0.0,0.0,0,0,55.0,0.0,0.0,4621.025641025642,3931.2820512820517,4530.256410256411,4356.410256410257,4217.948717948719,4513.333333333334,4471.794871794872,4451.282051282052,4923.589743589744,5245.128205128206,4363.589743589744,4289.2307692307695,4543.589743589744,4515.384615384616
4988.3496,0.84670985,1.0,0.33333334,0.5522388,0,0.0,1.0,0.0,0.0,0.0,0,0,0.0,0.0,0,0,55.0,0.0,0.0,4621.025641025642,3931.2820512820517,4530.256410256411,4356.410256410257,4217.948717948719,4513.333333333334,4471.794871794872,4451.282051282052,4923.589743589744,5245.128205128206,4363.589743589744,4289.2307692307695,4543.589743589744,4515.384615384616
4988.944,0.86673987,1.0,0.33333334,0.5522388,0,0.0,0.92362994,0.0,0.0,0.0,0,0,0.0,0.0,0,0,2.0,0.0,492.0,4602.564102564103,3941.538461538462,4521.025641025642,4382.051282051282,4218.461538461539,4522.051282051282,4482.051282051282,4431.794871794872,4723.589743589744,5064.615384615386,4362.564102564103,4271.794871794872,4395.8974358974365,4469.743589743591
4989.194,0.86673987,1.0,0.33333334,0.5522388,0,0.0,0.8553713,0.0,0.0,0.0,0,0,0.0,0.0,0,0,34.0,0.0,0.0,4605.128205128206,3946.666666666667,4521.025641025642,4402.564102564103,4217.948717948719,4517.435897435898,4474.358974358975,4443.076923076924,4753.333333333334,5055.384615384616,4375.384615384616,4274.871794871796,4391.282051282052,4470.769230769231
4989.35,0.9727311,1.0,0.33333334,0.5522388,0,0.0,1.0,0.0,0.0,0.0,0,0,0.0,0.0,0,0,54.0,0.0,0.0,4609.743589743591,3948.717948717949,4521.538461538462,4412.820512820514,4220.000000000001,4520.512820512821,4475.384615384616,4451.794871794872,4654.871794871796,5037.948717948719,4382.564102564103,4273.846153846154,4382.564102564103,4476.923076923077
4989.35,0.9727311,1.0,0.33333334,0.5522388,0,0.0,1.0,0.0,0.0,0.0,0,0,0.0,0.0,0,0,54.0,0.0,0.0,4609.743589743591,3948.717948717949,4521.538461538462,4412.820512820514,4220.000000000001,4520.512820512821,4475.384615384616,4451.794871794872,4654.871794871796,5037.948717948719,4382.564102564103,4273.846153846154,4382.564102564103,4476.923076923077
4989.8506,1.0,1.0,0.33333334,0.5522388,0,0.0,1.0,0.0,0.0,0.0,0,0,0.0,0.0,0,0,118.0,0.0,1499.0,4618.461538461539,3945.1282051282055,4524.615384615385,4420.512820512821,4234.358974358975,4529.2307692307695,4491.794871794872,4471.282051282052,4676.923076923077,5055.8974358974365,4403.076923076924,4284.102564102564,4395.384615384616,4514.358974358975
4989.8506,1.0,1.0,0.33333334,0.5522388,0,0.0,1.0,0.0,0.0,0.0,0,0,0.0,0.0,0,0,118.0,0.0,1499.0,4618.461538461539,3945.1282051282055,4524.615384615385,4420.512820512821,4234.358974358975,4529.2307692307695,4491.794871794872,4471.282051282052,4676.923076923077,5055.8974358974365,4403.076923076924,4284.102564102564,4395.384615384616,4514.358974358975
4990.351,0.9432309,1.0,0.33333334,0.5522388,0,0.0,1.0,0.0,0.0,0.0,0,0,0.0,0.0,0,0,53.0,0.0,0.0,4630.256410256411,3940.5128205128212,4523.076923076924,4414.871794871796,4233.333333333334,4531.794871794872,4473.846153846154,4469.2307692307695,4599.48717948718,4977.948717948719,4403.076923076924,4270.256410256411,4344.615384615385,4525.128205128206
4990.351,0.9432309,1.0,0.33333334,0.5522388,0,0.0,1.0,0.0,0.0,0.0,0,0,0.0,0.0,0,0,53.0,0.0,0.0,4630.256410256411,3940.5128205128212,4523.076923076924,4414.871794871796,4233.333333333334,4531.794871794872,4473.846153846154,4469.2307692307695,4599.48717948718,4977.948717948719,4403.076923076924,4270.256410256411,4344.615384615385,4525.128205128206
4990.8516,0.94066095,1.0,0.33333334,0.5522388,0,0.0,1.0,0.0,0.0,0.0,0,0,0.0,0.0,0,0,117.0,0.0,298.0,4643.076923076924,3959.48717948718,4530.769230769231,4424.615384615385,4249.2307692307695,4551.794871794872,4473.846153846154,4492.307692307693,4664.615384615386,5026.666666666667,4422.051282051282,4278.461538461539,4374.358974358975,4545.128205128206
4991.0703,0.94066095,1.0,0.33333334,0.5522388,0,0.0,0.878741,0.0,0.0,0.0,0,0,0.0,0.0,0,0,16.0,0.0,0.0,4679.48717948718,3960.5128205128212,4532.820512820514,4427.6923076923085,4249.2307692307695,4554.358974358975,4461.538461538462,4495.384615384616,4610.769230769231,5012.820512820514,4430.769230769231,4281.538461538462,4363.589743589744,4575.8974358974365
4991.352,1.0,1.0,0.33333334,0.5522388,0,0.0,1.0,0.0,0.0,0.0,0,0,0.0,0.0,0,0,52.0,0.0,0.0,4635.8974358974365,3956.410256410257,4516.410256410257,4427.6923076923085,4248.717948717949,4546.666666666667,4427.179487179487,4462.051282051282,4436.410256410257,4838.974358974359,4396.923076923077,4262.564102564103,4240.000000000001,4547.179487179488
4991.352,1.0,1.0,0.33333334,0.5522388,0,0.0,1.0,0.0,0.0,0.0,0,0,0.0,0.0,0,0,52.0,0.0,0.0,4635.8974358974365,3956.410256410257,4516.410256410257,4427.6923076923085,4248.717948717949,4546.666666666667,4427.179487179487,4462.051282051282,4436.410256410257,4838.974358974359,4396.923076923077,4262.564102564103,4240.000000000001,4547.179487179488
4991.8525,1.0,1.0,0.33333334,0.5522388,0,0.0,1.0,0.0,0.0,0.0,0,0,0.0,0.0,0,0,116.0,0.0,358.0,4586.666666666667,3933.333333333334,4501.538461538462,4421.025641025642,4249.2307692307695,4551.282051282052,4386.666666666667,4390.769230769231,4073.333333333334,4525.128205128206,4326.666666666667,4231.282051282052,4030.7692307692314,4452.820512820514
4991.8525,1.0,1.0,0.33333334,0.5522388,0,0.0,1.0,0.0,0.0,0.0,0,0,0.0,0.0,0,0,116.0,0.0,358.0,4586.666666666667,3933.333333333334,4501.538461538462,4421.025641025642,4249.2307692307695,4551.282051282052,4386.666666666667,4390.769230769231,4073.333333333334,4525.128205128206,4326.666666666667,4231.282051282052,4030.7692307692314,4452.820512820514
4992.353,0.8792073,1.0,0.33333334,0.5522388,0,0.0,1.0,0.0,0.0,0.0,0,0,0.0,0.0,0,0,51.0,0.0,0.0,4572.820512820514,3930.7692307692314,4509.743589743591,4418.974358974359,4267.179487179487,4565.641025641026,4407.6923076923085,4398.461538461539,4194.871794871796,4592.307692307693,4323.589743589744,4237.435897435898,4070.7692307692314,4462.564102564103
4992.353,0.8792073,1.0,0.33333334,0.5522388,0,0.0,1.0,0.0,0.0,0.0,0,0,0.0,0.0,0,0,51.0,0.0,0.0,4572.820512820514,3930.7692307692314,4509.743589743591,4418.974358974359,4267.179487179487,4565.641025641026,4407.6923076923085,4398.461538461539,4194.871794871796,4592.307692307693,4323.589743589744,4237.435897435898,4070.7692307692314,4462.564102564103
4992.853,0.85538125,1.0,0.33333334,0.5522388,0,0.0,1.0,0.0,0.0,0.0,0,0,0.0,0.0,0,0,115.0,0.0,488.0,4603.589743589744,3960.5128205128212,4527.179487179488,4432.307692307693,4265.641025641026,4574.871794871796,4438.974358974359,4445.128205128206,4528.205128205129,4829.2307692307695,4361.538461538462,4258.974358974359,4233.333333333334,4531.794871794872
4992.853,0.85538125,1.0,0.33333334,0.5522388,0,0.0,1.0,0.0,0.0,0.0,0,0,0.0,0.0,0,0,115.0,0.0,488.0,4603.589743589744,3960.5128205128212,4527.179487179488,4432.307692307693,4265.641025641026,4574.871794871796,4438.974358974359,4445.128205128206,4528.205128205129,4829.2307692307695,4361.538461538462,4258.974358974359,4233.333333333334,4531.794871794872
4993.3535,0.9627355,1.0,0.33333334,0.5522388,0,0.0,1.0,0.0,0.0,0.0,0,0,0.0,0.0,0,0,50.0,0.0,0.0,4637.948717948719,3957.9487179487182,4515.384615384616,4428.205128205129,4249.74358974359,4554.358974358975,4457.948717948719,4429.2307692307695,4410.769230769231,4748.717948717949,4336.923076923077,4253.846153846154,4161.025641025642,4555.8974358974365
4993.3535,0.9627355,1.0,0.33333334,0.5522388,0,0.0,1.0,0.0,0.0,0.0,0,0,0.0,0.0,0,0,50.0,0.0,0.0,4637.948717948719,3957.9487179487182,4515.384615384616,4428.205128205129,4249.74358974359,4554.358974358975,4457.948717948719,4429.2307692307695,4410.769230769231,4748.717948717949,4336.923076923077,4253.846153846154,4161.025641025642,4555.8974358974365
4993.854,1.0,1.0,0.33333334,0.5522388,0,0.0,1.0,0.0,0.0,0.0,0,0,0.0,0.0,0,0,114.0,0.0,1505.0,4608.717948717949,3946.1538461538466,4501.025641025642,4418.974358974359,4245.128205128206,4541.538461538462,4470.256410256411,4388.717948717949,4200.000000000001,4580.512820512821,4295.384615384616,4240.000000000001,4044.1025641025644,4501.538461538462
4993.854,1.0,1.0,0.33333334,0.5522388,0,0.0,1.0,0.0,0.0,0.0,0,0,0.0,0.0,0,0,114.0,0.0,1505.0,4608.717948717949,3946.1538461538466,4501.025641025642,4418.974358974359,4245.128205128206,4541.538461538462,4470.256410256411,4388.717948717949,4200.000000000001,4580.512820512821,4295.384615384616,4240.000000000001,4044.1025641025644,4501.538461538462
4994.3545,1.0,1.0,0.33333334,0.5522388,0,0.0,1.0,0.0,0.0,0.0,0,0,0.0,0.0,0,0,49.0,0.0,0.0,4544.615384615385,3956.9230769230776,4508.205128205129,4423.076923076924,4256.410256410257,4554.871794871796,4483.076923076924,4405.128205128206,4377.435897435898,4701.025641025642,4308.717948717949,4255.384615384616,4140.000000000001,4568.717948717949
4994.3545,1.0,1.0,0.33333334,0.5522388,0,0.0,1.0,0.0,0.0,0.0,0,0,0.0,0.0,0,0,49.0,0.0,0.0,4544.615384615385,3956.9230769230776,4508.205128205129,4423.076923076924,4256.410256410257,4554.871794871796,4483.076923076924,4405.128205128206,4377.435897435898,4701.025641025642,4308.717948717949,4255.384615384616,4140.000000000001,4568.717948717949
4994.855,1.0,1.0,0.33333334,0.5522388,0,0.0,1.0,0.0,0.0,0.0,0,0,0.0,0.0,0,0,113.0,0.0,298.0,4703.076923076924,3960.0000000000005,4528.205128205129,4422.564102564103,4263.076923076924,4560.512820512821,4488.717948717949,4467.6923076923085,4795.384615384616,4994.358974358975,4369.743589743591,4270.256410256411,4367.6923076923085,4548.205128205129
4995.105,1.0,1.0,0.33333334,0.5522388,0,0.0,1.0,0.0,0.0,0.0,0,0,0.0,0.0,0,0,16.0,0.0,0.0,4669.743589743591,3953.8461538461543,4510.769230769231,4414.358974358975,4250.769230769231,4552.307692307693,4467.6923076923085,4420.000000000001,4424.102564102564,4752.307692307693,4326.666666666667,4247.179487179487,4182.564102564103,4531.794871794872
4995.3555,1.0,1.0,0.33333334,0.5522388,0,0.0,1.0,0.0,0.0,0.0,0,0,0.0,0.0,0,0,48.0,0.0,0.0,4690.769230769231,3965.6410256410263,4519.48717948718,4427.6923076923085,4252.820512820514,4555.384615384616,4477.435897435898,4454.358974358975,4632.820512820514,4896.923076923077,4356.923076923077,4264.615384615385,4295.384615384616,4537.948717948719
4995.449,1.0,1.0,0.33333334,0.5522388,0,0.0,0.0,0.0,0.0,0.0,0,0,0.0,0.0,0,0,60.0,0.0,0.0,4674.871794871796,3961.0256410256416,4519.48717948718,4425.128205128206,4250.256410256411,4552.307692307693,4476.923076923077,4437.948717948719,4482.051282051282,4800.000000000001,4342.051282051282,4257.435897435898,4228.717948717949,4529.2307692307695
4995.856,0.9613016,1.0,0.33333334,0.5522388,0,0.0,1.0,0.0,0.0,0.0,0,0,0.0,0.0,0,0,112.0,0.0,355.0,4647.179487179488,3974.358974358975,4510.769230769231,4428.205128205129,4249.2307692307695,4551.282051282052,4475.384615384616,4433.333333333334,4440.512820512821,4767.6923076923085,4331.794871794872,4258.974358974359,4195.384615384616,4545.641025641026
4995.856,0.9613016,1.0,0.33333334,0.5522388,0,0.0,1.0,0.0,0.0,0.0,0,0,0.0,0.0,0,0,112.0,0.0,355.0,4647.179487179488,3974.358974358975,4510.769230769231,4428.205128205129,4249.2307692307695,4551.282051282052,4475.384615384616,4433.333333333334,4440.512820512821,4767.6923076923085,4331.794871794872,4258.974358974359,4195.384615384616,4545.641025641026
4996.3564,0.9623972,1.0,0.33333334,0.5522388,0,0.0,1.0,0.0,0.0,0.0,0,0,0.0,0.0,0,0,47.0,0.0,0.0,4639.48717948718,3964.1025641025644,4513.333333333334,4429.2307692307695,4252.820512820514,4555.8974358974365,4483.589743589744,4428.205128205129,4414.358974358975,4749.2307692307695,4330.769230769231,4261.025641025642,4180.000000000001,4543.589743589744
4996.45,0.9623972,1.0,0.33333334,0.5522388,0,0.0,0.0,0.0,0.0,0.0,0,0,0.0,0.0,0,0,59.0,0.0,0.0,4621.538461538462,3961.538461538462,4514.358974358975,4431.282051282052,4249.2307692307695,4552.307692307693,4489.2307692307695,4418.461538461539,4334.871794871796,4691.282051282052,4320.000000000001,4264.615384615385,4142.051282051282,4547.6923076923085
4996.857,1.0,1.0,0.33333334,0.5522388,0,0.0,0.0,0.0,0.0,0.0,0,0,0.0,0.0,0,0,111.0,0.0,488.0,4636.923076923077,3957.9487179487182,4508.205128205129,4427.179487179487,4248.717948717949,4554.358974358975,4471.282051282052,4411.282051282052,4337.948717948719,4683.076923076924,4312.820512820514,4256.410256410257,4132.307692307693,4558.974358974359
4996.857,1.0,1.0,0.33333334,0.5522388,0,0.0,0.0,0.0,0.0,0.0,0,0,0.0,0.0,0,0,111.0,0.0,488.0,4636.923076923077,3957.9487179487182,4508.205128205129,4427.179487179487,4248.717948717949,4554.358974358975,4471.282051282052,4411.282051282052,4337.948717948719,4683.076923076924,4312.820512820514,4256.410256410257,4132.307692307693,4558.974358974359
4997.357,1.0,1.0,0.33333334,0.5522388,0,0.0,0.0,0.0,0.0,0.0,0,0,0.0,0.0,0,0,46.0,0.0,0.0,4669.743589743591,3975.3846153846157,4528.205128205129,4445.128205128206,4262.564102564103,4562.564102564103,4492.820512820514,4474.871794871796,4680.512820512821,4949.2307692307695,4382.051282051282,4286.153846153847,4330.256410256411,4622.564102564103
4997.451,1.0,1.0,0.33333334,0.5522388,0,0.0,1.0,0.0,0.0,0.0,0,0,0.0,0.0,0,0,58.0,0.0,0.0,4650.256410256411,3960.0000000000005,4524.615384615385,4436.410256410257,4251.794871794872,4554.358974358975,4476.410256410257,4463.076923076924,4548.717948717949,4862.564102564103,4366.153846153847,4280.512820512821,4279.48717948718,4629.743589743591
4997.8574,1.0,1.0,0.33333334,0.5522388,0,0.0,1.0,0.0,0.0,0.0,0,0,0.0,0.0,0,0,110.0,0.0,1500.0,4625.641025641026,3957.435897435898,4502.564102564103,4427.6923076923085,4248.205128205129,4555.384615384616,4463.589743589744,4418.461538461539,4267.6923076923085,4658.461538461539,4326.153846153847,4255.8974358974365,4119.48717948718,4598.974358974359
4997.8574,1.0,1.0,0.33333334,0.5522388,0,0.0,1.0,0.0,0.0,0.0,0,0,0.0,0.0,0,0,110.0,0.0,1500.0,4625.641025641026,3957.435897435898,4502.564102564103,4427.6923076923085,4248.205128205129,4555.384615384616,4463.589743589744,4418.461538461539,4267.6923076923085,4658.461538461539,4326.153846153847,4255.8974358974365,4119.48717948718,4598.974358974359
4998.358,0.9569446,1.0,0.33333334,0.5522388,0,0.0,1.0,0.0,0.0,0.0,0,0,0.0,0.0,0,0,45.0,0.0,0.0,4629.743589743591,3957.9487179487182,4501.025641025642,4428.717948717949,4244.102564102564,4553.846153846154,4454.358974358975,4395.8974358974365,4160.000000000001,4563.076923076924,4300.000000000001,4243.076923076924,4057.435897435898,4570.256410256411
4998.358,0.9569446,1.0,0.33333334,0.5522388,0,0.0,1.0,0.0,0.0,0.0,0,0,0.0,0.0,0,0,45.0,0.0,0.0,4629.743589743591,3957.9487179487182,4501.025641025642,4428.717948717949,4244.102564102564,4553.846153846154,4454.358974358975,4395.8974358974365,4160.000000000001,4563.076923076924,4300.000000000001,4243.076923076924,4057.435897435898,4570.256410256411
4998.8584,0.95263124,1.0,0.33333334,0.5522388,0,0.0,1.0,0.0,0.0,0.0,0,0,0.0,0.0,0,0,109.0,0.0,298.0,4660.512820512821,3972.820512820513,4514.871794871796,4434.358974358975,4252.820512820514,4560.512820512821,4460.512820512821,4427.6923076923085,4428.717948717949,4749.743589743591,4327.179487179487,4255.8974358974365,4190.769230769231,4608.717948717949
4998.8584,0.95263124,1.0,0.33333334,0.5522388,0,0.0,1.0,0.0,0.0,0.0,0,0,0.0,0.0,0,0,109.0,0.0,298.0,4660.512820512821,3972.820512820513,4514.871794871796,4434.358974358975,4252.820512820514,4560.512820512821,4460.512820512821,4427.6923076923085,4428.717948717949,4749.743589743591,4327.179487179487,4255.8974358974365,4190.769230769231,4608.717948717949
4999.359,0.98542804,1.0,0.33333334,0.5522388,0,0.0,1.0,0.0,0.0,0.0,0,0,0.0,0.0,0,0,44.0,0.0,0.0,4686.666666666667,3977.9487179487182,4521.538461538462,4442.564102564103,4248.205128205129,4554.358974358975,4473.333333333334,4463.076923076924,4610.769230769231,4889.2307692307695,4363.589743589744,4267.179487179487,4306.666666666667,4642.051282051282
4999.359,0.98542804,1.0,0.33333334,0.5522388,0,0.0,1.0,0.0,0.0,0.0,0,0,0.0,0.0,0,0,44.0,0.0,0.0,4686.666666666667,3977.9487179487182,4521.538461538462,4442.564102564103,4248.205128205129,4554.358974358975,4473.333333333334,4463.076923076924,4610.769230769231,4889.2307692307695,4363.589743589744,4267.179487179487,4306.666666666667,4642.051282051282
4999.8594,0.9583302,1.0,0.33333334,0.5522388,0,0.0,1.0,0.0,0.0,0.0,0,0,0.0,0.0,0,0,108.0,0.0,354.0,4687.6923076923085,3977.9487179487182,4521.538461538462,4443.589743589744,4254.358974358975,4557.435897435898,4475.8974358974365,4469.743589743591,4586.666666666667,4882.051282051283,4368.717948717949,4274.871794871796,4291.282051282052,4646.153846153847
4999.8594,0.9583302,1.0,0.33333334,0.5522388,0,0.0,1.0,0.0,0.0,0.0,0,0,0.0,0.0,0,0,108.0,0.0,354.0,4687.6923076923085,3977.9487179487182,4521.538461538462,4443.589743589744,4254.358974358975,4557.435897435898,4475.8974358974365,4469.743589743591,4586.666666666667,4882.051282051283,4368.717948717949,4274.871794871796,4291.282051282052,4646.153846153847
5000.3833,1.0,1.0,0.33333334,0.5522388,0,0.0,1.0,0.0,0.0,0.0,0,0,0.0,0.0,0,0,43.0,0.0,0.0,4647.179487179488,3973.333333333334,4512.820512820514,4432.307692307693,4252.820512820514,4554.358974358975,4474.358974358975,4438.461538461539,4382.564102564103,4730.769230769231,4336.410256410257,4264.615384615385,4181.025641025642,4616.410256410257
5000.477,1.0,1.0,0.33333334,0.5522388,0,0.0,0.0,0.0,0.0,0.0,0,0,0.0,0.0,0,0,55.0,0.0,0.0,4657.948717948719,3973.8461538461543,4517.435897435898,4430.769230769231,4249.2307692307695,4553.846153846154,4474.358974358975,4436.410256410257,4367.179487179487,4716.410256410257,4338.461538461539,4266.153846153847,4182.564102564103,4616.410256410257
5000.884,0.99980545,1.0,0.33333334,0.5522388,0,0.0,0.0,0.0,0.0,0.0,0,0,0.0,0.0,0,0,107.0,0.0,486.0,4642.051282051282,3972.307692307693,4509.2307692307695,4429.2307692307695,4249.74358974359,4556.923076923077,4475.8974358974365,4439.48717948718,4406.666666666667,4751.282051282052,4344.615384615385,4268.717948717949,4206.666666666667,4613.846153846154
5001.1025,0.99980545,1.0,0.33333334,0.5522388,0,0.0,0.0,0.0,0.0,0.08457345,0,0,0.0,0.0,0,0,6.0,0.0,414.0,4656.410256410257,3957.9487179487182,4498.974358974359,4420.000000000001,4240.000000000001,4549.2307692307695,4472.820512820514,4422.051282051282,4295.384615384616,4663.076923076924,4330.256410256411,4259.48717948718,4150.769230769231,4594.358974358975
5001.384,1.0,1.0,0.33333334,0.5522388,0,0.0,1.0,0.0,0.0,0.0,0,0,0.0,0.0,0,0,42.0,0.0,0.0,4661.538461538462,3958.9743589743593,4503.589743589744,4426.666666666667,4246.666666666667,4548.205128205129,4469.2307692307695,4432.307692307693,4386.666666666667,4729.743589743591,4339.48717948718,4261.538461538462,4200.000000000001,4598.461538461539
5001.384,1.0,1.0,0.33333334,0.5522388,0,0.0,1.0,0.0,0.0,0.0,0,0,0.0,0.0,0,0,42.0,0.0,0.0,4661.538461538462,3958.9743589743593,4503.589743589744,4426.666666666667,4246.666666666667,4548.205128205129,4469.2307692307695,4432.307692307693,4386.666666666667,4729.743589743591,4339.48717948718,4261.538461538462,4200.000000000001,4598.461538461539
5001.8843,0.9823089,1.0,0.33333334,0.5522388,0,0.0,1.0,0.0,0.0,0.0,0,0,0.0,0.0,0,0,106.0,0.0,1495.0,4673.333333333334,3946.666666666667,4505.128205128206,4431.282051282052,4247.6923076923085,4553.846153846154,4484.102564102564,4462.051282051282,4514.871794871796,4832.307692307693,4369.2307692307695,4276.923076923077,4275.384615384616,4631.282051282052
5001.9785,0.9823089,1.0,0.33333334,0.5522388,0,0.0,0.0,0.0,0.0,0.0,0,0,0.0,0.0,0,0,118.0,0.0,1495.0,4703.076923076924,3948.205128205129,4515.384615384616,4429.743589743591,4245.641025641026,4550.256410256411,4477.435897435898,4467.6923076923085,4480.512820512821,4825.128205128206,4372.820512820514,4282.564102564103,4270.769230769231,4634.871794871796
5002.385,0.8630146,1.0,0.33333334,0.5522388,0,0.0,0.0,0.0,0.0,0.0,0,0,0.0,0.0,0,0,41.0,0.0,0.0,4649.743589743591,3957.9487179487182,4516.923076923077,4444.615384615385,4265.128205128206,4570.769230769231,4466.153846153847,4453.333333333334,4416.923076923077,4767.6923076923085,4365.128205128206,4271.282051282052,4220.512820512821,4589.743589743591
5002.385,0.8630146,1.0,0.33333334,0.5522388,0,0.0,0.0,0.0,0.0,0.0,0,0,0.0,0.0,0,0,41.0,0.0,0.0,4649.743589743591,3957.9487179487182,4516.923076923077,4444.615384615385,4265.128205128206,4570.769230769231,4466.153846153847,4453.333333333334,4416.923076923077,4767.6923076923085,4365.128205128206,4271.282051282052,4220.512820512821,4589.743589743591
5002.8853,0.86300254,1.0,0.33333334,0.5522388,0,0.0,1.0,0.0,0.0,0.0,0,0,0.0,0.0,0,0,105.0,0.0,298.0,4653.846153846154,3941.0256410256416,4499.48717948718,4430.256410256411,4230.256410256411,4550.769230769231,4447.179487179487,4423.076923076924,4242.051282051282,4632.307692307693,4334.871794871796,4261.025641025642,4127.6923076923085,4595.8974358974365
5002.8853,0.86300254,1.0,0.33333334,0.5522388,0,0.0,1.0,0.0,0.0,0.0,0,0,0.0,0.0,0,0,105.0,0.0,298.0,4653.846153846154,3941.0256410256416,4499.48717948718,4430.256410256411,4230.256410256411,4550.769230769231,4447.179487179487,4423.076923076924,4242.051282051282,4632.307692307693,4334.871794871796,4261.025641025642,4127.6923076923085,4595.8974358974365
5003.3857,0.84456164,0.99204195,0.33333334,0.5522388,0,0.0,1.0,0.0,0.0,0.0,0,0,0.0,0.0,0,0,40.0,0.0,0.0,4655.384615384616,3932.307692307693,4504.102564102564,4430.769230769231,4241.025641025642,4552.307692307693,4441.538461538462,4427.179487179487,4307.179487179487,4669.743589743591,4342.051282051282,4260.512820512821,4165.128205128206,4602.051282051282
5003.3857,0.84456164,0.99204195,0.33333334,0.5522388,0,0.0,1.0,0.0,0.0,0.0,0,0,0.0,0.0,0,0,40.0,0.0,0.0,4655.384615384616,3932.307692307693,4504.102564102564,4430.769230769231,4241.025641025642,4552.307692307693,4441.538461538462,4427.179487179487,4307.179487179487,4669.743589743591,4342.051282051282,4260.512820512821,4165.128205128206,4602.051282051282
5003.886,0.81032896,0.9759908,0.33333334,0.5522388,0,0.0,1.0,0.0,0.0,0.0,0,0,0.0,0.0,0,0,104.0,0.0,349.0,4706.153846153847,3955.8974358974365,4526.153846153847,4447.6923076923085,4249.2307692307695,4567.6923076923085,4443.076923076924,4497.435897435898,4718.974358974359,5000.000000000001,4410.256410256411,4274.358974358975,4412.307692307693,4655.384615384616
5003.886,0.81032896,0.9759908,0.33333334,0.5522388,0,0.0,1.0,0.0,0.0,0.0,0,0,0.0,0.0,0,0,104.0,0.0,349.0,4706.153846153847,3955.8974358974365,4526.153846153847,4447.6923076923085,4249.2307692307695,4567.6923076923085,4443.076923076924,4497.435897435898,4718.974358974359,5000.000000000001,4410.256410256411,4274.358974358975,4412.307692307693,4655.384615384616
5004.3867,0.85652333,0.9826138,0.33333334,0.5522388,0,0.0,1.0,0.0,0.0,0.0,0,0,0.0,0.0,0,0,39.0,0.0,0.0,4675.8974358974365,3948.717948717949,4520.000000000001,4443.076923076924,4256.923076923077,4564.615384615385,4435.8974358974365,4484.615384615385,4592.307692307693,4898.461538461539,4409.2307692307695,4264.615384615385,4347.6923076923085,4615.384615384616
5004.6055,0.85652333,0.9826138,0.33333334,0.5522388,0,0.0,0.89183044,0.0,0.0,0.0,0,0,0.0,0.0,0,0,67.0,0.0,555.0,4689.743589743591,3940.5128205128212,4516.923076923077,4436.923076923077,4262.051282051282,4566.153846153847,4413.333333333334,4474.358974358975,4526.153846153847,4846.666666666667,4398.461538461539,4257.948717948719,4304.615384615385,4616.410256410257
5004.887,0.8525976,0.99724394,0.33333334,0.5522388,0,0.0,1.0,0.0,0.0,0.0,0,0,0.0,0.0,0,0,103.0,0.0,484.0,4649.743589743591,3952.307692307693,4514.871794871796,4440.512820512821,4252.820512820514,4567.179487179488,4414.871794871796,4444.102564102564,4335.384615384616,4709.2307692307695,4368.205128205129,4241.538461538462,4205.641025641026,4538.461538461539
5004.887,0.8525976,0.99724394,0.33333334,0.5522388,0,0.0,1.0,0.0,0.0,0.0,0,0,0.0,0.0,0,0,103.0,0.0,484.0,4649.743589743591,3952.307692307693,4514.871794871796,4440.512820512821,4252.820512820514,4567.179487179488,4414.871794871796,4444.102564102564,4335.384615384616,4709.2307692307695,4368.205128205129,4241.538461538462,4205.641025641026,4538.461538461539
5005.3877,0.76109666,1.0,0.33333334,0.5522388,0,0.0,1.0,0.0,0.0,0.0,0,0,0.0,0.0,0,0,38.0,0.0,0.0,4660.000000000001,3951.2820512820517,4518.974358974359,4440.512820512821,4257.435897435898,4556.923076923077,4432.307692307693,4448.205128205129,4373.846153846154,4728.717948717949,4367.179487179487,4245.128205128206,4211.794871794872,4532.307692307693
5005.6064,0.76109666,1.0,0.33333334,0.5522388,0,0.0,1.0,0.0,0.0,0.0,0,0,0.0,0.0,0,0,66.0,0.0,492.0,4643.076923076924,3950.7692307692314,4516.410256410257,4443.589743589744,4250.769230769231,4556.923076923077,4427.179487179487,4427.6923076923085,4283.076923076924,4653.846153846154,4349.2307692307695,4237.948717948719,4153.846153846154,4517.435897435898
5005.8877,0.7510587,1.0,0.33333334,0.5522388,0,0.0,1.0,0.0,0.0,0.0,0,0,0.0,0.0,0,0,102.0,0.0,1490.0,4647.6923076923085,3954.358974358975,4525.128205128206,4443.076923076924,4260.000000000001,4566.666666666667,4448.205128205129,4464.102564102564,4455.8974358974365,4804.615384615386,4382.051282051282,4254.871794871796,4265.641025641026,4543.076923076924
5006.107,0.7510587,1.0,0.33333334,0.5522388,0,0.0,0.0,0.0,0.0,0.0,0,0,0.0,0.0,0,0,1.0,0.0,468.0,4681.538461538462,3957.435897435898,4523.076923076924,4445.128205128206,4255.8974358974365,4566.666666666667,4460.000000000001,4485.128205128206,4604.615384615385,4898.974358974359,4393.846153846154,4269.2307692307695,4319.48717948718,4577.948717948719
5006.388,0.75068426,1.0,0.33333334,0.5522388,0,0.0,1.0,0.0,0.0,0.0,0,0,0.0,0.0,0,0,37.0,0.0,0.0,4681.538461538462,3958.461538461539,4530.769230769231,4447.179487179487,4258.974358974359,4567.179487179488,4478.461538461539,4506.153846153847,4617.948717948719,4974.358974358975,4421.025641025642,4276.410256410257,4383.076923076924,4604.615384615385
5006.388,0.75068426,1.0,0.33333334,0.5522388,0,0.0,1.0,0.0,0.0,0.0,0,0,0.0,0.0,0,0,37.0,0.0,0.0,4681.538461538462,3958.461538461539,4530.769230769231,4447.179487179487,4258.974358974359,4567.179487179488,4478.461538461539,4506.153846153847,4617.948717948719,4974.358974358975,4421.025641025642,4276.410256410257,4383.076923076924,4604.615384615385
5006.8887,0.6872902,1.0,0.33333334,0.5522388,0,0.0,0.0,0.0,0.0,0.0,0,0,0.0,0.0,0,0,101.0,0.0,299.0,4693.846153846154,3958.461538461539,4526.666666666667,4454.358974358975,4248.205128205129,4557.948717948719,4459.48717948718,4496.410256410257,4509.743589743591,4887.179487179488,4414.871794871796,4270.256410256411,4307.6923076923085,4623.076923076924
5007.108,0.6872902,1.0,0.33333334,0.5522388,0,0.0,1.0,0.0,0.0,0.0,0,0,0.0,0.0,0,0,0.0,0.0,349.0,4684.102564102564,3960.0000000000005,4532.307692307693,4453.333333333334,4253.846153846154,4563.076923076924,4474.871794871796,4502.564102564103,4556.923076923077,4917.948717948719,4420.512820512821,4270.256410256411,4327.6923076923085,4641.025641025642
5007.389,0.66310143,1.0,0.33333334,0.5522388,0,0.0,1.0,0.0,0.0,0.0,0,0,0.0,0.0,0,0,36.0,0.0,0.0,4686.666666666667,3957.435897435898,4524.102564102564,4444.615384615385,4247.6923076923085,4554.871794871796,4466.153846153847,4494.358974358975,4460.000000000001,4852.307692307693,4416.410256410257,4272.307692307693,4288.717948717949,4635.384615384616
5007.389,0.66310143,1.0,0.33333334,0.5522388,0,0.0,1.0,0.0,0.0,0.0,0,0,0.0,0.0,0,0,36.0,0.0,0.0,4686.666666666667,3957.435897435898,4524.102564102564,4444.615384615385,4247.6923076923085,4554.871794871796,4466.153846153847,4494.358974358975,4460.000000000001,4852.307692307693,4416.410256410257,4272.307692307693,4288.717948717949,4635.384615384616
5007.8896,0.63858235,1.0,0.33333334,0.5522388,0,0.0,1.0,0.0,0.0,0.0,0,0,0.0,0.0,0,0,100.0,0.0,344.0,4678.461538461539,3959.48717948718,4522.564102564103,4445.128205128206,4246.153846153847,4554.871794871796,4467.6923076923085,4480.000000000001,4352.820512820514,4750.256410256411,4393.333333333334,4263.589743589744,4203.589743589744,4625.641025641026
5007.8896,0.63858235,1.0,0.33333334,0.5522388,0,0.0,1.0,0.0,0.0,0.0,0,0,0.0,0.0,0,0,100.0,0.0,344.0,4678.461538461539,3959.48717948718,4522.564102564103,4445.128205128206,4246.153846153847,4554.871794871796,4467.6923076923085,4480.000000000001,4352.820512820514,4750.256410256411,4393.333333333334,4263.589743589744,4203.589743589744,4625.641025641026
5008.39,0.6194174,1.0,0.33333334,0.5522388,0,0.0,1.0,0.0,0.0,0.0,0,0,0.0,0.0,0,0,35.0,0.0,0.0,4729.743589743591,3967.1794871794878,4542.051282051282,4458.974358974359,4263.589743589744,4570.769230769231,4485.641025641026,4548.717948717949,4677.948717948719,5050.769230769231,4462.051282051282,4285.128205128206,4436.410256410257,4671.794871794872
5008.39,0.6194174,1.0,0.33333334,0.5522388,0,0.0,1.0,0.0,0.0,0.0,0,0,0.0,0.0,0,0,35.0,0.0,0.0,4729.743589743591,3967.1794871794878,4542.051282051282,4458.974358974359,4263.589743589744,4570.769230769231,4485.641025641026,4548.717948717949,4677.948717948719,5050.769230769231,4462.051282051282,4285.128205128206,4436.410256410257,4671.794871794872
5008.8906,0.6460968,1.0,0.33333334,0.5522388,0,0.0,1.0,0.0,0.0,0.0,0,0,0.0,0.0,0,0,99.0,0.0,484.0,4682.051282051282,3945.1282051282055,4521.538461538462,4446.666666666667,4257.435897435898,4560.512820512821,4444.615384615385,4448.717948717949,4128.717948717949,4575.8974358974365,4365.128205128206,4260.512820512821,4063.589743589744,4626.153846153847
5008.8906,0.6460968,1.0,0.33333334,0.5522388,0,0.0,1.0,0.0,0.0,0.0,0,0,0.0,0.0,0,0,99.0,0.0,484.0,4682.051282051282,3945.1282051282055,4521.538461538462,4446.666666666667,4257.435897435898,4560.512820512821,4444.615384615385,4448.717948717949,4128.717948717949,4575.8974358974365,4365.128205128206,4260.512820512821,4063.589743589744,4626.153846153847
5009.391,0.6051746,1.0,0.33333334,0.5522388,0,0.0,0.0,0.0,0.0,0.0,0,0,0.0,0.0,0,0,34.0,0.0,0.0,4671.794871794872,3950.7692307692314,4529.743589743591,4458.461538461539,4265.128205128206,4569.743589743591,4444.615384615385,4454.871794871796,4250.256410256411,4640.512820512821,4360.000000000001,4264.102564102564,4121.025641025642,4611.282051282052
5009.391,0.6051746,1.0,0.33333334,0.5522388,0,0.0,0.0,0.0,0.0,0.0,0,0,0.0,0.0,0,0,34.0,0.0,0.0,4671.794871794872,3950.7692307692314,4529.743589743591,4458.461538461539,4265.128205128206,4569.743589743591,4444.615384615385,4454.871794871796,4250.256410256411,4640.512820512821,4360.000000000001,4264.102564102564,4121.025641025642,4611.282051282052
5009.891,0.6204881,1.0,0.33333334,0.5522388,0,0.0,0.0,0.0,0.0,0.0,0,0,0.0,0.0,0,0,98.0,0.0,1488.0,4630.769230769231,3941.538461538462,4520.000000000001,4445.128205128206,4248.717948717949,4549.2307692307695,4432.307692307693,4413.846153846154,4097.435897435898,4503.589743589744,4322.564102564103,4250.769230769231,4049.7435897435903,4554.358974358975
5010.1104,0.6204881,1.0,0.33333334,0.5522388,0,0.0,1.0,0.0,0.0,0.0,0,0,0.0,0.0,0,0,126.0,0.0,1488.0,4625.641025641026,3942.564102564103,4516.410256410257,4443.076923076924,4249.2307692307695,4549.2307692307695,4431.282051282052,4418.974358974359,4177.435897435898,4549.743589743591,4328.205128205129,4251.282051282052,4098.974358974359,4537.435897435898
5010.3916,0.572762,0.99166614,0.33333334,0.5522388,0,0.0,1.0,0.0,0.0,0.0,0,0,0.0,0.0,0,0,33.0,0.0,0.0,4645.641025641026,3943.076923076924,4523.589743589744,4440.512820512821,4257.948717948719,4556.410256410257,4444.102564102564,4451.794871794872,4423.589743589744,4733.846153846154,4364.102564102564,4260.000000000001,4233.846153846154,4564.102564102564
5010.3916,0.572762,0.99166614,0.33333334,0.5522388,0,0.0,1.0,0.0,0.0,0.0,0,0,0.0,0.0,0,0,33.0,0.0,0.0,4645.641025641026,3943.076923076924,4523.589743589744,4440.512820512821,4257.948717948719,4556.410256410257,4444.102564102564,4451.794871794872,4423.589743589744,4733.846153846154,4364.102564102564,4260.000000000001,4233.846153846154,4564.102564102564
5010.892,0.5760498,0.9516944,0.33333334,0.5522388,0,0.0,0.0,0.0,0.0,0.0,0,0,0.0,0.0,0,0,97.0,0.0,299.0,4624.615384615385,3943.589743589744,4516.410256410257,4440.000000000001,4260.000000000001,4569.743589743591,4437.435897435898,4424.615384615385,4261.025641025642,4613.846153846154,4336.923076923077,4249.74358974359,4131.794871794872,4526.666666666667
5010.892,0.5760498,0.9516944,0.33333334,0.5522388,0,0.0,0.0,0.0,0.0,0.0,0,0,0.0,0.0,0,0,97.0,0.0,299.0,4624.615384615385,3943.589743589744,4516.410256410257,4440.000000000001,4260.000000000001,4569.743589743591,4437.435897435898,4424.615384615385,4261.025641025642,4613.846153846154,4336.923076923077,4249.74358974359,4131.794871794872,4526.666666666667
5011.3926,0.5102397,0.91622055,0.33333334,0.5522388,0,0.0,0.0,0.0,0.0,0.0,0,0,0.0,0.0,0,0,32.0,0.0,0.0,4632.307692307693,3949.7435897435903,4523.076923076924,4440.000000000001,4254.358974358975,4566.666666666667,4441.025641025642,4428.717948717949,4337.435897435898,4666.666666666667,4337.435897435898,4242.051282051282,4170.769230769231,4512.307692307693
5011.3926,0.5102397,0.91622055,0.33333334,0.5522388,0,0.0,0.0,0.0,0.0,0.0,0,0,0.0,0.0,0,0,32.0,0.0,0.0,4632.307692307693,3949.7435897435903,4523.076923076924,4440.000000000001,4254.358974358975,4566.666666666667,4441.025641025642,4428.717948717949,4337.435897435898,4666.666666666667,4337.435897435898,4242.051282051282,4170.769230769231,4512.307692307693
5011.893,0.5074225,0.89778054,0.33333334,0.5522388,0,0.0,1.0,0.0,0.0,0.0,0,0,0.0,0.0,0,0,96.0,0.0,344.0,4638.461538461539,3945.6410256410263,4528.717948717949,4441.025641025642,4260.000000000001,4570.769230769231,4442.051282051282,4448.717948717949,4466.666666666667,4771.282051282052,4361.025641025642,4248.717948717949,4251.794871794872,4535.384615384616
5011.893,0.5074225,0.89778054,0.33333334,0.5522388,0,0.0,1.0,0.0,0.0,0.0,0,0,0.0,0.0,0,0,96.0,0.0,344.0,4638.461538461539,3945.6410256410263,4528.717948717949,4441.025641025642,4260.000000000001,4570.769230769231,4442.051282051282,4448.717948717949,4466.666666666667,4771.282051282052,4361.025641025642,4248.717948717949,4251.794871794872,4535.384615384616
5012.3936,0.48740292,0.8839806,0.33333334,0.5522388,0,0.0,1.0,0.0,0.0,0.0,0,0,0.0,0.0,0,0,31.0,0.0,0.0,4629.2307692307695,3937.9487179487182,4529.2307692307695,4428.717948717949,4254.358974358975,4568.205128205129,4444.615384615385,4469.2307692307695,4468.717948717949,4809.2307692307695,4389.743589743591,4248.717948717949,4303.589743589744,4509.2307692307695
5012.3936,0.48740292,0.8839806,0.33333334,0.5522388,0,0.0,1.0,0.0,0.0,0.0,0,0,0.0,0.0,0,0,31.0,0.0,0.0,4629.2307692307695,3937.9487179487182,4529.2307692307695,4428.717948717949,4254.358974358975,4568.205128205129,4444.615384615385,4469.2307692307695,4468.717948717949,4809.2307692307695,4389.743589743591,4248.717948717949,4303.589743589744,4509.2307692307695
5012.894,0.44301674,0.8730853,0.33333334,0.5522388,0,0.0,1.0,0.0,0.0,0.0,0,0,0.0,0.0,0,0,95.0,0.0,484.0,4662.564102564103,3942.564102564103,4533.333333333334,4443.076923076924,4249.74358974359,4566.153846153847,4473.846153846154,4524.102564102564,4747.179487179488,5030.769230769231,4446.666666666667,4283.076923076924,4449.743589743591,4594.871794871796
5012.894,0.44301674,0.8730853,0.33333334,0.5522388,0,0.0,1.0,0.0,0.0,0.0,0,0,0.0,0.0,0,0,95.0,0.0,484.0,4662.564102564103,3942.564102564103,4533.333333333334,4443.076923076924,4249.74358974359,4566.153846153847,4473.846153846154,4524.102564102564,4747.179487179488,5030.769230769231,4446.666666666667,4283.076923076924,4449.743589743591,4594.871794871796
5013.3945,0.47241333,0.87427026,0.33333334,0.5522388,0,0.0,1.0,0.0,0.0,0.0,0,0,0.0,0.0,0,0,30.0,0.0,0.0,4667.6923076923085,3956.9230769230776,4533.333333333334,4443.589743589744,4249.2307692307695,4555.384615384616,4460.000000000001,4527.6923076923085,4684.615384615386,4992.820512820514,4450.769230769231,4281.538461538462,4404.102564102564,4624.102564102564
5013.3945,0.47241333,0.87427026,0.33333334,0.5522388,0,0.0,1.0,0.0,0.0,0.0,0,0,0.0,0.0,0,0,30.0,0.0,0.0,4667.6923076923085,3956.9230769230776,4533.333333333334,4443.589743589744,4249.2307692307695,4555.384615384616,4460.000000000001,4527.6923076923085,4684.615384615386,4992.820512820514,4450.769230769231,4281.538461538462,4404.102564102564,4624.102564102564
5013.895,0.460512,0.8752489,0.33333334,0.5522388,0,0.0,1.0,0.0,0.0,0.0,0,0,0.0,0.0,0,0,94.0,0.0,1483.0,4657.435897435898,3944.615384615385,4523.076923076924,4434.358974358975,4247.6923076923085,4554.871794871796,4469.743589743591,4509.2307692307695,4519.48717948718,4881.538461538462,4436.410256410257,4285.641025641026,4309.2307692307695,4622.051282051282
5013.895,0.460512,0.8752489,0.33333334,0.5522388,0,0.0,1.0,0.0,0.0,0.0,0,0,0.0,0.0,0,0,94.0,0.0,1483.0,4657.435897435898,3944.615384615385,4523.076923076924,4434.358974358975,4247.6923076923085,4554.871794871796,4469.743589743591,4509.2307692307695,4519.48717948718,4881.538461538462,4436.410256410257,4285.641025641026,4309.2307692307695,4622.051282051282
5014.395,0.3992152,0.86825866,0.33333334,0.5522388,0,0.0,0.0,0.0,0.0,0.0,0,0,0.0,0.0,0,0,29.0,0.0,0.0,4664.615384615386,3943.076923076924,4529.2307692307695,4442.564102564103,4250.769230769231,4565.641025641026,4460.512820512821,4532.307692307693,4657.435897435898,4971.282051282052,4455.384615384616,4281.025641025642,4389.2307692307695,4652.307692307693
5014.395,0.3992152,0.86825866,0.33333334,0.5522388,0,0.0,0.0,0.0,0.0,0.0,0,0,0.0,0.0,0,0,29.0,0.0,0.0,4664.615384615386,3943.076923076924,4529.2307692307695,4442.564102564103,4250.769230769231,4565.641025641026,4460.512820512821,4532.307692307693,4657.435897435898,4971.282051282052,4455.384615384616,4281.025641025642,4389.2307692307695,4652.307692307693
5014.8955,0.36968836,0.8673428,0.33333334,0.5522388,0,0.0,0.0,0.0,0.0,0.0,0,0,0.0,0.0,0,0,93.0,0.0,299.0,4683.589743589744,3948.717948717949,4532.307692307693,4442.564102564103,4261.025641025642,4569.2307692307695,4468.717948717949,4551.794871794872,4753.846153846154,5044.102564102564,4484.615384615385,4282.564102564103,4455.8974358974365,4625.128205128206
5014.9893,0.36968836,0.8673428,0.33333334,0.5522388,0,0.0,1.0,0.0,0.0,0.0,0,0,0.0,0.0,0,0,105.0,0.0,299.0,4678.461538461539,3938.9743589743593,4528.717948717949,4439.48717948718,4250.769230769231,4562.564102564103,4464.102564102564,4540.512820512821,4694.871794871796,4981.538461538462,4475.8974358974365,4280.000000000001,4419.48717948718,4604.615384615385
5015.396,0.34873152,0.84869695,0.33333334,0.5522388,0,0.0,1.0,0.0,0.0,0.0,0,0,0.0,0.0,0,0,28.0,0.0,0.0,4680.000000000001,3946.666666666667,4521.538461538462,4439.48717948718,4248.717948717949,4555.8974358974365,4455.384615384616,4527.6923076923085,4529.2307692307695,4889.2307692307695,4464.615384615385,4273.333333333334,4340.512820512821,4580.512820512821
5015.396,0.34873152,0.84869695,0.33333334,0.5522388,0,0.0,1.0,0.0,0.0,0.0,0,0,0.0,0.0,0,0,28.0,0.0,0.0,4680.000000000001,3946.666666666667,4521.538461538462,4439.48717948718,4248.717948717949,4555.8974358974365,4455.384615384616,4527.6923076923085,4529.2307692307695,4889.2307692307695,4464.615384615385,4273.333333333334,4340.512820512821,4580.512820512821
5015.8965,0.31800985,0.83152735,0.33333334,0.5522388,0,0.0,1.0,0.0,0.0,0.0,0,0,0.0,0.0,0,0,92.0,0.0,335.0,4704.615384615386,3947.1794871794878,4526.666666666667,4441.538461538462,4249.2307692307695,4554.358974358975,4446.666666666667,4529.743589743591,4526.666666666667,4887.179487179488,4469.743589743591,4272.820512820514,4333.846153846154,4569.743589743591
5015.8965,0.31800985,0.83152735,0.33333334,0.5522388,0,0.0,1.0,0.0,0.0,0.0,0,0,0.0,0.0,0,0,92.0,0.0,335.0,4704.615384615386,3947.1794871794878,4526.666666666667,4441.538461538462,4249.2307692307695,4554.358974358975,4446.666666666667,4529.743589743591,4526.666666666667,4887.179487179488,4469.743589743591,4272.820512820514,4333.846153846154,4569.743589743591
5016.397,0.28746316,0.81626993,0.33333334,0.5522388,0,0.0,1.0,0.0,0.0,0.0,0,0,0.0,0.0,0,0,27.0,0.0,0.0,4677.435897435898,3952.820512820513,4528.717948717949,4446.666666666667,4256.923076923077,4569.743589743591,4448.717948717949,4527.6923076923085,4510.256410256411,4867.6923076923085,4468.717948717949,4263.589743589744,4317.435897435898,4534.871794871796
5016.397,0.28746316,0.81626993,0.33333334,0.5522388,0,0.0,1.0,0.0,0.0,0.0,0,0,0.0,0.0,0,0,27.0,0.0,0.0,4677.435897435898,3952.820512820513,4528.717948717949,4446.666666666667,4256.923076923077,4569.743589743591,4448.717948717949,4527.6923076923085,4510.256410256411,4867.6923076923085,4468.717948717949,4263.589743589744,4317.435897435898,4534.871794871796
5016.8975,0.26357847,0.8029279,0.33333334,0.5522388,0,0.0,1.0,0.0,0.0,0.0,0,0,0.0,0.0,0,0,91.0,0.0,484.0,4708.717948717949,3951.7948717948725,4515.384615384616,4444.615384615385,4247.6923076923085,4555.8974358974365,4439.48717948718,4506.666666666667,4353.333333333334,4758.461538461539,4443.076923076924,4263.076923076924,4208.205128205129,4572.820512820514
5017.116,0.26357847,0.8029279,0.33333334,0.5522388,0,0.0,0.0,0.0,0.0,0.0,0,0,0.0,0.0,0,0,119.0,0.0,484.0,4696.410256410257,3943.076923076924,4508.717948717949,4443.076923076924,4245.128205128206,4553.846153846154,4432.307692307693,4472.307692307693,4148.205128205129,4593.846153846154,4405.641025641026,4252.820512820514,4074.358974358975,4576.410256410257
5017.398,0.30313343,0.78302974,0.33333334,0.5522388,0,0.0,1.0,0.0,0.0,0.0,0,0,0.0,0.0,0,0,26.0,0.0,0.0,4707.179487179488,3946.666666666667,4517.435897435898,4450.256410256411,4249.2307692307695,4561.025641025642,4430.256410256411,4495.8974358974365,4362.564102564103,4737.948717948719,4422.564102564103,4252.820512820514,4188.717948717949,4575.8974358974365
5017.398,0.30313343,0.78302974,0.33333334,0.5522388,0,0.0,1.0,0.0,0.0,0.0,0,0,0.0,0.0,0,0,26.0,0.0,0.0,4707.179487179488,3946.666666666667,4517.435897435898,4450.256410256411,4249.2307692307695,4561.025641025642,4430.256410256411,4495.8974358974365,4362.564102564103,4737.948717948719,4422.564102564103,4252.820512820514,4188.717948717949,4575.8974358974365
5017.8984,0.3366766,0.7649489,0.33333334,0.5522388,0,0.0,1.0,0.0,0.0,0.0,0,0,0.0,0.0,0,0,90.0,0.0,1485.0,4678.461538461539,3945.1282051282055,4498.461538461539,4444.102564102564,4248.717948717949,4556.410256410257,4422.051282051282,4426.666666666667,3994.358974358975,4444.102564102564,4340.512820512821,4237.435897435898,3932.307692307693,4592.820512820514
5017.8984,0.3366766,0.7649489,0.33333334,0.5522388,0,0.0,1.0,0.0,0.0,0.0,0,0,0.0,0.0,0,0,90.0,0.0,1485.0,4678.461538461539,3945.1282051282055,4498.461538461539,4444.102564102564,4248.717948717949,4556.410256410257,4422.051282051282,4426.666666666667,3994.358974358975,4444.102564102564,4340.512820512821,4237.435897435898,3932.307692307693,4592.820512820514
5018.3984,0.35563526,0.7584439,0.33333334,0.5522388,0,0.0,1.0,0.0,0.0,0.0,0,0,0.0,0.0,0,0,25.0,0.0,0.0,4694.871794871796,3956.410256410257,4511.282051282052,4460.512820512821,4258.974358974359,4566.153846153847,4445.128205128206,4426.153846153847,4198.461538461539,4554.358974358975,4321.538461538462,4248.717948717949,4010.7692307692314,4574.871794871796
5018.3984,0.35563526,0.7584439,0.33333334,0.5522388,0,0.0,1.0,0.0,0.0,0.0,0,0,0.0,0.0,0,0,25.0,0.0,0.0,4694.871794871796,3956.410256410257,4511.282051282052,4460.512820512821,4258.974358974359,4566.153846153847,4445.128205128206,4426.153846153847,4198.461538461539,4554.358974358975,4321.538461538462,4248.717948717949,4010.7692307692314,4574.871794871796
5018.899,0.3453977,0.75452644,0.33333334,0.5522388,0,0.0,1.0,0.0,0.0,0.0,0,0,0.0,0.0,0,0,89.0,0.0,299.0,4687.179487179488,3956.410256410257,4522.564102564103,4457.435897435898,4249.74358974359,4555.384615384616,4446.153846153847,4472.820512820514,4552.307692307693,4812.307692307693,4371.794871794872,4263.589743589744,4261.538461538462,4592.820512820514
5018.9927,0.3453977,0.75452644,0.33333334,0.5522388,0,0.0,0.0,0.0,0.0,0.0,0,0,0.0,0.0,0,0,101.0,0.0,299.0,4706.153846153847,3958.9743589743593,4533.333333333334,4458.461538461539,4263.076923076924,4567.179487179488,4445.641025641026,4496.923076923077,4625.128205128206,4916.923076923077,4398.974358974359,4270.256410256411,4350.769230769231,4608.717948717949
5019.7437,0.34197825,0.7586506,0.33333334,0.5522388,0,0.0,1.0,0.0,0.0,0.0,0,0,0.0,0.0,0,0,68.0,0.0,581.0,4651.794871794872,3947.692307692308,4496.923076923077,4445.641025641026,4249.2307692307695,4553.846153846154,4460.000000000001,4327.179487179487,3710.2564102564106,4195.8974358974365,4195.8974358974365,4237.435897435898,3712.820512820513,4580.512820512821
5019.7437,0.34197825,0.7586506,0.33333334,0.5522388,0,0.0,1.0,0.0,0.0,0.0,0,0,0.0,0.0,0,0,68.0,0.0,581.0,4651.794871794872,3947.692307692308,4496.923076923077,4445.641025641026,4249.2307692307695,4553.846153846154,4460.000000000001,4327.179487179487,3710.2564102564106,4195.8974358974365,4195.8974358974365,4237.435897435898,3712.820512820513,4580.512820512821
5019.9,0.3458281,0.77775306,0.33333334,0.5522388,0,0.0,1.0,0.0,0.0,0.0,0,0,0.0,0.0,0,0,88.0,0.0,341.0,4640.000000000001,3946.666666666667,4485.128205128206,4446.153846153847,4248.205128205129,4553.333333333334,4445.641025641026,4313.846153846154,3812.820512820513,4202.564102564103,4185.641025641026,4223.589743589744,3724.615384615385,4580.512820512821
5019.9,0.3458281,0.77775306,0.33333334,0.5522388,0,0.0,1.0,0.0,0.0,0.0,0,0,0.0,0.0,0,0,88.0,0.0,341.0,4640.000000000001,3946.666666666667,4485.128205128206,4446.153846153847,4248.205128205129,4553.333333333334,4445.641025641026,4313.846153846154,3812.820512820513,4202.564102564103,4185.641025641026,4223.589743589744,3724.615384615385,4580.512820512821
5020.4004,0.29680878,0.7990895,0.33333334,0.5522388,0,0.0,1.0,0.0,0.0,0.0,0,0,0.0,0.0,0,0,23.0,0.0,0.0,4648.205128205129,3942.564102564103,4502.564102564103,4452.307692307693,4248.717948717949,4553.333333333334,4433.333333333334,4344.615384615385,4155.8974358974365,4464.615384615385,4210.769230769231,4228.205128205129,3972.307692307693,4587.6923076923085
5020.4004,0.29680878,0.7990895,0.33333334,0.5522388,0,0.0,1.0,0.0,0.0,0.0,0,0,0.0,0.0,0,0,23.0,0.0,0.0,4648.205128205129,3942.564102564103,4502.564102564103,4452.307692307693,4248.717948717949,4553.333333333334,4433.333333333334,4344.615384615385,4155.8974358974365,4464.615384615385,4210.769230769231,4228.205128205129,3972.307692307693,4587.6923076923085
5020.901,0.30442342,0.80511206,0.33333334,0.5522388,0,0.0,1.0,0.0,0.0,0.0,0,0,0.0,0.0,0,0,87.0,0.0,484.0,4649.2307692307695,3944.615384615385,4513.846153846154,4444.615384615385,4248.205128205129,4555.384615384616,4444.102564102564,4389.743589743591,4468.205128205129,4705.641025641026,4260.512820512821,4246.666666666667,4186.153846153847,4607.179487179488
5020.901,0.30442342,0.80511206,0.33333334,0.5522388,0,0.0,1.0,0.0,0.0,0.0,0,0,0.0,0.0,0,0,87.0,0.0,484.0,4649.2307692307695,3944.615384615385,4513.846153846154,4444.615384615385,4248.205128205129,4555.384615384616,4444.102564102564,4389.743589743591,4468.205128205129,4705.641025641026,4260.512820512821,4246.666666666667,4186.153846153847,4607.179487179488
5021.4014,0.24888843,0.8066715,0.33333334,0.5522388,0,0.0,1.0,0.0,0.0,0.0,0,0,0.0,0.0,0,0,22.0,0.0,0.0,4655.8974358974365,3942.564102564103,4505.128205128206,4446.153846153847,4251.282051282052,4557.948717948719,4448.205128205129,4362.564102564103,4257.948717948719,4583.589743589744,4233.333333333334,4243.589743589744,4053.333333333334,4606.153846153847
5021.4014,0.24888843,0.8066715,0.33333334,0.5522388,0,0.0,1.0,0.0,0.0,0.0,0,0,0.0,0.0,0,0,22.0,0.0,0.0,4655.8974358974365,3942.564102564103,4505.128205128206,4446.153846153847,4251.282051282052,4557.948717948719,4448.205128205129,4362.564102564103,4257.948717948719,4583.589743589744,4233.333333333334,4243.589743589744,4053.333333333334,4606.153846153847
5021.902,0.24365108,0.80164874,0.33333334,0.5522388,0,0.0,1.0,0.0,0.0,0.0,0,0,0.0,0.0,0,0,86.0,0.0,1492.0,4647.6923076923085,3941.538461538462,4514.358974358975,4443.589743589744,4254.871794871796,4559.48717948718,4440.512820512821,4405.128205128206,4492.307692307693,4775.8974358974365,4288.205128205129,4248.717948717949,4243.076923076924,4592.820512820514
5021.902,0.24365108,0.80164874,0.33333334,0.5522388,0,0.0,1.0,0.0,0.0,0.0,0,0,0.0,0.0,0,0,86.0,0.0,1492.0,4647.6923076923085,3941.538461538462,4514.358974358975,4443.589743589744,4254.871794871796,4559.48717948718,4440.512820512821,4405.128205128206,4492.307692307693,4775.8974358974365,4288.205128205129,4248.717948717949,4243.076923076924,4592.820512820514
5022.402,0.2292747,0.7920965,0.33333334,0.5522388,0,0.0,1.0,0.0,0.0,0.0,0,0,0.0,0.0,0,0,21.0,0.0,0.0,4629.743589743591,3926.1538461538466,4506.666666666667,4433.333333333334,4249.74358974359,4556.923076923077,4428.717948717949,4395.8974358974365,4369.743589743591,4703.076923076924,4291.282051282052,4234.871794871796,4202.564102564103,4561.538461538462
5022.402,0.2292747,0.7920965,0.33333334,0.5522388,0,0.0,1.0,0.0,0.0,0.0,0,0,0.0,0.0,0,0,21.0,0.0,0.0,4629.743589743591,3926.1538461538466,4506.666666666667,4433.333333333334,4249.74358974359,4556.923076923077,4428.717948717949,4395.8974358974365,4369.743589743591,4703.076923076924,4291.282051282052,4234.871794871796,4202.564102564103,4561.538461538462
5022.9023,0.37205043,0.79903245,0.33333334,0.5522388,0,0.0,1.0,0.0,0.0,0.0,0,0,0.0,0.0,0,1,85.0,0.0,299.0,4662.051282051282,3937.9487179487182,4528.205128205129,4443.589743589744,4250.769230769231,4563.076923076924,4444.615384615385,4498.974358974359,4860.000000000001,5117.435897435898,4407.6923076923085,4269.74358974359,4536.923076923077,4632.307692307693
5023.059,0.37205043,0.79903245,0.33333334,0.5522388,0,0.0,1.0,0.0,0.0,0.0,0,0,0.0,0.0,0,0,105.0,0.0,299.0,4655.384615384616,3947.1794871794878,4530.256410256411,4445.641025641026,4262.051282051282,4570.769230769231,4431.282051282052,4492.307692307693,4782.051282051282,5055.384615384616,4401.025641025642,4260.512820512821,4480.000000000001,4598.974358974359
5023.403,0.37220058,0.80736923,0.33333334,0.5522388,0,0.0,1.0,0.0,0.0,0.0,0,0,0.0,0.0,0,0,20.0,0.0,0.0,4651.794871794872,3944.1025641025644,4526.153846153847,4444.102564102564,4255.384615384616,4566.153846153847,4427.179487179487,4472.820512820514,4624.102564102564,4941.025641025642,4386.666666666667,4251.794871794872,4389.2307692307695,4581.025641025642
5023.4966,0.37220058,0.80736923,0.33333334,0.5522388,0,0.0,0.0,0.0,0.0,0.0,0,0,0.0,0.0,0,0,32.0,0.0,0.0,4650.769230769231,3942.0512820512827,4523.076923076924,4443.589743589744,4250.256410256411,4558.974358974359,4408.205128205129,4448.205128205129,4457.435897435898,4815.8974358974365,4368.205128205129,4236.923076923077,4291.794871794872,4551.794871794872
5023.9033,0.5375365,0.8230058,0.33333334,0.5522388,0,0.0,0.0,0.0,0.0,0.0,0,0,0.0,0.0,0,0,84.0,0.0,338.0,4645.641025641026,3940.5128205128212,4519.48717948718,4436.923076923077,4248.205128205129,4555.8974358974365,4417.435897435898,4453.846153846154,4485.128205128206,4836.410256410257,4381.025641025642,4244.102564102564,4303.076923076924,4575.384615384616
5023.9033,0.5375365,0.8230058,0.33333334,0.5522388,0,0.0,0.0,0.0,0.0,0.0,0,0,0.0,0.0,0,0,84.0,0.0,338.0,4645.641025641026,3940.5128205128212,4519.48717948718,4436.923076923077,4248.205128205129,4555.8974358974365,4417.435897435898,4453.846153846154,4485.128205128206,4836.410256410257,4381.025641025642,4244.102564102564,4303.076923076924,4575.384615384616
5024.404,0.6830321,0.83421284,0.33333334,0.5522388,0,0.0,0.0,0.0,0.0,0.0,0,0,0.0,0.0,0,0,19.0,0.0,0.0,4688.205128205129,3940.0000000000005,4534.871794871796,4433.333333333334,4250.769230769231,4556.923076923077,4448.717948717949,4542.051282051282,4904.102564102564,5188.205128205129,4467.179487179487,4281.538461538462,4582.051282051282,4655.8974358974365
5024.404,0.6830321,0.83421284,0.33333334,0.5522388,0,0.0,0.0,0.0,0.0,0.0,0,0,0.0,0.0,0,0,19.0,0.0,0.0,4688.205128205129,3940.0000000000005,4534.871794871796,4433.333333333334,4250.769230769231,4556.923076923077,4448.717948717949,4542.051282051282,4904.102564102564,5188.205128205129,4467.179487179487,4281.538461538462,4582.051282051282,4655.8974358974365
5024.9043,0.81106824,0.8197987,0.33333334,0.5522388,0,0.0,1.0,0.0,0.0,0.0,0,0,0.0,0.0,0,0,83.0,0.0,483.0,4662.051282051282,3940.0000000000005,4522.051282051282,4429.2307692307695,4247.6923076923085,4554.358974358975,4429.2307692307695,4494.358974358975,4581.025641025642,4923.589743589744,4430.256410256411,4252.820512820514,4372.307692307693,4603.076923076924
5024.9043,0.81106824,0.8197987,0.33333334,0.5522388,0,0.0,1.0,0.0,0.0,0.0,0,0,0.0,0.0,0,0,83.0,0.0,483.0,4662.051282051282,3940.0000000000005,4522.051282051282,4429.2307692307695,4247.6923076923085,4554.358974358975,4429.2307692307695,4494.358974358975,4581.025641025642,4923.589743589744,4430.256410256411,4252.820512820514,4372.307692307693,4603.076923076924
5025.405,0.92374,0.8176331,0.33333334,0.5522388,0,0.0,1.0,0.0,0.0,0.0,0,0,0.0,0.0,0,0,18.0,0.0,0.0,4649.743589743591,3940.0000000000005,4524.102564102564,4443.589743589744,4251.794871794872,4558.461538461539,4438.974358974359,4513.846153846154,4647.6923076923085,4979.48717948718,4454.871794871796,4258.974358974359,4426.153846153847,4589.743589743591
5025.6235,0.92374,0.8176331,0.33333334,0.5522388,0,0.0,1.0,0.0,0.0,0.0,0,0,0.0,0.0,0,0,46.0,0.0,0.0,4651.282051282052,3943.589743589744,4519.48717948718,4442.564102564103,4230.256410256411,4535.8974358974365,4429.2307692307695,4502.564102564103,4526.153846153847,4897.948717948719,4442.051282051282,4253.846153846154,4356.410256410257,4579.48717948718
5025.9053,1.0,0.80857426,0.33333334,0.5522388,0,0.0,1.0,0.0,0.0,0.0,0,0,0.0,0.0,0,0,82.0,0.0,1485.0,4649.2307692307695,3941.538461538462,4530.769230769231,4446.153846153847,4230.256410256411,4525.641025641026,4442.564102564103,4569.743589743591,4830.769230769231,5175.384615384616,4515.8974358974365,4278.461538461539,4603.589743589744,4641.025641025642
5025.9053,1.0,0.80857426,0.33333334,0.5522388,0,0.0,1.0,0.0,0.0,0.0,0,0,0.0,0.0,0,0,82.0,0.0,1485.0,4649.2307692307695,3941.538461538462,4530.769230769231,4446.153846153847,4230.256410256411,4525.641025641026,4442.564102564103,4569.743589743591,4830.769230769231,5175.384615384616,4515.8974358974365,4278.461538461539,4603.589743589744,4641.025641025642
5026.406,1.0,0.78321415,0.33333334,0.5522388,0,0.0,0.8823284,0.0,0.0,0.0,0,0,0.0,0.0,0,0,17.0,0.0,0.0,4616.923076923077,3927.692307692308,4528.205128205129,4442.564102564103,4243.589743589744,4539.48717948718,4436.923076923077,4598.461538461539,4803.076923076924,5200.512820512821,4564.615384615385,4270.256410256411,4647.179487179488,4614.358974358975
5026.6245,1.0,0.78321415,0.33333334,0.5522388,0,0.0,0.95642567,0.0,0.0,0.0,0,0,0.0,0.0,0,0,45.0,0.0,0.0,4634.358974358975,3928.717948717949,4523.076923076924,4443.076923076924,4240.000000000001,4540.000000000001,4434.871794871796,4606.153846153847,4837.948717948719,5199.487179487181,4575.384615384616,4268.205128205129,4642.564102564103,4596.923076923077
5026.906,0.98422754,0.77292246,0.33333334,0.5522388,0,0.0,1.0,0.0,0.0,0.0,0,0,0.0,0.0,0,0,81.0,0.0,301.0,4643.076923076924,3939.48717948718,4520.512820512821,4442.051282051282,4236.923076923077,4550.256410256411,4424.615384615385,4591.282051282052,4650.256410256411,5080.000000000001,4560.000000000001,4256.923076923077,4527.179487179488,4591.794871794872
5026.906,0.98422754,0.77292246,0.33333334,0.5522388,0,0.0,1.0,0.0,0.0,0.0,0,0,0.0,0.0,0,0,81.0,0.0,301.0,4643.076923076924,3939.48717948718,4520.512820512821,4442.051282051282,4236.923076923077,4550.256410256411,4424.615384615385,4591.282051282052,4650.256410256411,5080.000000000001,4560.000000000001,4256.923076923077,4527.179487179488,4591.794871794872
5027.4062,0.91472626,0.7621683,0.33333334,0.5522388,0,0.0,1.0,0.0,0.0,0.0,0,0,0.0,0.0,0,0,16.0,0.0,0.0,4666.666666666667,3940.5128205128212,4527.6923076923085,4448.717948717949,4240.000000000001,4554.871794871796,4432.307692307693,4638.461538461539,4785.641025641026,5214.871794871796,4613.333333333334,4270.769230769231,4627.179487179488,4616.410256410257
5027.4062,0.91472626,0.7621683,0.33333334,0.5522388,0,0.0,1.0,0.0,0.0,0.0,0,0,0.0,0.0,0,0,16.0,0.0,0.0,4666.666666666667,3940.5128205128212,4527.6923076923085,4448.717948717949,4240.000000000001,4554.871794871796,4432.307692307693,4638.461538461539,4785.641025641026,5214.871794871796,4613.333333333334,4270.769230769231,4627.179487179488,4616.410256410257
5027.9067,1.0,0.7486177,0.33333334,0.5522388,0,0.0,1.0,0.0,0.0,0.0,0,0,0.0,0.0,0,0,80.0,0.0,327.0,4652.820512820514,3931.7948717948725,4525.128205128206,4455.8974358974365,4249.2307692307695,4561.538461538462,4430.256410256411,4612.820512820514,4606.666666666667,5043.076923076924,4594.358974358975,4254.871794871796,4484.102564102564,4582.564102564103
5027.9067,1.0,0.7486177,0.33333334,0.5522388,0,0.0,1.0,0.0,0.0,0.0,0,0,0.0,0.0,0,0,80.0,0.0,327.0,4652.820512820514,3931.7948717948725,4525.128205128206,4455.8974358974365,4249.2307692307695,4561.538461538462,4430.256410256411,4612.820512820514,4606.666666666667,5043.076923076924,4594.358974358975,4254.871794871796,4484.102564102564,4582.564102564103
5028.407,1.0,0.7467326,0.33333334,0.5522388,0,0.0,0.0,0.0,0.0,0.16387714,0,0,0.0,0.0,0,0,15.0,0.0,483.0,4647.6923076923085,3939.48717948718,4521.538461538462,4449.743589743591,4249.74358974359,4564.102564102564,4446.153846153847,4613.333333333334,4573.846153846154,5008.205128205129,4586.666666666667,4266.153846153847,4453.333333333334,4564.102564102564
5028.626,1.0,0.7467326,0.33333334,0.5522388,0,0.0,1.0,0.0,0.0,0.0,0,0,0.0,0.0,0,0,43.0,0.0,0.0,4662.564102564103,3932.820512820513,4524.615384615385,4443.589743589744,4248.205128205129,4557.435897435898,4436.410256410257,4609.2307692307695,4598.461538461539,4993.333333333334,4577.948717948719,4262.564102564103,4442.051282051282,4563.076923076924
5028.9077,1.0,0.7519296,0.33333334,0.5522388,0,0.0,1.0,0.0,0.0,0.0,0,0,0.0,0.0,0,0,79.0,0.0,483.0,4662.051282051282,3944.615384615385,4523.589743589744,4458.974358974359,4248.205128205129,4561.538461538462,4435.8974358974365,4616.410256410257,4576.923076923077,5001.538461538462,4584.615384615385,4261.025641025642,4437.948717948719,4576.923076923077
5028.9077,1.0,0.7519296,0.33333334,0.5522388,0,0.0,1.0,0.0,0.0,0.0,0,0,0.0,0.0,0,0,79.0,0.0,483.0,4662.051282051282,3944.615384615385,4523.589743589744,4458.974358974359,4248.205128205129,4561.538461538462,4435.8974358974365,4616.410256410257,4576.923076923077,5001.538461538462,4584.615384615385,4261.025641025642,4437.948717948719,4576.923076923077
5029.408,1.0,0.75767475,0.33333334,0.5522388,0,0.0,1.0,0.0,0.0,0.0,0,0,0.0,0.0,0,0,14.0,0.0,1476.0,4675.8974358974365,3929.2307692307695,4518.461538461539,4462.051282051282,4241.025641025642,4554.358974358975,4446.666666666667,4615.8974358974365,4569.2307692307695,4987.179487179488,4572.820512820514,4276.923076923077,4405.641025641026,4632.307692307693
5029.408,1.0,0.75767475,0.33333334,0.5522388,0,0.0,1.0,0.0,0.0,0.0,0,0,0.0,0.0,0,0,14.0,0.0,1476.0,4675.8974358974365,3929.2307692307695,4518.461538461539,4462.051282051282,4241.025641025642,4554.358974358975,4446.666666666667,4615.8974358974365,4569.2307692307695,4987.179487179488,4572.820512820514,4276.923076923077,4405.641025641026,4632.307692307693
5029.9087,1.0,0.7816353,0.33333334,0.5522388,0,0.0,1.0,0.0,0.0,0.0,0,0,0.0,0.0,0,0,78.0,0.0,1481.0,4613.333333333334,3928.205128205129,4511.794871794872,4453.333333333334,4232.820512820514,4539.48717948718,4440.512820512821,4566.666666666667,4291.282051282052,4743.589743589744,4524.615384615385,4256.923076923077,4236.923076923077,4583.589743589744
5029.9087,1.0,0.7816353,0.33333334,0.5522388,0,0.0,1.0,0.0,0.0,0.0,0,0,0.0,0.0,0,0,78.0,0.0,1481.0,4613.333333333334,3928.205128205129,4511.794871794872,4453.333333333334,4232.820512820514,4539.48717948718,4440.512820512821,4566.666666666667,4291.282051282052,4743.589743589744,4524.615384615385,4256.923076923077,4236.923076923077,4583.589743589744
5030.409,1.0,0.8162505,0.33333334,0.5522388,0,0.0,1.0,0.0,0.0,0.0,0,0,0.0,0.0,0,0,13.0,0.0,302.0,4600.000000000001,3931.2820512820517,4501.538461538462,4451.794871794872,4231.794871794872,4538.461538461539,4418.974358974359,4487.179487179488,3938.461538461539,4433.333333333334,4435.8974358974365,4229.74358974359,3975.8974358974365,4523.589743589744
5030.409,1.0,0.8162505,0.33333334,0.5522388,0,0.0,1.0,0.0,0.0,0.0,0,0,0.0,0.0,0,0,13.0,0.0,302.0,4600.000000000001,3931.2820512820517,4501.538461538462,4451.794871794872,4231.794871794872,4538.461538461539,4418.974358974359,4487.179487179488,3938.461538461539,4433.333333333334,4435.8974358974365,4229.74358974359,3975.8974358974365,4523.589743589744
5030.909,1.0,0.82302207,0.33333334,0.5522388,0,0.0,1.0,0.0,0.0,0.0,0,0,0.0,0.0,0,0,77.0,0.0,302.0,4623.076923076924,3927.1794871794878,4514.358974358975,4446.666666666667,4233.333333333334,4539.48717948718,4418.461538461539,4563.589743589744,4471.794871794872,4844.102564102564,4504.615384615385,4245.128205128206,4324.102564102564,4615.8974358974365
5030.909,1.0,0.82302207,0.33333334,0.5522388,0,0.0,1.0,0.0,0.0,0.0,0,0,0.0,0.0,0,0,77.0,0.0,302.0,4623.076923076924,3927.1794871794878,4514.358974358975,4446.666666666667,4233.333333333334,4539.48717948718,4418.461538461539,4563.589743589744,4471.794871794872,4844.102564102564,4504.615384615385,4245.128205128206,4324.102564102564,4615.8974358974365
5031.4097,1.0,0.81792957,0.33333334,0.5522388,0,0.0,1.0,0.0,0.0,0.0,0,0,0.0,0.0,0,0,12.0,0.0,329.0,4616.923076923077,3929.7435897435903,4528.205128205129,4447.6923076923085,4239.48717948718,4551.794871794872,4409.743589743591,4616.410256410257,4729.743589743591,5078.461538461539,4562.564102564103,4254.358974358975,4544.102564102564,4618.974358974359
5031.4097,1.0,0.81792957,0.33333334,0.5522388,0,0.0,1.0,0.0,0.0,0.0,0,0,0.0,0.0,0,0,12.0,0.0,329.0,4616.923076923077,3929.7435897435903,4528.205128205129,4447.6923076923085,4239.48717948718,4551.794871794872,4409.743589743591,4616.410256410257,4729.743589743591,5078.461538461539,4562.564102564103,4254.358974358975,4544.102564102564,4618.974358974359
5031.91,1.0,0.8123388,0.33333334,0.5522388,0,0.0,1.0,0.0,0.0,0.0,0,0,0.0,0.0,0,0,76.0,0.0,328.0,4598.461538461539,3925.1282051282055,4511.282051282052,4440.000000000001,4230.256410256411,4540.512820512821,4410.769230769231,4578.974358974359,4484.102564102564,4870.769230769231,4523.589743589744,4241.025641025642,4354.358974358975,4616.923076923077
5031.91,1.0,0.8123388,0.33333334,0.5522388,0,0.0,1.0,0.0,0.0,0.0,0,0,0.0,0.0,0,0,76.0,0.0,328.0,4598.461538461539,3925.1282051282055,4511.282051282052,4440.000000000001,4230.256410256411,4540.512820512821,4410.769230769231,4578.974358974359,4484.102564102564,4870.769230769231,4523.589743589744,4241.025641025642,4354.358974358975,4616.923076923077
5032.4106,1.0,0.7960287,0.33333334,0.5522388,0,0.0,1.0,0.0,0.0,0.0,0,0,0.0,0.0,0,0,11.0,0.0,483.0,4584.615384615385,3927.692307692308,4512.820512820514,4446.153846153847,4238.974358974359,4554.871794871796,4409.743589743591,4544.102564102564,4330.769230769231,4751.794871794872,4489.2307692307695,4229.2307692307695,4229.74358974359,4563.589743589744
5032.4106,1.0,0.7960287,0.33333334,0.5522388,0,0.0,1.0,0.0,0.0,0.0,0,0,0.0,0.0,0,0,11.0,0.0,483.0,4584.615384615385,3927.692307692308,4512.820512820514,4446.153846153847,4238.974358974359,4554.871794871796,4409.743589743591,4544.102564102564,4330.769230769231,4751.794871794872,4489.2307692307695,4229.2307692307695,4229.74358974359,4563.589743589744
5032.911,0.9020013,0.78148156,0.33333334,0.5522388,0,0.0,0.0,0.0,0.0,0.0,0,0,0.0,0.0,0,0,75.0,0.0,483.0,4629.743589743591,3928.205128205129,4514.358974358975,4445.128205128206,4240.000000000001,4553.846153846154,4408.205128205129,4567.6923076923085,4515.8974358974365,4888.205128205129,4504.615384615385,4232.307692307693,4351.282051282052,4540.000000000001
5032.911,0.9020013,0.78148156,0.33333334,0.5522388,0,0.0,0.0,0.0,0.0,0.0,0,0,0.0,0.0,0,0,75.0,0.0,483.0,4629.743589743591,3928.205128205129,4514.358974358975,4445.128205128206,4240.000000000001,4553.846153846154,4408.205128205129,4567.6923076923085,4515.8974358974365,4888.205128205129,4504.615384615385,4232.307692307693,4351.282051282052,4540.000000000001
5033.4116,0.98443854,0.7798724,0.33333334,0.5522388,0,0.0,0.0,0.0,0.0,0.0,0,0,0.0,0.0,0,0,10.0,0.0,1475.0,4628.205128205129,3926.1538461538466,4515.8974358974365,4441.538461538462,4237.948717948719,4550.769230769231,4409.2307692307695,4585.128205128206,4582.051282051282,4952.307692307693,4533.333333333334,4233.333333333334,4408.717948717949,4545.641025641026
5033.5054,0.98443854,0.7798724,0.33333334,0.5522388,0,0.0,1.0,0.0,0.0,0.0,0,0,0.0,0.0,0,0,22.0,0.0,0.0,4656.410256410257,3928.205128205129,4522.051282051282,4442.564102564103,4240.000000000001,4554.871794871796,4414.871794871796,4608.205128205129,4727.179487179488,5050.256410256411,4546.153846153847,4249.74358974359,4466.153846153847,4569.743589743591
5033.912,0.94422424,0.78642935,0.33333334,0.5522388,0,0.0,1.0,0.0,0.0,0.0,0,0,0.0,0.0,0,0,74.0,0.0,1480.0,4610.256410256411,3926.666666666667,4509.2307692307695,4433.846153846154,4243.076923076924,4555.8974358974365,4401.538461538462,4558.461538461539,4439.48717948718,4826.153846153847,4504.615384615385,4224.615384615385,4293.333333333334,4542.051282051282
5033.912,0.94422424,0.78642935,0.33333334,0.5522388,0,0.0,1.0,0.0,0.0,0.0,0,0,0.0,0.0,0,0,74.0,0.0,1480.0,4610.256410256411,3926.666666666667,4509.2307692307695,4433.846153846154,4243.076923076924,4555.8974358974365,4401.538461538462,4558.461538461539,4439.48717948718,4826.153846153847,4504.615384615385,4224.615384615385,4293.333333333334,4542.051282051282
5034.4126,0.9410606,0.7799459,0.33333334,0.5522388,0,0.0,0.0,0.0,0.0,0.09445751,0,0,0.0,0.0,0,0,9.0,0.0,3019.0,4595.8974358974365,3928.717948717949,4496.410256410257,4439.48717948718,4246.666666666667,4556.923076923077,4410.256410256411,4514.358974358975,4196.923076923077,4633.846153846154,4448.205128205129,4211.794871794872,4113.333333333334,4529.2307692307695
5034.6313,0.9410606,0.7799459,0.33333334,0.5522388,0,0.0,1.0,0.0,0.0,0.0,0,0,0.0,0.0,0,0,37.0,0.0,0.0,4617.435897435898,3931.7948717948725,4513.333333333334,4443.589743589744,4245.128205128206,4554.871794871796,4416.410256410257,4544.102564102564,4378.974358974359,4781.538461538462,4473.846153846154,4224.102564102564,4237.948717948719,4537.435897435898
5034.9126,0.95643276,0.77060324,0.33333334,0.5522388,0,0.0,0.0,0.0,0.0,0.0,0,0,0.0,0.0,0,0,73.0,0.0,3020.0,4633.846153846154,3942.0512820512827,4517.948717948719,4447.179487179487,4249.74358974359,4568.205128205129,4419.48717948718,4571.794871794872,4591.282051282052,4920.512820512821,4497.435897435898,4235.8974358974365,4342.564102564103,4557.435897435898
5035.007,0.95643276,0.77060324,0.33333334,0.5522388,0,0.0,1.0,0.0,0.0,0.0,0,0,0.0,0.0,0,0,85.0,0.0,302.0,4631.794871794872,3932.820512820513,4516.923076923077,4445.641025641026,4249.2307692307695,4564.615384615385,4433.333333333334,4562.051282051282,4534.358974358975,4886.153846153847,4487.6923076923085,4236.923076923077,4308.205128205129,4560.512820512821
5035.413,0.941326,0.76601934,0.33333334,0.5522388,0,0.0,1.0,0.0,0.0,0.0,0,0,0.0,0.0,0,0,8.0,0.0,4399.0,4640.000000000001,3940.5128205128212,4513.846153846154,4445.128205128206,4248.205128205129,4567.179487179488,4441.025641025642,4554.871794871796,4510.769230769231,4849.2307692307695,4478.461538461539,4240.512820512821,4274.871794871796,4555.8974358974365
5035.413,0.941326,0.76601934,0.33333334,0.5522388,0,0.0,1.0,0.0,0.0,0.0,0,0,0.0,0.0,0,0,8.0,0.0,4399.0,4640.000000000001,3940.5128205128212,4513.846153846154,4445.128205128206,4248.205128205129,4567.179487179488,4441.025641025642,4554.871794871796,4510.769230769231,4849.2307692307695,4478.461538461539,4240.512820512821,4274.871794871796,4555.8974358974365
5035.9136,0.88030285,0.7624975,0.33333334,0.5522388,0,0.0,1.0,0.0,0.0,0.0,0,0,0.0,0.0,0,0,72.0,0.0,4403.0,4636.410256410257,3938.9743589743593,4508.205128205129,4445.128205128206,4249.74358974359,4568.717948717949,4456.923076923077,4528.205128205129,4326.666666666667,4724.102564102564,4440.512820512821,4240.000000000001,4159.48717948718,4549.743589743591
5036.0073,0.88030285,0.7624975,0.33333334,0.5522388,0,0.0,0.0,0.0,0.0,0.0,0,0,0.0,0.0,0,0,84.0,0.0,331.0,4652.820512820514,3942.0512820512827,4511.794871794872,4443.589743589744,4247.6923076923085,4557.435897435898,4459.48717948718,4546.153846153847,4431.282051282052,4803.076923076924,4454.358974358975,4252.820512820514,4220.000000000001,4577.435897435898
5036.414,0.86465245,0.7530795,0.33333334,0.5522388,0,0.0,0.0,0.0,0.0,0.0,0,0,0.0,0.0,0,0,7.0,0.0,543.0,4648.205128205129,3933.8461538461543,4514.358974358975,4445.128205128206,4248.717948717949,4555.8974358974365,4486.153846153847,4574.871794871796,4673.846153846154,4958.974358974359,4484.615384615385,4276.410256410257,4353.333333333334,4616.410256410257
5036.414,0.86465245,0.7530795,0.33333334,0.5522388,0,0.0,0.0,0.0,0.0,0.0,0,0,0.0,0.0,0,0,7.0,0.0,543.0,4648.205128205129,3933.8461538461543,4514.358974358975,4445.128205128206,4248.717948717949,4555.8974358974365,4486.153846153847,4574.871794871796,4673.846153846154,4958.974358974359,4484.615384615385,4276.410256410257,4353.333333333334,4616.410256410257
5036.9146,0.9026925,0.74453646,0.33333334,0.5522388,0,0.0,0.0,0.0,0.0,0.0,0,0,0.0,0.0,0,0,71.0,0.0,543.0,4645.641025641026,3942.564102564103,4507.179487179488,4445.641025641026,4246.153846153847,4554.358974358975,4455.8974358974365,4543.589743589744,4437.948717948719,4797.435897435898,4453.846153846154,4257.948717948719,4224.102564102564,4611.794871794872
5037.1333,0.9026925,0.74453646,0.33333334,0.5522388,0,0.0,0.0,0.0,0.0,0.0,0,0,0.0,0.0,0,0,99.0,0.0,483.0,4628.205128205129,3943.589743589744,4500.000000000001,4443.076923076924,4236.410256410257,4551.794871794872,4450.769230769231,4527.179487179488,4320.000000000001,4725.128205128206,4438.461538461539,4253.846153846154,4186.666666666667,4589.2307692307695
5037.415,0.97560155,0.72739977,0.33333334,0.5522388,0,0.0,0.0,0.0,0.0,0.0,0,0,0.0,0.0,0,0,6.0,0.0,414.0,4642.564102564103,3941.538461538462,4501.025641025642,4445.641025641026,4249.2307692307695,4556.923076923077,4460.000000000001,4506.153846153847,4236.923076923077,4650.256410256411,4412.820512820514,4249.74358974359,4106.153846153847,4563.589743589744
5037.415,0.97560155,0.72739977,0.33333334,0.5522388,0,0.0,0.0,0.0,0.0,0.0,0,0,0.0,0.0,0,0,6.0,0.0,414.0,4642.564102564103,3941.538461538462,4501.025641025642,4445.641025641026,4249.2307692307695,4556.923076923077,4460.000000000001,4506.153846153847,4236.923076923077,4650.256410256411,4412.820512820514,4249.74358974359,4106.153846153847,4563.589743589744
5037.9155,1.0,0.7035367,0.33333334,0.5522388,0,0.0,1.0,0.0,0.0,0.0,0,0,0.0,0.0,0,0,70.0,0.0,414.0,4647.179487179488,3942.564102564103,4507.6923076923085,4446.666666666667,4247.179487179487,4555.8974358974365,4450.256410256411,4524.615384615385,4451.794871794872,4778.461538461539,4430.256410256411,4257.948717948719,4234.871794871796,4553.333333333334
5037.9155,1.0,0.7035367,0.33333334,0.5522388,0,0.0,1.0,0.0,0.0,0.0,0,0,0.0,0.0,0,0,70.0,0.0,414.0,4647.179487179488,3942.564102564103,4507.6923076923085,4446.666666666667,4247.179487179487,4555.8974358974365,4450.256410256411,4524.615384615385,4451.794871794872,4778.461538461539,4430.256410256411,4257.948717948719,4234.871794871796,4553.333333333334
5038.416,0.94882923,0.6798932,0.33333334,0.5522388,0,0.0,1.0,0.0,0.0,0.0,0,0,0.0,0.0,0,0,5.0,0.0,573.0,4629.743589743591,3939.48717948718,4498.461538461539,4442.051282051282,4244.615384615385,4551.794871794872,4442.564102564103,4488.205128205129,4266.666666666667,4638.974358974359,4388.717948717949,4247.179487179487,4117.435897435898,4558.974358974359
5038.416,0.94882923,0.6798932,0.33333334,0.5522388,0,0.0,1.0,0.0,0.0,0.0,0,0,0.0,0.0,0,0,5.0,0.0,573.0,4629.743589743591,3939.48717948718,4498.461538461539,4442.051282051282,4244.615384615385,4551.794871794872,4442.564102564103,4488.205128205129,4266.666666666667,4638.974358974359,4388.717948717949,4247.179487179487,4117.435897435898,4558.974358974359
5038.9165,0.9058576,0.671405,0.33333334,0.5522388,0,0.0,0.0,0.0,0.0,0.0,0,0,0.0,0.0,0,1,69.0,0.0,573.0,4633.846153846154,3950.7692307692314,4520.000000000001,4459.48717948718,4264.102564102564,4569.743589743591,4477.948717948719,4531.282051282052,4526.666666666667,4829.2307692307695,4418.974358974359,4274.871794871796,4230.769230769231,4630.256410256411
5039.1665,0.9058576,0.671405,0.33333334,0.5522388,0,0.0,0.0,0.0,0.0,0.0,0,0,0.0,0.0,0,0,101.0,0.0,302.0,4641.025641025642,3957.435897435898,4521.538461538462,4462.051282051282,4263.589743589744,4571.794871794872,4480.512820512821,4527.179487179488,4489.2307692307695,4820.512820512821,4415.384615384616,4273.333333333334,4234.871794871796,4611.794871794872
5039.4165,0.92926425,0.6665312,0.33333334,0.5522388,0,0.0,0.0,0.0,0.0,0.2720824,0,0,0.0,0.0,0,0,4.0,0.0,581.0,4664.102564102564,3957.435897435898,4513.846153846154,4458.974358974359,4258.974358974359,4568.717948717949,4470.769230769231,4497.435897435898,4317.948717948719,4691.794871794872,4382.564102564103,4278.974358974359,4099.48717948718,4645.128205128206
5039.6357,0.92926425,0.6665312,0.33333334,0.5522388,0,0.0,1.0,0.0,0.0,0.0,0,0,0.0,0.0,0,0,32.0,0.0,0.0,4649.743589743591,3951.2820512820517,4511.794871794872,4457.948717948719,4256.410256410257,4567.6923076923085,4470.256410256411,4478.461538461539,4220.512820512821,4617.948717948719,4357.948717948719,4276.923076923077,4049.7435897435903,4642.564102564103
5039.917,0.83879864,0.6649241,0.33333334,0.5522388,0,0.0,1.0,0.0,0.0,0.0,0,0,0.0,0.0,0,0,68.0,0.0,581.0,4646.666666666667,3942.0512820512827,4517.948717948719,4457.948717948719,4262.564102564103,4570.769230769231,4474.358974358975,4508.717948717949,4455.8974358974365,4770.256410256411,4391.794871794872,4280.512820512821,4205.641025641026,4637.435897435898
5039.917,0.83879864,0.6649241,0.33333334,0.5522388,0,0.0,1.0,0.0,0.0,0.0,0,0,0.0,0.0,0,0,68.0,0.0,581.0,4646.666666666667,3942.0512820512827,4517.948717948719,4457.948717948719,4262.564102564103,4570.769230769231,4474.358974358975,4508.717948717949,4455.8974358974365,4770.256410256411,4391.794871794872,4280.512820512821,4205.641025641026,4637.435897435898
5040.4175,0.85240597,0.6620215,0.33333334,0.5522388,0,0.0,0.0,0.0,0.0,0.0,0,0,0.0,0.0,0,0,3.0,0.0,555.0,4614.871794871796,3942.0512820512827,4498.461538461539,4446.153846153847,4249.2307692307695,4565.641025641026,4455.384615384616,4418.461538461539,3996.410256410257,4426.666666666667,4298.974358974359,4251.794871794872,3936.9230769230776,4571.794871794872
5040.6367,0.85240597,0.6620215,0.33333334,0.5522388,0,0.0,1.0,0.0,0.0,0.0,0,0,0.0,0.0,0,0,31.0,0.0,0.0,4620.000000000001,3942.0512820512827,4503.589743589744,4443.589743589744,4249.2307692307695,4568.205128205129,4453.846153846154,4436.410256410257,4166.153846153847,4542.564102564103,4322.051282051282,4257.435897435898,4052.307692307693,4561.538461538462
5040.918,0.79830116,0.6586246,0.33333334,0.5522388,0,0.0,0.0,0.0,0.0,0.0,0,0,0.0,0.0,0,0,67.0,0.0,555.0,4627.179487179488,3943.589743589744,4504.615384615385,4449.743589743591,4249.74358974359,4565.641025641026,4454.358974358975,4443.076923076924,4248.717948717949,4591.282051282052,4321.025641025642,4258.461538461539,4084.1025641025644,4577.435897435898
5040.918,0.79830116,0.6586246,0.33333334,0.5522388,0,0.0,0.0,0.0,0.0,0.0,0,0,0.0,0.0,0,0,67.0,0.0,555.0,4627.179487179488,3943.589743589744,4504.615384615385,4449.743589743591,4249.74358974359,4565.641025641026,4454.358974358975,4443.076923076924,4248.717948717949,4591.282051282052,4321.025641025642,4258.461538461539,4084.1025641025644,4577.435897435898
5041.4185,0.74251544,0.6692708,0.33333334,0.5522388,0,0.0,0.0,0.0,0.0,0.0,0,0,0.0,0.0,0,0,2.0,0.0,491.0,4728.205128205129,3939.48717948718,4514.871794871796,4458.461538461539,4245.128205128206,4555.384615384616,4451.794871794872,4473.846153846154,4508.205128205129,4770.769230769231,4340.512820512821,4282.564102564103,4192.307692307693,4626.153846153847
5041.4185,0.74251544,0.6692708,0.33333334,0.5522388,0,0.0,0.0,0.0,0.0,0.0,0,0,0.0,0.0,0,0,2.0,0.0,491.0,4728.205128205129,3939.48717948718,4514.871794871796,4458.461538461539,4245.128205128206,4555.384615384616,4451.794871794872,4473.846153846154,4508.205128205129,4770.769230769231,4340.512820512821,4282.564102564103,4192.307692307693,4626.153846153847
5041.919,0.72514015,0.6985064,0.33333334,0.5522388,0,0.0,0.0,0.0,0.0,0.0,0,0,0.0,0.0,0,0,66.0,0.0,491.0,4674.871794871796,3919.48717948718,4513.333333333334,4473.333333333334,4251.282051282052,4559.48717948718,4474.358974358975,4458.461538461539,4458.974358974359,4741.538461538462,4336.410256410257,4273.333333333334,4198.461538461539,4571.282051282052
5041.919,0.72514015,0.6985064,0.33333334,0.5522388,0,0.0,0.0,0.0,0.0,0.0,0,0,0.0,0.0,0,0,66.0,0.0,491.0,4674.871794871796,3919.48717948718,4513.333333333334,4473.333333333334,4251.282051282052,4559.48717948718,4474.358974358975,4458.461538461539,4458.974358974359,4741.538461538462,4336.410256410257,4273.333333333334,4198.461538461539,4571.282051282052
5042.4194,0.7118279,0.72589266,0.33333334,0.5522388,0,0.0,0.0,0.0,0.0,0.0,0,0,0.0,0.0,0,0,1.0,0.0,468.0,4697.435897435898,3931.2820512820517,4521.538461538462,4476.923076923077,4263.589743589744,4569.743589743591,4493.846153846154,4487.6923076923085,4592.307692307693,4854.871794871796,4356.410256410257,4303.589743589744,4246.153846153847,4649.2307692307695
5042.513,0.7118279,0.72589266,0.33333334,0.5522388,0,0.0,1.0,0.0,0.0,0.0,0,0,0.0,0.0,0,0,13.0,0.0,303.0,4702.564102564103,3929.2307692307695,4517.435897435898,4472.820512820514,4259.48717948718,4568.205128205129,4488.717948717949,4439.48717948718,4234.871794871796,4620.000000000001,4307.179487179487,4291.794871794872,4044.615384615385,4622.564102564103
5042.92,0.70522684,0.7521828,0.33333334,0.5522388,0,0.0,1.0,0.0,0.0,0.0,0,0,0.0,0.0,0,0,65.0,0.0,468.0,4676.410256410257,3942.0512820512827,4487.6923076923085,4457.948717948719,4246.153846153847,4553.846153846154,4450.256410256411,4346.153846153847,3799.48717948718,4262.564102564103,4216.410256410257,4245.641025641026,3777.435897435898,4547.179487179488
5042.92,0.70522684,0.7521828,0.33333334,0.5522388,0,0.0,1.0,0.0,0.0,0.0,0,0,0.0,0.0,0,0,65.0,0.0,468.0,4676.410256410257,3942.0512820512827,4487.6923076923085,4457.948717948719,4246.153846153847,4553.846153846154,4450.256410256411,4346.153846153847,3799.48717948718,4262.564102564103,4216.410256410257,4245.641025641026,3777.435897435898,4547.179487179488
5043.42,0.6901351,0.7777902,0.33333334,0.5522388,0,0.0,1.0,0.0,0.0,0.0,0,0,0.0,0.0,0,0,0.0,0.0,349.0,4631.794871794872,3923.589743589744,4498.461538461539,4436.410256410257,4238.974358974359,4553.333333333334,4458.461538461539,4381.538461538462,4153.333333333334,4506.666666666667,4253.846153846154,4267.6923076923085,4031.7948717948725,4572.820512820514
5043.42,0.6901351,0.7777902,0.33333334,0.5522388,0,0.0,1.0,0.0,0.0,0.0,0,0,0.0,0.0,0,0,0.0,0.0,349.0,4631.794871794872,3923.589743589744,4498.461538461539,4436.410256410257,4238.974358974359,4553.333333333334,4458.461538461539,4381.538461538462,4153.333333333334,4506.666666666667,4253.846153846154,4267.6923076923085,4031.7948717948725,4572.820512820514
5043.9204,0.59317625,0.7811536,0.33333334,0.5522388,0,0.0,1.0,0.0,0.0,0.0,0,0,0.0,0.0,0,0,64.0,0.0,349.0,4631.794871794872,3925.6410256410263,4510.256410256411,4433.333333333334,4246.153846153847,4556.923076923077,4441.025641025642,4434.871794871796,4527.6923076923085,4792.820512820514,4317.948717948719,4271.282051282052,4292.307692307693,4576.923076923077
5044.0146,0.59317625,0.7811536,0.33333334,0.5522388,0,0.0,0.0,0.0,0.0,0.0,0,0,0.0,0.0,0,0,76.0,0.0,331.0,4619.48717948718,3932.307692307693,4517.435897435898,4435.8974358974365,4240.512820512821,4555.384615384616,4443.589743589744,4447.6923076923085,4511.794871794872,4821.025641025642,4330.769230769231,4274.358974358975,4323.076923076924,4578.974358974359
5044.421,0.529454,0.8016319,0.33333334,0.5522388,0,0.0,0.0,0.0,0.0,0.44729528,0,0,0.0,0.0,0,0,128.0,0.0,331.0,4614.871794871796,3925.6410256410263,4503.589743589744,4430.256410256411,4227.179487179487,4540.512820512821,4443.076923076924,4432.307692307693,4461.538461538462,4764.102564102564,4321.538461538462,4273.846153846154,4273.333333333334,4567.179487179488
5044.5146,0.529454,0.8016319,0.33333334,0.5522388,0,0.0,0.0,0.0,0.0,0.0,0,0,0.0,0.0,0,0,11.0,0.0,483.0,4627.179487179488,3941.0256410256416,4524.615384615385,4442.051282051282,4233.333333333334,4551.794871794872,4449.743589743591,4475.384615384616,4634.871794871796,4946.666666666667,4359.48717948718,4283.589743589744,4418.461538461539,4580.512820512821
5044.9214,0.5401196,0.81111056,0.33333334,0.5522388,0,0.0,1.0,0.0,0.0,0.0,0,0,0.0,0.0,0,0,63.0,0.0,0.0,4611.794871794872,3937.9487179487182,4510.256410256411,4433.846153846154,4230.256410256411,4540.000000000001,4454.871794871796,4444.102564102564,4462.051282051282,4801.538461538462,4336.923076923077,4271.794871794872,4286.666666666667,4570.256410256411
5044.9214,0.5401196,0.81111056,0.33333334,0.5522388,0,0.0,1.0,0.0,0.0,0.0,0,0,0.0,0.0,0,0,63.0,0.0,0.0,4611.794871794872,3937.9487179487182,4510.256410256411,4433.846153846154,4230.256410256411,4540.000000000001,4454.871794871796,4444.102564102564,4462.051282051282,4801.538461538462,4336.923076923077,4271.794871794872,4286.666666666667,4570.256410256411
5045.422,0.49448922,0.81764823,0.33333334,0.5522388,0,0.0,1.0,0.0,0.0,0.0,0,0,0.0,0.0,0,0,127.0,0.0,483.0,4614.358974358975,3941.0256410256416,4508.205128205129,4442.564102564103,4229.2307692307695,4530.256410256411,4454.871794871796,4435.8974358974365,4364.102564102564,4726.666666666667,4327.6923076923085,4269.74358974359,4193.333333333334,4583.589743589744
5045.422,0.49448922,0.81764823,0.33333334,0.5522388,0,0.0,1.0,0.0,0.0,0.0,0,0,0.0,0.0,0,0,127.0,0.0,483.0,4614.358974358975,3941.0256410256416,4508.205128205129,4442.564102564103,4229.2307692307695,4530.256410256411,4454.871794871796,4435.8974358974365,4364.102564102564,4726.666666666667,4327.6923076923085,4269.74358974359,4193.333333333334,4583.589743589744
5045.9224,0.4297755,0.8220628,0.33333334,0.5522388,0,0.0,1.0,0.0,0.0,0.0,0,0,0.0,0.0,0,0,62.0,0.0,0.0,4637.948717948719,3943.589743589744,4520.512820512821,4443.589743589744,4240.000000000001,4542.051282051282,4461.025641025642,4455.8974358974365,4459.48717948718,4823.589743589744,4346.666666666667,4284.615384615385,4254.871794871796,4625.641025641026
5045.9224,0.4297755,0.8220628,0.33333334,0.5522388,0,0.0,1.0,0.0,0.0,0.0,0,0,0.0,0.0,0,0,62.0,0.0,0.0,4637.948717948719,3943.589743589744,4520.512820512821,4443.589743589744,4240.000000000001,4542.051282051282,4461.025641025642,4455.8974358974365,4459.48717948718,4823.589743589744,4346.666666666667,4284.615384615385,4254.871794871796,4625.641025641026
5046.423,0.3522632,0.8138892,0.33333334,0.5522388,0,0.0,1.0,0.0,0.0,0.0,0,0,0.0,0.0,0,0,126.0,0.0,1479.0,4593.333333333334,3940.0000000000005,4501.538461538462,4442.051282051282,4230.256410256411,4537.948717948719,4449.2307692307695,4390.256410256411,4069.23076923077,4507.179487179488,4290.769230769231,4251.282051282052,4021.538461538462,4555.8974358974365
5046.423,0.3522632,0.8138892,0.33333334,0.5522388,0,0.0,1.0,0.0,0.0,0.0,0,0,0.0,0.0,0,0,126.0,0.0,1479.0,4593.333333333334,3940.0000000000005,4501.538461538462,4442.051282051282,4230.256410256411,4537.948717948719,4449.2307692307695,4390.256410256411,4069.23076923077,4507.179487179488,4290.769230769231,4251.282051282052,4021.538461538462,4555.8974358974365
5046.9233,0.32620853,0.8145073,0.33333334,0.5522388,0,0.0,1.0,0.0,0.0,0.0,0,0,0.0,0.0,0,0,61.0,0.0,0.0,4634.871794871796,3942.564102564103,4524.102564102564,4446.666666666667,4249.74358974359,4554.358974358975,4485.128205128206,4462.051282051282,4522.564102564103,4863.076923076924,4345.128205128206,4287.179487179487,4273.333333333334,4632.820512820514
5046.9233,0.32620853,0.8145073,0.33333334,0.5522388,0,0.0,1.0,0.0,0.0,0.0,0,0,0.0,0.0,0,0,61.0,0.0,0.0,4634.871794871796,3942.564102564103,4524.102564102564,4446.666666666667,4249.74358974359,4554.358974358975,4485.128205128206,4462.051282051282,4522.564102564103,4863.076923076924,4345.128205128206,4287.179487179487,4273.333333333334,4632.820512820514
5047.424,0.29165095,0.8084947,0.33333334,0.5522388,0,0.0,0.0,0.0,0.0,0.0,0,0,0.0,0.0,0,0,125.0,0.0,303.0,4551.794871794872,3955.3846153846157,4518.461538461539,4448.717948717949,4250.256410256411,4555.384615384616,4480.512820512821,4431.794871794872,4363.076923076924,4740.000000000001,4322.051282051282,4280.000000000001,4196.923076923077,4611.282051282052
5047.424,0.29165095,0.8084947,0.33333334,0.5522388,0,0.0,0.0,0.0,0.0,0.0,0,0,0.0,0.0,0,0,125.0,0.0,303.0,4551.794871794872,3955.3846153846157,4518.461538461539,4448.717948717949,4250.256410256411,4555.384615384616,4480.512820512821,4431.794871794872,4363.076923076924,4740.000000000001,4322.051282051282,4280.000000000001,4196.923076923077,4611.282051282052
5047.924,0.2627409,0.838273,0.33333334,0.5522388,0,0.0,0.0,0.0,0.0,0.0,0,0,0.0,0.0,0,0,60.0,0.0,0.0,4584.102564102564,3946.1538461538466,4520.512820512821,4448.205128205129,4248.205128205129,4558.461538461539,4467.6923076923085,4437.948717948719,4351.282051282052,4735.8974358974365,4330.769230769231,4277.435897435898,4202.564102564103,4592.307692307693
5047.924,0.2627409,0.838273,0.33333334,0.5522388,0,0.0,0.0,0.0,0.0,0.0,0,0,0.0,0.0,0,0,60.0,0.0,0.0,4584.102564102564,3946.1538461538466,4520.512820512821,4448.205128205129,4248.205128205129,4558.461538461539,4467.6923076923085,4437.948717948719,4351.282051282052,4735.8974358974365,4330.769230769231,4277.435897435898,4202.564102564103,4592.307692307693
5048.4243,0.21894743,0.8725418,0.33333334,0.5522388,0,0.0,1.0,0.0,0.0,0.0,0,0,0.0,0.0,0,0,124.0,0.0,330.0,4643.076923076924,3957.9487179487182,4508.717948717949,4458.974358974359,4248.717948717949,4561.538461538462,4441.025641025642,4391.794871794872,4088.205128205129,4518.461538461539,4289.2307692307695,4258.974358974359,4009.7435897435903,4545.128205128206
5048.4243,0.21894743,0.8725418,0.33333334,0.5522388,0,0.0,1.0,0.0,0.0,0.0,0,0,0.0,0.0,0,0,124.0,0.0,330.0,4643.076923076924,3957.9487179487182,4508.717948717949,4458.974358974359,4248.717948717949,4561.538461538462,4441.025641025642,4391.794871794872,4088.205128205129,4518.461538461539,4289.2307692307695,4258.974358974359,4009.7435897435903,4545.128205128206
5048.9014,0.2355873,0.90994155,0.33333334,0.5522388,0,0.0,1.0,0.0,0.0,0.0,0,0,0.0,0.0,0,0,59.0,0.0,0.0,4682.564102564103,3958.9743589743593,4520.000000000001,4462.051282051282,4249.2307692307695,4565.641025641026,4444.615384615385,4423.076923076924,4313.333333333334,4693.333333333334,4319.48717948718,4262.564102564103,4144.615384615385,4575.384615384616
5048.9014,0.2355873,0.90994155,0.33333334,0.5522388,0,0.0,1.0,0.0,0.0,0.0,0,0,0.0,0.0,0,0,59.0,0.0,0.0,4682.564102564103,3958.9743589743593,4520.000000000001,4462.051282051282,4249.2307692307695,4565.641025641026,4444.615384615385,4423.076923076924,4313.333333333334,4693.333333333334,4319.48717948718,4262.564102564103,4144.615384615385,4575.384615384616
5049.402,0.1823446,0.9483286,0.33333334,0.5522388,0,0.0,1.0,0.0,0.0,0.0,0,0,0.0,0.0,0,0,123.0,0.0,483.0,4684.615384615386,3940.0000000000005,4513.333333333334,4474.871794871796,4249.74358974359,4555.384615384616,4427.179487179487,4429.2307692307695,4347.179487179487,4731.282051282052,4316.923076923077,4247.6923076923085,4196.923076923077,4611.282051282052
5049.6206,0.1823446,0.9483286,0.33333334,0.5522388,0,0.0,0.0,0.0,0.0,0.0,0,0,0.0,0.0,0,0,22.0,0.0,0.0,4707.6923076923085,3944.1025641025644,4515.8974358974365,4473.333333333334,4249.2307692307695,4553.846153846154,4426.153846153847,4466.666666666667,4578.974358974359,4913.333333333334,4364.102564102564,4257.435897435898,4356.410256410257,4625.641025641026
5049.9023,0.22444881,0.9579971,0.33333334,0.5522388,0,0.0,0.0,0.0,0.0,0.0,0,0,0.0,0.0,0,0,58.0,0.0,0.0,4691.282051282052,3937.435897435898,4512.307692307693,4458.461538461539,4231.282051282052,4531.794871794872,4425.128205128206,4470.769230769231,4452.307692307693,4865.128205128206,4377.435897435898,4255.8974358974365,4345.128205128206,4604.615384615385
5050.121,0.22444881,0.9579971,0.33333334,0.5522388,0,0.0,1.0,0.0,0.0,0.0,0,0,0.0,0.0,0,0,86.0,0.0,1479.0,4701.025641025642,3941.0256410256416,4507.179487179488,4461.538461538462,4245.641025641026,4540.000000000001,4432.307692307693,4430.256410256411,4275.384615384616,4691.282051282052,4336.923076923077,4253.333333333334,4152.820512820514,4609.2307692307695
5050.403,0.2871923,0.956657,0.33333334,0.5522388,0,0.0,1.0,0.0,0.0,0.0,0,0,0.0,0.0,0,0,122.0,0.0,1479.0,4666.153846153847,3941.0256410256416,4505.128205128206,4455.8974358974365,4232.820512820514,4534.871794871796,4422.051282051282,4406.666666666667,4165.641025641026,4593.846153846154,4320.000000000001,4240.512820512821,4107.179487179487,4556.923076923077
5050.403,0.2871923,0.956657,0.33333334,0.5522388,0,0.0,1.0,0.0,0.0,0.0,0,0,0.0,0.0,0,0,122.0,0.0,1479.0,4666.153846153847,3941.0256410256416,4505.128205128206,4455.8974358974365,4232.820512820514,4534.871794871796,4422.051282051282,4406.666666666667,4165.641025641026,4593.846153846154,4320.000000000001,4240.512820512821,4107.179487179487,4556.923076923077
5050.9033,0.28605214,0.980088,0.33333334,0.5522388,0,0.0,1.0,0.0,0.0,0.0,0,0,0.0,0.0,0,0,57.0,0.0,0.0,4684.102564102564,3924.1025641025644,4513.333333333334,4442.564102564103,4240.000000000001,4537.435897435898,4444.102564102564,4470.769230769231,4483.076923076924,4858.461538461539,4384.615384615385,4269.2307692307695,4343.076923076924,4575.384615384616
5050.997,0.28605214,0.980088,0.33333334,0.5522388,0,0.0,0.0,0.0,0.0,0.0,0,0,0.0,0.0,0,0,69.0,0.0,573.0,4670.256410256411,3927.692307692308,4511.282051282052,4440.000000000001,4238.974358974359,4536.410256410257,4440.000000000001,4473.846153846154,4603.589743589744,4893.333333333334,4392.307692307693,4272.820512820514,4367.6923076923085,4580.512820512821
5051.404,0.3016814,1.0,0.33333334,0.5522388,0,0.0,0.0,0.0,0.0,0.0,0,0,0.0,0.0,0,0,121.0,0.0,304.0,4655.8974358974365,3938.461538461539,4513.333333333334,4442.051282051282,4239.48717948718,4544.615384615385,4447.179487179487,4437.948717948719,4260.512820512821,4684.102564102564,4357.948717948719,4252.820512820514,4179.48717948718,4540.000000000001
5051.6226,0.3016814,1.0,0.33333334,0.5522388,0,0.0,0.0,0.0,0.0,0.0,0,0,0.0,0.0,0,0,20.0,0.0,0.0,4654.358974358975,3942.0512820512827,4509.2307692307695,4442.564102564103,4243.589743589744,4550.256410256411,4442.051282051282,4436.923076923077,4265.641025641026,4694.871794871796,4355.8974358974365,4255.384615384616,4181.538461538462,4564.102564102564
5051.904,0.24797957,0.98496854,0.33333334,0.5522388,0,0.0,0.0,0.0,0.0,0.07894884,0,0,0.0,0.0,0,0,56.0,0.0,0.0,4679.48717948718,3940.5128205128212,4511.282051282052,4444.615384615385,4243.589743589744,4552.307692307693,4453.333333333334,4424.102564102564,4230.769230769231,4634.358974358975,4336.923076923077,4265.128205128206,4093.333333333334,4587.179487179488
5052.123,0.24797957,0.98496854,0.33333334,0.5522388,0,0.0,0.0,0.0,0.0,0.16252653,0,0,0.0,0.0,0,0,84.0,0.0,327.0,4688.717948717949,3944.615384615385,4513.333333333334,4444.615384615385,4247.6923076923085,4553.333333333334,4468.717948717949,4436.410256410257,4290.256410256411,4693.846153846154,4340.000000000001,4271.282051282052,4129.74358974359,4592.307692307693
5052.4043,0.19280185,0.9873195,0.33333334,0.5522388,0,0.0,1.0,0.0,0.0,0.0,0,0,0.0,0.0,0,0,120.0,0.0,327.0,4673.333333333334,3943.589743589744,4513.846153846154,4444.615384615385,4247.179487179487,4554.871794871796,4466.666666666667,4438.974358974359,4346.153846153847,4711.282051282052,4343.076923076924,4267.179487179487,4167.6923076923085,4580.000000000001
5052.4043,0.19280185,0.9873195,0.33333334,0.5522388,0,0.0,1.0,0.0,0.0,0.0,0,0,0.0,0.0,0,0,120.0,0.0,327.0,4673.333333333334,3943.589743589744,4513.846153846154,4444.615384615385,4247.179487179487,4554.871794871796,4466.666666666667,4438.974358974359,4346.153846153847,4711.282051282052,4343.076923076924,4267.179487179487,4167.6923076923085,4580.000000000001
5052.905,0.1501089,0.95619506,0.33333334,0.5522388,0,0.0,1.0,0.0,0.0,0.0,0,0,0.0,0.0,0,0,55.0,0.0,0.0,4688.205128205129,3945.1282051282055,4510.256410256411,4446.666666666667,4249.74358974359,4556.923076923077,4475.384615384616,4408.205128205129,4231.794871794872,4610.769230769231,4306.153846153847,4284.102564102564,4041.538461538462,4611.794871794872
5053.124,0.1501089,0.95619506,0.33333334,0.5522388,0,0.0,0.0,0.0,0.0,0.21887861,0,0,0.0,0.0,0,0,83.0,0.0,483.0,4674.871794871796,3942.564102564103,4507.6923076923085,4446.153846153847,4246.666666666667,4555.384615384616,4472.820512820514,4393.846153846154,4145.128205128206,4552.820512820514,4291.282051282052,4274.871794871796,4008.205128205129,4614.358974358975
5053.4053,0.2042805,0.9332188,0.33333334,0.5522388,0,0.0,0.0,0.0,0.0,0.14087208,0,0,0.0,0.0,0,0,119.0,0.0,483.0,4685.641025641026,3951.2820512820517,4511.282051282052,4446.153846153847,4245.128205128206,4554.358974358975,4476.923076923077,4419.48717948718,4321.025641025642,4668.205128205129,4312.820512820514,4285.128205128206,4113.846153846154,4623.589743589744
5053.499,0.2042805,0.9332188,0.33333334,0.5522388,0,0.0,1.0,0.0,0.0,0.0,0,0,0.0,0.0,0,0,2.0,0.0,491.0,4691.794871794872,3955.8974358974365,4511.282051282052,4446.153846153847,4247.179487179487,4556.410256410257,4476.923076923077,4440.000000000001,4523.589743589744,4788.205128205129,4331.794871794872,4294.358974358975,4207.179487179487,4632.307692307693
5053.906,0.19955608,0.9185923,0.33333334,0.5522388,0,0.0,1.0,0.0,0.0,0.0,0,0,0.0,0.0,0,0,54.0,0.0,0.0,4688.717948717949,3955.8974358974365,4513.333333333334,4455.8974358974365,4247.179487179487,4568.717948717949,4491.282051282052,4416.410256410257,4287.6923076923085,4650.769230769231,4309.2307692307695,4294.871794871796,4091.7948717948725,4598.461538461539
5053.906,0.19955608,0.9185923,0.33333334,0.5522388,0,0.0,1.0,0.0,0.0,0.0,0,0,0.0,0.0,0,0,54.0,0.0,0.0,4688.717948717949,3955.8974358974365,4513.333333333334,4455.8974358974365,4247.179487179487,4568.717948717949,4491.282051282052,4416.410256410257,4287.6923076923085,4650.769230769231,4309.2307692307695,4294.871794871796,4091.7948717948725,4598.461538461539
5054.4062,0.23441173,0.90112436,0.33333334,0.5522388,0,0.0,1.0,0.0,0.0,0.0,0,0,0.0,0.0,0,0,118.0,0.0,1483.0,4661.538461538462,3955.3846153846157,4516.410256410257,4449.2307692307695,4258.974358974359,4566.666666666667,4477.948717948719,4400.512820512821,4271.794871794872,4621.538461538462,4296.410256410257,4284.102564102564,4090.2564102564106,4564.102564102564
5054.4062,0.23441173,0.90112436,0.33333334,0.5522388,0,0.0,1.0,0.0,0.0,0.0,0,0,0.0,0.0,0,0,118.0,0.0,1483.0,4661.538461538462,3955.3846153846157,4516.410256410257,4449.2307692307695,4258.974358974359,4566.666666666667,4477.948717948719,4400.512820512821,4271.794871794872,4621.538461538462,4296.410256410257,4284.102564102564,4090.2564102564106,4564.102564102564
5054.9067,0.20913358,0.9023221,0.33333334,0.5522388,0,0.0,1.0,0.0,0.0,0.0,0,0,0.0,0.0,0,0,53.0,0.0,0.0,4680.000000000001,3943.589743589744,4501.538461538462,4446.153846153847,4255.384615384616,4560.000000000001,4477.948717948719,4362.564102564103,4056.410256410257,4476.410256410257,4252.307692307693,4290.769230769231,3934.8717948717954,4604.102564102564
5055.1255,0.20913358,0.9023221,0.33333334,0.5522388,0,0.0,0.0,0.0,0.0,0.0,0,0,0.0,0.0,0,0,81.0,0.0,304.0,4662.564102564103,3944.1025641025644,4506.666666666667,4445.641025641026,4255.384615384616,4562.564102564103,4476.923076923077,4380.000000000001,4204.102564102564,4567.6923076923085,4266.666666666667,4288.205128205129,4048.205128205129,4593.846153846154
5055.407,0.20505072,0.88934183,0.33333334,0.5522388,0,0.0,0.0,0.0,0.0,0.0,0,0,0.0,0.0,0,0,117.0,0.0,304.0,4676.923076923077,3953.8461538461543,4514.871794871796,4457.435897435898,4262.051282051282,4568.717948717949,4479.48717948718,4406.153846153847,4396.923076923077,4703.589743589744,4288.717948717949,4288.717948717949,4153.846153846154,4590.256410256411
5055.407,0.20505072,0.88934183,0.33333334,0.5522388,0,0.0,0.0,0.0,0.0,0.0,0,0,0.0,0.0,0,0,117.0,0.0,304.0,4676.923076923077,3953.8461538461543,4514.871794871796,4457.435897435898,4262.051282051282,4568.717948717949,4479.48717948718,4406.153846153847,4396.923076923077,4703.589743589744,4288.717948717949,4288.717948717949,4153.846153846154,4590.256410256411
5055.907,0.18234432,0.8687626,0.33333334,0.5522388,0,0.0,0.0,0.0,0.0,0.0,0,0,0.0,0.0,0,0,52.0,0.0,0.0,4641.025641025642,3940.0000000000005,4502.564102564103,4445.641025641026,4246.153846153847,4551.282051282052,4461.538461538462,4386.153846153847,4236.410256410257,4603.589743589744,4283.589743589744,4280.000000000001,4110.769230769231,4562.564102564103
5056.017,0.18234432,0.8687626,0.33333334,0.5522388,0,0.0,1.0,0.0,0.0,0.0,0,0,0.0,0.0,0,0,64.0,0.0,349.0,4677.435897435898,3947.692307692308,4512.820512820514,4457.435897435898,4258.974358974359,4568.205128205129,4468.205128205129,4413.333333333334,4463.589743589744,4746.153846153847,4306.666666666667,4288.717948717949,4208.205128205129,4570.769230769231
5056.4233,0.18735763,0.8558999,0.33333334,0.5522388,0,0.0,1.0,0.0,0.0,0.0,0,0,0.0,0.0,0,0,116.0,0.0,328.0,4641.538461538462,3943.076923076924,4513.333333333334,4456.410256410257,4254.358974358975,4566.153846153847,4460.000000000001,4405.641025641026,4390.769230769231,4710.256410256411,4307.6923076923085,4274.358974358975,4197.948717948719,4546.153846153847
5056.4233,0.18735763,0.8558999,0.33333334,0.5522388,0,0.0,1.0,0.0,0.0,0.0,0,0,0.0,0.0,0,0,116.0,0.0,328.0,4641.538461538462,3943.076923076924,4513.333333333334,4456.410256410257,4254.358974358975,4566.153846153847,4460.000000000001,4405.641025641026,4390.769230769231,4710.256410256411,4307.6923076923085,4274.358974358975,4197.948717948719,4546.153846153847
5056.924,0.14933422,0.84572357,0.33333334,0.5522388,0,0.0,0.0,0.0,0.0,0.0,0,0,0.0,0.0,0,0,51.0,0.0,0.0,4653.846153846154,3954.8717948717954,4522.564102564103,4459.48717948718,4257.948717948719,4569.2307692307695,4455.384615384616,4422.051282051282,4471.794871794872,4773.846153846154,4321.025641025642,4277.435897435898,4234.358974358975,4574.358974358975
5056.924,0.14933422,0.84572357,0.33333334,0.5522388,0,0.0,0.0,0.0,0.0,0.0,0,0,0.0,0.0,0,0,51.0,0.0,0.0,4653.846153846154,3954.8717948717954,4522.564102564103,4459.48717948718,4257.948717948719,4569.2307692307695,4455.384615384616,4422.051282051282,4471.794871794872,4773.846153846154,4321.025641025642,4277.435897435898,4234.358974358975,4574.358974358975
5057.4243,0.20307599,0.8507899,0.33333334,0.5522388,0,0.0,0.0,0.0,0.0,0.0,0,0,0.0,0.0,0,0,115.0,0.0,483.0,4671.794871794872,3943.589743589744,4508.717948717949,4456.923076923077,4250.256410256411,4568.205128205129,4461.538461538462,4402.051282051282,4268.205128205129,4653.333333333334,4300.512820512821,4282.051282051282,4093.333333333334,4627.6923076923085
5057.4243,0.20307599,0.8507899,0.33333334,0.5522388,0,0.0,0.0,0.0,0.0,0.0,0,0,0.0,0.0,0,0,115.0,0.0,483.0,4671.794871794872,3943.589743589744,4508.717948717949,4456.923076923077,4250.256410256411,4568.205128205129,4461.538461538462,4402.051282051282,4268.205128205129,4653.333333333334,4300.512820512821,4282.051282051282,4093.333333333334,4627.6923076923085
5057.925,0.21913774,0.8586861,0.33333334,0.5522388,0,0.0,0.0,0.0,0.0,0.0,0,0,0.0,0.0,0,0,50.0,0.0,0.0,4717.948717948719,3956.410256410257,4502.051282051282,4457.948717948719,4250.256410256411,4567.179487179488,4464.102564102564,4365.128205128206,4148.717948717949,4543.076923076924,4252.820512820514,4296.410256410257,3967.1794871794878,4642.051282051282
5058.0186,0.21913774,0.8586861,0.33333334,0.5522388,0,0.0,1.0,0.0,0.0,0.0,0,0,0.0,0.0,0,0,62.0,0.0,0.0,4671.794871794872,3944.1025641025644,4485.641025641026,4447.179487179487,4244.615384615385,4554.871794871796,4455.384615384616,4316.410256410257,3841.538461538462,4302.564102564103,4208.205128205129,4271.282051282052,3802.0512820512827,4585.641025641026
5058.4253,0.30770576,0.8806366,0.33333334,0.5522388,0,0.0,1.0,0.0,0.0,0.0,0,0,0.0,0.0,0,0,114.0,0.0,1475.0,4655.384615384616,3940.5128205128212,4496.923076923077,4423.076923076924,4240.512820512821,4555.384615384616,4458.461538461539,4332.820512820514,4094.8717948717954,4465.128205128206,4227.6923076923085,4278.974358974359,3975.8974358974365,4577.948717948719
5058.4253,0.30770576,0.8806366,0.33333334,0.5522388,0,0.0,1.0,0.0,0.0,0.0,0,0,0.0,0.0,0,0,114.0,0.0,1475.0,4655.384615384616,3940.5128205128212,4496.923076923077,4423.076923076924,4240.512820512821,4555.384615384616,4458.461538461539,4332.820512820514,4094.8717948717954,4465.128205128206,4227.6923076923085,4278.974358974359,3975.8974358974365,4577.948717948719
5058.926,0.40846476,0.89916885,0.33333334,0.5522388,0,0.0,1.0,0.0,0.0,0.0,0,0,0.0,0.0,0,0,49.0,0.0,0.0,4663.076923076924,3942.0512820512827,4481.538461538462,4405.641025641026,4231.794871794872,4541.025641025642,4459.48717948718,4295.384615384616,4037.435897435898,4374.871794871796,4185.641025641026,4272.307692307693,3898.461538461539,4578.974358974359
5058.926,0.40846476,0.89916885,0.33333334,0.5522388,0,0.0,1.0,0.0,0.0,0.0,0,0,0.0,0.0,0,0,49.0,0.0,0.0,4663.076923076924,3942.0512820512827,4481.538461538462,4405.641025641026,4231.794871794872,4541.025641025642,4459.48717948718,4295.384615384616,4037.435897435898,4374.871794871796,4185.641025641026,4272.307692307693,3898.461538461539,4578.974358974359
5059.4263,0.3638667,0.88262814,0.33333334,0.5522388,0,0.0,1.0,0.0,0.0,0.0,0,0,0.0,0.0,0,0,113.0,0.0,304.0,4664.102564102564,3939.48717948718,4486.153846153847,4413.333333333334,4242.051282051282,4550.769230769231,4466.666666666667,4286.153846153847,4076.410256410257,4382.564102564103,4160.512820512821,4282.564102564103,3880.512820512821,4592.307692307693
5059.4263,0.3638667,0.88262814,0.33333334,0.5522388,0,0.0,1.0,0.0,0.0,0.0,0,0,0.0,0.0,0,0,113.0,0.0,304.0,4664.102564102564,3939.48717948718,4486.153846153847,4413.333333333334,4242.051282051282,4550.769230769231,4466.666666666667,4286.153846153847,4076.410256410257,4382.564102564103,4160.512820512821,4282.564102564103,3880.512820512821,4592.307692307693
5059.927,0.3481175,0.8717409,0.33333334,0.5522388,0,0.0,1.0,0.0,0.0,0.0,0,0,0.0,0.0,0,0,48.0,0.0,0.0,4655.8974358974365,3941.538461538462,4486.153846153847,4415.384615384616,4236.923076923077,4551.282051282052,4468.717948717949,4285.641025641026,4109.74358974359,4417.435897435898,4163.589743589744,4278.461538461539,3929.7435897435903,4564.615384615385
5059.927,0.3481175,0.8717409,0.33333334,0.5522388,0,0.0,1.0,0.0,0.0,0.0,0,0,0.0,0.0,0,0,48.0,0.0,0.0,4655.8974358974365,3941.538461538462,4486.153846153847,4415.384615384616,4236.923076923077,4551.282051282052,4468.717948717949,4285.641025641026,4109.74358974359,4417.435897435898,4163.589743589744,4278.461538461539,3929.7435897435903,4564.615384615385
5060.427,0.3455566,0.8567206,0.33333334,0.5522388,0,0.0,1.0,0.0,0.0,0.0,0,0,0.0,0.0,0,0,112.0,0.0,324.0,4687.6923076923085,3942.564102564103,4499.48717948718,4426.666666666667,4241.025641025642,4553.846153846154,4476.923076923077,4324.615384615385,4353.846153846154,4631.282051282052,4205.641025641026,4291.794871794872,4089.7435897435903,4581.538461538462
5060.646,0.3455566,0.8567206,0.33333334,0.5522388,0,0.0,0.0,0.0,0.0,0.11190364,0,0,0.0,0.0,0,0,11.0,0.0,483.0,4677.435897435898,3939.48717948718,4496.410256410257,4425.641025641026,4242.564102564103,4552.307692307693,4487.179487179488,4327.179487179487,4326.153846153847,4621.025641025642,4203.589743589744,4294.871794871796,4089.23076923077,4582.051282051282
5060.9272,0.3305655,0.8401625,0.33333334,0.5522388,0,0.0,1.0,0.0,0.0,0.0,0,0,0.0,0.0,0,0,47.0,0.0,0.0,4683.589743589744,3948.717948717949,4506.153846153847,4431.794871794872,4246.666666666667,4556.410256410257,4483.589743589744,4348.205128205129,4453.333333333334,4729.2307692307695,4229.74358974359,4295.384615384616,4175.8974358974365,4587.6923076923085
5060.9272,0.3305655,0.8401625,0.33333334,0.5522388,0,0.0,1.0,0.0,0.0,0.0,0,0,0.0,0.0,0,0,47.0,0.0,0.0,4683.589743589744,3948.717948717949,4506.153846153847,4431.794871794872,4246.666666666667,4556.410256410257,4483.589743589744,4348.205128205129,4453.333333333334,4729.2307692307695,4229.74358974359,4295.384615384616,4175.8974358974365,4587.6923076923085
5061.4277,0.31918764,0.83019966,0.33333334,0.5522388,0,0.0,1.0,0.0,0.0,0.0,0,0,0.0,0.0,0,0,111.0,0.0,483.0,4676.410256410257,3944.1025641025644,4506.153846153847,4428.717948717949,4236.410256410257,4547.179487179488,4487.179487179488,4384.615384615385,4558.974358974359,4836.410256410257,4277.435897435898,4297.435897435898,4291.794871794872,4587.179487179488
5061.4277,0.31918764,0.83019966,0.33333334,0.5522388,0,0.0,1.0,0.0,0.0,0.0,0,0,0.0,0.0,0,0,111.0,0.0,483.0,4676.410256410257,3944.1025641025644,4506.153846153847,4428.717948717949,4236.410256410257,4547.179487179488,4487.179487179488,4384.615384615385,4558.974358974359,4836.410256410257,4277.435897435898,4297.435897435898,4291.794871794872,4587.179487179488
5061.928,0.42058244,0.8203231,0.33333334,0.5522388,0,0.0,1.0,0.0,0.0,0.0,0,0,0.0,0.0,0,0,46.0,0.0,0.0,4681.025641025642,3973.333333333334,4508.717948717949,4434.358974358975,4248.717948717949,4556.923076923077,4476.923076923077,4389.743589743591,4501.025641025642,4825.641025641026,4290.256410256411,4300.512820512821,4252.820512820514,4593.846153846154
5061.928,0.42058244,0.8203231,0.33333334,0.5522388,0,0.0,1.0,0.0,0.0,0.0,0,0,0.0,0.0,0,0,46.0,0.0,0.0,4681.025641025642,3973.333333333334,4508.717948717949,4434.358974358975,4248.717948717949,4556.923076923077,4476.923076923077,4389.743589743591,4501.025641025642,4825.641025641026,4290.256410256411,4300.512820512821,4252.820512820514,4593.846153846154
5062.4287,0.47572282,0.8052389,0.33333334,0.5522388,0,0.0,1.0,0.0,0.0,0.0,0,0,0.0,0.0,0,0,110.0,0.0,1473.0,4657.435897435898,3969.2307692307695,4509.743589743591,4436.923076923077,4246.666666666667,4559.48717948718,4464.615384615385,4399.48717948718,4483.589743589744,4827.6923076923085,4310.256410256411,4293.333333333334,4284.102564102564,4569.743589743591
5062.4287,0.47572282,0.8052389,0.33333334,0.5522388,0,0.0,1.0,0.0,0.0,0.0,0,0,0.0,0.0,0,0,110.0,0.0,1473.0,4657.435897435898,3969.2307692307695,4509.743589743591,4436.923076923077,4246.666666666667,4559.48717948718,4464.615384615385,4399.48717948718,4483.589743589744,4827.6923076923085,4310.256410256411,4293.333333333334,4284.102564102564,4569.743589743591
5062.929,0.48162675,0.79146975,0.33333334,0.5522388,0,0.0,1.0,0.0,0.0,0.0,0,0,0.0,0.0,0,0,45.0,0.0,0.0,4655.8974358974365,3963.076923076924,4511.794871794872,4442.051282051282,4245.641025641026,4554.871794871796,4462.564102564103,4425.641025641026,4556.410256410257,4893.846153846154,4341.025641025642,4287.179487179487,4341.025641025642,4607.6923076923085
5062.929,0.48162675,0.79146975,0.33333334,0.5522388,0,0.0,1.0,0.0,0.0,0.0,0,0,0.0,0.0,0,0,45.0,0.0,0.0,4655.8974358974365,3963.076923076924,4511.794871794872,4442.051282051282,4245.641025641026,4554.871794871796,4462.564102564103,4425.641025641026,4556.410256410257,4893.846153846154,4341.025641025642,4287.179487179487,4341.025641025642,4607.6923076923085
5063.4297,0.5166984,0.7768328,0.33333334,0.5522388,0,0.0,0.8578316,0.0,0.0,0.0,0,0,0.0,0.0,0,0,109.0,0.0,304.0,4663.076923076924,3944.615384615385,4525.641025641026,4440.000000000001,4250.769230769231,4562.564102564103,4435.8974358974365,4519.48717948718,4972.820512820514,5225.128205128206,4447.6923076923085,4281.025641025642,4668.717948717949,4641.025641025642
5063.6484,0.5166984,0.7768328,0.33333334,0.5522388,0,0.0,0.84035724,0.0,0.0,0.0,0,0,0.0,0.0,0,0,8.0,0.0,4534.0,4616.410256410257,3934.358974358975,4526.153846153847,4431.794871794872,4250.256410256411,4560.512820512821,4399.48717948718,4565.128205128206,5143.589743589744,5370.256410256411,4517.948717948719,4264.615384615385,4871.282051282052,4593.333333333334
5063.93,0.5123668,0.76456785,0.33333334,0.5522388,0,0.0,0.79389507,0.0,0.0,0.0,0,0,0.0,0.0,0,0,44.0,0.0,0.0,4612.307692307693,3928.205128205129,4533.333333333334,4429.2307692307695,4251.794871794872,4564.615384615385,4382.051282051282,4612.820512820514,5174.871794871796,5464.615384615386,4578.974358974359,4260.000000000001,4974.871794871796,4558.461538461539
5064.149,0.5123668,0.76456785,0.33333334,0.5522388,0,0.0,0.8629812,0.0,0.0,0.0,0,0,0.0,0.0,0,0,72.0,0.0,4471.0,4603.589743589744,3932.307692307693,4538.461538461539,4434.871794871796,4261.538461538462,4569.2307692307695,4372.820512820514,4610.769230769231,5125.641025641026,5415.8974358974365,4589.743589743591,4254.871794871796,4905.641025641026,4534.358974358975
5064.43,0.47631252,0.75359195,0.33333334,0.5522388,0,0.0,0.81979555,0.0,0.0,0.0,0,0,0.0,0.0,0,0,108.0,0.0,311.0,4597.948717948719,3927.1794871794878,4527.6923076923085,4431.282051282052,4259.48717948718,4566.153846153847,4375.8974358974365,4614.358974358975,4977.435897435898,5349.743589743591,4605.128205128206,4249.74358974359,4846.666666666667,4516.410256410257
5064.6494,0.47631252,0.75359195,0.33333334,0.5522388,0,0.0,1.0,0.0,0.0,0.0,0,0,0.0,0.0,0,0,7.0,0.0,574.0,4584.615384615385,3925.1282051282055,4522.051282051282,4426.666666666667,4249.2307692307695,4561.538461538462,4364.615384615385,4606.153846153847,4924.615384615386,5285.641025641026,4611.282051282052,4240.512820512821,4786.153846153847,4502.564102564103
5064.9307,0.5886314,0.7437136,0.33333334,0.5522388,0,0.0,0.9770072,0.0,0.0,0.0,0,0,0.0,0.0,0,0,43.0,0.0,0.0,4590.769230769231,3927.692307692308,4523.076923076924,4427.6923076923085,4250.769230769231,4557.948717948719,4371.794871794872,4608.205128205129,4780.512820512821,5211.282051282052,4614.358974358975,4241.025641025642,4705.128205128206,4494.358974358975
5065.15,0.5886314,0.7437136,0.33333334,0.5522388,0,0.0,0.81862,0.0,0.0,0.0,0,0,0.0,0.0,0,0,71.0,0.0,573.0,4601.538461538462,3928.717948717949,4522.051282051282,4429.2307692307695,4252.307692307693,4564.615384615385,4375.8974358974365,4618.461538461539,4808.205128205129,5218.974358974359,4621.538461538462,4248.205128205129,4678.974358974359,4507.179487179488
5065.431,0.566091,0.7348231,0.33333334,0.5522388,0,0.0,1.0,0.0,0.0,0.0,0,0,0.0,0.0,0,0,107.0,0.0,483.0,4603.589743589744,3925.6410256410263,4506.153846153847,4427.179487179487,4245.128205128206,4552.820512820514,4383.076923076924,4564.102564102564,4432.307692307693,4935.384615384616,4564.102564102564,4242.564102564103,4411.794871794872,4505.128205128206
5065.431,0.566091,0.7348231,0.33333334,0.5522388,0,0.0,1.0,0.0,0.0,0.0,0,0,0.0,0.0,0,0,107.0,0.0,483.0,4603.589743589744,3925.6410256410263,4506.153846153847,4427.179487179487,4245.128205128206,4552.820512820514,4383.076923076924,4564.102564102564,4432.307692307693,4935.384615384616,4564.102564102564,4242.564102564103,4411.794871794872,4505.128205128206
5065.9316,0.47136903,0.7268217,0.33333334,0.5522388,0,0.0,0.86034983,0.0,0.0,0.0,0,0,0.0,0.0,0,0,42.0,0.0,0.0,4652.820512820514,3943.076923076924,4516.923076923077,4441.538461538462,4251.282051282052,4569.743589743591,4427.179487179487,4581.025641025642,4533.846153846154,4977.948717948719,4570.769230769231,4264.615384615385,4389.743589743591,4504.615384615385
5066.0254,0.47136903,0.7268217,0.33333334,0.5522388,0,0.0,1.0,0.0,0.0,0.0,0,0,0.0,0.0,0,0,54.0,0.0,0.0,4637.435897435898,3944.1025641025644,4510.769230769231,4434.871794871796,4250.256410256411,4559.48717948718,4421.025641025642,4547.6923076923085,4343.589743589744,4825.641025641026,4538.974358974359,4255.8974358974365,4262.051282051282,4494.871794871796
5066.432,0.42863494,0.7196204,0.33333334,0.5522388,0,0.0,1.0,0.0,0.0,0.0,0,0,0.0,0.0,0,0,106.0,0.0,1468.0,4631.794871794872,3947.692307692308,4508.205128205129,4436.923076923077,4251.282051282052,4560.000000000001,4433.333333333334,4517.435897435898,4252.820512820514,4726.153846153847,4503.076923076924,4256.410256410257,4179.48717948718,4462.051282051282
5066.432,0.42863494,0.7196204,0.33333334,0.5522388,0,0.0,1.0,0.0,0.0,0.0,0,0,0.0,0.0,0,0,106.0,0.0,1468.0,4631.794871794872,3947.692307692308,4508.205128205129,4436.923076923077,4251.282051282052,4560.000000000001,4433.333333333334,4517.435897435898,4252.820512820514,4726.153846153847,4503.076923076924,4256.410256410257,4179.48717948718,4462.051282051282
5066.9326,0.41662714,0.733805,0.33333334,0.5522388,0,0.0,1.0,0.0,0.0,0.0,0,0,0.0,0.0,0,0,41.0,0.0,0.0,4641.538461538462,3944.615384615385,4507.179487179488,4442.564102564103,4223.076923076924,4524.615384615385,4437.948717948719,4512.820512820514,4300.512820512821,4727.179487179488,4492.307692307693,4254.871794871796,4203.589743589744,4478.974358974359
5066.9326,0.41662714,0.733805,0.33333334,0.5522388,0,0.0,1.0,0.0,0.0,0.0,0,0,0.0,0.0,0,0,41.0,0.0,0.0,4641.538461538462,3944.615384615385,4507.179487179488,4442.564102564103,4223.076923076924,4524.615384615385,4437.948717948719,4512.820512820514,4300.512820512821,4727.179487179488,4492.307692307693,4254.871794871796,4203.589743589744,4478.974358974359
5067.433,0.45294482,0.74584776,0.33333334,0.5522388,0,0.0,1.0,0.0,0.0,0.0,0,0,0.0,0.0,0,0,105.0,0.0,308.0,4651.282051282052,3946.666666666667,4517.435897435898,4375.384615384616,4231.282051282052,4538.461538461539,4453.846153846154,4558.461538461539,4522.051282051282,4900.000000000001,4523.076923076924,4271.794871794872,4364.102564102564,4527.6923076923085
5067.433,0.45294482,0.74584776,0.33333334,0.5522388,0,0.0,1.0,0.0,0.0,0.0,0,0,0.0,0.0,0,0,105.0,0.0,308.0,4651.282051282052,3946.666666666667,4517.435897435898,4375.384615384616,4231.282051282052,4538.461538461539,4453.846153846154,4558.461538461539,4522.051282051282,4900.000000000001,4523.076923076924,4271.794871794872,4364.102564102564,4527.6923076923085
5067.9336,0.47657144,0.7609936,0.33333334,0.5522388,0,0.0,1.0,0.0,0.0,0.0,0,0,0.0,0.0,0,0,40.0,0.0,0.0,4680.512820512821,3948.717948717949,4516.410256410257,4340.512820512821,4234.871794871796,4544.615384615385,4452.307692307693,4562.564102564103,4497.948717948719,4908.717948717949,4521.538461538462,4282.051282051282,4350.769230769231,4554.871794871796
5067.9336,0.47657144,0.7609936,0.33333334,0.5522388,0,0.0,1.0,0.0,0.0,0.0,0,0,0.0,0.0,0,0,40.0,0.0,0.0,4680.512820512821,3948.717948717949,4516.410256410257,4340.512820512821,4234.871794871796,4544.615384615385,4452.307692307693,4562.564102564103,4497.948717948719,4908.717948717949,4521.538461538462,4282.051282051282,4350.769230769231,4554.871794871796
5068.4336,0.4445841,0.77278113,0.33333334,0.5522388,0,0.0,1.0,0.0,0.0,0.0,0,0,0.0,0.0,0,0,104.0,0.0,311.0,4696.923076923077,3945.1282051282055,4519.48717948718,4363.076923076924,4248.205128205129,4557.435897435898,4466.666666666667,4568.205128205129,4512.307692307693,4919.48717948718,4521.538461538462,4291.794871794872,4341.538461538462,4555.8974358974365
5068.4336,0.4445841,0.77278113,0.33333334,0.5522388,0,0.0,1.0,0.0,0.0,0.0,0,0,0.0,0.0,0,0,104.0,0.0,311.0,4696.923076923077,3945.1282051282055,4519.48717948718,4363.076923076924,4248.205128205129,4557.435897435898,4466.666666666667,4568.205128205129,4512.307692307693,4919.48717948718,4521.538461538462,4291.794871794872,4341.538461538462,4555.8974358974365
5068.934,0.416873,0.76179856,0.33333334,0.5522388,0,0.0,1.0,0.0,0.0,0.0,0,0,0.0,0.0,0,0,39.0,0.0,0.0,4668.717948717949,3953.333333333334,4516.923076923077,4391.794871794872,4251.282051282052,4569.2307692307695,4477.948717948719,4547.6923076923085,4430.769230769231,4836.923076923077,4487.6923076923085,4299.48717948718,4249.2307692307695,4557.948717948719
5068.934,0.416873,0.76179856,0.33333334,0.5522388,0,0.0,1.0,0.0,0.0,0.0,0,0,0.0,0.0,0,0,39.0,0.0,0.0,4668.717948717949,3953.333333333334,4516.923076923077,4391.794871794872,4251.282051282052,4569.2307692307695,4477.948717948719,4547.6923076923085,4430.769230769231,4836.923076923077,4487.6923076923085,4299.48717948718,4249.2307692307695,4557.948717948719
