timestamp,excitement,frustration,meditation,engagementBoredom,blink,clench,laugh,smile,eyebrow,furrowBrow,lookLeft,lookRight,smirkLeft,smirkRight,winkLeft,winkRight,eeg0,eeg1,eeg2,eeg3,eeg4,eeg5,eeg6,eeg7,eeg8,eeg9,eeg10,eeg11,eeg12,eeg13,eeg14,eeg15,eeg16
5236.5703,0.9164627,0.8119876,0.33333334,0.5522388,0,0.0,1.0,0.0,0.0,0.0,0,0,0.0,0.0,0,0,65.0,0.0,466.0,4650.769230769231,3942.564102564103,4510.769230769231,4429.2307692307695,4254.871794871796,4556.923076923077,4479.48717948718,4376.410256410257,4406.666666666667,4690.769230769231,4285.128205128206,4284.102564102564,4096.923076923077,4418.461538461539
5236.8833,0.9164627,0.8119876,0.33333334,0.5522388,0,0.0,1.0,0.0,0.0,0.0,0,0,0.0,0.0,0,0,105.0,0.0,326.0,4666.153846153847,3939.48717948718,4509.743589743591,4426.153846153847,4278.461538461539,4580.512820512821,4483.076923076924,4375.8974358974365,4156.410256410257,4671.282051282052,4283.076923076924,4291.794871794872,4071.7948717948725,4434.358974358975
5237.071,0.99668616,0.8873277,0.33333334,0.5522388,0,0.0,1.0,0.0,0.0,0.0,0,0,0.0,0.0,0,0,0.0,0.0,369.0,4652.307692307693,3941.538461538462,4497.435897435898,4427.6923076923085,4266.153846153847,4572.820512820514,4483.076923076924,4345.128205128206,4264.102564102564,4567.6923076923085,4255.8974358974365,4287.6923076923085,3964.1025641025644,4452.820512820514
5237.071,0.99668616,0.8873277,0.33333334,0.5522388,0,0.0,1.0,0.0,0.0,0.0,0,0,0.0,0.0,0,0,0.0,0.0,369.0,4652.307692307693,3941.538461538462,4497.435897435898,4427.6923076923085,4266.153846153847,4572.820512820514,4483.076923076924,4345.128205128206,4264.102564102564,4567.6923076923085,4255.8974358974365,4287.6923076923085,3964.1025641025644,4452.820512820514
5237.5713,1.0,0.9442062,0.33333334,0.5522388,0,0.0,1.0,0.0,0.0,0.0,0,0,0.0,0.0,0,0,64.0,0.0,369.0,4648.717948717949,3938.461538461539,4491.794871794872,4434.358974358975,4262.051282051282,4569.743589743591,4476.923076923077,4292.307692307693,4073.333333333334,4378.974358974359,4207.6923076923085,4280.512820512821,3802.564102564103,4447.179487179487
5237.5713,1.0,0.9442062,0.33333334,0.5522388,0,0.0,1.0,0.0,0.0,0.0,0,0,0.0,0.0,0,0,64.0,0.0,369.0,4648.717948717949,3938.461538461539,4491.794871794872,4434.358974358975,4262.051282051282,4569.743589743591,4476.923076923077,4292.307692307693,4073.333333333334,4378.974358974359,4207.6923076923085,4280.512820512821,3802.564102564103,4447.179487179487
5238.1655,1.0,0.9787935,0.33333334,0.5522388,0,0.0,0.92385536,0.0,0.0,0.0,0,0,0.0,0.0,0,0,11.0,0.0,496.0,4657.435897435898,3944.1025641025644,4495.8974358974365,4441.025641025642,4261.025641025642,4577.435897435898,4477.948717948719,4277.948717948719,3852.307692307693,4382.051282051282,4189.74358974359,4279.48717948718,3838.461538461539,4427.179487179487
5238.416,1.0,0.9787935,0.33333334,0.5522388,0,0.0,0.74531245,0.0,0.0,0.0,0,0,0.0,0.0,0,0,43.0,0.0,0.0,4742.564102564103,3956.9230769230776,4500.000000000001,4429.2307692307695,4266.153846153847,4582.564102564103,4475.8974358974365,4302.564102564103,4018.461538461539,4500.512820512821,4192.820512820514,4292.820512820514,3880.512820512821,4497.948717948719
5238.666,0.9780769,1.0,0.33333334,0.5522388,0,0.0,0.88761187,0.0,0.0,0.0,0,0,0.0,0.0,0,0,75.0,0.0,496.0,4680.000000000001,3942.564102564103,4498.461538461539,4426.153846153847,4269.74358974359,4585.128205128206,4488.205128205129,4281.538461538462,3945.6410256410263,4438.974358974359,4188.205128205129,4293.333333333334,3873.8461538461543,4451.282051282052
5238.9165,0.9780769,1.0,0.33333334,0.5522388,0,0.0,0.98517823,0.0,0.0,0.0,0,0,0.0,0.0,0,0,107.0,0.0,496.0,4710.256410256411,3947.1794871794878,4511.794871794872,4440.512820512821,4277.948717948719,4588.205128205129,4501.025641025642,4288.205128205129,4028.205128205129,4495.8974358974365,4184.615384615385,4305.128205128206,3902.0512820512827,4452.820512820514
5239.0728,1.0,1.0,0.33333334,0.5522388,0,0.0,1.0,0.0,0.0,0.0,0,0,0.0,0.0,0,0,127.0,0.0,496.0,4660.512820512821,3947.1794871794878,4494.358974358975,4438.461538461539,4266.153846153847,4584.615384615385,4481.025641025642,4228.717948717949,3928.205128205129,4251.794871794872,4141.025641025642,4270.769230769231,3721.0256410256416,4403.589743589744
5239.4165,1.0,1.0,0.33333334,0.5522388,0,0.0,0.9517835,0.0,0.0,0.0,0,0,0.0,0.0,0,0,42.0,0.0,0.0,4675.384615384616,3944.615384615385,4504.615384615385,4444.102564102564,4265.128205128206,4584.615384615385,4476.923076923077,4267.179487179487,3976.9230769230776,4428.205128205129,4163.589743589744,4293.846153846154,3878.9743589743593,4457.435897435898
5239.667,0.88915485,1.0,0.33333334,0.5522388,0,0.0,1.0,0.0,0.0,0.0,0,0,0.0,0.0,0,0,74.0,0.0,1517.0,4630.769230769231,3930.7692307692314,4492.307692307693,4457.435897435898,4257.948717948719,4569.743589743591,4446.666666666667,4211.282051282052,3737.9487179487182,4218.974358974359,4126.153846153847,4266.666666666667,3754.358974358975,4415.8974358974365
5239.667,0.88915485,1.0,0.33333334,0.5522388,0,0.0,1.0,0.0,0.0,0.0,0,0,0.0,0.0,0,0,74.0,0.0,1517.0,4630.769230769231,3930.7692307692314,4492.307692307693,4457.435897435898,4257.948717948719,4569.743589743591,4446.666666666667,4211.282051282052,3737.9487179487182,4218.974358974359,4126.153846153847,4266.666666666667,3754.358974358975,4415.8974358974365
5240.0737,0.89765626,1.0,0.33333334,0.5522388,0,0.0,1.0,0.0,0.0,0.0,0,0,0.0,0.0,0,0,126.0,0.0,1517.0,4691.794871794872,3941.538461538462,4490.769230769231,4438.461538461539,4254.358974358975,4574.358974358975,4464.615384615385,4263.076923076924,4154.871794871796,4468.717948717949,4151.282051282052,4301.538461538462,3917.435897435898,4497.435897435898
5240.2925,0.89765626,1.0,0.33333334,0.5522388,0,0.0,1.0,0.0,0.0,0.0,0,0,0.0,0.0,0,1,25.0,0.0,0.0,4706.153846153847,3934.358974358975,4494.358974358975,4428.205128205129,4254.358974358975,4575.384615384616,4459.48717948718,4249.2307692307695,4196.923076923077,4444.102564102564,4139.48717948718,4296.923076923077,3871.7948717948725,4526.666666666667
5240.6367,0.8856968,1.0,0.33333334,0.5522388,0,0.0,1.0,0.0,0.0,0.0,0,0,0.0,0.0,0,0,69.0,0.0,572.0,4666.666666666667,3945.1282051282055,4495.384615384616,4442.564102564103,4256.923076923077,4574.358974358975,4447.179487179487,4226.153846153847,3878.9743589743593,4356.410256410257,4125.641025641026,4290.769230769231,3841.538461538462,4476.923076923077
5240.918,0.8856968,1.0,0.33333334,0.5522388,0,0.0,1.0,0.0,0.0,0.0,0,0,0.0,0.0,0,0,105.0,0.0,326.0,4673.333333333334,3938.9743589743593,4502.051282051282,4443.589743589744,4254.358974358975,4570.256410256411,4466.666666666667,4252.820512820514,4090.7692307692314,4481.025641025642,4143.076923076924,4296.410256410257,3944.615384615385,4498.974358974359
5241.074,0.8594059,1.0,0.33333334,0.5522388,0,0.0,1.0,0.0,0.0,0.0,0,0,0.0,0.0,0,0,125.0,0.0,326.0,4672.820512820514,3942.0512820512827,4510.256410256411,4457.948717948719,4275.384615384616,4587.6923076923085,4476.410256410257,4281.538461538462,4223.589743589744,4601.025641025642,4154.871794871796,4295.8974358974365,4024.615384615385,4504.102564102564
5241.074,0.8594059,1.0,0.33333334,0.5522388,0,0.0,1.0,0.0,0.0,0.0,0,0,0.0,0.0,0,0,125.0,0.0,326.0,4672.820512820514,3942.0512820512827,4510.256410256411,4457.948717948719,4275.384615384616,4587.6923076923085,4476.410256410257,4281.538461538462,4223.589743589744,4601.025641025642,4154.871794871796,4295.8974358974365,4024.615384615385,4504.102564102564
5241.6685,0.7627102,1.0,0.33333334,0.5522388,0,0.0,0.97141814,0.0,0.0,0.0,0,0,0.0,0.0,0,0,72.0,0.0,5643.0,4577.948717948719,3904.615384615385,4500.000000000001,4444.615384615385,4262.564102564103,4572.307692307693,4396.410256410257,4303.076923076924,4298.974358974359,4688.205128205129,4203.076923076924,4264.615384615385,4256.923076923077,4455.8974358974365
5241.919,0.7627102,1.0,0.33333334,0.5522388,0,0.0,1.0,0.0,0.0,0.0,0,0,0.0,0.0,0,0,104.0,0.0,265.0,4569.743589743591,3910.2564102564106,4512.820512820514,4433.333333333334,4270.769230769231,4585.641025641026,4395.8974358974365,4347.6923076923085,4478.974358974359,4845.641025641026,4237.948717948719,4273.846153846154,4401.538461538462,4440.000000000001
5242.075,0.6982213,1.0,0.33333334,0.5522388,0,0.0,1.0,0.0,0.0,0.0,0,0,0.0,0.0,0,0,124.0,0.0,265.0,4542.564102564103,3899.48717948718,4494.358974358975,4420.512820512821,4261.025641025642,4571.794871794872,4376.923076923077,4306.153846153847,4190.256410256411,4660.512820512821,4218.461538461539,4247.6923076923085,4274.358974358975,4390.256410256411
5242.075,0.6982213,1.0,0.33333334,0.5522388,0,0.0,1.0,0.0,0.0,0.0,0,0,0.0,0.0,0,0,124.0,0.0,265.0,4542.564102564103,3899.48717948718,4494.358974358975,4420.512820512821,4261.025641025642,4571.794871794872,4376.923076923077,4306.153846153847,4190.256410256411,4660.512820512821,4218.461538461539,4247.6923076923085,4274.358974358975,4390.256410256411
5242.6694,0.70429695,1.0,0.33333334,0.5522388,0,0.0,1.0,0.0,0.0,0.0,0,0,0.0,0.0,0,0,71.0,0.0,723.0,4554.871794871796,3911.7948717948725,4511.282051282052,4455.384615384616,4264.102564102564,4578.974358974359,4371.794871794872,4342.051282051282,4424.102564102564,4802.564102564103,4248.205128205129,4253.846153846154,4331.282051282052,4397.948717948719
5242.6694,0.70429695,1.0,0.33333334,0.5522388,0,0.0,1.0,0.0,0.0,0.0,0,0,0.0,0.0,0,0,71.0,0.0,723.0,4554.871794871796,3911.7948717948725,4511.282051282052,4455.384615384616,4264.102564102564,4578.974358974359,4371.794871794872,4342.051282051282,4424.102564102564,4802.564102564103,4248.205128205129,4253.846153846154,4331.282051282052,4397.948717948719
5243.076,0.8289268,1.0,0.33333334,0.5522388,0,0.0,1.0,0.0,0.0,0.0,0,0,0.0,0.0,0,0,123.0,0.0,495.0,4489.743589743591,3913.333333333334,4498.461538461539,4461.025641025642,4259.48717948718,4571.282051282052,4372.307692307693,4323.076923076924,4211.794871794872,4704.615384615386,4246.153846153847,4248.717948717949,4245.641025641026,4400.512820512821
5243.42,0.8289268,1.0,0.33333334,0.5522388,0,0.0,0.9345885,0.0,0.0,0.0,0,0,0.0,0.0,0,0,38.0,0.0,0.0,4510.769230769231,3920.5128205128212,4502.564102564103,4460.512820512821,4260.000000000001,4569.2307692307695,4355.8974358974365,4322.564102564103,4330.769230769231,4697.435897435898,4241.025641025642,4247.6923076923085,4198.461538461539,4452.307692307693
5243.5767,0.8799388,1.0,0.33333334,0.5522388,0,0.0,1.0,0.0,0.0,0.0,0,0,0.0,0.0,0,0,58.0,0.0,0.0,4586.153846153847,3921.0256410256416,4506.666666666667,4458.974358974359,4261.538461538462,4571.282051282052,4381.025641025642,4376.410256410257,4422.564102564103,4891.794871794872,4258.974358974359,4275.384615384616,4261.025641025642,4629.2307692307695
5243.5767,0.8799388,1.0,0.33333334,0.5522388,0,0.0,1.0,0.0,0.0,0.0,0,0,0.0,0.0,0,0,58.0,0.0,0.0,4586.153846153847,3921.0256410256416,4506.666666666667,4458.974358974359,4261.538461538462,4571.282051282052,4381.025641025642,4376.410256410257,4422.564102564103,4891.794871794872,4258.974358974359,4275.384615384616,4261.025641025642,4629.2307692307695
5244.171,0.85583484,1.0,0.33333334,0.5522388,0,0.0,1.0,0.0,0.0,0.0,0,0,0.0,0.0,0,0,5.0,0.0,572.0,4588.717948717949,3930.7692307692314,4512.820512820514,4475.384615384616,4263.589743589744,4577.948717948719,4398.974358974359,4343.589743589744,4363.076923076924,4717.435897435898,4232.307692307693,4271.282051282052,4036.9230769230776,4732.307692307693
5244.171,0.85583484,1.0,0.33333334,0.5522388,0,0.0,1.0,0.0,0.0,0.0,0,0,0.0,0.0,0,0,5.0,0.0,572.0,4588.717948717949,3930.7692307692314,4512.820512820514,4475.384615384616,4263.589743589744,4577.948717948719,4398.974358974359,4343.589743589744,4363.076923076924,4717.435897435898,4232.307692307693,4271.282051282052,4036.9230769230776,4732.307692307693
5244.5776,0.7954304,1.0,0.33333334,0.5522388,0,0.0,1.0,0.0,0.0,0.0,0,0,0.0,0.0,0,0,57.0,0.0,0.0,4602.051282051282,3929.2307692307695,4494.358974358975,4458.974358974359,4256.923076923077,4570.256410256411,4427.6923076923085,4291.794871794872,3889.2307692307695,4498.974358974359,4194.358974358975,4262.564102564103,3887.1794871794878,4665.128205128206
5244.5776,0.7954304,1.0,0.33333334,0.5522388,0,0.0,1.0,0.0,0.0,0.0,0,0,0.0,0.0,0,0,57.0,0.0,0.0,4602.051282051282,3929.2307692307695,4494.358974358975,4458.974358974359,4256.923076923077,4570.256410256411,4427.6923076923085,4291.794871794872,3889.2307692307695,4498.974358974359,4194.358974358975,4262.564102564103,3887.1794871794878,4665.128205128206
5245.172,0.665251,1.0,0.33333334,0.5522388,0,0.0,1.0,0.0,0.0,0.0,0,0,0.0,0.0,0,0,4.0,0.0,582.0,4649.2307692307695,3909.7435897435903,4485.128205128206,4451.794871794872,4245.641025641026,4556.410256410257,4442.564102564103,4227.6923076923085,3991.2820512820517,4304.615384615385,4144.102564102564,4265.128205128206,3728.205128205129,4612.307692307693
5245.422,0.665251,1.0,0.33333334,0.5522388,0,0.0,1.0,0.0,0.0,0.0,0,0,0.0,0.0,0,0,36.0,0.0,0.0,4626.666666666667,3912.307692307693,4494.358974358975,4448.205128205129,4251.794871794872,4568.717948717949,4453.333333333334,4247.6923076923085,4136.923076923077,4404.615384615385,4155.384615384616,4271.282051282052,3841.0256410256416,4595.8974358974365
5245.672,0.5907461,1.0,0.33333334,0.5522388,0,0.0,0.0,0.0,0.13419951,0.0,0,0,0.0,0.0,0,0,68.0,0.0,582.0,4675.384615384616,3925.6410256410263,4499.48717948718,4442.051282051282,4246.666666666667,4559.48717948718,4452.307692307693,4275.384615384616,4295.384615384616,4527.179487179488,4169.74358974359,4281.025641025642,3952.820512820513,4590.256410256411
5245.9224,0.5907461,1.0,0.33333334,0.5522388,0,0.0,1.0,0.0,0.0,0.0,0,0,0.0,0.0,0,0,100.0,0.0,264.0,4672.820512820514,3924.615384615385,4493.846153846154,4440.000000000001,4244.615384615385,4555.8974358974365,4458.974358974359,4257.948717948719,4229.74358974359,4463.076923076924,4158.974358974359,4279.48717948718,3905.6410256410263,4569.2307692307695
5246.0786,0.5531819,1.0,0.33333334,0.5522388,0,0.0,1.0,0.0,0.0,0.0,0,0,0.0,0.0,0,0,120.0,0.0,264.0,4691.282051282052,3922.564102564103,4486.153846153847,4429.743589743591,4247.6923076923085,4561.538461538462,4461.538461538462,4251.794871794872,3909.7435897435903,4415.8974358974365,4144.615384615385,4284.615384615385,3871.7948717948725,4572.307692307693
5246.0786,0.5531819,1.0,0.33333334,0.5522388,0,0.0,1.0,0.0,0.0,0.0,0,0,0.0,0.0,0,0,120.0,0.0,264.0,4691.282051282052,3922.564102564103,4486.153846153847,4429.743589743591,4247.6923076923085,4561.538461538462,4461.538461538462,4251.794871794872,3909.7435897435903,4415.8974358974365,4144.615384615385,4284.615384615385,3871.7948717948725,4572.307692307693
5246.673,0.56606483,1.0,0.33333334,0.5522388,0,0.0,1.0,0.0,0.0,0.0,0,0,0.0,0.0,0,0,67.0,0.0,558.0,4686.666666666667,3927.1794871794878,4487.179487179488,4444.102564102564,4221.538461538462,4542.051282051282,4442.564102564103,4244.102564102564,4238.461538461539,4435.384615384616,4141.025641025642,4275.8974358974365,3917.435897435898,4552.307692307693
5246.673,0.56606483,1.0,0.33333334,0.5522388,0,0.0,1.0,0.0,0.0,0.0,0,0,0.0,0.0,0,0,67.0,0.0,558.0,4686.666666666667,3927.1794871794878,4487.179487179488,4444.102564102564,4221.538461538462,4542.051282051282,4442.564102564103,4244.102564102564,4238.461538461539,4435.384615384616,4141.025641025642,4275.8974358974365,3917.435897435898,4552.307692307693
5247.0796,0.5439379,1.0,0.33333334,0.5522388,0,0.0,1.0,0.0,0.0,0.0,0,0,0.0,0.0,0,1,119.0,0.0,489.0,4662.051282051282,3928.717948717949,4496.923076923077,4446.153846153847,4232.307692307693,4542.564102564103,4455.384615384616,4285.128205128206,4130.256410256411,4608.205128205129,4174.871794871796,4288.717948717949,4089.7435897435903,4576.410256410257
5247.3296,0.5439379,1.0,0.33333334,0.5522388,0,0.0,1.0,0.0,0.0,0.0,0,0,0.0,0.0,0,0,22.0,0.0,0.0,4682.564102564103,3942.0512820512827,4501.025641025642,4441.538461538462,4234.358974358975,4551.282051282052,4474.871794871796,4310.769230769231,4210.256410256411,4694.358974358975,4184.102564102564,4306.666666666667,4125.641025641026,4625.128205128206
5247.58,0.56232923,1.0,0.33333334,0.5522388,0,0.0,1.0,0.0,0.0,0.0,0,0,0.0,0.0,0,0,54.0,0.0,0.0,4653.333333333334,3939.48717948718,4496.923076923077,4444.102564102564,4235.8974358974365,4552.820512820514,4450.769230769231,4294.871794871796,4147.6923076923085,4626.666666666667,4182.051282051282,4290.256410256411,4092.820512820513,4599.48717948718
5247.924,0.56232923,1.0,0.33333334,0.5522388,0,0.0,0.82547194,0.0,0.0,0.0,0,0,0.0,0.0,0,0,98.0,0.0,1536.0,4640.000000000001,3929.7435897435903,4500.512820512821,4444.615384615385,4250.769230769231,4554.871794871796,4452.307692307693,4305.641025641026,4497.435897435898,4674.358974358975,4197.948717948719,4286.153846153847,4135.384615384616,4577.948717948719
5248.1743,0.4915073,1.0,0.33333334,0.5522388,0,0.0,0.87973577,0.0,0.0,0.0,0,0,0.0,0.0,0,0,1.0,0.0,465.0,4647.6923076923085,3929.7435897435903,4506.153846153847,4458.461538461539,4251.282051282052,4555.8974358974365,4441.025641025642,4322.051282051282,4533.333333333334,4736.923076923077,4207.179487179487,4293.846153846154,4172.820512820514,4585.641025641026
5248.4243,0.4915073,1.0,0.33333334,0.5522388,0,0.0,0.94326985,0.0,0.0,0.0,0,0,0.0,0.0,0,0,33.0,0.0,0.0,4649.2307692307695,3943.076923076924,4501.025641025642,4448.205128205129,4252.307692307693,4566.153846153847,4449.2307692307695,4297.435897435898,4460.512820512821,4630.769230769231,4192.307692307693,4290.769230769231,4068.205128205129,4567.6923076923085
5248.675,0.4666533,1.0,0.33333334,0.5522388,0,0.0,0.97441596,0.0,0.0,0.0,0,0,0.0,0.0,0,0,65.0,0.0,465.0,4628.717948717949,3943.076923076924,4500.000000000001,4445.641025641026,4255.384615384616,4566.666666666667,4444.102564102564,4269.74358974359,4268.717948717949,4526.153846153847,4177.948717948719,4278.461538461539,3984.1025641025644,4547.179487179488
5248.8,0.4666533,1.0,0.33333334,0.5522388,0,0.0,1.0,0.0,0.0,0.0,0,0,0.0,0.0,0,0,81.0,0.0,326.0,4631.282051282052,3943.076923076924,4496.923076923077,4441.025641025642,4256.410256410257,4571.282051282052,4454.871794871796,4267.179487179487,3914.8717948717954,4482.564102564103,4170.769230769231,4284.615384615385,3954.358974358975,4543.076923076924
5249.081,0.39667842,1.0,0.33333334,0.5522388,0,0.0,1.0,0.0,0.0,0.0,0,0,0.0,0.0,0,0,117.0,0.0,326.0,4674.358974358975,3940.0000000000005,4496.410256410257,4442.564102564103,4252.820512820514,4562.564102564103,4471.794871794872,4249.74358974359,3968.205128205129,4435.8974358974365,4151.794871794872,4288.717948717949,3874.8717948717954,4556.410256410257
5249.081,0.39667842,1.0,0.33333334,0.5522388,0,0.0,1.0,0.0,0.0,0.0,0,0,0.0,0.0,0,0,117.0,0.0,326.0,4674.358974358975,3940.0000000000005,4496.410256410257,4442.564102564103,4252.820512820514,4562.564102564103,4471.794871794872,4249.74358974359,3968.205128205129,4435.8974358974365,4151.794871794872,4288.717948717949,3874.8717948717954,4556.410256410257
5249.6753,0.35911888,1.0,0.33333334,0.5522388,0,0.0,0.8459935,0.0,0.0,0.0,0,0,0.0,0.0,0,0,64.0,0.0,367.0,4668.205128205129,3941.0256410256416,4496.923076923077,4449.743589743591,4255.384615384616,4566.153846153847,4437.435897435898,4226.153846153847,4202.051282051282,4400.512820512821,4137.435897435898,4274.871794871796,3885.1282051282055,4494.871794871796
5249.926,0.35911888,1.0,0.33333334,0.5522388,0,0.0,0.0,0.0,0.095949754,0.0,0,0,0.0,0.0,0,0,96.0,0.0,264.0,4648.717948717949,3942.564102564103,4499.48717948718,4456.410256410257,4242.564102564103,4552.307692307693,4443.589743589744,4225.128205128206,4226.666666666667,4398.461538461539,4136.923076923077,4269.74358974359,3917.9487179487182,4456.923076923077
5250.176,0.30273676,1.0,0.33333334,0.5522388,0,0.0,0.0,0.0,0.20980172,0.0,0,0,0.0,0.0,0,0,128.0,0.0,264.0,4639.48717948718,3941.538461538462,4497.948717948719,4443.076923076924,4245.641025641026,4552.307692307693,4446.153846153847,4242.051282051282,4313.846153846154,4485.641025641026,4154.358974358975,4267.6923076923085,4008.717948717949,4452.820512820514
5250.4263,0.30273676,1.0,0.33333334,0.5522388,0,0.0,0.0,0.0,0.0726413,0.0,0,0,0.0,0.0,0,0,31.0,0.0,0.0,4650.769230769231,3932.820512820513,4501.025641025642,4444.102564102564,4245.128205128206,4553.333333333334,4449.2307692307695,4256.923076923077,4363.076923076924,4542.564102564103,4162.564102564103,4269.2307692307695,4048.717948717949,4462.051282051282
5250.5825,0.3113838,1.0,0.33333334,0.5522388,0,0.0,1.0,0.0,0.0,0.0,0,0,0.0,0.0,0,0,51.0,0.0,0.0,4678.974358974359,3942.564102564103,4510.256410256411,4446.666666666667,4250.769230769231,4564.102564102564,4461.025641025642,4279.48717948718,4256.923076923077,4612.307692307693,4170.256410256411,4284.102564102564,4076.410256410257,4481.025641025642
5250.5825,0.3113838,1.0,0.33333334,0.5522388,0,0.0,1.0,0.0,0.0,0.0,0,0,0.0,0.0,0,0,51.0,0.0,0.0,4678.974358974359,3942.564102564103,4510.256410256411,4446.666666666667,4250.769230769231,4564.102564102564,4461.025641025642,4279.48717948718,4256.923076923077,4612.307692307693,4170.256410256411,4284.102564102564,4076.410256410257,4481.025641025642
5251.177,0.33665422,1.0,0.33333334,0.5522388,0,0.0,0.9565726,0.0,0.0,0.0,0,0,0.0,0.0,0,0,127.0,0.0,494.0,4683.589743589744,3940.5128205128212,4503.076923076924,4444.615384615385,4238.461538461539,4555.384615384616,4465.128205128206,4300.000000000001,4511.794871794872,4713.333333333334,4187.179487179487,4291.794871794872,4132.820512820514,4551.794871794872
5251.302,0.33665422,1.0,0.33333334,0.5522388,0,0.0,1.0,0.0,0.0,0.0,0,0,0.0,0.0,0,0,14.0,0.0,1546.0,4649.2307692307695,3950.2564102564106,4500.000000000001,4456.923076923077,4201.025641025642,4507.6923076923085,4459.48717948718,4257.948717948719,4023.589743589744,4518.461538461539,4167.6923076923085,4272.307692307693,4028.205128205129,4533.333333333334
5251.5835,0.34431103,1.0,0.33333334,0.5522388,0,0.0,1.0,0.0,0.0,0.0,0,0,0.0,0.0,0,0,50.0,0.0,0.0,4656.923076923077,3944.1025641025644,4508.717948717949,4449.743589743591,4201.538461538462,4497.948717948719,4446.666666666667,4274.358974358975,4252.820512820514,4604.615384615385,4181.538461538462,4271.794871794872,4097.948717948719,4557.948717948719
5251.5835,0.34431103,1.0,0.33333334,0.5522388,0,0.0,1.0,0.0,0.0,0.0,0,0,0.0,0.0,0,0,50.0,0.0,0.0,4656.923076923077,3944.1025641025644,4508.717948717949,4449.743589743591,4201.538461538462,4497.948717948719,4446.666666666667,4274.358974358975,4252.820512820514,4604.615384615385,4181.538461538462,4271.794871794872,4097.948717948719,4557.948717948719
5252.084,0.366342,1.0,0.33333334,0.5522388,0,0.0,1.0,0.0,0.0,0.0,0,0,0.0,0.0,0,0,114.0,0.0,1545.0,4629.743589743591,3927.1794871794878,4508.717948717949,4443.076923076924,4257.948717948719,4566.666666666667,4443.076923076924,4318.974358974359,4378.974358974359,4750.769230769231,4216.410256410257,4281.538461538462,4222.051282051282,4543.589743589744
5252.084,0.366342,1.0,0.33333334,0.5522388,0,0.0,1.0,0.0,0.0,0.0,0,0,0.0,0.0,0,0,114.0,0.0,1545.0,4629.743589743591,3927.1794871794878,4508.717948717949,4443.076923076924,4257.948717948719,4566.666666666667,4443.076923076924,4318.974358974359,4378.974358974359,4750.769230769231,4216.410256410257,4281.538461538462,4222.051282051282,4543.589743589744
5252.5845,0.38654837,1.0,0.33333334,0.5522388,0,0.0,1.0,0.0,0.0,0.0,0,0,0.0,0.0,0,0,49.0,0.0,0.0,4647.179487179488,3943.589743589744,4511.282051282052,4442.564102564103,4265.128205128206,4585.128205128206,4455.384615384616,4304.615384615385,4307.179487179487,4677.948717948719,4205.641025641026,4273.846153846154,4114.871794871796,4518.974358974359
5252.5845,0.38654837,1.0,0.33333334,0.5522388,0,0.0,1.0,0.0,0.0,0.0,0,0,0.0,0.0,0,0,49.0,0.0,0.0,4647.179487179488,3943.589743589744,4511.282051282052,4442.564102564103,4265.128205128206,4585.128205128206,4455.384615384616,4304.615384615385,4307.179487179487,4677.948717948719,4205.641025641026,4273.846153846154,4114.871794871796,4518.974358974359
5253.0845,0.38787687,1.0,0.33333334,0.5522388,0,0.0,1.0,0.0,0.0,0.0,0,0,0.0,0.0,0,0,113.0,0.0,326.0,4682.051282051282,3943.589743589744,4514.358974358975,4446.153846153847,4237.948717948719,4538.974358974359,4434.871794871796,4296.923076923077,4356.923076923077,4655.384615384616,4196.923076923077,4280.000000000001,4104.102564102564,4515.384615384616
5253.0845,0.38787687,1.0,0.33333334,0.5522388,0,0.0,1.0,0.0,0.0,0.0,0,0,0.0,0.0,0,0,113.0,0.0,326.0,4682.051282051282,3943.589743589744,4514.358974358975,4446.153846153847,4237.948717948719,4538.974358974359,4434.871794871796,4296.923076923077,4356.923076923077,4655.384615384616,4196.923076923077,4280.000000000001,4104.102564102564,4515.384615384616
5253.585,0.34699598,1.0,0.33333334,0.5522388,0,0.0,1.0,0.0,0.0,0.0,0,0,0.0,0.0,0,0,48.0,0.0,0.0,4630.256410256411,3938.461538461539,4507.179487179488,4446.666666666667,4246.153846153847,4552.307692307693,4463.589743589744,4295.8974358974365,4331.282051282052,4645.128205128206,4206.666666666667,4268.205128205129,4134.871794871796,4440.512820512821
5253.585,0.34699598,1.0,0.33333334,0.5522388,0,0.0,1.0,0.0,0.0,0.0,0,0,0.0,0.0,0,0,48.0,0.0,0.0,4630.256410256411,3938.461538461539,4507.179487179488,4446.666666666667,4246.153846153847,4552.307692307693,4463.589743589744,4295.8974358974365,4331.282051282052,4645.128205128206,4206.666666666667,4268.205128205129,4134.871794871796,4440.512820512821
5254.0854,0.39730412,1.0,0.33333334,0.5522388,0,0.0,1.0,0.0,0.0,0.0,0,0,0.0,0.0,0,0,112.0,0.0,264.0,4677.948717948719,3953.8461538461543,4513.333333333334,4446.153846153847,4249.74358974359,4566.153846153847,4490.256410256411,4343.076923076924,4477.948717948719,4801.025641025642,4228.205128205129,4306.666666666667,4184.615384615385,4521.538461538462
5254.0854,0.39730412,1.0,0.33333334,0.5522388,0,0.0,1.0,0.0,0.0,0.0,0,0,0.0,0.0,0,0,112.0,0.0,264.0,4677.948717948719,3953.8461538461543,4513.333333333334,4446.153846153847,4249.74358974359,4566.153846153847,4490.256410256411,4343.076923076924,4477.948717948719,4801.025641025642,4228.205128205129,4306.666666666667,4184.615384615385,4521.538461538462
5254.586,0.4199262,1.0,0.33333334,0.5522388,0,0.0,1.0,0.0,0.0,0.0,0,0,0.0,0.0,0,0,47.0,0.0,0.0,4672.307692307693,3951.2820512820517,4508.205128205129,4444.102564102564,4249.2307692307695,4568.717948717949,4473.333333333334,4318.461538461539,4408.205128205129,4693.333333333334,4216.923076923077,4286.666666666667,4129.2307692307695,4467.179487179487
5254.586,0.4199262,1.0,0.33333334,0.5522388,0,0.0,1.0,0.0,0.0,0.0,0,0,0.0,0.0,0,0,47.0,0.0,0.0,4672.307692307693,3951.2820512820517,4508.205128205129,4444.102564102564,4249.2307692307695,4568.717948717949,4473.333333333334,4318.461538461539,4408.205128205129,4693.333333333334,4216.923076923077,4286.666666666667,4129.2307692307695,4467.179487179487
5255.18,0.4305742,1.0,0.33333334,0.5522388,0,0.0,0.9743358,0.0,0.0,0.0,0,0,0.0,0.0,0,0,123.0,0.0,494.0,4695.384615384616,3933.333333333334,4501.025641025642,4442.564102564103,4251.794871794872,4568.205128205129,4461.538461538462,4362.564102564103,4422.051282051282,4828.717948717949,4251.282051282052,4295.384615384616,4249.2307692307695,4512.820512820514
5255.4307,0.4305742,1.0,0.33333334,0.5522388,0,0.0,1.0,0.0,0.0,0.0,0,0,0.0,0.0,0,0,26.0,0.0,0.0,4689.2307692307695,3938.461538461539,4504.102564102564,4443.589743589744,4244.615384615385,4553.333333333334,4448.717948717949,4386.153846153847,4482.051282051282,4901.538461538462,4270.769230769231,4294.871794871796,4331.794871794872,4536.410256410257
5255.6807,0.46143875,1.0,0.33333334,0.5522388,0,0.0,0.80550796,0.0,0.0,0.0,0,0,0.0,0.0,0,0,58.0,0.0,0.0,4666.666666666667,3931.7948717948725,4509.743589743591,4437.948717948719,4247.179487179487,4566.153846153847,4438.974358974359,4423.076923076924,4599.48717948718,5024.102564102564,4307.6923076923085,4294.358974358975,4470.769230769231,4532.307692307693
5255.9307,0.46143875,1.0,0.33333334,0.5522388,0,0.0,0.92626053,0.0,0.0,0.0,0,0,0.0,0.0,0,0,90.0,0.0,1546.0,4619.48717948718,3937.435897435898,4514.871794871796,4438.974358974359,4258.461538461539,4572.307692307693,4445.128205128206,4461.538461538462,4677.435897435898,5116.410256410257,4340.000000000001,4288.717948717949,4575.8974358974365,4523.076923076924
5256.181,0.37925258,1.0,0.33333334,0.5522388,0,0.0,0.93378836,0.0,0.0,0.0,0,0,0.0,0.0,0,0,122.0,0.0,1546.0,4618.974358974359,3932.307692307693,4510.256410256411,4438.974358974359,4256.923076923077,4572.307692307693,4420.000000000001,4447.6923076923085,4547.6923076923085,5038.461538461539,4341.538461538462,4268.717948717949,4538.974358974359,4476.410256410257
5256.431,0.37925258,1.0,0.33333334,0.5522388,0,0.0,0.6747975,0.0,0.0,0.0,0,0,0.0,0.0,0,0,25.0,0.0,0.0,4619.48717948718,3926.666666666667,4516.923076923077,4440.512820512821,4260.512820512821,4571.282051282052,4414.871794871796,4481.538461538462,4670.769230769231,5132.820512820514,4375.384615384616,4269.2307692307695,4635.384615384616,4454.358974358975
5256.588,0.46435112,1.0,0.33333334,0.5522388,0,0.0,1.0,0.0,0.0,0.0,0,0,0.0,0.0,0,0,45.0,0.0,0.0,4625.128205128206,3924.1025641025644,4519.48717948718,4436.923076923077,4248.717948717949,4566.666666666667,4407.6923076923085,4508.205128205129,4874.871794871796,5234.358974358975,4403.076923076924,4274.358974358975,4722.564102564103,4459.48717948718
5256.588,0.46435112,1.0,0.33333334,0.5522388,0,0.0,1.0,0.0,0.0,0.0,0,0,0.0,0.0,0,0,45.0,0.0,0.0,4625.128205128206,3924.1025641025644,4519.48717948718,4436.923076923077,4248.717948717949,4566.666666666667,4407.6923076923085,4508.205128205129,4874.871794871796,5234.358974358975,4403.076923076924,4274.358974358975,4722.564102564103,4459.48717948718
5257.182,0.51071846,1.0,0.33333334,0.5522388,0,0.0,0.96860373,0.0,0.0,0.0,0,0,0.0,0.0,0,0,121.0,0.0,328.0,4622.051282051282,3925.6410256410263,4509.743589743591,4434.358974358975,4261.025641025642,4570.769230769231,4423.589743589744,4512.307692307693,4487.179487179488,5094.871794871796,4420.000000000001,4276.410256410257,4565.641025641026,4455.384615384616
5257.307,0.51071846,1.0,0.33333334,0.5522388,0,0.0,1.0,0.0,0.0,0.0,0,0,0.0,0.0,0,0,8.0,0.0,5568.0,4637.948717948719,3914.358974358975,4515.8974358974365,4446.153846153847,4265.128205128206,4572.820512820514,4433.333333333334,4522.564102564103,4754.358974358975,5149.2307692307695,4427.6923076923085,4281.538461538462,4577.948717948719,4470.769230769231
5257.5884,0.6157673,1.0,0.33333334,0.5522388,0,0.0,1.0,0.0,0.0,0.0,0,0,0.0,0.0,0,0,44.0,0.0,0.0,4635.384615384616,3932.820512820513,4510.256410256411,4445.128205128206,4261.538461538462,4573.333333333334,4439.48717948718,4487.179487179488,4598.461538461539,4968.205128205129,4402.051282051282,4281.025641025642,4378.974358974359,4465.128205128206
5257.5884,0.6157673,1.0,0.33333334,0.5522388,0,0.0,1.0,0.0,0.0,0.0,0,0,0.0,0.0,0,0,44.0,0.0,0.0,4635.384615384616,3932.820512820513,4510.256410256411,4445.128205128206,4261.538461538462,4573.333333333334,4439.48717948718,4487.179487179488,4598.461538461539,4968.205128205129,4402.051282051282,4281.025641025642,4378.974358974359,4465.128205128206
5258.1826,0.4989743,1.0,0.33333334,0.5522388,0,0.0,1.0,0.0,0.0,0.0,0,0,0.0,0.0,0,0,120.0,0.0,257.0,4664.615384615386,3941.538461538462,4507.6923076923085,4437.435897435898,4263.076923076924,4575.8974358974365,4459.48717948718,4509.743589743591,4385.641025641026,5007.179487179488,4418.461538461539,4295.8974358974365,4407.179487179487,4485.128205128206
5258.1826,0.4989743,1.0,0.33333334,0.5522388,0,0.0,1.0,0.0,0.0,0.0,0,0,0.0,0.0,0,0,120.0,0.0,257.0,4664.615384615386,3941.538461538462,4507.6923076923085,4437.435897435898,4263.076923076924,4575.8974358974365,4459.48717948718,4509.743589743591,4385.641025641026,5007.179487179488,4418.461538461539,4295.8974358974365,4407.179487179487,4485.128205128206
5258.5894,0.47233096,1.0,0.33333334,0.5522388,0,0.0,1.0,0.0,0.0,0.0,0,0,0.0,0.0,0,0,43.0,0.0,0.0,4611.794871794872,3940.0000000000005,4500.000000000001,4428.717948717949,4262.564102564103,4571.794871794872,4432.820512820514,4418.974358974359,4328.717948717949,4654.871794871796,4368.205128205129,4252.307692307693,4134.358974358975,4393.846153846154
5258.5894,0.47233096,1.0,0.33333334,0.5522388,0,0.0,1.0,0.0,0.0,0.0,0,0,0.0,0.0,0,0,43.0,0.0,0.0,4611.794871794872,3940.0000000000005,4500.000000000001,4428.717948717949,4262.564102564103,4571.794871794872,4432.820512820514,4418.974358974359,4328.717948717949,4654.871794871796,4368.205128205129,4252.307692307693,4134.358974358975,4393.846153846154
5259.09,0.46955994,1.0,0.33333334,0.5522388,0,0.0,1.0,0.0,0.0,0.0,0,0,0.0,0.0,0,0,107.0,0.0,494.0,4582.564102564103,3929.2307692307695,4502.564102564103,4441.025641025642,4271.794871794872,4591.282051282052,4452.820512820514,4424.615384615385,4426.153846153847,4693.333333333334,4366.153846153847,4257.948717948719,4162.564102564103,4403.589743589744
5259.09,0.46955994,1.0,0.33333334,0.5522388,0,0.0,1.0,0.0,0.0,0.0,0,0,0.0,0.0,0,0,107.0,0.0,494.0,4582.564102564103,3929.2307692307695,4502.564102564103,4441.025641025642,4271.794871794872,4591.282051282052,4452.820512820514,4424.615384615385,4426.153846153847,4693.333333333334,4366.153846153847,4257.948717948719,4162.564102564103,4403.589743589744
5259.5903,0.46529403,1.0,0.33333334,0.5522388,0,0.0,1.0,0.0,0.0,0.0,0,0,0.0,0.0,0,1,42.0,0.0,0.0,4740.000000000001,3962.564102564103,4522.051282051282,4450.256410256411,4260.512820512821,4583.589743589744,4473.846153846154,4538.461538461539,4798.461538461539,5115.8974358974365,4424.102564102564,4321.025641025642,4400.000000000001,4581.025641025642
5259.903,0.46529403,1.0,0.33333334,0.5522388,0,0.0,1.0,0.0,0.0,0.0,0,0,0.0,0.0,0,0,82.0,0.0,1552.0,4704.102564102564,3953.8461538461543,4501.025641025642,4443.076923076924,4259.48717948718,4580.512820512821,4490.769230769231,4471.282051282052,4208.717948717949,4802.564102564103,4377.435897435898,4312.820512820514,4153.333333333334,4551.282051282052
5260.091,0.5107436,1.0,0.33333334,0.5522388,0,0.0,1.0,0.0,0.0,0.0,0,0,0.0,0.0,0,0,106.0,0.0,1552.0,4698.461538461539,3958.461538461539,4501.025641025642,4444.102564102564,4255.384615384616,4574.358974358975,4488.205128205129,4443.076923076924,4385.641025641026,4715.384615384616,4363.076923076924,4299.48717948718,4078.9743589743593,4536.410256410257
5260.4346,0.5107436,1.0,0.33333334,0.5522388,0,0.0,0.521447,0.0,0.0,0.0,0,0,0.0,0.0,0,0,21.0,0.0,0.0,4691.794871794872,3938.9743589743593,4494.358974358975,4442.051282051282,4245.128205128206,4566.153846153847,4473.846153846154,4424.102564102564,3977.9487179487182,4620.000000000001,4351.794871794872,4293.846153846154,4052.307692307693,4529.2307692307695
5260.685,0.50120574,1.0,0.33333334,0.5522388,0,0.0,1.0,0.0,0.0,0.0,0,0,0.0,0.0,0,0,53.0,0.0,0.0,4702.051282051282,3946.1538461538466,4500.000000000001,4442.051282051282,4244.615384615385,4554.871794871796,4482.564102564103,4462.564102564103,4171.794871794872,4792.820512820514,4370.769230769231,4314.358974358975,4190.769230769231,4598.974358974359
5260.685,0.50120574,1.0,0.33333334,0.5522388,0,0.0,1.0,0.0,0.0,0.0,0,0,0.0,0.0,0,0,53.0,0.0,0.0,4702.051282051282,3946.1538461538466,4500.000000000001,4442.051282051282,4244.615384615385,4554.871794871796,4482.564102564103,4462.564102564103,4171.794871794872,4792.820512820514,4370.769230769231,4314.358974358975,4190.769230769231,4598.974358974359
5261.092,0.4980968,1.0,0.33333334,0.5522388,0,0.0,1.0,0.0,0.0,0.0,0,0,0.0,0.0,0,0,105.0,0.0,330.0,4708.205128205129,3943.076923076924,4505.128205128206,4452.820512820514,4256.923076923077,4569.743589743591,4475.384615384616,4475.8974358974365,4535.384615384616,4846.666666666667,4375.384615384616,4309.743589743591,4226.153846153847,4597.948717948719
5261.092,0.4980968,1.0,0.33333334,0.5522388,0,0.0,1.0,0.0,0.0,0.0,0,0,0.0,0.0,0,0,105.0,0.0,330.0,4708.205128205129,3943.076923076924,4505.128205128206,4452.820512820514,4256.923076923077,4569.743589743591,4475.384615384616,4475.8974358974365,4535.384615384616,4846.666666666667,4375.384615384616,4309.743589743591,4226.153846153847,4597.948717948719
5261.592,0.48612693,1.0,0.33333334,0.5522388,0,0.0,1.0,0.0,0.0,0.0,0,0,0.0,0.0,0,0,40.0,0.0,0.0,4707.179487179488,3956.9230769230776,4501.538461538462,4443.076923076924,4250.769230769231,4570.256410256411,4471.794871794872,4449.2307692307695,4391.282051282052,4736.923076923077,4356.923076923077,4315.384615384616,4138.974358974359,4586.666666666667
5261.592,0.48612693,1.0,0.33333334,0.5522388,0,0.0,1.0,0.0,0.0,0.0,0,0,0.0,0.0,0,0,40.0,0.0,0.0,4707.179487179488,3956.9230769230776,4501.538461538462,4443.076923076924,4250.769230769231,4570.256410256411,4471.794871794872,4449.2307692307695,4391.282051282052,4736.923076923077,4356.923076923077,4315.384615384616,4138.974358974359,4586.666666666667
5262.0923,0.46861818,1.0,0.33333334,0.5522388,0,0.0,1.0,0.0,0.0,0.0,0,0,0.0,0.0,0,0,104.0,0.0,258.0,4671.282051282052,3938.9743589743593,4487.179487179488,4434.358974358975,4249.2307692307695,4564.102564102564,4470.769230769231,4363.076923076924,4115.384615384616,4453.846153846154,4303.076923076924,4286.153846153847,3931.2820512820517,4529.2307692307695
5262.0923,0.46861818,1.0,0.33333334,0.5522388,0,0.0,1.0,0.0,0.0,0.0,0,0,0.0,0.0,0,0,104.0,0.0,258.0,4671.282051282052,3938.9743589743593,4487.179487179488,4434.358974358975,4249.2307692307695,4564.102564102564,4470.769230769231,4363.076923076924,4115.384615384616,4453.846153846154,4303.076923076924,4286.153846153847,3931.2820512820517,4529.2307692307695
5262.6865,0.44178864,1.0,0.33333334,0.5522388,0,0.0,0.68711805,0.0,0.0,0.0,0,0,0.0,0.0,0,0,51.0,0.0,0.0,4666.666666666667,3941.0256410256416,4496.410256410257,4448.717948717949,4247.179487179487,4556.410256410257,4451.282051282052,4375.384615384616,3901.538461538462,4498.461538461539,4305.641025641026,4283.076923076924,4013.8461538461543,4488.717948717949
5262.812,0.44178864,1.0,0.33333334,0.5522388,0,0.0,1.0,0.0,0.0,0.0,0,0,0.0,0.0,0,0,67.0,0.0,558.0,4665.128205128206,3944.1025641025644,4493.846153846154,4442.564102564103,4247.6923076923085,4547.6923076923085,4458.974358974359,4369.2307692307695,4320.000000000001,4513.333333333334,4296.923076923077,4285.128205128206,4011.7948717948725,4498.461538461539
5263.187,0.43183994,1.0,0.33333334,0.5522388,0,0.0,0.9743412,0.0,0.0,0.0,0,0,0.0,0.0,0,0,115.0,0.0,494.0,4671.794871794872,3949.7435897435903,4498.974358974359,4432.820512820514,4252.307692307693,4552.820512820514,4473.333333333334,4376.410256410257,3991.7948717948725,4547.6923076923085,4295.8974358974365,4298.974358974359,4021.538461538462,4542.051282051282
5263.4375,0.43183994,1.0,0.33333334,0.5522388,0,0.0,0.83798915,0.0,0.0,0.0,0,0,0.0,0.0,0,0,18.0,0.0,0.0,4664.615384615386,3953.333333333334,4498.974358974359,4441.025641025642,4249.2307692307695,4554.358974358975,4467.6923076923085,4366.153846153847,4002.0512820512827,4533.846153846154,4288.205128205129,4294.871794871796,4013.8461538461543,4546.153846153847
5263.6875,0.3811021,1.0,0.33333334,0.5522388,0,0.0,0.8015488,0.0,0.0,0.0,0,0,0.0,0.0,0,0,50.0,0.0,0.0,4682.051282051282,3943.076923076924,4503.076923076924,4442.051282051282,4249.2307692307695,4553.846153846154,4453.846153846154,4369.743589743591,4036.9230769230776,4561.538461538462,4286.153846153847,4287.6923076923085,4050.7692307692314,4526.153846153847
5263.8125,0.3811021,1.0,0.33333334,0.5522388,0,0.0,1.0,0.0,0.0,0.0,0,0,0.0,0.0,0,0,66.0,0.0,498.0,4675.384615384616,3941.538461538462,4503.589743589744,4443.076923076924,4247.179487179487,4553.333333333334,4453.846153846154,4403.076923076924,4532.820512820514,4723.076923076924,4313.333333333334,4290.769230769231,4213.333333333334,4521.025641025642
5264.094,0.30299714,1.0,0.33333334,0.5522388,0,0.0,1.0,0.0,0.0,0.0,0,0,0.0,0.0,0,0,102.0,0.0,1556.0,4643.589743589744,3923.589743589744,4497.948717948719,4448.717948717949,4249.2307692307695,4555.384615384616,4451.794871794872,4393.846153846154,4340.000000000001,4680.000000000001,4313.846153846154,4281.025641025642,4192.820512820514,4509.743589743591
5264.438,0.30299714,1.0,0.33333334,0.5522388,0,0.0,0.6200969,0.0,0.0,0.0,0,0,0.0,0.0,0,0,17.0,0.0,0.0,4636.923076923077,3939.48717948718,4511.282051282052,4441.025641025642,4262.564102564103,4569.2307692307695,4453.846153846154,4415.384615384616,4229.2307692307695,4744.615384615386,4329.2307692307695,4285.641025641026,4233.333333333334,4524.102564102564
5264.6885,0.26882902,1.0,0.33333334,0.5522388,0,0.0,0.87179935,0.0,0.0,0.0,0,0,0.0,0.0,0,0,49.0,0.0,0.0,4670.256410256411,3938.9743589743593,4508.205128205129,4445.641025641026,4256.410256410257,4571.794871794872,4457.948717948719,4408.205128205129,4184.102564102564,4710.256410256411,4317.435897435898,4295.8974358974365,4168.205128205129,4543.076923076924
5264.9385,0.26882902,1.0,0.33333334,0.5522388,0,0.0,0.8388432,0.0,0.0,0.0,0,0,0.0,0.0,0,0,81.0,0.0,330.0,4671.794871794872,3938.461538461539,4501.025641025642,4443.589743589744,4259.48717948718,4568.717948717949,4455.384615384616,4402.564102564103,4155.384615384616,4704.102564102564,4313.846153846154,4296.923076923077,4165.641025641026,4547.6923076923085
5265.189,0.19985834,1.0,0.33333334,0.5522388,0,0.0,0.5890374,0.0,0.0,0.0,0,0,0.0,0.0,0,0,113.0,0.0,330.0,4649.743589743591,3943.589743589744,4511.282051282052,4446.153846153847,4255.384615384616,4573.333333333334,4434.871794871796,4412.820512820514,4227.6923076923085,4734.871794871796,4321.025641025642,4293.333333333334,4210.769230769231,4543.076923076924
5265.439,0.19985834,1.0,0.33333334,0.5522388,0,0.0,0.8847207,0.0,0.0,0.0,0,0,0.0,0.0,0,0,16.0,0.0,0.0,4674.358974358975,3942.564102564103,4512.820512820514,4444.102564102564,4248.717948717949,4570.769230769231,4442.051282051282,4434.358974358975,4311.282051282052,4817.435897435898,4335.384615384616,4301.025641025642,4271.282051282052,4556.923076923077
5265.595,0.16239837,1.0,0.33333334,0.5522388,0,0.0,1.0,0.0,0.0,0.0,0,0,0.0,0.0,0,0,36.0,0.0,0.0,4655.8974358974365,3928.205128205129,4501.538461538462,4456.410256410257,4253.846153846154,4571.282051282052,4440.000000000001,4407.6923076923085,4292.307692307693,4713.333333333334,4321.025641025642,4289.74358974359,4193.846153846154,4515.384615384616
5265.595,0.16239837,1.0,0.33333334,0.5522388,0,0.0,1.0,0.0,0.0,0.0,0,0,0.0,0.0,0,0,36.0,0.0,0.0,4655.8974358974365,3928.205128205129,4501.538461538462,4456.410256410257,4253.846153846154,4571.282051282052,4440.000000000001,4407.6923076923085,4292.307692307693,4713.333333333334,4321.025641025642,4289.74358974359,4193.846153846154,4515.384615384616
5266.19,0.16059527,1.0,0.33333334,0.5522388,0,0.0,1.0,0.0,0.0,0.0,0,0,0.0,0.0,0,0,112.0,0.0,259.0,4666.666666666667,3942.0512820512827,4508.717948717949,4455.8974358974365,4246.666666666667,4563.589743589744,4436.923076923077,4407.6923076923085,4223.076923076924,4716.410256410257,4322.051282051282,4284.615384615385,4193.333333333334,4510.769230769231
5266.44,0.16059527,1.0,0.33333334,0.5522388,0,0.0,0.9019849,0.0,0.0,0.0,0,0,0.0,0.0,0,0,15.0,0.0,494.0,4640.512820512821,3937.435897435898,4494.358974358975,4441.538461538462,4236.923076923077,4552.820512820514,4427.179487179487,4368.717948717949,4024.615384615385,4565.128205128206,4303.076923076924,4269.74358974359,4092.307692307693,4483.076923076924
5266.69,0.1579856,1.0,0.33333334,0.5522388,0,0.0,0.74289405,0.0,0.0,0.0,0,0,0.0,0.0,0,0,47.0,0.0,0.0,4663.076923076924,3948.717948717949,4498.461538461539,4437.435897435898,4245.641025641026,4555.8974358974365,4456.923076923077,4390.256410256411,4143.589743589744,4637.948717948719,4305.641025641026,4295.384615384616,4092.820512820513,4540.512820512821
5266.9404,0.1579856,1.0,0.33333334,0.5522388,0,0.0,0.90504056,0.0,0.0,0.0,0,0,0.0,0.0,0,0,79.0,0.0,494.0,4700.000000000001,3952.820512820513,4505.641025641026,4442.564102564103,4250.256410256411,4568.205128205129,4457.435897435898,4387.6923076923085,4134.871794871796,4640.512820512821,4296.923076923077,4298.461538461539,4051.2820512820517,4586.666666666667
5267.1904,0.14275987,1.0,0.33333334,0.5522388,0,0.0,0.91345626,0.0,0.0,0.0,0,0,0.0,0.0,0,0,111.0,0.0,494.0,4717.948717948719,3958.461538461539,4510.769230769231,4445.641025641026,4250.256410256411,4569.743589743591,4455.8974358974365,4410.256410256411,4277.435897435898,4729.743589743591,4305.128205128206,4292.307692307693,4117.948717948719,4637.435897435898
5267.441,0.14275987,1.0,0.33333334,0.5522388,0,0.0,0.9268548,0.0,0.0,0.0,0,0,0.0,0.0,0,0,14.0,0.0,1559.0,4680.512820512821,3939.48717948718,4502.051282051282,4442.051282051282,4250.256410256411,4565.128205128206,4465.641025641026,4379.48717948718,4085.1282051282055,4607.179487179488,4291.282051282052,4283.076923076924,4052.307692307693,4590.769230769231
5267.597,0.18123615,1.0,0.33333334,0.5522388,0,0.0,1.0,0.0,0.0,0.0,0,0,0.0,0.0,0,0,34.0,0.0,0.0,4672.307692307693,3941.0256410256416,4492.307692307693,4440.512820512821,4247.6923076923085,4561.538461538462,4462.051282051282,4371.794871794872,4056.9230769230776,4580.000000000001,4284.615384615385,4283.589743589744,4035.8974358974365,4605.641025641026
5267.9414,0.18123615,1.0,0.33333334,0.5522388,0,0.0,0.5245303,0.0,0.0,0.0,0,0,0.0,0.0,0,0,78.0,0.0,1558.0,4673.846153846154,3939.48717948718,4498.974358974359,4444.615384615385,4245.128205128206,4562.051282051282,4450.256410256411,4366.153846153847,4107.179487179487,4584.102564102564,4285.128205128206,4274.358974358975,4054.8717948717954,4581.025641025642
5268.1914,0.1506839,1.0,0.33333334,0.5522388,0,0.0,0.8090995,0.0,0.0,0.0,0,0,0.0,0.0,0,0,110.0,0.0,1558.0,4670.256410256411,3945.1282051282055,4503.589743589744,4446.153846153847,4247.179487179487,4556.923076923077,4450.769230769231,4364.102564102564,4155.8974358974365,4590.769230769231,4281.025641025642,4268.205128205129,4060.0000000000005,4564.615384615385
5268.442,0.1506839,1.0,0.33333334,0.5522388,0,0.0,0.784272,0.0,0.0,0.0,0,0,0.0,0.0,0,0,13.0,0.0,330.0,4669.2307692307695,3937.9487179487182,4499.48717948718,4443.076923076924,4254.871794871796,4566.153846153847,4458.461538461539,4365.128205128206,4165.641025641026,4606.153846153847,4280.000000000001,4276.923076923077,4070.7692307692314,4575.8974358974365
5268.692,0.18006478,1.0,0.33333334,0.5522388,0,0.0,0.7243142,0.0,0.0,0.0,0,0,0.0,0.0,0,0,45.0,0.0,0.0,4674.871794871796,3954.358974358975,4494.358974358975,4436.410256410257,4241.025641025642,4553.333333333334,4458.461538461539,4349.743589743591,4120.512820512821,4544.615384615385,4270.256410256411,4278.974358974359,4017.9487179487182,4568.205128205129
5268.942,0.18006478,1.0,0.33333334,0.5522388,0,0.0,1.0,0.0,0.0,0.0,0,0,0.0,0.0,0,0,77.0,0.0,330.0,4674.358974358975,3948.205128205129,4501.025641025642,4444.102564102564,4232.307692307693,4551.794871794872,4473.333333333334,4383.076923076924,4301.538461538462,4687.179487179488,4286.666666666667,4300.512820512821,4147.179487179487,4571.794871794872
5269.0986,0.17368992,1.0,0.33333334,0.5522388,0,0.0,1.0,0.0,0.0,0.0,0,0,0.0,0.0,0,0,97.0,0.0,330.0,4652.307692307693,3947.1794871794878,4489.743589743591,4443.589743589744,4233.333333333334,4540.512820512821,4460.512820512821,4346.666666666667,4005.6410256410263,4522.051282051282,4268.717948717949,4281.025641025642,4039.48717948718,4532.820512820514
5269.4424,0.17368992,1.0,0.33333334,0.5522388,0,0.0,0.922499,0.0,0.0,0.0,0,0,0.0,0.0,0,0,12.0,0.0,257.0,4655.8974358974365,3957.435897435898,4501.538461538462,4446.153846153847,4232.307692307693,4548.205128205129,4460.000000000001,4385.128205128206,4354.871794871796,4702.564102564103,4294.871794871796,4292.820512820514,4192.307692307693,4549.2307692307695
5269.599,0.14604855,1.0,0.33333334,0.5522388,0,0.0,1.0,0.0,0.0,0.0,0,0,0.0,0.0,0,0,32.0,0.0,0.0,4678.974358974359,3957.9487179487182,4509.2307692307695,4453.333333333334,4246.153846153847,4556.923076923077,4465.641025641026,4425.128205128206,4353.333333333334,4832.820512820514,4312.820512820514,4304.615384615385,4284.102564102564,4575.8974358974365
5269.599,0.14604855,1.0,0.33333334,0.5522388,0,0.0,1.0,0.0,0.0,0.0,0,0,0.0,0.0,0,0,32.0,0.0,0.0,4678.974358974359,3957.9487179487182,4509.2307692307695,4453.333333333334,4246.153846153847,4556.923076923077,4465.641025641026,4425.128205128206,4353.333333333334,4832.820512820514,4312.820512820514,4304.615384615385,4284.102564102564,4575.8974358974365
5270.099,0.16510712,1.0,0.33333334,0.5522388,0,0.0,1.0,0.0,0.0,0.0,0,0,0.0,0.0,0,0,96.0,0.0,256.0,4585.128205128206,3937.435897435898,4511.282051282052,4443.076923076924,4249.2307692307695,4554.871794871796,4445.641025641026,4490.256410256411,4587.6923076923085,5058.461538461539,4384.102564102564,4283.076923076924,4597.435897435898,4546.666666666667
5270.4434,0.16510712,1.0,0.33333334,0.5522388,0,0.0,0.9991051,0.0,0.0,0.0,0,0,0.0,0.0,0,0,11.0,0.0,494.0,4571.794871794872,3926.666666666667,4524.615384615385,4454.358974358975,4251.282051282052,4562.564102564103,4416.410256410257,4543.589743589744,4784.102564102564,5203.076923076924,4432.820512820514,4269.2307692307695,4748.205128205129,4512.307692307693
5270.6934,0.250587,1.0,0.33333334,0.5522388,0,0.0,0.81676924,0.0,0.0,0.0,0,0,0.0,0.0,0,0,43.0,0.0,0.0,4534.358974358975,3909.2307692307695,4517.948717948719,4460.000000000001,4249.2307692307695,4556.410256410257,4392.820512820514,4532.820512820514,4717.435897435898,5133.333333333334,4443.589743589744,4250.769230769231,4720.000000000001,4471.794871794872
5270.944,0.250587,1.0,0.33333334,0.5522388,0,0.0,0.6968062,0.0,0.0,0.0,0,0,0.0,0.0,0,0,75.0,0.0,494.0,4556.923076923077,3906.666666666667,4515.8974358974365,4459.48717948718,4246.153846153847,4553.846153846154,4400.000000000001,4537.948717948719,4675.8974358974365,5112.820512820514,4451.794871794872,4247.6923076923085,4676.923076923077,4448.205128205129
5271.1,0.4271455,1.0,0.33333334,0.5522388,0,0.0,1.0,0.0,0.0,0.0,0,0,0.0,0.0,0,0,95.0,0.0,494.0,4567.6923076923085,3923.589743589744,4517.435897435898,4458.461538461539,4256.410256410257,4564.102564102564,4417.948717948719,4566.666666666667,4602.051282051282,5183.076923076924,4470.256410256411,4256.923076923077,4714.358974358975,4471.794871794872
5271.1,0.4271455,1.0,0.33333334,0.5522388,0,0.0,1.0,0.0,0.0,0.0,0,0,0.0,0.0,0,0,95.0,0.0,494.0,4567.6923076923085,3923.589743589744,4517.435897435898,4458.461538461539,4256.410256410257,4564.102564102564,4417.948717948719,4566.666666666667,4602.051282051282,5183.076923076924,4470.256410256411,4256.923076923077,4714.358974358975,4471.794871794872
5271.6006,0.3638917,1.0,0.33333334,0.5522388,0,0.0,1.0,0.0,0.0,0.0,0,0,0.0,0.0,0,0,30.0,0.0,0.0,4644.102564102564,3941.538461538462,4510.256410256411,4455.384615384616,4249.2307692307695,4560.512820512821,4415.8974358974365,4516.923076923077,4266.666666666667,4956.923076923077,4433.333333333334,4259.48717948718,4403.076923076924,4496.923076923077
5271.976,0.3638917,1.0,0.33333334,0.5522388,1,0.0,1.0,0.0,0.0,0.0,0,0,0.0,0.0,0,0,78.0,0.0,1557.0,4634.871794871796,3927.692307692308,4493.333333333334,4444.102564102564,4231.282051282052,4535.8974358974365,4411.794871794872,4458.974358974359,4403.076923076924,4742.051282051282,4400.512820512821,4247.179487179487,4216.410256410257,4501.025641025642
5272.195,0.35051522,1.0,0.33333334,0.5522388,0,0.0,0.85853434,0.0,0.0,0.0,0,0,0.0,0.0,0,0,106.0,0.0,1557.0,4647.179487179488,3926.1538461538466,4496.410256410257,4431.794871794872,4229.74358974359,4536.923076923077,4433.846153846154,4469.2307692307695,4346.666666666667,4772.307692307693,4408.205128205129,4258.461538461539,4245.641025641026,4488.205128205129
5272.4453,0.35051522,1.0,0.33333334,0.5522388,0,0.0,0.96793133,0.0,0.0,0.0,0,0,0.0,0.0,0,0,9.0,0.0,3419.0,4708.205128205129,3942.564102564103,4514.871794871796,4443.076923076924,4240.512820512821,4551.282051282052,4434.871794871796,4521.538461538462,4575.8974358974365,4957.948717948719,4427.6923076923085,4282.051282051282,4333.333333333334,4561.538461538462
5272.7266,0.33975115,1.0,0.33333334,0.5522388,0,0.0,0.8657745,0.0,0.0,0.0,0,0,0.0,0.0,0,0,45.0,0.0,0.0,4652.820512820514,3924.1025641025644,4496.923076923077,4436.923076923077,4250.256410256411,4560.512820512821,4451.794871794872,4473.846153846154,4454.358974358975,4772.820512820514,4400.512820512821,4267.179487179487,4198.461538461539,4508.717948717949
5272.9453,0.33975115,1.0,0.33333334,0.5522388,0,0.0,0.9389168,0.0,0.0,0.0,0,0,0.0,0.0,0,0,73.0,0.0,3422.0,4686.666666666667,3942.0512820512827,4513.333333333334,4443.076923076924,4256.923076923077,4560.000000000001,4456.923076923077,4491.282051282052,4509.743589743591,4848.205128205129,4409.743589743591,4283.076923076924,4242.051282051282,4515.384615384616
5273.196,0.31410724,1.0,0.33333334,0.5522388,0,0.0,0.7564094,0.0,0.0,0.0,0,0,0.0,0.0,0,0,105.0,0.0,330.0,4652.820512820514,3925.1282051282055,4498.974358974359,4431.794871794872,4249.2307692307695,4554.358974358975,4449.743589743591,4451.282051282052,4310.256410256411,4683.589743589744,4387.6923076923085,4263.076923076924,4134.358974358975,4485.128205128206
5273.321,0.31410724,1.0,0.33333334,0.5522388,0,0.0,1.0,0.0,0.0,0.0,0,0,0.0,0.0,0,0,121.0,0.0,330.0,4660.512820512821,3931.2820512820517,4494.358974358975,4438.974358974359,4249.74358974359,4556.410256410257,4431.794871794872,4447.6923076923085,4043.589743589744,4645.641025641026,4385.128205128206,4259.48717948718,4120.000000000001,4469.743589743591
5273.6963,0.33760208,1.0,0.33333334,0.5522388,1,0.0,0.83054036,0.0,0.0,0.0,0,0,0.0,0.0,0,0,40.0,0.0,0.0,4692.307692307693,3939.48717948718,4505.641025641026,4442.051282051282,4249.74358974359,4556.410256410257,4450.256410256411,4471.282051282052,4448.205128205129,4773.333333333334,4391.794871794872,4273.846153846154,4182.564102564103,4516.410256410257
5273.9463,0.33760208,1.0,0.33333334,0.5522388,0,0.0,1.0,0.0,0.0,0.0,0,0,0.0,0.0,0,0,72.0,0.0,5798.0,4656.410256410257,3930.2564102564106,4500.512820512821,4439.48717948718,4250.256410256411,4557.435897435898,4453.846153846154,4433.846153846154,4331.794871794872,4626.153846153847,4364.615384615385,4271.794871794872,4069.23076923077,4495.384615384616
5274.197,0.3287277,1.0,0.33333334,0.5522388,0,0.0,0.6710419,0.0,0.0,0.0,0,0,0.0,0.0,0,0,104.0,0.0,248.0,4658.461538461539,3938.9743589743593,4501.538461538462,4442.564102564103,4249.74358974359,4560.000000000001,4457.435897435898,4430.769230769231,4364.102564102564,4647.6923076923085,4364.102564102564,4272.820512820514,4079.48717948718,4515.384615384616
5274.447,0.3287277,1.0,0.33333334,0.5522388,0,0.0,0.68566006,0.0,0.0,0.0,0,0,0.0,0.0,0,0,7.0,0.0,748.0,4673.846153846154,3940.0000000000005,4512.307692307693,4443.076923076924,4251.794871794872,4560.512820512821,4462.564102564103,4454.871794871796,4516.410256410257,4762.564102564103,4372.307692307693,4274.871794871796,4177.948717948719,4528.205128205129
5274.6973,0.354496,1.0,0.33333334,0.5522388,0,0.0,0.98606646,0.0,0.0,0.0,0,0,0.0,0.0,0,0,39.0,0.0,0.0,4676.410256410257,3944.1025641025644,4511.794871794872,4443.589743589744,4250.769230769231,4562.051282051282,4473.333333333334,4456.923076923077,4501.025641025642,4763.076923076924,4370.256410256411,4284.615384615385,4163.589743589744,4536.923076923077
5274.9473,0.354496,1.0,0.33333334,0.5522388,0,0.0,0.7698272,0.0,0.0,0.0,0,0,0.0,0.0,0,0,71.0,0.0,747.0,4673.333333333334,3944.1025641025644,4512.820512820514,4317.435897435898,4250.256410256411,4570.769230769231,4463.589743589744,4450.769230769231,4511.794871794872,4746.153846153847,4374.871794871796,4271.794871794872,4222.051282051282,4528.717948717949
5275.1035,0.30519867,1.0,0.33333334,0.5522388,0,0.0,1.0,0.0,0.0,0.0,0,0,0.0,0.0,0,0,91.0,0.0,494.0,4646.666666666667,3942.564102564103,4497.435897435898,4151.282051282052,4251.282051282052,4566.153846153847,4443.589743589744,4403.076923076924,3902.564102564103,4526.666666666667,4355.384615384616,4253.333333333334,4128.717948717949,4509.743589743591
5275.1035,0.30519867,1.0,0.33333334,0.5522388,0,0.0,1.0,0.0,0.0,0.0,0,0,0.0,0.0,0,0,91.0,0.0,494.0,4646.666666666667,3942.564102564103,4497.435897435898,4151.282051282052,4251.282051282052,4566.153846153847,4443.589743589744,4403.076923076924,3902.564102564103,4526.666666666667,4355.384615384616,4253.333333333334,4128.717948717949,4509.743589743591
5275.604,0.38933402,1.0,0.33333334,0.5522388,0,0.0,1.0,0.0,0.0,0.0,0,0,0.0,0.0,0,0,26.0,0.0,0.0,4596.410256410257,3921.0256410256416,4494.358974358975,3745.1282051282055,4254.358974358975,4569.2307692307695,4414.871794871796,4345.641025641026,3803.076923076924,4381.538461538462,4345.128205128206,4232.307692307693,4183.076923076924,4473.846153846154
5275.948,0.38933402,1.0,0.33333334,0.5522388,0,0.0,0.0,0.0,0.30786708,0.0,0,0,0.0,0.0,0,0,70.0,0.0,382.0,4553.333333333334,3914.8717948717954,4501.025641025642,3704.615384615385,4258.974358974359,4572.307692307693,4390.769230769231,4327.6923076923085,4217.948717948719,4390.769230769231,4343.589743589744,4198.974358974359,4216.410256410257,4371.282051282052
5276.198,0.39531088,1.0,0.33333334,0.5522388,0,0.0,0.0,0.0,0.062057197,0.0,0,0,0.0,0.0,0,0,102.0,0.0,1557.0,4536.410256410257,3911.7948717948725,4503.076923076924,3718.461538461539,4261.538461538462,4569.743589743591,4367.179487179487,4366.153846153847,4440.000000000001,4574.358974358975,4370.256410256411,4197.435897435898,4370.769230769231,4382.051282051282
5276.4487,0.39531088,1.0,0.33333334,0.5522388,0,0.0,0.0,0.0,0.115884215,0.0,0,0,0.0,0.0,0,0,5.0,0.0,572.0,4488.717948717949,3905.6410256410263,4497.435897435898,3554.3589743589746,4256.410256410257,4567.6923076923085,4361.538461538462,4305.641025641026,4148.717948717949,4347.179487179487,4345.128205128206,4167.6923076923085,4225.128205128206,4383.589743589744
5276.605,0.42513964,1.0,0.33333334,0.5522388,0,0.0,1.0,0.0,0.0,0.0,0,0,0.0,0.0,0,0,25.0,0.0,0.0,4502.564102564103,3911.2820512820517,4504.615384615385,3550.7692307692314,4264.102564102564,4571.794871794872,4370.256410256411,4340.000000000001,3984.615384615385,4489.743589743591,4369.743589743591,4181.538461538462,4320.512820512821,4381.538461538462
5276.605,0.42513964,1.0,0.33333334,0.5522388,0,0.0,1.0,0.0,0.0,0.0,0,0,0.0,0.0,0,0,25.0,0.0,0.0,4502.564102564103,3911.2820512820517,4504.615384615385,3550.7692307692314,4264.102564102564,4571.794871794872,4370.256410256411,4340.000000000001,3984.615384615385,4489.743589743591,4369.743589743591,4181.538461538462,4320.512820512821,4381.538461538462
5277.199,0.4336413,1.0,0.33333334,0.5522388,0,0.0,0.0,0.0,0.19055894,0.0,0,0,0.0,0.0,0,0,101.0,0.0,330.0,4555.8974358974365,3917.435897435898,4504.615384615385,3523.589743589744,4253.846153846154,4567.6923076923085,4390.769230769231,4358.461538461539,4484.102564102564,4610.256410256411,4365.641025641026,4196.410256410257,4286.153846153847,4438.461538461539
5277.449,0.4336413,1.0,0.33333334,0.5522388,0,0.0,0.0,0.0,0.06758731,0.0,0,0,0.0,0.0,0,0,4.0,0.0,582.0,4595.8974358974365,3940.0000000000005,4512.820512820514,3618.9743589743593,4249.2307692307695,4563.589743589744,4408.717948717949,4388.205128205129,4580.000000000001,4734.871794871796,4371.794871794872,4221.538461538462,4272.307692307693,4505.128205128206
5277.606,0.41538945,1.0,0.33333334,0.5522388,0,0.0,1.0,0.0,0.0,0.0,0,0,0.0,0.0,0,0,24.0,0.0,0.0,4597.435897435898,3936.410256410257,4504.102564102564,3705.6410256410263,4250.769230769231,4564.102564102564,4397.435897435898,4395.8974358974365,4305.641025641026,4757.435897435898,4373.333333333334,4229.74358974359,4266.153846153847,4508.205128205129
5277.9497,0.41538945,1.0,0.33333334,0.5522388,0,0.0,1.0,0.0,0.0,0.0,0,0,0.0,0.0,0,0,68.0,0.0,582.0,4624.102564102564,3943.589743589744,4510.256410256411,3868.205128205129,4250.256410256411,4560.512820512821,4425.128205128206,4422.564102564103,4674.871794871796,4856.923076923077,4370.769230769231,4236.410256410257,4234.358974358975,4509.743589743591
5278.1064,0.3672685,1.0,0.33333334,0.5522388,0,0.0,1.0,0.0,0.0,0.0,0,0,0.0,0.0,0,0,88.0,0.0,250.0,4631.282051282052,3940.5128205128212,4499.48717948718,3988.717948717949,4245.641025641026,4553.846153846154,4432.307692307693,4434.358974358975,4385.641025641026,4868.717948717949,4375.8974358974365,4246.666666666667,4210.769230769231,4512.820512820514
5278.1064,0.3672685,1.0,0.33333334,0.5522388,0,0.0,1.0,0.0,0.0,0.0,0,0,0.0,0.0,0,0,88.0,0.0,250.0,4631.282051282052,3940.5128205128212,4499.48717948718,3988.717948717949,4245.641025641026,4553.846153846154,4432.307692307693,4434.358974358975,4385.641025641026,4868.717948717949,4375.8974358974365,4246.666666666667,4210.769230769231,4512.820512820514
5278.6064,0.43453592,1.0,0.33333334,0.5522388,0,0.0,1.0,0.0,0.0,0.0,0,0,0.0,0.0,0,0,23.0,0.0,0.0,4653.846153846154,3958.9743589743593,4527.6923076923085,4624.102564102564,4233.333333333334,4535.8974358974365,4480.512820512821,4586.666666666667,4892.820512820514,5372.307692307693,4432.307692307693,4294.871794871796,4431.282051282052,4538.974358974359
5278.6064,0.43453592,1.0,0.33333334,0.5522388,0,0.0,1.0,0.0,0.0,0.0,0,0,0.0,0.0,0,0,23.0,0.0,0.0,4653.846153846154,3958.9743589743593,4527.6923076923085,4624.102564102564,4233.333333333334,4535.8974358974365,4480.512820512821,4586.666666666667,4892.820512820514,5372.307692307693,4432.307692307693,4294.871794871796,4431.282051282052,4538.974358974359
5279.2007,0.55235016,1.0,0.33333334,0.5522388,0,0.0,1.0,0.0,0.0,0.0,0,0,0.0,0.0,0,0,99.0,0.0,494.0,4655.384615384616,3956.410256410257,4520.512820512821,4984.615384615386,4249.74358974359,4555.8974358974365,4486.666666666667,4632.307692307693,5012.820512820514,5438.974358974359,4445.128205128206,4313.333333333334,4390.256410256411,4578.461538461539
5279.2007,0.55235016,1.0,0.33333334,0.5522388,0,0.0,1.0,0.0,0.0,0.0,0,0,0.0,0.0,0,0,99.0,0.0,494.0,4655.384615384616,3956.410256410257,4520.512820512821,4984.615384615386,4249.74358974359,4555.8974358974365,4486.666666666667,4632.307692307693,5012.820512820514,5438.974358974359,4445.128205128206,4313.333333333334,4390.256410256411,4578.461538461539
5279.6074,0.64069206,1.0,0.33333334,0.5522388,0,0.0,1.0,0.0,0.0,0.0,0,0,0.0,0.0,0,0,22.0,0.0,0.0,4709.743589743591,3969.2307692307695,4530.256410256411,5329.2307692307695,4269.2307692307695,4585.128205128206,4515.384615384616,4747.179487179488,5122.564102564103,5677.435897435898,4493.846153846154,4357.435897435898,4545.128205128206,4658.974358974359
5279.6074,0.64069206,1.0,0.33333334,0.5522388,0,0.0,1.0,0.0,0.0,0.0,0,0,0.0,0.0,0,0,22.0,0.0,0.0,4709.743589743591,3969.2307692307695,4530.256410256411,5329.2307692307695,4269.2307692307695,4585.128205128206,4515.384615384616,4747.179487179488,5122.564102564103,5677.435897435898,4493.846153846154,4357.435897435898,4545.128205128206,4658.974358974359
5280.108,0.773809,1.0,0.33333334,0.5522388,0,0.0,1.0,0.0,0.0,0.0,0,0,0.0,0.0,0,0,86.0,0.0,1561.0,4690.769230769231,3963.076923076924,4513.333333333334,5227.179487179488,4246.153846153847,4556.410256410257,4495.384615384616,4630.769230769231,4496.410256410257,5172.307692307693,4437.435897435898,4330.256410256411,4204.615384615385,4643.076923076924
5280.452,0.773809,1.0,0.33333334,0.5522388,0,0.0,1.0,0.0,0.0,0.0,0,0,0.0,0.0,0,0,1.0,0.0,436.0,4682.051282051282,3957.435897435898,4500.000000000001,5094.871794871796,4244.615384615385,4555.384615384616,4483.589743589744,4551.794871794872,4382.564102564103,4874.871794871796,4394.871794871796,4303.076923076924,4046.666666666667,4613.333333333334
5280.6084,0.79178286,1.0,0.33333334,0.5522388,0,0.0,1.0,0.0,0.0,0.0,0,0,0.0,0.0,0,0,21.0,0.0,0.0,4649.2307692307695,3957.9487179487182,4492.820512820514,5037.435897435898,4247.179487179487,4555.8974358974365,4475.8974358974365,4492.307692307693,4025.6410256410263,4628.205128205129,4361.538461538462,4292.820512820514,3898.461538461539,4575.8974358974365
5280.6084,0.79178286,1.0,0.33333334,0.5522388,0,0.0,1.0,0.0,0.0,0.0,0,0,0.0,0.0,0,0,21.0,0.0,0.0,4649.2307692307695,3957.9487179487182,4492.820512820514,5037.435897435898,4247.179487179487,4555.8974358974365,4475.8974358974365,4492.307692307693,4025.6410256410263,4628.205128205129,4361.538461538462,4292.820512820514,3898.461538461539,4575.8974358974365
5281.2026,0.783687,1.0,0.33333334,0.5522388,0,0.0,0.6868282,0.0,0.0,0.0,0,0,0.0,0.0,0,0,97.0,0.0,331.0,4647.179487179488,3941.538461538462,4493.846153846154,4859.48717948718,4245.128205128206,4553.846153846154,4457.948717948719,4484.102564102564,4235.384615384616,4663.076923076924,4365.128205128206,4277.948717948719,4072.820512820513,4584.615384615385
5281.4526,0.783687,1.0,0.33333334,0.5522388,0,0.0,0.542327,0.0,0.0,0.0,0,0,0.0,0.0,0,0,0.0,0.0,365.0,4581.538461538462,3928.717948717949,4493.846153846154,4796.410256410257,4243.589743589744,4551.282051282052,4399.48717948718,4480.000000000001,4258.461538461539,4641.538461538462,4371.282051282052,4251.282051282052,4167.6923076923085,4577.435897435898
5281.703,0.6929517,1.0,0.33333334,0.5522388,0,0.0,0.61762077,0.0,0.0,0.0,0,0,0.0,0.0,0,0,32.0,0.0,0.0,4508.717948717949,3907.1794871794878,4485.641025641026,4733.333333333334,4243.589743589744,4550.256410256411,4363.589743589744,4456.923076923077,4160.512820512821,4579.48717948718,4379.48717948718,4214.871794871796,4241.538461538462,4516.923076923077
5281.953,0.6929517,1.0,0.33333334,0.5522388,0,0.0,0.521984,0.0,0.0,0.0,0,0,0.0,0.0,0,0,64.0,0.0,365.0,4412.820512820514,3881.538461538462,4488.717948717949,4686.153846153847,4260.512820512821,4556.923076923077,4337.435897435898,4467.6923076923085,4293.846153846154,4636.923076923077,4401.025641025642,4188.205128205129,4389.2307692307695,4434.358974358975
5282.2036,0.67389494,1.0,0.33333334,0.5522388,0,0.0,0.85238826,0.0,0.0,0.0,0,0,0.0,0.0,0,0,96.0,0.0,248.0,4396.923076923077,3876.410256410257,4488.205128205129,4654.871794871796,4276.410256410257,4576.923076923077,4320.512820512821,4458.461538461539,4231.794871794872,4624.102564102564,4403.589743589744,4177.435897435898,4385.128205128206,4375.8974358974365
5282.4536,0.67389494,1.0,0.33333334,0.5522388,0,0.0,0.0,0.0,0.50887644,0.0,0,0,0.0,0.0,0,0,128.0,0.0,248.0,4394.871794871796,3874.8717948717954,4373.333333333334,4615.384615384616,4282.051282051282,4586.666666666667,4309.2307692307695,3684.615384615385,1731.794871794872,2055.3846153846157,4045.6410256410263,4027.692307692308,2742.564102564103,1446.1538461538464
5282.704,0.7612584,1.0,0.33333334,0.5522388,0,0.0,0.0,0.0,0.5120084,0.0,0,0,0.0,0.0,0,0,31.0,0.0,0.0,4392.820512820514,3865.1282051282055,4500.512820512821,4589.743589743591,4282.564102564103,4591.282051282052,4296.410256410257,4340.512820512821,4572.820512820514,4544.102564102564,4342.564102564103,4159.48717948718,4421.538461538462,3646.666666666667
5282.954,0.7612584,1.0,0.33333334,0.5522388,0,0.0,0.0,0.0,0.35664377,0.0,0,0,0.0,0.0,0,0,63.0,0.0,0.0,4421.025641025642,3880.0000000000005,4549.2307692307695,4571.794871794872,4283.076923076924,4589.2307692307695,4312.307692307693,4673.333333333334,5684.102564102564,5736.923076923078,4500.512820512821,4229.74358974359,5072.820512820514,4849.2307692307695
5283.204,0.8799075,0.9819117,0.33333334,0.5522388,0,0.0,0.0,0.0,0.7238959,0.0,0,0,0.0,0.0,0,0,95.0,0.0,480.0,4448.205128205129,3890.7692307692314,4537.948717948719,4557.948717948719,4279.48717948718,4594.358974358975,4304.102564102564,4641.538461538462,5366.153846153847,5531.794871794872,4481.025641025642,4227.6923076923085,4828.205128205129,4885.641025641026
5283.4546,0.8799075,0.9819117,0.33333334,0.5522388,0,0.0,1.0,0.0,0.0,0.0,0,0,0.0,0.0,0,0,127.0,0.0,480.0,4474.358974358975,3892.307692307693,4521.025641025642,4537.948717948719,4275.8974358974365,4584.615384615385,4311.794871794872,4593.333333333334,4964.102564102564,5295.8974358974365,4461.538461538462,4218.461538461539,4605.641025641026,4851.282051282052
5283.7046,0.84989256,0.9499945,0.33333334,0.5522388,0,0.0,0.73483276,0.0,0.0,0.0,0,0,0.0,0.0,0,0,30.0,0.0,0.0,4496.923076923077,3898.461538461539,4517.948717948719,4536.923076923077,4277.948717948719,4588.717948717949,4346.666666666667,4563.589743589744,4778.974358974359,5149.2307692307695,4442.051282051282,4225.128205128206,4420.000000000001,4833.846153846154
5283.955,0.84989256,0.9499945,0.33333334,0.5522388,0,0.0,0.8401832,0.0,0.0,0.0,0,0,0.0,0.0,0,0,62.0,0.0,0.0,4528.205128205129,3907.692307692308,4502.051282051282,4522.051282051282,4264.102564102564,4581.538461538462,4353.846153846154,4533.333333333334,4521.538461538462,4996.410256410257,4422.051282051282,4222.051282051282,4302.051282051282,4808.717948717949
5284.1113,0.78916776,0.92126906,0.33333334,0.5522388,0,0.0,1.0,0.0,0.0,0.0,0,0,0.0,0.0,0,0,82.0,0.0,1566.0,4535.384615384616,3909.7435897435903,4503.076923076924,4518.974358974359,4263.589743589744,4573.333333333334,4362.051282051282,4522.051282051282,4503.589743589744,4854.358974358975,4402.564102564103,4217.435897435898,4172.820512820514,4791.282051282052
5284.1113,0.78916776,0.92126906,0.33333334,0.5522388,0,0.0,1.0,0.0,0.0,0.0,0,0,0.0,0.0,0,0,82.0,0.0,1566.0,4535.384615384616,3909.7435897435903,4503.076923076924,4518.974358974359,4263.589743589744,4573.333333333334,4362.051282051282,4522.051282051282,4503.589743589744,4854.358974358975,4402.564102564103,4217.435897435898,4172.820512820514,4791.282051282052
5284.7056,0.7029385,0.89541614,0.33333334,0.5522388,0,0.0,0.6394666,0.0,0.0,0.0,0,0,0.0,0.0,0,0,29.0,0.0,0.0,4570.769230769231,3926.1538461538466,4495.384615384616,4503.589743589744,4247.179487179487,4568.717948717949,4389.743589743591,4468.205128205129,4147.6923076923085,4639.48717948718,4358.461538461539,4222.051282051282,4009.7435897435903,4677.948717948719
5284.956,0.7029385,0.89541614,0.33333334,0.5522388,0,0.0,0.61316955,0.0,0.0,0.0,0,0,0.0,0.0,0,0,61.0,0.0,0.0,4593.846153846154,3929.7435897435903,4487.179487179488,4496.410256410257,4247.6923076923085,4562.051282051282,4417.435897435898,4454.871794871796,4102.564102564103,4583.076923076924,4338.974358974359,4234.871794871796,3953.8461538461543,4676.410256410257
5285.206,0.7046936,0.87214845,0.33333334,0.5522388,0,0.0,0.32189208,0.0,0.0,0.0,0,0,0.0,0.0,0,0,93.0,0.0,337.0,4620.512820512821,3942.0512820512827,4493.846153846154,4500.512820512821,4249.2307692307695,4563.589743589744,4430.769230769231,4451.794871794872,4103.076923076924,4588.205128205129,4329.2307692307695,4243.076923076924,3957.435897435898,4645.128205128206
5285.456,0.7046936,0.87214845,0.33333334,0.5522388,0,0.0,0.47992313,0.0,0.0,0.0,0,0,0.0,0.0,0,0,125.0,0.0,337.0,4642.051282051282,3944.1025641025644,4500.000000000001,4496.410256410257,4261.025641025642,4568.205128205129,4446.153846153847,4457.435897435898,4167.6923076923085,4634.871794871796,4329.743589743591,4253.846153846154,3990.2564102564106,4636.923076923077
5285.7065,0.74405545,0.8626023,0.33333334,0.5522388,0,0.0,0.43808252,0.0,0.0,0.0,0,0,0.0,0.0,0,0,28.0,0.0,0.0,4667.179487179488,3956.410256410257,4500.512820512821,4494.871794871796,4260.512820512821,4568.205128205129,4452.820512820514,4455.8974358974365,4150.769230769231,4623.076923076924,4318.974358974359,4256.410256410257,3977.435897435898,4630.769230769231
5285.9565,0.74405545,0.8626023,0.33333334,0.5522388,0,0.0,0.69139016,0.0,0.0,0.0,0,0,0.0,0.0,0,0,60.0,0.0,0.0,4743.076923076924,3969.2307692307695,4499.48717948718,4494.358974358975,4255.384615384616,4567.179487179488,4458.974358974359,4475.8974358974365,4256.923076923077,4738.461538461539,4326.153846153847,4280.512820512821,4038.461538461539,4676.923076923077
5286.207,0.7091288,0.8610253,0.33333334,0.5522388,0,0.0,1.0,0.0,0.0,0.0,0,0,0.0,0.0,0,0,92.0,0.0,248.0,4641.025641025642,3942.564102564103,4484.102564102564,4483.589743589744,4257.948717948719,4566.666666666667,4456.923076923077,4386.153846153847,3890.2564102564106,4402.051282051282,4279.48717948718,4248.205128205129,3846.666666666667,4566.153846153847
5286.207,0.7091288,0.8610253,0.33333334,0.5522388,0,0.0,1.0,0.0,0.0,0.0,0,0,0.0,0.0,0,0,92.0,0.0,248.0,4641.025641025642,3942.564102564103,4484.102564102564,4483.589743589744,4257.948717948719,4566.666666666667,4456.923076923077,4386.153846153847,3890.2564102564106,4402.051282051282,4279.48717948718,4248.205128205129,3846.666666666667,4566.153846153847
5286.7075,0.7699976,0.8570743,0.33333334,0.5522388,0,0.0,1.0,0.0,0.0,0.0,0,0,0.0,0.0,0,0,27.0,0.0,0.0,4667.6923076923085,3941.538461538462,4490.256410256411,4478.974358974359,4257.948717948719,4568.717948717949,4464.102564102564,4396.410256410257,4020.5128205128212,4492.820512820514,4275.8974358974365,4275.384615384616,3922.0512820512827,4571.794871794872
5286.9575,0.7699976,0.8570743,0.33333334,0.5522388,0,0.0,0.0,0.0,0.06530275,0.0,0,0,0.0,0.0,0,0,59.0,0.0,0.0,4652.820512820514,3943.589743589744,4482.564102564103,4475.8974358974365,4252.307692307693,4570.769230769231,4454.871794871796,4345.641025641026,3845.1282051282055,4326.666666666667,4244.615384615385,4255.8974358974365,3805.1282051282055,4520.512820512821
5287.208,0.81196755,0.85212636,0.33333334,0.5522388,0,0.0,0.0,0.0,0.08710723,0.0,0,0,0.0,0.0,0,0,91.0,0.0,485.0,4644.102564102564,3948.717948717949,4491.282051282052,4475.384615384616,4249.2307692307695,4570.256410256411,4457.948717948719,4350.769230769231,3917.435897435898,4381.538461538462,4244.102564102564,4261.538461538462,3867.692307692308,4518.461538461539
5287.458,0.81196755,0.85212636,0.33333334,0.5522388,0,0.0,0.9498744,0.0,0.0,0.0,0,0,0.0,0.0,0,0,123.0,0.0,485.0,4668.717948717949,3957.435897435898,4493.846153846154,4475.384615384616,4246.666666666667,4570.769230769231,4472.307692307693,4365.128205128206,3981.538461538462,4469.743589743591,4246.153846153847,4272.307692307693,3927.1794871794878,4540.512820512821
5287.708,0.8206119,0.8430986,0.33333334,0.5522388,0,0.0,0.82665545,0.0,0.0,0.0,0,0,0.0,0.0,0,0,26.0,0.0,0.0,4669.743589743591,3950.2564102564106,4500.512820512821,4472.820512820514,4250.769230769231,4571.282051282052,4475.384615384616,4374.871794871796,4074.8717948717954,4521.538461538462,4248.717948717949,4275.8974358974365,3979.48717948718,4548.717948717949
5287.9585,0.8206119,0.8430986,0.33333334,0.5522388,0,0.0,0.9055741,0.0,0.0,0.0,0,0,0.0,0.0,0,0,58.0,0.0,0.0,4641.025641025642,3942.0512820512827,4492.307692307693,4466.153846153847,4240.000000000001,4562.564102564103,4462.051282051282,4355.8974358974365,3960.5128205128212,4465.641025641026,4241.538461538462,4275.8974358974365,3955.8974358974365,4550.769230769231
5288.2085,0.86271906,0.82698816,0.33333334,0.5522388,0,0.0,0.949151,0.0,0.0,0.0,0,0,0.0,0.0,0,0,90.0,0.0,1572.0,4675.8974358974365,3943.589743589744,4500.000000000001,4464.615384615385,4241.025641025642,4561.538461538462,4462.051282051282,4396.923076923077,4186.153846153847,4641.025641025642,4262.564102564103,4288.205128205129,4106.153846153847,4562.564102564103
5288.334,0.86271906,0.82698816,0.33333334,0.5522388,0,0.0,1.0,0.0,0.0,0.0,0,0,0.0,0.0,0,0,106.0,0.0,1572.0,4645.641025641026,3941.538461538462,4506.666666666667,4462.051282051282,4232.307692307693,4555.8974358974365,4451.794871794872,4380.000000000001,4411.794871794872,4586.666666666667,4254.358974358975,4277.948717948719,4082.564102564103,4545.128205128206
5288.709,0.94712824,0.81704336,0.33333334,0.5522388,0,0.0,0.67555153,0.0,0.0,0.0,0,0,0.0,0.0,0,0,25.0,0.0,0.0,4644.102564102564,3937.9487179487182,4490.256410256411,4456.923076923077,4230.769230769231,4551.794871794872,4447.179487179487,4379.48717948718,4112.307692307693,4598.461538461539,4256.923076923077,4288.205128205129,4105.128205128206,4562.051282051282
5288.9595,0.94712824,0.81704336,0.33333334,0.5522388,0,0.0,0.7250219,0.0,0.0,0.0,0,0,0.0,0.0,0,0,57.0,0.0,0.0,4663.589743589744,3946.1538461538466,4498.461538461539,4461.025641025642,4235.384615384616,4553.846153846154,4448.205128205129,4401.538461538462,4127.6923076923085,4676.923076923077,4268.205128205129,4292.307692307693,4155.8974358974365,4567.6923076923085
5289.2095,1.0,0.8100009,0.33333334,0.5522388,0,0.0,0.82763624,0.0,0.0,0.0,0,0,0.0,0.0,0,0,89.0,0.0,333.0,4646.153846153847,3941.0256410256416,4487.179487179488,4457.948717948719,4230.769230769231,4547.6923076923085,4447.179487179487,4375.384615384616,4045.6410256410263,4581.538461538462,4256.410256410257,4283.076923076924,4091.7948717948725,4555.8974358974365
5289.46,1.0,0.8100009,0.33333334,0.5522388,0,0.0,0.7257388,0.0,0.0,0.0,0,0,0.0,0.0,0,0,121.0,0.0,333.0,4646.153846153847,3944.615384615385,4485.641025641026,4458.974358974359,4231.282051282052,4540.512820512821,4445.641025641026,4368.205128205129,3975.3846153846157,4562.051282051282,4253.333333333334,4284.102564102564,4063.589743589744,4554.358974358975
5289.71,0.991455,0.79955167,0.33333334,0.5522388,0,0.0,0.6034817,0.0,0.0,0.0,0,0,0.0,0.0,0,0,24.0,0.0,0.0,4671.794871794872,3956.9230769230776,4505.641025641026,4469.743589743591,4245.641025641026,4554.871794871796,4466.153846153847,4405.128205128206,4186.666666666667,4704.615384615386,4266.153846153847,4295.8974358974365,4143.589743589744,4564.615384615385
5289.96,0.991455,0.79955167,0.33333334,0.5522388,0,0.0,0.7328464,0.0,0.0,0.0,0,0,0.0,0.0,0,0,56.0,0.0,0.0,4660.512820512821,3946.666666666667,4496.923076923077,4458.974358974359,4241.538461538462,4553.333333333334,4463.076923076924,4402.564102564103,4122.051282051282,4701.538461538462,4270.256410256411,4296.923076923077,4167.6923076923085,4569.2307692307695
5290.2104,0.93450326,0.7893933,0.33333334,0.5522388,0,0.0,0.81064796,0.0,0.0,0.0,0,0,0.0,0.0,0,0,88.0,0.0,249.0,4649.743589743591,3944.615384615385,4483.589743589744,4457.948717948719,4232.307692307693,4538.974358974359,4449.743589743591,4351.282051282052,3941.0256410256416,4517.948717948719,4242.051282051282,4283.589743589744,4021.538461538462,4537.948717948719
5290.4604,0.93450326,0.7893933,0.33333334,0.5522388,0,0.0,0.6644738,0.0,0.0,0.0,0,0,0.0,0.0,0,0,120.0,0.0,249.0,4666.666666666667,3945.6410256410263,4493.846153846154,4462.051282051282,4233.333333333334,4550.256410256411,4461.538461538462,4376.410256410257,4028.717948717949,4620.000000000001,4251.794871794872,4290.769230769231,4094.8717948717954,4532.820512820514
5290.711,1.0,0.7831209,0.33333334,0.5522388,0,0.0,0.74072415,0.0,0.0,0.0,0,0,0.0,0.0,0,0,23.0,0.0,0.0,4644.615384615385,3944.615384615385,4495.384615384616,4463.076923076924,4244.615384615385,4554.358974358975,4458.974358974359,4368.717948717949,4000.0000000000005,4586.666666666667,4251.282051282052,4284.615384615385,4076.410256410257,4522.564102564103
5290.961,1.0,0.7831209,0.33333334,0.5522388,0,0.0,0.9239826,0.0,0.0,0.0,0,0,0.0,0.0,0,0,55.0,0.0,0.0,4647.6923076923085,3939.48717948718,4493.846153846154,4460.000000000001,4234.358974358975,4555.8974358974365,4450.256410256411,4371.282051282052,4012.307692307693,4600.000000000001,4253.333333333334,4291.794871794872,4091.2820512820517,4530.256410256411
5291.2114,0.98995095,0.77124417,0.33333334,0.5522388,0,0.0,1.0,0.0,0.0,0.0,0,0,0.0,0.0,0,0,87.0,0.0,486.0,4664.102564102564,3946.666666666667,4498.461538461539,4461.538461538462,4243.076923076924,4563.589743589744,4466.666666666667,4391.282051282052,4109.74358974359,4701.538461538462,4266.666666666667,4300.000000000001,4160.512820512821,4543.076923076924
5291.4614,0.98995095,0.77124417,0.33333334,0.5522388,0,0.0,0.831239,0.0,0.0,0.0,0,0,0.0,0.0,0,0,119.0,0.0,486.0,4645.641025641026,3942.0512820512827,4497.435897435898,4460.000000000001,4243.589743589744,4559.48717948718,4457.435897435898,4373.333333333334,4011.2820512820517,4620.512820512821,4255.8974358974365,4294.871794871796,4102.051282051282,4534.358974358975
5291.7114,1.0,0.76242495,0.33333334,0.5522388,0,0.0,0.62309194,0.0,0.0,0.0,0,0,0.0,0.0,0,0,22.0,0.0,0.0,4665.128205128206,3945.6410256410263,4500.000000000001,4463.076923076924,4244.615384615385,4566.666666666667,4463.076923076924,4384.615384615385,4115.384615384616,4687.6923076923085,4263.076923076924,4298.461538461539,4135.8974358974365,4552.307692307693
5291.962,1.0,0.76242495,0.33333334,0.5522388,0,0.0,0.7971476,0.0,0.0,0.0,0,0,0.0,0.0,0,0,54.0,0.0,0.0,4667.179487179488,3942.564102564103,4498.461538461539,4458.974358974359,4239.48717948718,4561.025641025642,4448.717948717949,4379.48717948718,4075.8974358974365,4657.435897435898,4257.435897435898,4294.358974358975,4123.589743589744,4534.358974358975
5292.212,0.9620369,0.77121055,0.33333334,0.5522388,0,0.0,0.9210069,0.0,0.0,0.0,0,0,0.0,0.0,0,0,86.0,0.0,1572.0,4647.6923076923085,3944.1025641025644,4501.025641025642,4459.48717948718,4246.153846153847,4570.256410256411,4451.282051282052,4362.564102564103,4011.7948717948725,4604.615384615385,4249.74358974359,4289.74358974359,4070.7692307692314,4534.358974358975
5292.4624,0.9620369,0.77121055,0.33333334,0.5522388,0,0.0,0.7751167,0.0,0.0,0.0,0,0,0.0,0.0,0,0,118.0,0.0,1572.0,4656.923076923077,3943.076923076924,4495.8974358974365,4457.435897435898,4234.871794871796,4558.974358974359,4445.641025641026,4363.076923076924,4008.205128205129,4604.615384615385,4251.794871794872,4290.256410256411,4089.23076923077,4529.743589743591
5292.7124,0.95306057,0.77802545,0.33333334,0.5522388,0,0.0,0.78930724,0.0,0.0,0.0,0,0,0.0,0.0,0,0,21.0,0.0,0.0,4669.743589743591,3948.717948717949,4501.025641025642,4458.974358974359,4246.153846153847,4558.974358974359,4440.512820512821,4373.333333333334,4045.1282051282055,4644.615384615385,4260.000000000001,4294.871794871796,4105.641025641026,4555.384615384616
5292.963,0.95306057,0.77802545,0.33333334,0.5522388,0,0.0,0.8086571,0.0,0.0,0.0,0,0,0.0,0.0,0,0,53.0,0.0,0.0,4659.48717948718,3945.1282051282055,4499.48717948718,4453.846153846154,4241.538461538462,4558.974358974359,4454.358974358975,4366.153846153847,4037.435897435898,4612.820512820514,4250.769230769231,4291.282051282052,4080.5128205128212,4565.641025641026
5293.213,0.960173,0.7910696,0.33333334,0.5522388,0,0.0,0.4848883,0.0,0.0,0.0,0,0,0.0,0.0,0,0,85.0,0.0,333.0,4673.333333333334,3942.564102564103,4498.974358974359,4454.358974358975,4238.461538461539,4552.820512820514,4457.435897435898,4365.128205128206,4015.8974358974365,4623.589743589744,4251.794871794872,4294.358974358975,4088.205128205129,4576.410256410257
5293.4634,0.960173,0.7910696,0.33333334,0.5522388,0,0.0,0.6760176,0.0,0.0,0.0,0,0,0.0,0.0,0,0,117.0,0.0,333.0,4689.743589743591,3946.666666666667,4501.025641025642,4456.410256410257,4234.358974358975,4554.871794871796,4457.435897435898,4388.205128205129,4178.974358974359,4707.179487179488,4262.564102564103,4302.564102564103,4157.948717948719,4573.333333333334
5293.7134,1.0,0.80178916,0.33333334,0.5522388,0,0.0,0.64566046,0.0,0.0,0.0,0,0,0.0,0.0,0,0,20.0,0.0,0.0,4665.128205128206,3943.076923076924,4500.512820512821,4455.384615384616,4242.564102564103,4557.435897435898,4449.743589743591,4378.461538461539,4084.1025641025644,4679.48717948718,4257.435897435898,4292.307692307693,4145.128205128206,4564.615384615385
5293.9634,1.0,0.80178916,0.33333334,0.5522388,0,0.0,0.7703568,0.0,0.0,0.0,0,0,0.0,0.0,0,0,52.0,0.0,0.0,4653.846153846154,3941.538461538462,4500.512820512821,4447.179487179487,4236.923076923077,4554.358974358975,4445.641025641026,4373.846153846154,4112.820512820514,4652.820512820514,4258.974358974359,4283.589743589744,4150.769230769231,4536.410256410257
5294.214,0.93225765,0.7954372,0.33333334,0.5522388,0,0.0,1.0,0.0,0.0,0.0,0,0,0.0,0.0,0,0,84.0,0.0,250.0,4636.410256410257,3943.589743589744,4502.051282051282,4456.410256410257,4240.512820512821,4554.871794871796,4463.076923076924,4390.256410256411,4130.256410256411,4718.461538461539,4270.769230769231,4294.871794871796,4195.384615384616,4544.615384615385
5294.464,0.93225765,0.7954372,0.33333334,0.5522388,0,0.0,0.66376626,0.0,0.0,0.0,0,0,0.0,0.0,0,0,116.0,0.0,250.0,4635.384615384616,3943.589743589744,4508.717948717949,4454.871794871796,4246.666666666667,4558.974358974359,4453.333333333334,4396.410256410257,4232.820512820514,4740.512820512821,4278.461538461539,4286.153846153847,4229.2307692307695,4536.923076923077
5294.7144,0.8958544,0.78333044,0.33333334,0.5522388,0,0.0,0.5629911,0.0,0.0,0.0,0,0,0.0,0.0,0,0,19.0,0.0,0.0,4647.179487179488,3950.2564102564106,4506.153846153847,4455.384615384616,4243.076923076924,4555.384615384616,4462.564102564103,4410.256410256411,4231.794871794872,4791.282051282052,4290.256410256411,4293.333333333334,4258.461538461539,4552.820512820514
5294.9644,0.8958544,0.78333044,0.33333334,0.5522388,0,0.0,1.0,0.0,0.0,0.0,0,0,0.0,0.0,0,0,51.0,0.0,0.0,4668.205128205129,3944.615384615385,4508.205128205129,4450.256410256411,4235.8974358974365,4553.333333333334,4457.948717948719,4424.102564102564,4324.615384615385,4826.153846153847,4297.948717948719,4301.025641025642,4273.846153846154,4582.564102564103
5295.215,0.94409496,0.77735955,0.33333334,0.5522388,0,0.0,0.9708346,0.0,0.0,0.0,0,0,0.0,0.0,0,0,83.0,0.0,488.0,4646.153846153847,3945.6410256410263,4503.589743589744,4455.8974358974365,4238.974358974359,4549.743589743591,4447.6923076923085,4406.153846153847,4159.48717948718,4743.589743589744,4287.6923076923085,4285.128205128206,4208.717948717949,4572.307692307693
5295.465,0.94409496,0.77735955,0.33333334,0.5522388,0,0.0,0.7297288,0.0,0.0,0.0,0,0,0.0,0.0,0,0,115.0,0.0,488.0,4663.076923076924,3959.48717948718,4509.743589743591,4458.461538461539,4246.153846153847,4553.333333333334,4454.358974358975,4411.282051282052,4234.358974358975,4752.307692307693,4292.307692307693,4294.871794871796,4191.282051282052,4583.076923076924
5295.7153,0.89425755,0.77692544,0.33333334,0.5522388,0,0.0,1.0,0.0,0.0,0.0,0,0,0.0,0.0,0,0,18.0,0.0,0.0,4656.923076923077,3943.589743589744,4498.461538461539,4457.435897435898,4232.307692307693,4540.512820512821,4448.205128205129,4388.205128205129,4135.384615384616,4674.871794871796,4281.538461538462,4288.205128205129,4147.6923076923085,4561.025641025642
5295.7153,0.89425755,0.77692544,0.33333334,0.5522388,0,0.0,1.0,0.0,0.0,0.0,0,0,0.0,0.0,0,0,18.0,0.0,0.0,4656.923076923077,3943.589743589744,4498.461538461539,4457.435897435898,4232.307692307693,4540.512820512821,4448.205128205129,4388.205128205129,4135.384615384616,4674.871794871796,4281.538461538462,4288.205128205129,4147.6923076923085,4561.025641025642
5296.1216,0.8628686,0.79104227,0.33333334,0.5522388,0,0.0,1.0,0.0,0.0,0.0,0,0,0.0,0.0,0,0,70.0,0.0,379.0,4665.128205128206,3944.1025641025644,4496.410256410257,4459.48717948718,4235.384615384616,4548.717948717949,4470.256410256411,4400.000000000001,4192.307692307693,4720.512820512821,4287.6923076923085,4302.564102564103,4152.307692307693,4605.641025641026
5296.1216,0.8628686,0.79104227,0.33333334,0.5522388,0,0.0,1.0,0.0,0.0,0.0,0,0,0.0,0.0,0,0,70.0,0.0,379.0,4665.128205128206,3944.1025641025644,4496.410256410257,4459.48717948718,4235.384615384616,4548.717948717949,4470.256410256411,4400.000000000001,4192.307692307693,4720.512820512821,4287.6923076923085,4302.564102564103,4152.307692307693,4605.641025641026
5296.716,0.9089399,0.81647515,0.33333334,0.5522388,0,0.0,0.8775209,0.0,0.0,0.0,0,0,0.0,0.0,0,0,17.0,0.0,0.0,4649.743589743591,3943.589743589744,4496.923076923077,4453.846153846154,4229.2307692307695,4537.948717948719,4449.2307692307695,4377.435897435898,4189.74358974359,4643.589743589744,4278.461538461539,4285.128205128206,4131.282051282052,4561.538461538462
5296.9663,0.9089399,0.81647515,0.33333334,0.5522388,0,0.0,0.94771117,0.0,0.0,0.0,0,0,0.0,0.0,0,0,49.0,0.0,0.0,4639.48717948718,3958.461538461539,4513.333333333334,4460.512820512821,4248.205128205129,4555.8974358974365,4451.794871794872,4394.358974358975,4268.717948717949,4708.717948717949,4286.666666666667,4280.000000000001,4171.282051282052,4560.512820512821
5297.2163,0.88314515,0.81315905,0.33333334,0.5522388,0,0.0,1.0,0.0,0.0,0.0,0,0,0.0,0.0,0,0,81.0,0.0,333.0,4567.179487179488,3931.7948717948725,4473.846153846154,4462.564102564103,4104.102564102564,4366.666666666667,4398.974358974359,4212.820512820514,3559.48717948718,4018.9743589743593,4197.948717948719,4219.48717948718,3742.0512820512827,4498.461538461539
5297.2163,0.88314515,0.81315905,0.33333334,0.5522388,0,0.0,1.0,0.0,0.0,0.0,0,0,0.0,0.0,0,0,81.0,0.0,333.0,4567.179487179488,3931.7948717948725,4473.846153846154,4462.564102564103,4104.102564102564,4366.666666666667,4398.974358974359,4212.820512820514,3559.48717948718,4018.9743589743593,4197.948717948719,4219.48717948718,3742.0512820512827,4498.461538461539
5297.623,0.93920344,0.8102565,0.33333334,0.5522388,0,0.0,1.0,0.0,0.0,0.0,0,0,0.0,0.0,0,0,4.0,0.0,582.0,4546.666666666667,3926.666666666667,4473.846153846154,4457.948717948719,4111.282051282052,4356.923076923077,4394.871794871796,4232.307692307693,3728.717948717949,4187.6923076923085,4205.128205128206,4208.205128205129,3891.2820512820517,4516.923076923077
5297.623,0.93920344,0.8102565,0.33333334,0.5522388,0,0.0,1.0,0.0,0.0,0.0,0,0,0.0,0.0,0,0,4.0,0.0,582.0,4546.666666666667,3926.666666666667,4473.846153846154,4457.948717948719,4111.282051282052,4356.923076923077,4394.871794871796,4232.307692307693,3728.717948717949,4187.6923076923085,4205.128205128206,4208.205128205129,3891.2820512820517,4516.923076923077
5298.2173,0.96320647,0.8076442,0.33333334,0.5522388,0,0.0,0.77919227,0.0,0.0,0.0,0,0,0.0,0.0,0,0,80.0,0.0,249.0,4569.2307692307695,3943.589743589744,4511.282051282052,4461.025641025642,4169.74358974359,4424.102564102564,4387.179487179487,4323.076923076924,4338.974358974359,4595.384615384616,4249.2307692307695,4219.48717948718,4165.128205128206,4543.589743589744
5298.3423,0.96320647,0.8076442,0.33333334,0.5522388,0,0.0,1.0,0.0,0.0,0.0,0,0,0.0,0.0,0,0,96.0,0.0,249.0,4563.589743589744,3929.7435897435903,4502.051282051282,4459.48717948718,4171.794871794872,4429.743589743591,4388.717948717949,4332.820512820514,4275.384615384616,4638.974358974359,4254.358974358975,4218.461538461539,4195.384615384616,4546.153846153847
5298.718,0.9734499,0.80529314,0.33333334,0.5522388,0,0.0,0.87708336,0.0,0.0,0.0,0,0,0.0,0.0,0,0,15.0,0.0,488.0,4555.8974358974365,3934.8717948717954,4512.820512820514,4457.948717948719,4185.128205128206,4455.384615384616,4401.538461538462,4322.051282051282,4367.6923076923085,4616.923076923077,4251.282051282052,4210.256410256411,4153.333333333334,4513.333333333334
5298.968,0.9734499,0.80529314,0.33333334,0.5522388,0,0.0,1.0,0.0,0.0,0.0,0,0,0.0,0.0,0,0,47.0,0.0,0.0,4585.128205128206,3944.1025641025644,4516.923076923077,4465.641025641026,4200.512820512821,4470.769230769231,4396.410256410257,4377.948717948719,4529.743589743591,4804.615384615386,4280.000000000001,4227.179487179487,4292.307692307693,4510.769230769231
5299.1245,0.95989764,0.8031772,0.33333334,0.5522388,0,0.0,1.0,0.0,0.0,0.0,0,0,0.0,0.0,0,0,67.0,0.0,558.0,4588.205128205129,3945.6410256410263,4509.2307692307695,4461.538461538462,4200.512820512821,4476.923076923077,4405.641025641026,4367.6923076923085,4186.153846153847,4752.307692307693,4274.358974358975,4229.2307692307695,4235.384615384616,4509.2307692307695
5299.1245,0.95989764,0.8031772,0.33333334,0.5522388,0,0.0,1.0,0.0,0.0,0.0,0,0,0.0,0.0,0,0,67.0,0.0,558.0,4588.205128205129,3945.6410256410263,4509.2307692307695,4461.538461538462,4200.512820512821,4476.923076923077,4405.641025641026,4367.6923076923085,4186.153846153847,4752.307692307693,4274.358974358975,4229.2307692307695,4235.384615384616,4509.2307692307695
5299.7188,0.8762335,0.8021881,0.33333334,0.5522388,0,0.0,0.63054556,0.0,0.0,0.0,0,0,0.0,0.0,0,0,14.0,0.0,1575.0,4588.717948717949,3941.538461538462,4514.358974358975,4456.410256410257,4202.051282051282,4487.6923076923085,4416.923076923077,4351.282051282052,4413.846153846154,4683.589743589744,4268.717948717949,4223.076923076924,4167.179487179487,4463.589743589744
5299.9688,0.8762335,0.8021881,0.33333334,0.5522388,0,0.0,0.7943383,0.0,0.0,0.0,0,0,0.0,0.0,0,0,46.0,0.0,0.0,4577.435897435898,3945.1282051282055,4514.871794871796,4461.025641025642,4203.589743589744,4481.538461538462,4420.000000000001,4347.6923076923085,4385.641025641026,4673.846153846154,4266.666666666667,4225.128205128206,4142.564102564103,4460.000000000001
5300.2188,0.85149795,0.79871094,0.33333334,0.5522388,0,0.0,0.90891427,0.0,0.0,0.0,0,0,0.0,0.0,0,0,78.0,0.0,1579.0,4583.076923076924,3939.48717948718,4512.820512820514,4453.846153846154,4205.641025641026,4491.282051282052,4420.512820512821,4331.794871794872,4369.743589743591,4622.564102564103,4255.384615384616,4220.000000000001,4092.820512820513,4462.051282051282
5300.469,0.85149795,0.79871094,0.33333334,0.5522388,0,0.0,0.82137936,0.0,0.0,0.0,0,0,0.0,0.0,0,0,110.0,0.0,1579.0,4607.179487179488,3942.0512820512827,4515.384615384616,4456.410256410257,4213.333333333334,4497.435897435898,4421.025641025642,4353.846153846154,4457.948717948719,4706.153846153847,4266.153846153847,4234.871794871796,4147.6923076923085,4473.333333333334
5300.6255,0.8214898,0.7946115,0.33333334,0.5522388,0,0.0,1.0,0.0,0.0,0.0,0,0,0.0,0.0,0,0,1.0,0.0,453.0,4593.333333333334,3929.2307692307695,4499.48717948718,4450.256410256411,4209.74358974359,4497.435897435898,4426.666666666667,4352.820512820514,4071.2820512820517,4674.358974358975,4268.205128205129,4233.333333333334,4142.564102564103,4472.307692307693
5300.9697,0.8214898,0.7946115,0.33333334,0.5522388,0,0.0,0.9700013,0.0,0.0,0.0,0,0,0.0,0.0,0,0,45.0,0.0,0.0,4596.923076923077,3942.0512820512827,4514.871794871796,4456.410256410257,4218.461538461539,4507.6923076923085,4428.717948717949,4383.076923076924,4570.256410256411,4796.923076923077,4281.025641025642,4239.48717948718,4226.153846153847,4504.615384615385
5301.2197,0.7971842,0.7952131,0.33333334,0.5522388,0,0.0,0.8345039,0.0,0.0,0.0,0,0,0.0,0.0,0,0,77.0,0.0,333.0,4644.102564102564,3955.8974358974365,4512.820512820514,4456.923076923077,4209.2307692307695,4504.102564102564,4425.641025641026,4363.076923076924,4485.128205128206,4710.256410256411,4269.74358974359,4237.435897435898,4111.282051282052,4511.282051282052
5301.47,0.7971842,0.7952131,0.33333334,0.5522388,0,0.0,0.96405584,0.0,0.0,0.0,0,0,0.0,0.0,0,0,109.0,0.0,333.0,4602.051282051282,3945.1282051282055,4516.923076923077,4456.923076923077,4216.410256410257,4506.666666666667,4457.948717948719,4398.461538461539,4608.205128205129,4841.538461538462,4296.410256410257,4253.846153846154,4260.512820512821,4484.615384615385
5301.72,0.69359505,0.808279,0.33333334,0.5522388,0,0.0,0.94896084,0.0,0.0,0.0,0,0,0.0,0.0,0,0,12.0,0.0,244.0,4585.641025641026,3943.076923076924,4518.461538461539,4461.538461538462,4229.2307692307695,4517.435897435898,4439.48717948718,4389.743589743591,4587.6923076923085,4796.923076923077,4287.179487179487,4247.6923076923085,4217.948717948719,4497.435897435898
5301.9707,0.69359505,0.808279,0.33333334,0.5522388,0,0.0,0.90042305,0.0,0.0,0.0,0,0,0.0,0.0,0,0,44.0,0.0,0.0,4621.025641025642,3944.1025641025644,4515.8974358974365,4474.358974358975,4222.051282051282,4510.769230769231,4451.282051282052,4415.384615384616,4621.025641025642,4888.205128205129,4280.512820512821,4264.102564102564,4294.358974358975,4504.102564102564
5302.2207,0.65451807,0.8195496,0.33333334,0.5522388,0,0.0,0.6965009,0.0,0.0,0.0,0,0,0.0,0.0,0,0,76.0,0.0,243.0,4621.025641025642,3941.538461538462,4512.820512820514,4460.512820512821,4223.076923076924,4513.846153846154,4452.820512820514,4377.948717948719,4508.717948717949,4726.666666666667,4257.948717948719,4257.948717948719,4138.974358974359,4498.461538461539
5302.4707,0.65451807,0.8195496,0.33333334,0.5522388,0,0.0,1.0,0.0,0.0,0.0,0,0,0.0,0.0,0,0,108.0,0.0,243.0,4605.128205128206,3943.076923076924,4501.025641025642,4450.256410256411,4151.282051282052,4426.153846153847,4445.641025641026,4313.333333333334,4305.641025641026,4490.769230769231,4231.282051282052,4241.538461538462,3993.333333333334,4504.615384615385
5302.6274,0.62956446,0.8300406,0.33333334,0.5522388,0,0.0,1.0,0.0,0.0,0.0,0,0,0.0,0.0,0,0,128.0,0.0,243.0,4583.076923076924,3937.435897435898,4493.333333333334,4457.948717948719,4145.128205128206,4412.307692307693,4408.205128205129,4297.948717948719,3805.6410256410263,4420.000000000001,4229.74358974359,4234.871794871796,3993.8461538461543,4484.102564102564
5302.6274,0.62956446,0.8300406,0.33333334,0.5522388,0,0.0,1.0,0.0,0.0,0.0,0,0,0.0,0.0,0,0,128.0,0.0,243.0,4583.076923076924,3937.435897435898,4493.333333333334,4457.948717948719,4145.128205128206,4412.307692307693,4408.205128205129,4297.948717948719,3805.6410256410263,4420.000000000001,4229.74358974359,4234.871794871796,3993.8461538461543,4484.102564102564
5303.128,0.6142963,0.8616236,0.33333334,0.5522388,0,0.0,1.0,0.0,0.0,0.0,0,0,0.0,0.0,0,0,63.0,0.0,0.0,4607.179487179488,3949.2307692307695,4502.564102564103,4460.512820512821,4168.205128205129,4437.948717948719,4450.256410256411,4365.641025641026,4172.307692307693,4697.435897435898,4251.794871794872,4262.051282051282,4176.410256410257,4510.256410256411
5303.128,0.6142963,0.8616236,0.33333334,0.5522388,0,0.0,1.0,0.0,0.0,0.0,0,0,0.0,0.0,0,0,63.0,0.0,0.0,4607.179487179488,3949.2307692307695,4502.564102564103,4460.512820512821,4168.205128205129,4437.948717948719,4450.256410256411,4365.641025641026,4172.307692307693,4697.435897435898,4251.794871794872,4262.051282051282,4176.410256410257,4510.256410256411
5303.722,0.6320963,0.88127965,0.33333334,0.5522388,0,0.0,0.81378067,0.0,0.0,0.0,0,0,0.0,0.0,0,0,10.0,0.0,1578.0,4644.615384615385,3942.0512820512827,4513.846153846154,4440.512820512821,4202.564102564103,4475.384615384616,4448.205128205129,4403.589743589744,4676.923076923077,4858.461538461539,4271.282051282052,4270.256410256411,4251.794871794872,4547.6923076923085
5303.972,0.6320963,0.88127965,0.33333334,0.5522388,0,0.0,0.8003802,0.0,0.0,0.0,0,0,0.0,0.0,0,0,42.0,0.0,0.0,4644.615384615385,3945.1282051282055,4510.256410256411,4442.051282051282,4203.076923076924,4487.6923076923085,4452.307692307693,4408.205128205129,4626.153846153847,4856.923076923077,4275.8974358974365,4266.666666666667,4245.641025641026,4552.820512820514
5304.222,0.6324711,0.9280715,0.33333334,0.5522388,0,0.0,0.46673316,0.0,0.0,0.0,0,0,0.0,0.0,0,0,74.0,0.0,1580.0,4637.948717948719,3926.1538461538466,4506.666666666667,4429.2307692307695,4215.8974358974365,4492.307692307693,4433.846153846154,4412.820512820514,4640.000000000001,4853.846153846154,4281.025641025642,4255.8974358974365,4267.6923076923085,4559.48717948718
5304.4727,0.6324711,0.9280715,0.33333334,0.5522388,0,0.0,0.9122427,0.0,0.0,0.0,0,0,0.0,0.0,0,0,106.0,0.0,1580.0,4643.076923076924,3925.1282051282055,4501.538461538462,4427.6923076923085,4215.8974358974365,4493.333333333334,4427.6923076923085,4444.102564102564,4660.000000000001,4947.179487179488,4304.615384615385,4260.000000000001,4363.076923076924,4581.538461538462
5304.7227,0.6116173,0.9589759,0.33333334,0.5522388,0,0.0,0.5732618,0.0,0.0,0.0,0,0,0.0,0.0,0,0,9.0,0.0,3479.0,4644.102564102564,3928.205128205129,4508.205128205129,4441.025641025642,4220.000000000001,4508.205128205129,4419.48717948718,4444.102564102564,4697.435897435898,4927.179487179488,4309.2307692307695,4245.641025641026,4353.333333333334,4554.358974358975
5304.973,0.6116173,0.9589759,0.33333334,0.5522388,0,0.0,0.89297366,0.0,0.0,0.0,0,0,0.0,0.0,0,0,41.0,0.0,0.0,4601.025641025642,3924.615384615385,4501.538461538462,4431.282051282052,4231.282051282052,4516.410256410257,4405.128205128206,4434.358974358975,4561.538461538462,4874.358974358975,4309.743589743591,4228.205128205129,4344.615384615385,4531.282051282052
5305.223,0.66524315,0.96088666,0.33333334,0.5522388,0,0.0,0.6417056,0.0,0.0,0.0,0,0,0.0,0.0,0,0,73.0,0.0,3482.0,4621.538461538462,3928.717948717949,4512.307692307693,4438.461538461539,4229.74358974359,4520.512820512821,4402.051282051282,4472.307692307693,4755.384615384616,5007.179487179488,4337.948717948719,4233.846153846154,4443.589743589744,4551.794871794872
5305.4736,0.66524315,0.96088666,0.33333334,0.5522388,0,0.0,1.0,0.0,0.0,0.0,0,0,0.0,0.0,0,0,105.0,0.0,334.0,4621.025641025642,3925.6410256410263,4501.538461538462,4430.769230769231,4233.333333333334,4523.589743589744,4404.615384615385,4467.6923076923085,4625.128205128206,4963.589743589744,4337.435897435898,4233.333333333334,4405.128205128206,4534.871794871796
5305.7236,0.6660824,0.97454864,0.33333334,0.5522388,0,0.0,0.9888853,0.0,0.0,0.0,0,0,0.0,0.0,0,0,8.0,0.0,5893.0,4620.000000000001,3932.820512820513,4512.820512820514,4441.538461538462,4241.025641025642,4532.820512820514,4415.8974358974365,4481.538461538462,4708.717948717949,5000.512820512821,4350.256410256411,4232.820512820514,4428.205128205129,4518.461538461539
5305.8486,0.6660824,0.97454864,0.33333334,0.5522388,0,0.0,1.0,0.0,0.0,0.0,0,0,0.0,0.0,0,0,24.0,0.0,0.0,4611.282051282052,3926.666666666667,4501.025641025642,4432.820512820514,4234.871794871796,4524.615384615385,4403.589743589744,4447.179487179487,4202.564102564103,4822.564102564103,4336.410256410257,4219.48717948718,4312.820512820514,4490.769230769231
5306.1304,0.6500527,0.9692177,0.33333334,0.5522388,0,0.0,1.0,0.0,0.0,0.0,0,0,0.0,0.0,0,0,60.0,0.0,0.0,4622.051282051282,3940.5128205128212,4513.846153846154,4444.102564102564,4236.923076923077,4536.410256410257,4391.282051282052,4438.974358974359,4304.102564102564,4798.974358974359,4328.205128205129,4228.205128205129,4250.769230769231,4499.48717948718
5306.474,0.6500527,0.9692177,0.33333334,0.5522388,0,0.0,0.7760878,0.0,0.0,0.0,0,0,0.0,0.0,0,0,104.0,0.0,244.0,4611.794871794872,3928.205128205129,4500.512820512821,4442.051282051282,4231.282051282052,4522.564102564103,4409.2307692307695,4433.846153846154,4435.8974358974365,4787.179487179488,4326.153846153847,4229.74358974359,4238.974358974359,4494.358974358975
5306.7246,0.53861076,0.9622494,0.33333334,0.5522388,0,0.0,0.5430987,0.0,0.0,0.0,0,0,0.0,0.0,0,0,7.0,0.0,780.0,4613.333333333334,3942.0512820512827,4502.051282051282,4444.615384615385,4245.128205128206,4537.435897435898,4413.333333333334,4412.820512820514,4340.512820512821,4683.076923076924,4310.256410256411,4220.512820512821,4122.564102564103,4467.179487179487
5306.9746,0.53861076,0.9622494,0.33333334,0.5522388,0,0.0,0.52488846,0.0,0.0,0.0,0,0,0.0,0.0,0,0,39.0,0.0,0.0,4617.948717948719,3940.5128205128212,4494.358974358975,4444.102564102564,4243.589743589744,4537.948717948719,4428.205128205129,4404.615384615385,4280.512820512821,4655.8974358974365,4306.666666666667,4224.102564102564,4098.974358974359,4476.410256410257
5307.225,0.43031988,0.96181256,0.33333334,0.5522388,0,0.0,1.0,0.0,0.0,0.0,0,0,0.0,0.0,0,0,71.0,0.0,778.0,4642.564102564103,3949.7435897435903,4513.846153846154,4456.923076923077,4257.948717948719,4553.333333333334,4439.48717948718,4453.333333333334,4491.282051282052,4851.282051282052,4325.641025641026,4251.282051282052,4225.641025641026,4507.6923076923085
5307.225,0.43031988,0.96181256,0.33333334,0.5522388,0,0.0,1.0,0.0,0.0,0.0,0,0,0.0,0.0,0,0,71.0,0.0,778.0,4642.564102564103,3949.7435897435903,4513.846153846154,4456.923076923077,4257.948717948719,4553.333333333334,4439.48717948718,4453.333333333334,4491.282051282052,4851.282051282052,4325.641025641026,4251.282051282052,4225.641025641026,4507.6923076923085
5307.6313,0.4075902,0.9533477,0.33333334,0.5522388,0,0.0,1.0,0.0,0.0,0.0,0,0,0.0,0.0,0,0,123.0,0.0,491.0,4637.948717948719,3935.3846153846157,4505.128205128206,4450.256410256411,4249.74358974359,4543.076923076924,4443.076923076924,4407.179487179487,4306.666666666667,4651.282051282052,4299.48717948718,4243.589743589744,4063.076923076924,4515.384615384616
5307.6313,0.4075902,0.9533477,0.33333334,0.5522388,0,0.0,1.0,0.0,0.0,0.0,0,0,0.0,0.0,0,0,123.0,0.0,491.0,4637.948717948719,3935.3846153846157,4505.128205128206,4450.256410256411,4249.74358974359,4543.076923076924,4443.076923076924,4407.179487179487,4306.666666666667,4651.282051282052,4299.48717948718,4243.589743589744,4063.076923076924,4515.384615384616
5308.226,0.42401695,0.9401422,0.33333334,0.5522388,0,0.0,0.8793065,0.0,0.0,0.0,0,0,0.0,0.0,0,0,70.0,0.0,378.0,4625.128205128206,3940.5128205128212,4489.743589743591,4453.333333333334,4246.153846153847,4543.076923076924,4445.641025641026,4344.615384615385,4034.358974358975,4443.076923076924,4255.384615384616,4239.48717948718,3892.820512820513,4494.358974358975
5308.351,0.42401695,0.9401422,0.33333334,0.5522388,0,0.0,1.0,0.0,0.0,0.0,0,0,0.0,0.0,0,0,86.0,0.0,1582.0,4640.000000000001,3926.1538461538466,4485.641025641026,4440.000000000001,4231.794871794872,4538.974358974359,4440.512820512821,4322.051282051282,3902.564102564103,4360.512820512821,4245.641025641026,4232.820512820514,3828.717948717949,4506.666666666667
5308.726,0.4593309,0.93200827,0.33333334,0.5522388,0,0.0,0.8988778,0.0,0.0,0.0,0,0,0.0,0.0,0,0,5.0,0.0,574.0,4651.794871794872,3943.589743589744,4495.384615384616,4463.076923076924,4233.846153846154,4525.128205128206,4450.769230769231,4295.384615384616,3920.0000000000005,4312.820512820514,4228.205128205129,4238.461538461539,3780.512820512821,4462.051282051282
5308.9766,0.4593309,0.93200827,0.33333334,0.5522388,0,0.0,0.8479872,0.0,0.0,0.0,0,0,0.0,0.0,0,0,37.0,0.0,0.0,4632.820512820514,3934.8717948717954,4492.820512820514,4453.333333333334,4246.153846153847,4541.538461538462,4444.102564102564,4315.384615384616,4052.307692307693,4413.333333333334,4228.717948717949,4241.538461538462,3878.461538461539,4490.256410256411
5309.133,0.5268757,0.9248636,0.33333334,0.5522388,0,0.0,1.0,0.0,0.0,0.0,0,0,0.0,0.0,0,0,57.0,0.0,0.0,4635.8974358974365,3930.7692307692314,4440.512820512821,4445.128205128206,4238.974358974359,4536.923076923077,4444.102564102564,3988.717948717949,2904.615384615385,3234.8717948717954,4084.1025641025644,4182.051282051282,3213.333333333334,3348.205128205129
5309.477,0.5268757,0.9248636,0.33333334,0.5522388,0,0.0,0.0,0.0,0.2986325,0.0,0,0,0.0,0.0,0,0,101.0,0.0,334.0,4635.8974358974365,3929.2307692307695,4503.076923076924,4443.076923076924,4231.794871794872,4539.48717948718,4438.974358974359,4358.461538461539,4377.435897435898,4691.282051282052,4237.435897435898,4255.384615384616,4076.9230769230776,4636.923076923077
5309.727,0.644843,0.9184333,0.33333334,0.5522388,0,0.0,0.0,0.0,0.13296558,0.0,0,0,0.0,0.0,0,0,4.0,0.0,582.0,4631.794871794872,3928.205128205129,4501.025641025642,4442.564102564103,4245.128205128206,4540.512820512821,4421.025641025642,4363.076923076924,4265.641025641026,4703.589743589744,4240.512820512821,4260.000000000001,4097.948717948719,4649.743589743591
5309.9775,0.644843,0.9184333,0.33333334,0.5522388,0,0.0,0.845872,0.0,0.0,0.0,0,0,0.0,0.0,0,0,36.0,0.0,0.0,4660.512820512821,3934.8717948717954,4507.179487179488,4444.615384615385,4242.564102564103,4538.974358974359,4441.025641025642,4401.025641025642,4422.564102564103,4831.282051282052,4261.538461538462,4278.974358974359,4191.282051282052,4687.6923076923085
5310.2275,0.66497153,0.9126461,0.33333334,0.5522388,0,0.0,0.5586603,0.0,0.0,0.0,0,0,0.0,0.0,0,0,68.0,0.0,582.0,4655.384615384616,3934.8717948717954,4501.025641025642,4443.076923076924,4245.641025641026,4541.538461538462,4446.153846153847,4393.846153846154,4253.846153846154,4790.256410256411,4258.461538461539,4278.461538461539,4169.2307692307695,4660.000000000001
5310.4775,0.66497153,0.9126461,0.33333334,0.5522388,0,0.0,0.501253,0.0,0.0,0.0,0,0,0.0,0.0,0,0,100.0,0.0,242.0,4665.128205128206,3942.564102564103,4508.205128205129,4456.923076923077,4250.769230769231,4552.307692307693,4442.051282051282,4409.743589743591,4347.179487179487,4831.282051282052,4269.2307692307695,4274.358974358975,4210.769230769231,4640.000000000001
5310.728,0.6127295,0.9074376,0.33333334,0.5522388,0,0.0,0.95002174,0.0,0.0,0.0,0,0,0.0,0.0,0,0,3.0,0.0,558.0,4649.743589743591,3942.564102564103,4495.384615384616,4447.179487179487,4236.410256410257,4540.000000000001,4438.461538461539,4367.6923076923085,4051.7948717948725,4669.2307692307695,4250.256410256411,4261.538461538462,4105.641025641026,4589.743589743591
5310.853,0.6127295,0.9074376,0.33333334,0.5522388,0,0.0,1.0,0.0,0.0,0.0,0,0,0.0,0.0,0,0,19.0,0.0,0.0,4645.128205128206,3943.589743589744,4501.025641025642,4446.153846153847,4228.205128205129,4525.128205128206,4429.2307692307695,4351.794871794872,4401.538461538462,4615.384615384616,4241.538461538462,4255.384615384616,4060.5128205128212,4582.564102564103
5311.2285,0.56904197,0.90274996,0.33333334,0.5522388,0,0.0,0.89080983,0.0,0.0,0.0,0,0,0.0,0.0,0,0,67.0,0.0,558.0,4639.48717948718,3944.615384615385,4498.461538461539,4448.205128205129,4247.179487179487,4542.564102564103,4444.615384615385,4375.8974358974365,4045.1282051282055,4691.794871794872,4257.435897435898,4262.051282051282,4136.410256410257,4583.589743589744
5311.4785,0.56904197,0.90274996,0.33333334,0.5522388,0,0.0,0.6601351,0.0,0.0,0.0,0,0,0.0,0.0,0,0,99.0,0.0,490.0,4654.871794871796,3944.1025641025644,4501.538461538462,4458.974358974359,4243.076923076924,4540.512820512821,4441.538461538462,4384.102564102564,4119.48717948718,4715.8974358974365,4257.435897435898,4262.564102564103,4147.179487179487,4591.282051282052
5311.729,0.49661282,0.92265445,0.33333334,0.5522388,0,0.0,0.72642225,0.0,0.0,0.0,0,0,0.0,0.0,0,0,2.0,0.0,500.0,4639.48717948718,3928.205128205129,4491.794871794872,4441.538461538462,4234.358974358975,4538.974358974359,4440.512820512821,4354.871794871796,3946.1538461538466,4602.564102564103,4244.102564102564,4255.8974358974365,4085.6410256410263,4576.923076923077
5311.979,0.49661282,0.92265445,0.33333334,0.5522388,0,0.0,0.68393046,0.0,0.0,0.0,0,0,0.0,0.0,0,0,34.0,0.0,0.0,4645.641025641026,3926.666666666667,4493.846153846154,4441.538461538462,4232.307692307693,4539.48717948718,4431.794871794872,4361.025641025642,4003.076923076924,4633.846153846154,4252.307692307693,4252.307692307693,4117.435897435898,4583.076923076924
5312.2295,0.42866522,0.9448977,0.33333334,0.5522388,0,0.0,0.89787185,0.0,0.0,0.0,0,0,0.0,0.0,0,0,66.0,0.0,500.0,4658.974358974359,3944.615384615385,4498.974358974359,4445.641025641026,4237.435897435898,4548.717948717949,4429.2307692307695,4374.871794871796,4075.8974358974365,4703.076923076924,4258.974358974359,4259.48717948718,4157.435897435898,4588.717948717949
5312.4795,0.42866522,0.9448977,0.33333334,0.5522388,0,0.0,1.0,0.0,0.0,0.0,0,0,0.0,0.0,0,0,98.0,0.0,1586.0,4654.871794871796,3935.8974358974365,4506.666666666667,4443.589743589744,4250.769230769231,4556.410256410257,4434.871794871796,4409.743589743591,4193.333333333334,4816.923076923077,4281.025641025642,4263.076923076924,4252.820512820514,4613.846153846154
5312.7295,0.43453184,0.96000564,0.33333334,0.5522388,0,0.0,0.7792249,0.0,0.0,0.0,0,0,0.0,0.0,0,0,1.0,0.0,453.0,4644.102564102564,3938.461538461539,4507.179487179488,4442.564102564103,4247.179487179487,4552.820512820514,4433.846153846154,4421.538461538462,4234.871794871796,4844.102564102564,4291.794871794872,4265.641025641026,4296.410256410257,4607.6923076923085
5312.98,0.43453184,0.96000564,0.33333334,0.5522388,0,0.0,0.49120447,0.0,0.0,0.0,0,0,0.0,0.0,0,0,33.0,0.0,0.0,4682.564102564103,3934.8717948717954,4509.2307692307695,4443.076923076924,4248.205128205129,4552.820512820514,4443.589743589744,4434.871794871796,4251.794871794872,4876.410256410257,4295.384615384616,4273.846153846154,4301.538461538462,4608.717948717949
5313.23,0.4061466,0.9559796,0.33333334,0.5522388,0,0.0,0.54068786,0.0,0.0,0.0,0,0,0.0,0.0,0,0,65.0,0.0,453.0,4651.794871794872,3930.7692307692314,4506.666666666667,4445.128205128206,4251.794871794872,4556.410256410257,4442.564102564103,4430.256410256411,4211.794871794872,4842.564102564103,4297.948717948719,4265.128205128206,4287.6923076923085,4589.743589743591
5313.4805,0.4061466,0.9559796,0.33333334,0.5522388,0,0.0,0.78094465,0.0,0.0,0.0,0,0,0.0,0.0,0,0,97.0,0.0,334.0,4672.307692307693,3942.0512820512827,4498.461538461539,4445.128205128206,4245.641025641026,4549.2307692307695,4430.769230769231,4397.948717948719,4046.1538461538466,4718.461538461539,4280.000000000001,4254.871794871796,4177.948717948719,4577.435897435898
5313.7305,0.3865719,0.9642619,0.33333334,0.5522388,0,0.0,0.6998504,0.0,0.0,0.0,0,0,0.0,0.0,0,0,0.0,0.0,370.0,4647.179487179488,3943.076923076924,4501.025641025642,4444.615384615385,4246.666666666667,4552.307692307693,4434.871794871796,4386.153846153847,4055.3846153846157,4680.512820512821,4276.923076923077,4255.384615384616,4155.384615384616,4548.205128205129
5313.981,0.3865719,0.9642619,0.33333334,0.5522388,0,0.0,0.41639736,0.0,0.0,0.0,0,0,0.0,0.0,0,0,32.0,0.0,0.0,4620.000000000001,3950.2564102564106,4500.512820512821,4446.666666666667,4249.74358974359,4555.8974358974365,4428.205128205129,4388.205128205129,4043.589743589744,4687.179487179488,4281.538461538462,4245.641025641026,4182.564102564103,4527.179487179488
5314.231,0.30582228,0.97182316,0.33333334,0.5522388,0,0.0,0.5289697,0.0,0.0,0.0,0,0,0.0,0.0,0,0,64.0,0.0,370.0,4610.256410256411,3943.076923076924,4504.102564102564,4442.051282051282,4251.282051282052,4553.846153846154,4429.743589743591,4408.717948717949,4161.025641025642,4752.307692307693,4297.948717948719,4246.666666666667,4256.923076923077,4530.256410256411
5314.4814,0.30582228,0.97182316,0.33333334,0.5522388,0,0.0,0.89041996,0.0,0.0,0.0,0,0,0.0,0.0,0,0,96.0,0.0,239.0,4622.051282051282,3941.0256410256416,4508.205128205129,4446.153846153847,4256.410256410257,4555.8974358974365,4429.743589743591,4433.333333333334,4191.282051282052,4836.923076923077,4313.846153846154,4260.000000000001,4317.948717948719,4538.974358974359
5314.7314,0.32418776,0.96679056,0.33333334,0.5522388,0,0.0,0.77726066,0.0,0.0,0.0,0,0,0.0,0.0,0,0,128.0,0.0,239.0,4607.179487179488,3943.076923076924,4516.923076923077,4453.333333333334,4264.615384615385,4562.051282051282,4432.307692307693,4470.256410256411,4425.641025641026,4969.743589743591,4340.000000000001,4265.641025641026,4440.000000000001,4531.282051282052
5314.9814,0.32418776,0.96679056,0.33333334,0.5522388,0,0.0,0.81362295,0.0,0.0,0.0,0,0,0.0,0.0,0,0,31.0,0.0,0.0,4623.589743589744,3939.48717948718,4511.282051282052,4445.128205128206,4253.333333333334,4551.794871794872,4422.564102564103,4468.717948717949,4314.358974358975,4940.000000000001,4340.512820512821,4265.641025641026,4417.435897435898,4535.8974358974365
5315.232,0.2671822,0.9572183,0.33333334,0.5522388,0,0.0,1.0,0.0,0.0,0.0,0,0,0.0,0.0,0,0,63.0,0.0,0.0,4654.871794871796,3945.1282051282055,4516.410256410257,4449.2307692307695,4250.256410256411,4554.871794871796,4456.923076923077,4498.974358974359,4522.564102564103,5040.000000000001,4362.051282051282,4284.102564102564,4458.974358974359,4558.461538461539
5315.232,0.2671822,0.9572183,0.33333334,0.5522388,0,0.0,1.0,0.0,0.0,0.0,0,0,0.0,0.0,0,0,63.0,0.0,0.0,4654.871794871796,3945.1282051282055,4516.410256410257,4449.2307692307695,4250.256410256411,4554.871794871796,4456.923076923077,4498.974358974359,4522.564102564103,5040.000000000001,4362.051282051282,4284.102564102564,4458.974358974359,4558.461538461539
5315.7324,0.2852867,0.9468396,0.33333334,0.5522388,0,0.0,0.63671106,0.0,0.0,0.0,0,0,0.0,0.0,0,0,127.0,0.0,491.0,4657.435897435898,3956.410256410257,4514.358974358975,4457.435897435898,4257.435897435898,4557.435897435898,4469.2307692307695,4468.717948717949,4285.641025641026,4867.6923076923085,4348.717948717949,4274.358974358975,4280.512820512821,4541.025641025642
5315.9824,0.2852867,0.9468396,0.33333334,0.5522388,0,0.0,1.0,0.0,0.0,0.0,0,0,0.0,0.0,0,0,30.0,0.0,0.0,4640.512820512821,3953.8461538461543,4496.923076923077,4451.794871794872,4250.256410256411,4553.846153846154,4441.025641025642,4407.179487179487,4028.717948717949,4632.307692307693,4317.948717948719,4248.205128205129,4105.641025641026,4492.307692307693
5316.1387,0.2894158,0.9394847,0.33333334,0.5522388,0,0.0,1.0,0.0,0.0,0.0,0,0,0.0,0.0,0,0,50.0,0.0,0.0,4670.256410256411,3953.8461538461543,4493.333333333334,4454.871794871796,4255.8974358974365,4553.333333333334,4446.666666666667,4391.794871794872,4009.23076923077,4582.564102564103,4305.641025641026,4253.846153846154,4023.076923076924,4514.358974358975
5316.1387,0.2894158,0.9394847,0.33333334,0.5522388,0,0.0,1.0,0.0,0.0,0.0,0,0,0.0,0.0,0,0,50.0,0.0,0.0,4670.256410256411,3953.8461538461543,4493.333333333334,4454.871794871796,4255.8974358974365,4553.333333333334,4446.666666666667,4391.794871794872,4009.23076923077,4582.564102564103,4305.641025641026,4253.846153846154,4023.076923076924,4514.358974358975
5316.7334,0.34711093,0.93920255,0.33333334,0.5522388,0,0.0,0.74244136,0.0,0.0,0.0,0,0,0.0,0.0,0,0,126.0,0.0,1588.0,4655.384615384616,3942.0512820512827,4488.717948717949,4444.615384615385,4249.2307692307695,4552.307692307693,4444.102564102564,4313.333333333334,3848.205128205129,4336.923076923077,4250.256410256411,4242.051282051282,3823.076923076924,4521.538461538462
5316.9834,0.34711093,0.93920255,0.33333334,0.5522388,0,0.0,1.0,0.0,0.0,0.0,0,0,0.0,0.0,0,0,29.0,0.0,0.0,4637.435897435898,3943.589743589744,4498.974358974359,4446.153846153847,4248.717948717949,4553.846153846154,4452.307692307693,4334.871794871796,4068.717948717949,4461.538461538462,4261.025641025642,4251.794871794872,3935.8974358974365,4528.717948717949
5317.1396,0.35899225,0.93216985,0.33333334,0.5522388,0,0.0,1.0,0.0,0.0,0.0,0,0,0.0,0.0,0,0,49.0,0.0,0.0,4641.538461538462,3940.0000000000005,4489.2307692307695,4447.179487179487,4247.6923076923085,4549.743589743591,4454.358974358975,4346.666666666667,3976.410256410257,4503.589743589744,4268.205128205129,4259.48717948718,3982.0512820512827,4541.025641025642
5317.484,0.35899225,0.93216985,0.33333334,0.5522388,0,0.0,0.8765711,0.0,0.0,0.0,0,0,0.0,0.0,0,0,93.0,0.0,334.0,4593.846153846154,3928.205128205129,4494.358974358975,4443.076923076924,4233.333333333334,4536.410256410257,4446.666666666667,4313.333333333334,4092.307692307693,4411.794871794872,4253.333333333334,4249.2307692307695,3941.538461538462,4513.846153846154
5317.734,0.40058434,0.9143454,0.33333334,0.5522388,0,0.0,0.92484486,0.0,0.0,0.0,0,0,0.0,0.0,0,0,125.0,0.0,334.0,4608.205128205129,3930.7692307692314,4497.435897435898,4444.102564102564,4231.282051282052,4526.153846153847,4454.358974358975,4335.384615384616,4182.564102564103,4516.923076923077,4261.538461538462,4258.461538461539,4027.1794871794878,4539.48717948718
5317.9844,0.40058434,0.9143454,0.33333334,0.5522388,0,0.0,1.0,0.0,0.0,0.0,0,0,0.0,0.0,0,0,28.0,0.0,0.0,4630.256410256411,3941.0256410256416,4506.153846153847,4448.717948717949,4234.358974358975,4538.461538461539,4455.8974358974365,4369.743589743591,4356.410256410257,4660.000000000001,4276.410256410257,4269.74358974359,4136.923076923077,4525.641025641026
5318.2344,0.40467283,0.9069839,0.33333334,0.5522388,0,0.0,0.7075292,0.0,0.0,0.0,0,0,0.0,0.0,0,0,60.0,0.0,0.0,4611.282051282052,3932.307692307693,4498.461538461539,4445.641025641026,4216.410256410257,4523.076923076924,4435.384615384616,4346.153846153847,4259.48717948718,4566.666666666667,4266.666666666667,4250.256410256411,4089.23076923077,4517.948717948719
5318.485,0.40467283,0.9069839,0.33333334,0.5522388,0,0.0,1.0,0.0,0.0,0.0,0,0,0.0,0.0,0,0,92.0,0.0,237.0,4625.128205128206,3939.48717948718,4507.179487179488,4456.410256410257,4231.282051282052,4538.461538461539,4457.435897435898,4405.641025641026,4508.205128205129,4804.615384615386,4300.000000000001,4279.48717948718,4269.74358974359,4544.615384615385
5318.641,0.38246474,0.8961133,0.33333334,0.5522388,0,0.0,1.0,0.0,0.0,0.0,0,0,0.0,0.0,0,0,112.0,0.0,237.0,4627.179487179488,3941.538461538462,4502.051282051282,4452.307692307693,4241.538461538462,4539.48717948718,4461.538461538462,4420.000000000001,4250.256410256411,4831.282051282052,4306.666666666667,4281.025641025642,4298.974358974359,4532.820512820514
5318.985,0.38246474,0.8961133,0.33333334,0.5522388,0,0.0,0.62501436,0.0,0.0,0.0,0,0,0.0,0.0,0,0,27.0,0.0,0.0,4624.102564102564,3940.5128205128212,4510.769230769231,4444.615384615385,4244.615384615385,4551.282051282052,4444.615384615385,4441.025641025642,4616.923076923077,4906.666666666667,4323.076923076924,4287.6923076923085,4353.333333333334,4559.48717948718
5319.2354,0.3952564,0.9008328,0.33333334,0.5522388,0,0.0,0.678325,0.0,0.0,0.0,0,0,0.0,0.0,0,0,59.0,0.0,0.0,4605.128205128206,3942.564102564103,4500.000000000001,4443.076923076924,4244.102564102564,4540.000000000001,4448.717948717949,4419.48717948718,4542.564102564103,4814.871794871796,4315.384615384616,4282.051282051282,4277.435897435898,4551.282051282052
5319.4854,0.3952564,0.9008328,0.33333334,0.5522388,0,0.0,1.0,0.0,0.0,0.0,0,0,0.0,0.0,0,0,91.0,0.0,491.0,4617.435897435898,3946.666666666667,4488.717948717949,4433.333333333334,4245.641025641026,4550.769230769231,4455.8974358974365,4338.461538461539,4210.769230769231,4503.589743589744,4263.076923076924,4270.769230769231,3950.7692307692314,4541.538461538462
5319.642,0.33876058,0.91408426,0.33333334,0.5522388,0,0.0,1.0,0.0,0.0,0.0,0,0,0.0,0.0,0,0,111.0,0.0,491.0,4598.461538461539,3949.2307692307695,4486.153846153847,4443.589743589744,4249.74358974359,4554.358974358975,4452.820512820514,4353.333333333334,3878.9743589743593,4545.641025641026,4274.358974358975,4274.358974358975,4021.0256410256416,4538.974358974359
5319.642,0.33876058,0.91408426,0.33333334,0.5522388,0,0.0,1.0,0.0,0.0,0.0,0,0,0.0,0.0,0,0,111.0,0.0,491.0,4598.461538461539,3949.2307692307695,4486.153846153847,4443.589743589744,4249.74358974359,4554.358974358975,4452.820512820514,4353.333333333334,3878.9743589743593,4545.641025641026,4274.358974358975,4274.358974358975,4021.0256410256416,4538.974358974359
5320.1426,0.33263454,0.93125343,0.33333334,0.5522388,0,0.0,1.0,0.0,0.0,0.0,0,0,0.0,0.0,0,0,46.0,0.0,0.0,4630.256410256411,3960.0000000000005,4513.846153846154,4457.435897435898,4265.128205128206,4567.6923076923085,4477.948717948719,4456.410256410257,4285.128205128206,4920.512820512821,4332.307692307693,4294.871794871796,4341.538461538462,4533.333333333334
