timestamp,excitement,frustration,meditation,engagementBoredom,blink,clench,laugh,smile,eyebrow,furrowBrow,lookLeft,lookRight,smirkLeft,smirkRight,winkLeft,winkRight,eeg0,eeg1,eeg2,eeg3,eeg4,eeg5,eeg6,eeg7,eeg8,eeg9,eeg10,eeg11,eeg12,eeg13,eeg14,eeg15,eeg16
4626.5386,0.6042869,1.0,0.33333334,0.5522388,0,0.0,0.9647794,0.0,0.0,0.0,0,0,0.0,0.0,0,0,94.0,0.0,1327.0,4584.102564102564,3926.1538461538466,4505.128205128206,4403.589743589744,4198.974358974359,4521.025641025642,4459.48717948718,4347.6923076923085,4230.256410256411,4598.461538461539,4271.282051282052,4225.641025641026,4108.717948717949,4498.974358974359
4626.7573,0.6042869,1.0,0.33333334,0.5522388,0,0.0,0.0,0.0,0.0,0.0,0,0,0.0,0.0,0,0,122.0,0.0,1327.0,4583.076923076924,3928.717948717949,4508.205128205129,4408.205128205129,4204.615384615385,4521.025641025642,4445.128205128206,4353.846153846154,4282.564102564103,4643.589743589744,4282.051282051282,4216.923076923077,4142.564102564103,4509.2307692307695
4627.039,0.5734517,1.0,0.33333334,0.5522388,0,0.0,0.0,0.0,0.0,0.0,0,0,0.0,0.0,0,0,29.0,0.0,0.0,4598.974358974359,3927.692307692308,4506.666666666667,4396.923076923077,4217.435897435898,4523.589743589744,4431.282051282052,4380.000000000001,4416.923076923077,4771.794871794872,4329.2307692307695,4226.153846153847,4242.564102564103,4527.6923076923085
4627.039,0.5734517,1.0,0.33333334,0.5522388,0,0.0,0.0,0.0,0.0,0.0,0,0,0.0,0.0,0,0,29.0,0.0,0.0,4598.974358974359,3927.692307692308,4506.666666666667,4396.923076923077,4217.435897435898,4523.589743589744,4431.282051282052,4380.000000000001,4416.923076923077,4771.794871794872,4329.2307692307695,4226.153846153847,4242.564102564103,4527.6923076923085
4627.508,0.5773495,1.0,0.33333334,0.5522388,0,0.0,0.0,0.0,0.0,0.0,0,0,0.0,0.0,0,0,89.0,0.0,266.0,4556.410256410257,3918.461538461539,4511.794871794872,4394.871794871796,4230.769230769231,4537.948717948719,4408.717948717949,4439.48717948718,4700.000000000001,5032.307692307693,4453.846153846154,4218.461538461539,4502.564102564103,4477.948717948719
4627.508,0.5773495,1.0,0.33333334,0.5522388,0,0.0,0.0,0.0,0.0,0.0,0,0,0.0,0.0,0,0,89.0,0.0,266.0,4556.410256410257,3918.461538461539,4511.794871794872,4394.871794871796,4230.769230769231,4537.948717948719,4408.717948717949,4439.48717948718,4700.000000000001,5032.307692307693,4453.846153846154,4218.461538461539,4502.564102564103,4477.948717948719
4628.0396,0.5942953,1.0,0.33333334,0.5522388,0,0.0,0.0,0.0,0.0,0.0,0,0,0.0,0.0,0,0,28.0,0.0,0.0,4416.923076923077,3917.435897435898,4524.615384615385,4415.8974358974365,4265.128205128206,4602.051282051282,4364.102564102564,4518.461538461539,4964.102564102564,5304.102564102564,4638.974358974359,4198.461538461539,4770.769230769231,4353.846153846154
4628.0396,0.5942953,1.0,0.33333334,0.5522388,0,0.0,0.0,0.0,0.0,0.0,0,0,0.0,0.0,0,0,28.0,0.0,0.0,4416.923076923077,3917.435897435898,4524.615384615385,4415.8974358974365,4265.128205128206,4602.051282051282,4364.102564102564,4518.461538461539,4964.102564102564,5304.102564102564,4638.974358974359,4198.461538461539,4770.769230769231,4353.846153846154
4628.54,0.5982483,1.0,0.33333334,0.5522388,0,0.0,0.0,0.0,0.0,0.0,0,0,0.0,0.0,0,0,92.0,0.0,425.0,4402.051282051282,3930.2564102564106,4520.512820512821,4428.717948717949,4263.076923076924,4592.820512820514,4355.8974358974365,4518.974358974359,4778.461538461539,5148.205128205129,4648.205128205129,4187.6923076923085,4614.871794871796,4330.769230769231
4628.54,0.5982483,1.0,0.33333334,0.5522388,0,0.0,0.0,0.0,0.0,0.0,0,0,0.0,0.0,0,0,92.0,0.0,425.0,4402.051282051282,3930.2564102564106,4520.512820512821,4428.717948717949,4263.076923076924,4592.820512820514,4355.8974358974365,4518.974358974359,4778.461538461539,5148.205128205129,4648.205128205129,4187.6923076923085,4614.871794871796,4330.769230769231
4629.0405,0.63146883,1.0,0.33333334,0.5522388,0,0.0,0.0,0.0,0.0,0.0,0,0,0.0,0.0,0,0,27.0,0.0,0.0,4458.974358974359,3910.7692307692314,4506.153846153847,4399.48717948718,4228.717948717949,4587.179487179488,4347.179487179487,4462.051282051282,4375.384615384616,4757.948717948719,4495.8974358974365,4171.794871794872,4250.769230769231,4394.358974358975
4629.26,0.63146883,1.0,0.33333334,0.5522388,0,0.0,0.0,0.0,0.0,0.30070826,0,0,0.0,0.0,0,0,55.0,0.0,0.0,4497.435897435898,3912.820512820513,4494.358974358975,4382.051282051282,4226.666666666667,4587.179487179488,4357.948717948719,4412.820512820514,4101.538461538462,4495.384615384616,4400.000000000001,4168.205128205129,4012.307692307693,4392.820512820514
4629.541,0.5602858,1.0,0.33333334,0.5522388,0,0.0,0.0,0.0,0.0,0.0,0,0,0.0,0.0,0,0,91.0,0.0,483.0,4573.846153846154,3929.7435897435903,4507.6923076923085,4384.615384615385,4239.48717948718,4596.410256410257,4395.384615384616,4423.589743589744,4232.820512820514,4614.358974358975,4391.282051282052,4191.794871794872,4061.0256410256416,4455.384615384616
4629.541,0.5602858,1.0,0.33333334,0.5522388,0,0.0,0.0,0.0,0.0,0.0,0,0,0.0,0.0,0,0,91.0,0.0,483.0,4573.846153846154,3929.7435897435903,4507.6923076923085,4384.615384615385,4239.48717948718,4596.410256410257,4395.384615384616,4423.589743589744,4232.820512820514,4614.358974358975,4391.282051282052,4191.794871794872,4061.0256410256416,4455.384615384616
4630.0415,0.54600596,1.0,0.33333334,0.5522388,0,0.0,0.0,0.0,0.0,0.0,0,0,0.0,0.0,0,0,26.0,0.0,0.0,4613.846153846154,3929.2307692307695,4489.743589743591,4376.923076923077,4216.410256410257,4557.435897435898,4445.128205128206,4394.871794871796,4137.435897435898,4518.974358974359,4316.923076923077,4201.025641025642,3970.2564102564106,4500.000000000001
4630.0415,0.54600596,1.0,0.33333334,0.5522388,0,0.0,0.0,0.0,0.0,0.0,0,0,0.0,0.0,0,0,26.0,0.0,0.0,4613.846153846154,3929.2307692307695,4489.743589743591,4376.923076923077,4216.410256410257,4557.435897435898,4445.128205128206,4394.871794871796,4137.435897435898,4518.974358974359,4316.923076923077,4201.025641025642,3970.2564102564106,4500.000000000001
4630.5107,0.6904852,1.0,0.33333334,0.5522388,0,0.0,0.0,0.0,0.0,0.0,0,0,0.0,0.0,0,0,86.0,0.0,1334.0,4654.358974358975,3954.358974358975,4492.820512820514,4392.307692307693,4229.2307692307695,4569.743589743591,4484.615384615385,4434.871794871796,4375.384615384616,4733.333333333334,4282.564102564103,4234.358974358975,4164.102564102564,4560.512820512821
4630.5107,0.6904852,1.0,0.33333334,0.5522388,0,0.0,0.0,0.0,0.0,0.0,0,0,0.0,0.0,0,0,86.0,0.0,1334.0,4654.358974358975,3954.358974358975,4492.820512820514,4392.307692307693,4229.2307692307695,4569.743589743591,4484.615384615385,4434.871794871796,4375.384615384616,4733.333333333334,4282.564102564103,4234.358974358975,4164.102564102564,4560.512820512821
4631.011,0.7327602,1.0,0.33333334,0.5522388,0,0.0,0.0,0.0,0.0,0.0,0,0,0.0,0.0,0,0,21.0,0.0,0.0,4634.871794871796,3949.2307692307695,4490.256410256411,4409.743589743591,4222.051282051282,4568.717948717949,4475.8974358974365,4382.564102564103,4110.256410256411,4498.974358974359,4215.384615384616,4231.282051282052,3953.333333333334,4544.615384615385
4631.011,0.7327602,1.0,0.33333334,0.5522388,0,0.0,0.0,0.0,0.0,0.0,0,0,0.0,0.0,0,0,21.0,0.0,0.0,4634.871794871796,3949.2307692307695,4490.256410256411,4409.743589743591,4222.051282051282,4568.717948717949,4475.8974358974365,4382.564102564103,4110.256410256411,4498.974358974359,4215.384615384616,4231.282051282052,3953.333333333334,4544.615384615385
4631.543,0.85482895,1.0,0.33333334,0.5522388,0,0.0,0.0,0.0,0.0,0.0,0,0,0.0,0.0,0,0,89.0,0.0,269.0,4629.2307692307695,3940.0000000000005,4481.538461538462,4412.307692307693,4223.589743589744,4561.538461538462,4474.358974358975,4328.717948717949,3947.692307692308,4326.666666666667,4136.923076923077,4230.256410256411,3814.8717948717954,4537.435897435898
4631.7617,0.85482895,1.0,0.33333334,0.5522388,0,0.0,0.0,0.0,0.0,0.22916795,0,0,0.0,0.0,0,0,117.0,0.0,269.0,4590.256410256411,3927.692307692308,4490.769230769231,4404.615384615385,4231.282051282052,4565.641025641026,4456.410256410257,4312.820512820514,3885.1282051282055,4259.48717948718,4108.717948717949,4210.256410256411,3770.7692307692314,4525.128205128206
4632.043,0.9347574,1.0,0.33333334,0.5522388,0,0.0,0.0,0.0,0.0,0.23360674,0,0,0.0,0.0,0,0,24.0,0.0,0.0,4613.846153846154,3925.1282051282055,4492.820512820514,4400.000000000001,4237.948717948719,4576.923076923077,4441.538461538462,4286.153846153847,3826.1538461538466,4195.384615384616,4070.2564102564106,4199.48717948718,3709.7435897435903,4542.564102564103
4632.262,0.9347574,1.0,0.33333334,0.5522388,0,0.0,0.0,0.0,0.0,0.022709742,0,0,0.0,0.0,0,0,52.0,0.0,0.0,4638.974358974359,3940.5128205128212,4493.846153846154,4411.282051282052,4247.6923076923085,4588.205128205129,4452.820512820514,4312.820512820514,4046.666666666667,4404.102564102564,4105.128205128206,4217.948717948719,3868.717948717949,4598.461538461539
4632.5435,1.0,1.0,0.33333334,0.5522388,0,0.0,0.0,0.0,0.0,0.0,0,0,0.0,0.0,0,0,88.0,0.0,349.0,4648.717948717949,3944.615384615385,4494.871794871796,4427.6923076923085,4243.589743589744,4589.2307692307695,4457.435897435898,4320.512820512821,4130.769230769231,4481.025641025642,4115.8974358974365,4228.717948717949,3926.1538461538466,4582.564102564103
4632.5435,1.0,1.0,0.33333334,0.5522388,0,0.0,0.0,0.0,0.0,0.0,0,0,0.0,0.0,0,0,88.0,0.0,349.0,4648.717948717949,3944.615384615385,4494.871794871796,4427.6923076923085,4243.589743589744,4589.2307692307695,4457.435897435898,4320.512820512821,4130.769230769231,4481.025641025642,4115.8974358974365,4228.717948717949,3926.1538461538466,4582.564102564103
4633.044,0.95221967,1.0,0.33333334,0.5522388,0,0.0,0.0,0.0,0.0,0.0,0,0,0.0,0.0,0,0,23.0,0.0,0.0,4647.6923076923085,3941.538461538462,4487.179487179488,4417.435897435898,4228.717948717949,4572.820512820514,4442.564102564103,4268.717948717949,3895.3846153846157,4258.461538461539,4068.205128205129,4209.2307692307695,3766.1538461538466,4530.256410256411
4633.263,0.95221967,1.0,0.33333334,0.5522388,0,0.0,0.0,0.0,0.0,0.11999009,0,0,0.0,0.0,0,0,51.0,0.0,0.0,4663.076923076924,3935.8974358974365,4496.923076923077,4415.8974358974365,4229.74358974359,4571.282051282052,4451.794871794872,4275.384615384616,4001.538461538462,4353.846153846154,4075.3846153846157,4212.307692307693,3830.7692307692314,4540.512820512821
4633.5444,1.0,1.0,0.33333334,0.5522388,0,0.0,0.0,0.0,0.0,0.10661625,0,0,0.0,0.0,0,0,87.0,0.0,483.0,4694.871794871796,3933.333333333334,4500.000000000001,4415.384615384616,4228.205128205129,4568.717948717949,4459.48717948718,4306.153846153847,4187.179487179487,4527.179487179488,4107.179487179487,4224.102564102564,3967.1794871794878,4597.435897435898
4633.763,1.0,1.0,0.33333334,0.5522388,0,0.0,0.0,0.0,0.0,0.0,0,0,0.0,0.0,0,1,115.0,0.0,483.0,4737.948717948719,3925.6410256410263,4493.333333333334,4404.615384615385,4202.051282051282,4540.000000000001,4454.871794871796,4276.923076923077,4070.7692307692314,4415.8974358974365,4081.538461538462,4236.923076923077,3871.2820512820517,4670.256410256411
4634.045,1.0,1.0,0.33333334,0.5522388,0,0.0,0.0,0.0,0.0,0.0,0,0,0.0,0.0,0,1,22.0,0.0,0.0,4712.820512820514,3921.0256410256416,4489.2307692307695,4401.025641025642,4211.794871794872,4543.589743589744,4445.641025641026,4250.256410256411,3945.1282051282055,4300.000000000001,4038.461538461539,4228.717948717949,3774.358974358975,4609.743589743591
4634.2637,1.0,1.0,0.33333334,0.5522388,0,0.0,0.0,0.0,0.0,0.056286663,0,0,0.0,0.0,0,0,50.0,0.0,0.0,4706.666666666667,3921.0256410256416,4486.153846153847,4402.564102564103,4205.128205128206,4537.948717948719,4447.6923076923085,4231.794871794872,3908.205128205129,4253.846153846154,4019.48717948718,4222.051282051282,3750.7692307692314,4596.410256410257
4634.5454,0.9816212,1.0,0.33333334,0.5522388,0,0.0,0.0,0.0,0.0,0.09000302,0,0,0.0,0.0,0,0,86.0,0.0,1345.0,4687.179487179488,3913.333333333334,4489.743589743591,4401.025641025642,4202.051282051282,4527.6923076923085,4440.000000000001,4243.076923076924,4017.435897435898,4352.307692307693,4035.8974358974365,4233.846153846154,3832.307692307693,4609.743589743591
4634.764,0.9816212,1.0,0.33333334,0.5522388,0,0.0,0.0,0.0,0.0,0.19050585,0,0,0.0,0.0,0,0,114.0,0.0,1345.0,4672.820512820514,3925.1282051282055,4495.8974358974365,4410.256410256411,4216.923076923077,4538.974358974359,4443.076923076924,4245.128205128206,4110.256410256411,4437.948717948719,4058.461538461539,4233.333333333334,3917.435897435898,4594.871794871796
4635.0146,0.91914845,1.0,0.33333334,0.5522388,0,0.0,0.0,0.0,0.0,0.4293427,0,0,0.0,0.0,0,0,17.0,0.0,0.0,4661.025641025642,3921.0256410256416,4501.025641025642,4410.256410256411,4217.948717948719,4547.6923076923085,4443.076923076924,4244.615384615385,4089.7435897435903,4425.641025641026,4054.358974358975,4227.6923076923085,3908.717948717949,4560.512820512821
4635.2646,0.91914845,1.0,0.33333334,0.5522388,0,0.0,0.0,0.0,0.0,0.46220073,0,0,0.0,0.0,0,0,49.0,0.0,0.0,4656.923076923077,3927.692307692308,4506.666666666667,4412.820512820514,4218.461538461539,4554.358974358975,4434.358974358975,4249.2307692307695,4133.846153846154,4471.282051282052,4060.5128205128212,4234.871794871796,3938.461538461539,4553.846153846154
4635.515,0.892288,1.0,0.33333334,0.5522388,0,0.0,0.0,0.0,0.0,0.14099917,0,0,0.0,0.0,0,0,81.0,0.0,269.0,4660.512820512821,3926.1538461538466,4506.153846153847,4412.820512820514,4218.974358974359,4557.948717948719,4435.8974358974365,4259.48717948718,4223.076923076924,4555.8974358974365,4086.1538461538466,4233.333333333334,4014.358974358975,4561.538461538462
4635.765,0.892288,1.0,0.33333334,0.5522388,0,0.0,0.0,0.0,0.0,0.0,0,0,0.0,0.0,0,0,113.0,0.0,269.0,4682.564102564103,3930.2564102564106,4509.743589743591,4415.384615384616,4222.051282051282,4560.512820512821,4431.282051282052,4289.2307692307695,4396.410256410257,4717.435897435898,4140.512820512821,4250.769230769231,4154.871794871796,4565.641025641026
4636.015,0.9320695,1.0,0.33333334,0.5522388,0,0.0,0.0,0.0,0.0,0.0,0,0,0.0,0.0,0,0,16.0,0.0,0.0,4631.794871794872,3931.2820512820517,4523.076923076924,4427.179487179487,4234.358974358975,4569.2307692307695,4443.589743589744,4323.076923076924,4569.2307692307695,4887.179487179488,4200.512820512821,4247.179487179487,4316.410256410257,4535.384615384616
4636.015,0.9320695,1.0,0.33333334,0.5522388,0,0.0,0.0,0.0,0.0,0.0,0,0,0.0,0.0,0,0,16.0,0.0,0.0,4631.794871794872,3931.2820512820517,4523.076923076924,4427.179487179487,4234.358974358975,4569.2307692307695,4443.589743589744,4323.076923076924,4569.2307692307695,4887.179487179488,4200.512820512821,4247.179487179487,4316.410256410257,4535.384615384616
4636.5156,0.8726203,1.0,0.33333334,0.5522388,0,0.0,0.0,0.0,0.0,0.0,0,0,0.0,0.0,0,0,80.0,0.0,339.0,4610.256410256411,3925.1282051282055,4522.051282051282,4426.153846153847,4231.282051282052,4565.128205128206,4422.564102564103,4383.589743589744,4750.769230769231,5072.820512820514,4308.717948717949,4256.410256410257,4501.538461538462,4529.2307692307695
4636.5156,0.8726203,1.0,0.33333334,0.5522388,0,0.0,0.0,0.0,0.0,0.0,0,0,0.0,0.0,0,0,80.0,0.0,339.0,4610.256410256411,3925.1282051282055,4522.051282051282,4426.153846153847,4231.282051282052,4565.128205128206,4422.564102564103,4383.589743589744,4750.769230769231,5072.820512820514,4308.717948717949,4256.410256410257,4501.538461538462,4529.2307692307695
4637.016,0.95371526,1.0,0.33333334,0.5522388,0,0.0,0.0,0.0,0.0,0.06934714,0,0,0.0,0.0,0,0,10.0,0.0,1338.0,4597.948717948719,3922.564102564103,4518.461538461539,4413.846153846154,4229.2307692307695,4555.8974358974365,4418.974358974359,4396.923076923077,4685.128205128206,5029.743589743591,4346.153846153847,4258.974358974359,4458.974358974359,4527.179487179488
4637.2666,0.95371526,1.0,0.33333334,0.5522388,0,0.0,0.0,0.0,0.0,0.042009667,0,0,0.0,0.0,0,0,47.0,0.0,0.0,4604.102564102564,3923.076923076924,4506.666666666667,4412.307692307693,4232.307692307693,4543.589743589744,4426.153846153847,4380.512820512821,4550.769230769231,4909.2307692307695,4331.282051282052,4249.74358974359,4351.282051282052,4510.769230769231
4637.548,1.0,1.0,0.33333334,0.5522388,0,0.0,0.0,0.0,0.0,0.0,0,0,0.0,0.0,0,0,83.0,0.0,483.0,4617.948717948719,3917.9487179487182,4505.128205128206,4411.282051282052,4231.794871794872,4539.48717948718,4419.48717948718,4383.076923076924,4502.564102564103,4870.256410256411,4336.410256410257,4249.2307692307695,4309.743589743591,4513.333333333334
4637.548,1.0,1.0,0.33333334,0.5522388,0,0.0,0.0,0.0,0.0,0.0,0,0,0.0,0.0,0,0,83.0,0.0,483.0,4617.948717948719,3917.9487179487182,4505.128205128206,4411.282051282052,4231.794871794872,4539.48717948718,4419.48717948718,4383.076923076924,4502.564102564103,4870.256410256411,4336.410256410257,4249.2307692307695,4309.743589743591,4513.333333333334
4638.017,1.0,1.0,0.33333334,0.5522388,0,0.0,0.0,0.0,0.0,0.0,0,0,0.0,0.0,0,0,9.0,0.0,2363.0,4631.794871794872,3943.589743589744,4525.641025641026,4444.615384615385,4265.128205128206,4554.871794871796,4444.615384615385,4409.2307692307695,4620.512820512821,4972.307692307693,4366.153846153847,4272.820512820514,4355.384615384616,4531.794871794872
4638.0483,1.0,1.0,0.33333334,0.5522388,0,0.0,0.0,0.0,0.0,0.0,0,0,0.0,0.0,0,0,18.0,0.0,0.0,4665.641025641026,3955.3846153846157,4537.948717948719,4456.923076923077,4278.461538461539,4570.769230769231,4460.000000000001,4423.076923076924,4686.666666666667,5036.923076923077,4379.48717948718,4279.48717948718,4394.871794871796,4542.564102564103
4638.5176,1.0,1.0,0.33333334,0.5522388,0,0.0,0.0,0.0,0.0,0.0,0,0,0.0,0.0,0,0,78.0,0.0,1342.0,4625.641025641026,3956.9230769230776,4535.8974358974365,4448.205128205129,4265.128205128206,4573.846153846154,4470.769230769231,4433.846153846154,4634.871794871796,4990.769230769231,4402.051282051282,4279.48717948718,4381.538461538462,4542.564102564103
4638.5176,1.0,1.0,0.33333334,0.5522388,0,0.0,0.0,0.0,0.0,0.0,0,0,0.0,0.0,0,0,78.0,0.0,1342.0,4625.641025641026,3956.9230769230776,4535.8974358974365,4448.205128205129,4265.128205128206,4573.846153846154,4470.769230769231,4433.846153846154,4634.871794871796,4990.769230769231,4402.051282051282,4279.48717948718,4381.538461538462,4542.564102564103
4639.018,1.0,1.0,0.33333334,0.5522388,0,0.0,0.0,0.0,0.0,0.0,0,0,0.0,0.0,0,0,7.0,0.0,301.0,4612.307692307693,3940.5128205128212,4523.076923076924,4443.076923076924,4248.717948717949,4571.282051282052,4453.846153846154,4418.461538461539,4486.153846153847,4850.769230769231,4385.641025641026,4262.564102564103,4288.717948717949,4511.282051282052
4639.0493,1.0,1.0,0.33333334,0.5522388,0,0.0,0.0,0.0,0.0,0.0,0,0,0.0,0.0,0,0,17.0,0.0,0.0,4596.923076923077,3942.564102564103,4521.538461538462,4441.538461538462,4249.2307692307695,4569.743589743591,4448.205128205129,4421.538461538462,4494.871794871796,4862.051282051283,4392.307692307693,4266.666666666667,4301.025641025642,4512.820512820514
4639.5186,1.0,1.0,0.33333334,0.5522388,0,0.0,0.0,0.0,0.0,0.0,0,0,0.0,0.0,0,0,77.0,0.0,269.0,4591.282051282052,3940.0000000000005,4519.48717948718,4437.948717948719,4232.307692307693,4579.48717948718,4443.589743589744,4402.051282051282,4344.102564102564,4717.435897435898,4359.48717948718,4248.717948717949,4188.205128205129,4477.948717948719
4639.55,1.0,1.0,0.33333334,0.5522388,0,0.0,0.0,0.0,0.0,0.0,0,0,0.0,0.0,0,0,81.0,0.0,269.0,4586.153846153847,3939.48717948718,4511.794871794872,4437.948717948719,4232.820512820514,4572.307692307693,4437.948717948719,4394.871794871796,4292.307692307693,4666.666666666667,4350.769230769231,4250.769230769231,4147.6923076923085,4472.307692307693
4640.0186,0.9158828,1.0,0.33333334,0.5522388,0,0.0,0.0,0.0,0.0,0.0,0,0,0.0,0.0,0,0,12.0,0.0,331.0,4594.871794871796,3934.358974358975,4505.641025641026,4431.282051282052,4220.512820512821,4567.179487179488,4441.025641025642,4384.102564102564,4258.974358974359,4623.076923076924,4329.743589743591,4260.000000000001,4100.000000000001,4502.051282051282
4640.0503,0.9158828,1.0,0.33333334,0.5522388,0,0.0,0.0,0.0,0.0,0.0,0,0,0.0,0.0,0,0,16.0,0.0,0.0,4590.769230769231,3941.538461538462,4507.6923076923085,4436.923076923077,4226.666666666667,4570.256410256411,4445.641025641026,4381.538461538462,4250.769230769231,4617.948717948719,4325.641025641026,4259.48717948718,4092.820512820513,4506.666666666667
4640.5503,0.8486119,1.0,0.33333334,0.5522388,0,0.0,0.0,0.0,0.0,0.0,0,0,0.0,0.0,0,0,80.0,0.0,326.0,4623.076923076924,3924.615384615385,4514.358974358975,4429.2307692307695,4223.589743589744,4548.717948717949,4441.538461538462,4372.820512820514,4248.205128205129,4602.564102564103,4301.538461538462,4256.923076923077,4086.1538461538466,4531.282051282052
4640.7383,0.8486119,1.0,0.33333334,0.5522388,0,0.0,0.0,0.0,0.0,0.0,0,0,0.0,0.0,0,0,104.0,0.0,326.0,4618.461538461539,3924.1025641025644,4503.589743589744,4427.6923076923085,4232.307692307693,4553.333333333334,4443.589743589744,4356.410256410257,4162.564102564103,4522.051282051282,4276.923076923077,4250.769230769231,4005.6410256410263,4525.641025641026
4641.051,0.7430954,1.0,0.33333334,0.5522388,0,0.0,0.0,0.0,0.0,0.0,0,0,0.0,0.0,0,0,15.0,0.0,483.0,4641.538461538462,3942.564102564103,4521.538461538462,4445.128205128206,4249.2307692307695,4569.743589743591,4452.307692307693,4368.717948717949,4250.769230769231,4602.564102564103,4274.871794871796,4258.974358974359,4042.564102564103,4601.538461538462
4641.051,0.7430954,1.0,0.33333334,0.5522388,0,0.0,0.0,0.0,0.0,0.0,0,0,0.0,0.0,0,0,15.0,0.0,483.0,4641.538461538462,3942.564102564103,4521.538461538462,4445.128205128206,4249.2307692307695,4569.743589743591,4452.307692307693,4368.717948717949,4250.769230769231,4602.564102564103,4274.871794871796,4258.974358974359,4042.564102564103,4601.538461538462
4641.5513,0.73336816,1.0,0.33333334,0.5522388,0,0.0,0.0,0.0,0.0,0.1481481,0,0,0.0,0.0,0,0,79.0,0.0,483.0,4677.948717948719,3943.076923076924,4511.794871794872,4442.051282051282,4246.153846153847,4572.820512820514,4458.461538461539,4341.025641025642,4185.641025641026,4526.153846153847,4218.974358974359,4263.076923076924,3975.8974358974365,4630.256410256411
4641.7705,0.73336816,1.0,0.33333334,0.5522388,0,0.0,0.0,0.0,0.0,0.0,0,0,0.0,0.0,0,0,107.0,0.0,483.0,4681.538461538462,3953.8461538461543,4505.641025641026,4442.564102564103,4250.256410256411,4581.538461538462,4447.179487179487,4330.256410256411,4148.205128205129,4500.512820512821,4205.641025641026,4259.48717948718,3950.7692307692314,4631.794871794872
4642.052,0.7511571,1.0,0.33333334,0.5522388,0,0.0,0.0,0.0,0.0,0.0,0,0,0.0,0.0,0,0,14.0,0.0,1359.0,4660.512820512821,3951.2820512820517,4503.589743589744,4441.538461538462,4250.256410256411,4585.641025641026,4442.564102564103,4321.538461538462,4101.538461538462,4456.923076923077,4210.769230769231,4253.333333333334,3920.5128205128212,4607.6923076923085
4642.2705,0.7511571,1.0,0.33333334,0.5522388,0,0.0,1.0,0.0,0.0,0.0,0,0,0.0,0.0,0,0,42.0,0.0,0.0,4718.461538461539,3969.2307692307695,4511.282051282052,4446.153846153847,4261.538461538462,4584.102564102564,4468.205128205129,4372.820512820514,4417.948717948719,4750.769230769231,4278.974358974359,4279.48717948718,4161.538461538462,4653.333333333334
4642.5522,0.7611386,1.0,0.33333334,0.5522388,0,0.0,1.0,0.0,0.0,0.0,0,0,0.0,0.0,0,0,78.0,0.0,1357.0,4706.666666666667,3962.0512820512827,4508.205128205129,4444.615384615385,4253.333333333334,4583.589743589744,4467.6923076923085,4365.128205128206,4370.769230769231,4705.641025641026,4416.410256410257,4282.051282051282,4107.179487179487,4623.076923076924
4642.646,0.7611386,1.0,0.33333334,0.5522388,0,0.0,0.0,0.0,0.0,0.0,0,0,0.0,0.0,0,0,90.0,0.0,1357.0,4656.923076923077,3951.2820512820517,4506.666666666667,4437.948717948719,4246.666666666667,4568.205128205129,4469.743589743591,4334.358974358975,4169.74358974359,4527.6923076923085,4352.307692307693,4264.615384615385,3986.1538461538466,4565.128205128206
4643.0527,0.70609945,1.0,0.33333334,0.5522388,0,0.0,0.0,0.0,0.0,0.0,0,0,0.0,0.0,0,0,13.0,0.0,267.0,4664.615384615386,3941.538461538462,4503.589743589744,4436.923076923077,4231.282051282052,4568.205128205129,4461.538461538462,4338.974358974359,4194.358974358975,4544.615384615385,4289.74358974359,4268.205128205129,4038.461538461539,4569.743589743591
4643.0527,0.70609945,1.0,0.33333334,0.5522388,0,0.0,0.0,0.0,0.0,0.0,0,0,0.0,0.0,0,0,13.0,0.0,267.0,4664.615384615386,3941.538461538462,4503.589743589744,4436.923076923077,4231.282051282052,4568.205128205129,4461.538461538462,4338.974358974359,4194.358974358975,4544.615384615385,4289.74358974359,4268.205128205129,4038.461538461539,4569.743589743591
4643.553,0.717015,1.0,0.33333334,0.5522388,0,0.0,0.0,0.0,0.0,0.0,0,0,0.0,0.0,0,0,77.0,0.0,267.0,4618.974358974359,3941.0256410256416,4495.8974358974365,4429.743589743591,4229.74358974359,4554.358974358975,4437.948717948719,4305.641025641026,4051.2820512820517,4413.333333333334,4210.769230769231,4245.641025641026,3946.666666666667,4533.333333333334
4643.553,0.717015,1.0,0.33333334,0.5522388,0,0.0,0.0,0.0,0.0,0.0,0,0,0.0,0.0,0,0,77.0,0.0,267.0,4618.974358974359,3941.0256410256416,4495.8974358974365,4429.743589743591,4229.74358974359,4554.358974358975,4437.948717948719,4305.641025641026,4051.2820512820517,4413.333333333334,4210.769230769231,4245.641025641026,3946.666666666667,4533.333333333334
4644.0225,0.68482614,1.0,0.33333334,0.5522388,0,0.0,0.0,0.0,0.0,0.0,0,0,0.0,0.0,0,0,8.0,0.0,2721.0,4630.256410256411,3928.717948717949,4505.641025641026,4430.256410256411,4228.717948717949,4554.358974358975,4436.923076923077,4319.48717948718,4230.256410256411,4576.410256410257,4245.641025641026,4251.282051282052,4075.3846153846157,4553.846153846154
4644.0225,0.68482614,1.0,0.33333334,0.5522388,0,0.0,0.0,0.0,0.0,0.0,0,0,0.0,0.0,0,0,8.0,0.0,2721.0,4630.256410256411,3928.717948717949,4505.641025641026,4430.256410256411,4228.717948717949,4554.358974358975,4436.923076923077,4319.48717948718,4230.256410256411,4576.410256410257,4245.641025641026,4251.282051282052,4075.3846153846157,4553.846153846154
4644.5225,0.69648474,1.0,0.33333334,0.5522388,0,0.0,0.0,0.0,0.0,0.0,0,0,0.0,0.0,0,0,72.0,0.0,2717.0,4633.846153846154,3943.076923076924,4505.641025641026,4432.307692307693,4242.051282051282,4567.6923076923085,4440.000000000001,4329.2307692307695,4286.153846153847,4628.717948717949,4256.410256410257,4249.2307692307695,4100.000000000001,4551.794871794872
4644.773,0.69648474,1.0,0.33333334,0.5522388,0,0.0,1.0,0.0,0.0,0.0,0,0,0.0,0.0,0,0,104.0,0.0,514.0,4637.435897435898,3942.0512820512827,4503.589743589744,4427.179487179487,4234.358974358975,4554.358974358975,4445.128205128206,4344.615384615385,4366.153846153847,4700.512820512821,4286.666666666667,4256.923076923077,4161.025641025642,4599.48717948718
4645.054,0.7331039,1.0,0.33333334,0.5522388,0,0.0,1.0,0.0,0.0,0.0,0,0,0.0,0.0,0,0,11.0,0.0,477.0,4646.153846153847,3944.615384615385,4510.769230769231,4426.153846153847,4234.871794871796,4566.666666666667,4443.589743589744,4393.846153846154,4638.461538461539,4952.820512820514,4396.410256410257,4265.641025641026,4386.153846153847,4632.820512820514
4645.1484,0.7331039,1.0,0.33333334,0.5522388,0,0.0,0.0,0.0,0.0,0.0,0,0,0.0,0.0,0,0,23.0,0.0,0.0,4620.000000000001,3946.1538461538466,4522.051282051282,4430.769230769231,4233.333333333334,4585.128205128206,4431.794871794872,4409.743589743591,4713.846153846154,5027.6923076923085,4429.743589743591,4257.948717948719,4455.8974358974365,4609.743589743591
4645.5234,0.7464029,1.0,0.33333334,0.5522388,0,0.0,0.0,0.0,0.0,0.0,0,0,0.0,0.0,0,0,71.0,0.0,312.0,4547.179487179488,3926.666666666667,4514.871794871796,4423.076923076924,4220.512820512821,4585.641025641026,4410.256410256411,4426.666666666667,4714.358974358975,5036.410256410257,4486.666666666667,4247.179487179487,4515.8974358974365,4550.256410256411
4645.774,0.7464029,1.0,0.33333334,0.5522388,0,0.0,0.0,0.0,0.0,0.4816893,0,0,0.0,0.0,0,0,103.0,0.0,477.0,4538.974358974359,3910.2564102564106,4507.6923076923085,4424.102564102564,4222.051282051282,4575.384615384616,4394.871794871796,4441.025641025642,4724.615384615386,5048.205128205129,4514.871794871796,4237.948717948719,4537.435897435898,4529.743589743591
4646.024,0.82105,1.0,0.33333334,0.5522388,0,0.0,0.0,0.0,0.0,0.14059724,0,0,0.0,0.0,0,0,6.0,0.0,426.0,4495.384615384616,3900.0000000000005,4507.6923076923085,4418.974358974359,4223.589743589744,4570.769230769231,4382.564102564103,4434.358974358975,4623.589743589744,4962.051282051283,4505.641025641026,4228.205128205129,4464.615384615385,4507.6923076923085
4646.149,0.82105,1.0,0.33333334,0.5522388,0,0.0,0.0,0.0,0.0,0.0,0,0,0.0,0.0,0,0,22.0,0.0,0.0,4496.923076923077,3909.2307692307695,4505.641025641026,4421.025641025642,4229.74358974359,4567.6923076923085,4373.846153846154,4431.282051282052,4604.615384615385,4945.641025641026,4499.48717948718,4232.307692307693,4445.128205128206,4502.564102564103
4646.5557,0.80847406,1.0,0.33333334,0.5522388,0,0.0,0.0,0.0,0.0,0.0,0,0,0.0,0.0,0,0,74.0,0.0,1342.0,4551.794871794872,3927.1794871794878,4513.333333333334,4428.205128205129,4245.128205128206,4574.871794871796,4399.48717948718,4459.48717948718,4696.410256410257,5034.358974358975,4538.461538461539,4243.076923076924,4482.564102564103,4494.358974358975
4646.5557,0.80847406,1.0,0.33333334,0.5522388,0,0.0,0.0,0.0,0.0,0.0,0,0,0.0,0.0,0,0,74.0,0.0,1342.0,4551.794871794872,3927.1794871794878,4513.333333333334,4428.205128205129,4245.128205128206,4574.871794871796,4399.48717948718,4459.48717948718,4696.410256410257,5034.358974358975,4538.461538461539,4243.076923076924,4482.564102564103,4494.358974358975
4647.056,0.7946842,1.0,0.33333334,0.5522388,0,0.0,0.0,0.0,0.0,0.0,0,0,0.0,0.0,0,0,9.0,0.0,2428.0,4583.076923076924,3928.205128205129,4508.205128205129,4426.666666666667,4235.8974358974365,4570.769230769231,4416.410256410257,4451.282051282052,4548.717948717949,4905.641025641026,4503.589743589744,4252.307692307693,4347.179487179487,4503.076923076924
4647.056,0.7946842,1.0,0.33333334,0.5522388,0,0.0,0.0,0.0,0.0,0.0,0,0,0.0,0.0,0,0,9.0,0.0,2428.0,4583.076923076924,3928.205128205129,4508.205128205129,4426.666666666667,4235.8974358974365,4570.769230769231,4416.410256410257,4451.282051282052,4548.717948717949,4905.641025641026,4503.589743589744,4252.307692307693,4347.179487179487,4503.076923076924
4647.5566,0.75269645,1.0,0.33333334,0.5522388,0,0.0,0.0,0.0,0.0,0.0,0,0,0.0,0.0,0,0,73.0,0.0,2432.0,4614.871794871796,3923.076923076924,4503.589743589744,4426.666666666667,4231.282051282052,4565.641025641026,4429.2307692307695,4426.153846153847,4363.076923076924,4728.717948717949,4425.641025641026,4248.205128205129,4184.102564102564,4514.871794871796
4647.5566,0.75269645,1.0,0.33333334,0.5522388,0,0.0,0.0,0.0,0.0,0.0,0,0,0.0,0.0,0,0,73.0,0.0,2432.0,4614.871794871796,3923.076923076924,4503.589743589744,4426.666666666667,4231.282051282052,4565.641025641026,4429.2307692307695,4426.153846153847,4363.076923076924,4728.717948717949,4425.641025641026,4248.205128205129,4184.102564102564,4514.871794871796
4648.057,0.701932,1.0,0.33333334,0.5522388,0,0.0,0.0,0.0,0.0,0.0,0,0,0.0,0.0,0,0,8.0,0.0,2733.0,4617.948717948719,3927.692307692308,4505.128205128206,4437.948717948719,4231.282051282052,4569.743589743591,4429.2307692307695,4403.076923076924,4248.717948717949,4620.000000000001,4359.48717948718,4249.74358974359,4080.5128205128212,4516.923076923077
4648.057,0.701932,1.0,0.33333334,0.5522388,0,0.0,0.0,0.0,0.0,0.0,0,0,0.0,0.0,0,0,8.0,0.0,2733.0,4617.948717948719,3927.692307692308,4505.128205128206,4437.948717948719,4231.282051282052,4569.743589743591,4429.2307692307695,4403.076923076924,4248.717948717949,4620.000000000001,4359.48717948718,4249.74358974359,4080.5128205128212,4516.923076923077
4648.5576,0.5899826,1.0,0.33333334,0.5522388,0,0.0,0.0,0.0,0.0,0.0,0,0,0.0,0.0,0,0,72.0,0.0,2736.0,4625.641025641026,3929.7435897435903,4503.589743589744,4439.48717948718,4232.307692307693,4568.717948717949,4430.769230769231,4376.410256410257,4158.461538461539,4528.717948717949,4292.820512820514,4249.74358974359,4004.1025641025644,4532.307692307693
4648.5576,0.5899826,1.0,0.33333334,0.5522388,0,0.0,0.0,0.0,0.0,0.0,0,0,0.0,0.0,0,0,72.0,0.0,2736.0,4625.641025641026,3929.7435897435903,4503.589743589744,4439.48717948718,4232.307692307693,4568.717948717949,4430.769230769231,4376.410256410257,4158.461538461539,4528.717948717949,4292.820512820514,4249.74358974359,4004.1025641025644,4532.307692307693
4649.0264,0.5704466,1.0,0.33333334,0.5522388,0,0.0,0.0,0.0,0.0,0.0,0,0,0.0,0.0,0,0,3.0,0.0,558.0,4629.2307692307695,3934.8717948717954,4493.846153846154,4432.307692307693,4231.282051282052,4558.974358974359,4429.2307692307695,4349.743589743591,4069.7435897435903,4437.435897435898,4227.6923076923085,4244.615384615385,3931.7948717948725,4517.948717948719
4649.0264,0.5704466,1.0,0.33333334,0.5522388,0,0.0,0.0,0.0,0.0,0.0,0,0,0.0,0.0,0,0,3.0,0.0,558.0,4629.2307692307695,3934.8717948717954,4493.846153846154,4432.307692307693,4231.282051282052,4558.974358974359,4429.2307692307695,4349.743589743591,4069.7435897435903,4437.435897435898,4227.6923076923085,4244.615384615385,3931.7948717948725,4517.948717948719
4649.527,0.64857024,1.0,0.33333334,0.5522388,0,0.0,0.0,0.0,0.0,0.0,0,0,0.0,0.0,0,0,67.0,0.0,558.0,4630.769230769231,3941.538461538462,4501.025641025642,4430.256410256411,4234.871794871796,4556.410256410257,4423.589743589744,4366.666666666667,4230.256410256411,4574.358974358975,4259.48717948718,4252.307692307693,4055.8974358974365,4553.333333333334
4649.527,0.64857024,1.0,0.33333334,0.5522388,0,0.0,0.0,0.0,0.0,0.0,0,0,0.0,0.0,0,0,67.0,0.0,558.0,4630.769230769231,3941.538461538462,4501.025641025642,4430.256410256411,4234.871794871796,4556.410256410257,4423.589743589744,4366.666666666667,4230.256410256411,4574.358974358975,4259.48717948718,4252.307692307693,4055.8974358974365,4553.333333333334
4650.0273,0.69307846,1.0,0.33333334,0.5522388,0,0.0,0.0,0.0,0.0,0.0,0,0,0.0,0.0,0,0,2.0,0.0,480.0,4578.974358974359,3908.205128205129,4490.256410256411,4418.461538461539,4215.384615384616,4540.000000000001,4416.923076923077,4332.820512820514,4067.692307692308,4414.358974358975,4215.384615384616,4241.025641025642,3946.1538461538466,4503.076923076924
4650.0273,0.69307846,1.0,0.33333334,0.5522388,0,0.0,0.0,0.0,0.0,0.0,0,0,0.0,0.0,0,0,2.0,0.0,480.0,4578.974358974359,3908.205128205129,4490.256410256411,4418.461538461539,4215.384615384616,4540.000000000001,4416.923076923077,4332.820512820514,4067.692307692308,4414.358974358975,4215.384615384616,4241.025641025642,3946.1538461538466,4503.076923076924
4650.559,0.648521,1.0,0.33333334,0.5522388,0,0.0,1.0,0.0,0.0,0.0,0,0,0.0,0.0,0,0,70.0,0.0,426.0,4634.871794871796,3941.0256410256416,4511.282051282052,4442.051282051282,4246.666666666667,4565.128205128206,4435.8974358974365,4390.256410256411,4503.076923076924,4812.820512820514,4236.410256410257,4273.333333333334,4214.871794871796,4782.051282051282
4650.559,0.648521,1.0,0.33333334,0.5522388,0,0.0,1.0,0.0,0.0,0.0,0,0,0.0,0.0,0,0,70.0,0.0,426.0,4634.871794871796,3941.0256410256416,4511.282051282052,4442.051282051282,4246.666666666667,4565.128205128206,4435.8974358974365,4390.256410256411,4503.076923076924,4812.820512820514,4236.410256410257,4273.333333333334,4214.871794871796,4782.051282051282
4651.0596,0.6182122,1.0,0.33333334,0.5522388,0,0.0,0.744949,0.0,0.0,0.0,0,0,0.0,0.0,0,0,5.0,0.0,573.0,4474.358974358975,3900.0000000000005,4511.794871794872,4409.2307692307695,4240.512820512821,4555.8974358974365,4349.743589743591,4437.435897435898,4674.358974358975,4969.743589743591,4422.564102564103,4237.948717948719,4486.666666666667,4637.948717948719
4651.2783,0.6182122,1.0,0.33333334,0.5522388,0,0.0,0.80026996,0.0,0.0,0.0,0,0,0.0,0.0,0,0,33.0,0.0,0.0,4431.282051282052,3908.717948717949,4528.717948717949,4425.128205128206,4270.769230769231,4583.076923076924,4328.205128205129,4511.282051282052,5030.256410256411,5311.794871794872,4602.051282051282,4243.076923076924,4813.846153846154,4593.333333333334
4651.529,0.58824384,1.0,0.33333334,0.5522388,0,0.0,0.0,0.0,0.0,0.31258982,0,0,0.0,0.0,0,0,65.0,0.0,483.0,4374.871794871796,3898.9743589743593,4522.564102564103,4424.102564102564,4264.615384615385,4581.538461538462,4304.615384615385,4550.256410256411,5085.641025641026,5373.333333333334,4708.205128205129,4220.512820512821,4941.025641025642,4549.743589743591
4651.779,0.58824384,1.0,0.33333334,0.5522388,0,0.0,0.0,0.0,0.0,0.33388776,0,0,0.0,0.0,0,0,97.0,0.0,269.0,4369.2307692307695,3884.615384615385,4524.615384615385,4423.076923076924,4263.589743589744,4578.974358974359,4282.564102564103,4559.48717948718,5043.076923076924,5344.615384615386,4727.6923076923085,4211.282051282052,4873.333333333334,4484.615384615385
4652.0293,0.7276546,1.0,0.33333334,0.5522388,0,0.0,0.0,0.0,0.0,0.32500544,0,0,0.0,0.0,0,0,0.0,0.0,355.0,4412.307692307693,3881.0256410256416,4516.923076923077,4418.461538461539,4258.461538461539,4573.846153846154,4287.179487179487,4563.589743589744,4969.2307692307695,5284.615384615386,4734.358974358975,4206.153846153847,4809.2307692307695,4427.179487179487
4652.2793,0.7276546,1.0,0.33333334,0.5522388,0,0.0,1.0,0.0,0.0,0.0,0,0,0.0,0.0,0,0,32.0,0.0,0.0,4440.512820512821,3891.2820512820517,4510.256410256411,4415.384615384616,4258.974358974359,4572.820512820514,4297.948717948719,4554.871794871796,4872.820512820514,5222.564102564103,4703.589743589744,4203.589743589744,4697.435897435898,4401.025641025642
4652.5293,0.6225293,1.0,0.33333334,0.5522388,0,0.0,1.0,0.0,0.0,0.0,0,0,0.0,0.0,0,0,64.0,0.0,355.0,4464.615384615385,3894.358974358975,4507.179487179488,4424.102564102564,4261.025641025642,4576.410256410257,4301.025641025642,4550.256410256411,4790.256410256411,5148.717948717949,4682.051282051282,4197.948717948719,4615.384615384616,4380.000000000001
4652.561,0.6225293,1.0,0.33333334,0.5522388,0,0.0,1.0,0.0,0.0,0.0,0,0,0.0,0.0,0,0,68.0,0.0,585.0,4459.48717948718,3895.3846153846157,4505.128205128206,4417.435897435898,4255.8974358974365,4571.794871794872,4303.589743589744,4538.974358974359,4708.717948717949,5079.487179487181,4658.461538461539,4189.2307692307695,4556.410256410257,4361.025641025642
4653.03,0.5793018,1.0,0.33333334,0.5522388,0,0.0,0.0,0.0,0.0,0.116487004,0,0,0.0,0.0,0,0,128.0,0.0,532.0,4511.794871794872,3901.0256410256416,4504.615384615385,4414.871794871796,4245.641025641026,4566.666666666667,4348.205128205129,4523.076923076924,4563.076923076924,4942.564102564103,4592.820512820514,4200.512820512821,4394.871794871796,4399.48717948718
4653.2803,0.5793018,1.0,0.33333334,0.5522388,0,0.0,0.0,0.0,0.0,0.0,0,0,0.0,0.0,0,0,31.0,0.0,0.0,4536.410256410257,3910.7692307692314,4505.128205128206,4418.974358974359,4246.153846153847,4568.205128205129,4355.8974358974365,4503.589743589744,4422.051282051282,4813.846153846154,4529.2307692307695,4198.974358974359,4275.8974358974365,4366.666666666667
4653.5303,0.51885504,1.0,0.33333334,0.5522388,0,0.0,0.0,0.0,0.0,0.0,0,0,0.0,0.0,0,0,63.0,0.0,0.0,4564.615384615385,3922.0512820512827,4505.641025641026,4427.6923076923085,4250.256410256411,4565.641025641026,4373.846153846154,4488.717948717949,4344.102564102564,4737.948717948719,4477.435897435898,4200.000000000001,4193.846153846154,4376.410256410257
4653.781,0.51885504,1.0,0.33333334,0.5522388,0,0.0,0.0,0.0,0.0,0.10894338,0,0,0.0,0.0,0,0,95.0,0.0,482.0,4577.948717948719,3926.1538461538466,4507.6923076923085,4431.282051282052,4247.179487179487,4560.512820512821,4372.820512820514,4516.410256410257,4530.256410256411,4897.435897435898,4527.6923076923085,4216.410256410257,4330.769230769231,4406.153846153847
4654.031,0.58167654,1.0,0.33333334,0.5522388,0,0.0,0.0,0.0,0.0,0.11055521,0,0,0.0,0.0,0,0,127.0,0.0,482.0,4563.076923076924,3909.7435897435903,4507.179487179488,4426.666666666667,4246.666666666667,4555.384615384616,4374.871794871796,4548.717948717949,4712.307692307693,5064.615384615386,4600.512820512821,4231.794871794872,4488.717948717949,4421.538461538462
4654.2812,0.58167654,1.0,0.33333334,0.5522388,0,0.0,0.0,0.0,0.0,0.0,0,0,0.0,0.0,0,0,30.0,0.0,0.0,4540.512820512821,3924.1025641025644,4508.205128205129,4432.307692307693,4242.051282051282,4541.025641025642,4347.179487179487,4523.589743589744,4508.717948717949,4876.923076923077,4539.48717948718,4207.6923076923085,4350.769230769231,4365.641025641026
4654.5312,0.5719356,1.0,0.33333334,0.5522388,0,0.0,0.0,0.0,0.0,0.15808186,0,0,0.0,0.0,0,0,62.0,0.0,0.0,4523.589743589744,3926.1538461538466,4503.076923076924,4440.000000000001,4248.717948717949,4551.794871794872,4328.717948717949,4498.461538461539,4342.051282051282,4730.769230769231,4484.615384615385,4186.666666666667,4231.794871794872,4294.358974358975
4654.6562,0.5719356,1.0,0.33333334,0.5522388,0,0.0,0.0,0.0,0.0,0.0,0,0,0.0,0.0,0,0,78.0,0.0,1364.0,4505.641025641026,3912.307692307693,4504.102564102564,4436.410256410257,4234.871794871796,4539.48717948718,4336.410256410257,4503.589743589744,4413.846153846154,4791.794871794872,4498.974358974359,4184.102564102564,4288.205128205129,4327.179487179487
4655.0317,0.5328279,1.0,0.33333334,0.5522388,0,0.0,1.0,0.0,0.0,0.0,0,0,0.0,0.0,0,0,126.0,0.0,1364.0,4539.48717948718,3927.1794871794878,4516.410256410257,4441.025641025642,4251.282051282052,4556.410256410257,4344.615384615385,4537.435897435898,4598.974358974359,4957.948717948719,4549.2307692307695,4206.153846153847,4401.025641025642,4384.615384615385
4655.0317,0.5328279,1.0,0.33333334,0.5522388,0,0.0,1.0,0.0,0.0,0.0,0,0,0.0,0.0,0,0,126.0,0.0,1364.0,4539.48717948718,3927.1794871794878,4516.410256410257,4441.025641025642,4251.282051282052,4556.410256410257,4344.615384615385,4537.435897435898,4598.974358974359,4957.948717948719,4549.2307692307695,4206.153846153847,4401.025641025642,4384.615384615385
4655.532,0.5179151,1.0,0.33333334,0.5522388,0,0.0,1.0,0.0,0.0,0.0,0,0,0.0,0.0,0,0,61.0,0.0,0.0,4557.435897435898,3905.6410256410263,4503.589743589744,4433.846153846154,4244.102564102564,4556.410256410257,4358.974358974359,4524.102564102564,4448.717948717949,4827.6923076923085,4546.666666666667,4219.48717948718,4260.000000000001,4438.461538461539
4655.782,0.5179151,1.0,0.33333334,0.5522388,0,0.0,1.0,0.0,0.0,0.0,0,0,0.0,0.0,0,0,93.0,0.0,270.0,4533.333333333334,3905.1282051282055,4506.153846153847,4428.717948717949,4238.461538461539,4562.564102564103,4326.666666666667,4531.282051282052,4513.846153846154,4883.589743589744,4567.6923076923085,4219.48717948718,4340.000000000001,4391.794871794872
4656.0327,0.45360565,1.0,0.33333334,0.5522388,0,0.0,0.7118737,0.0,0.0,0.0,0,0,0.0,0.0,0,0,125.0,0.0,270.0,4498.461538461539,3909.7435897435903,4508.205128205129,4436.410256410257,4264.102564102564,4543.589743589744,4285.641025641026,4536.410256410257,4528.717948717949,4896.410256410257,4572.307692307693,4218.461538461539,4365.128205128206,4390.256410256411
4656.1577,0.45360565,1.0,0.33333334,0.5522388,0,0.0,1.0,0.0,0.0,0.0,0,0,0.0,0.0,0,0,12.0,0.0,570.0,4406.666666666667,3893.333333333334,4502.564102564103,4426.666666666667,4247.6923076923085,4536.923076923077,4255.8974358974365,4494.871794871796,4287.6923076923085,4657.948717948719,4487.6923076923085,4197.948717948719,4200.000000000001,4384.102564102564
4656.533,0.5326787,1.0,0.33333334,0.5522388,0,0.0,1.0,0.0,0.0,0.0,0,0,0.0,0.0,0,0,60.0,0.0,0.0,4417.435897435898,3905.6410256410263,4498.974358974359,4427.6923076923085,4250.256410256411,4556.923076923077,4292.820512820514,4469.2307692307695,4222.051282051282,4570.769230769231,4414.871794871796,4203.589743589744,4118.974358974359,4329.2307692307695
4656.783,0.5326787,1.0,0.33333334,0.5522388,0,0.0,0.0,0.0,0.0,0.16860135,0,0,0.0,0.0,0,0,92.0,0.0,574.0,4435.384615384616,3912.307692307693,4505.641025641026,4432.307692307693,4262.051282051282,4569.743589743591,4317.948717948719,4472.820512820514,4275.8974358974365,4621.025641025642,4398.974358974359,4213.333333333334,4127.179487179487,4334.358974358975
4657.033,0.61270833,1.0,0.33333334,0.5522388,0,0.0,1.0,0.0,0.0,0.0,0,0,0.0,0.0,0,0,124.0,0.0,574.0,4462.564102564103,3911.2820512820517,4498.461538461539,4427.6923076923085,4246.153846153847,4557.948717948719,4335.8974358974365,4466.666666666667,4270.769230769231,4615.8974358974365,4387.6923076923085,4215.8974358974365,4120.512820512821,4317.435897435898
4657.0645,0.61270833,1.0,0.33333334,0.5522388,0,0.0,1.0,0.0,0.0,0.0,0,0,0.0,0.0,0,0,128.0,0.0,574.0,4475.384615384616,3923.589743589744,4498.974358974359,4429.743589743591,4249.2307692307695,4569.2307692307695,4340.512820512821,4474.358974358975,4325.641025641026,4671.794871794872,4399.48717948718,4218.461538461539,4152.307692307693,4327.6923076923085
4657.5337,0.61965734,1.0,0.33333334,0.5522388,0,0.0,1.0,0.0,0.0,0.0,0,0,0.0,0.0,0,0,59.0,0.0,0.0,4508.717948717949,3930.7692307692314,4508.717948717949,4432.820512820514,4248.205128205129,4569.743589743591,4380.000000000001,4498.461538461539,4480.512820512821,4818.974358974359,4440.512820512821,4232.820512820514,4258.461538461539,4375.384615384616
4657.565,0.61965734,1.0,0.33333334,0.5522388,0,0.0,1.0,0.0,0.0,0.0,0,0,0.0,0.0,0,0,63.0,0.0,0.0,4525.128205128206,3934.358974358975,4509.2307692307695,4433.846153846154,4248.717948717949,4569.2307692307695,4386.666666666667,4504.615384615385,4515.384615384616,4854.358974358975,4448.205128205129,4233.333333333334,4277.948717948719,4376.923076923077
4658.034,0.6125076,1.0,0.33333334,0.5522388,0,0.0,0.55605125,0.0,0.0,0.0,0,0,0.0,0.0,0,0,123.0,0.0,485.0,4573.846153846154,3944.615384615385,4507.179487179488,4432.820512820514,4248.205128205129,4558.974358974359,4428.205128205129,4490.256410256411,4422.564102564103,4785.641025641026,4404.102564102564,4251.794871794872,4186.153846153847,4407.6923076923085
4658.159,0.6125076,1.0,0.33333334,0.5522388,0,0.0,1.0,0.0,0.0,0.0,0,0,0.0,0.0,0,0,10.0,0.0,1369.0,4539.48717948718,3938.9743589743593,4505.128205128206,4428.205128205129,4245.641025641026,4568.205128205129,4427.179487179487,4458.974358974359,4208.717948717949,4589.2307692307695,4329.2307692307695,4237.948717948719,4034.8717948717954,4402.564102564103
4658.5347,0.638568,1.0,0.33333334,0.5522388,0,0.0,1.0,0.0,0.0,0.0,0,0,0.0,0.0,0,0,58.0,0.0,0.0,4543.076923076924,3941.0256410256416,4497.435897435898,4430.256410256411,4233.846153846154,4570.256410256411,4427.179487179487,4413.846153846154,4000.5128205128212,4391.794871794872,4227.6923076923085,4229.2307692307695,3877.435897435898,4371.282051282052
4658.785,0.638568,1.0,0.33333334,0.5522388,0,0.0,0.0,0.0,0.0,0.01607743,0,0,0.0,0.0,0,0,90.0,0.0,1374.0,4557.948717948719,3957.435897435898,4505.641025641026,4442.051282051282,4249.74358974359,4587.6923076923085,4453.333333333334,4421.025641025642,4098.974358974359,4476.410256410257,4221.538461538462,4242.564102564103,3922.564102564103,4421.538461538462
4659.035,0.75265265,1.0,0.33333334,0.5522388,0,0.0,0.0,0.0,0.0,0.054960527,0,0,0.0,0.0,0,0,122.0,0.0,1374.0,4586.666666666667,3959.48717948718,4505.128205128206,4441.025641025642,4249.74358974359,4592.307692307693,4469.743589743591,4411.794871794872,4111.282051282052,4484.102564102564,4204.615384615385,4250.769230769231,3920.0000000000005,4438.461538461539
4659.285,0.75265265,1.0,0.33333334,0.5522388,0,0.0,0.0,0.0,0.0,0.13694389,0,0,0.0,0.0,0,0,25.0,0.0,0.0,4581.025641025642,3974.358974358975,4492.307692307693,4443.076923076924,4249.2307692307695,4592.820512820514,4478.461538461539,4401.538461538462,4076.410256410257,4462.564102564103,4183.589743589744,4262.051282051282,3898.461538461539,4474.871794871796
4659.5356,0.8471152,1.0,0.33333334,0.5522388,0,0.0,1.0,0.0,0.0,0.0,0,0,0.0,0.0,0,0,57.0,0.0,0.0,4649.2307692307695,3976.9230769230776,4501.025641025642,4455.8974358974365,4244.102564102564,4588.717948717949,4493.846153846154,4420.512820512821,4248.205128205129,4617.948717948719,4214.358974358975,4291.794871794872,3998.461538461539,4567.6923076923085
4659.567,0.8471152,1.0,0.33333334,0.5522388,0,0.0,1.0,0.0,0.0,0.0,0,0,0.0,0.0,0,0,61.0,0.0,0.0,4638.974358974359,3977.435897435898,4499.48717948718,4450.256410256411,4236.410256410257,4587.6923076923085,4493.333333333334,4413.333333333334,4222.051282051282,4595.8974358974365,4201.538461538462,4290.769230769231,3981.0256410256416,4560.512820512821
4660.036,0.9554614,1.0,0.33333334,0.5522388,0,0.0,1.0,0.0,0.0,0.0,0,0,0.0,0.0,0,0,121.0,0.0,270.0,4618.461538461539,3944.1025641025644,4488.717948717949,4430.769230769231,4221.025641025642,4562.564102564103,4489.2307692307695,4353.846153846154,3965.1282051282055,4333.846153846154,4082.0512820512827,4277.435897435898,3813.8461538461543,4534.358974358975
4660.0674,0.9554614,1.0,0.33333334,0.5522388,0,0.0,1.0,0.0,0.0,0.0,0,0,0.0,0.0,0,0,125.0,0.0,270.0,4614.358974358975,3951.7948717948725,4487.179487179488,4430.769230769231,4214.871794871796,4556.923076923077,4471.794871794872,4348.717948717949,3922.0512820512827,4293.846153846154,4064.1025641025644,4270.256410256411,3786.1538461538466,4526.153846153847
4660.5366,1.0,1.0,0.33333334,0.5522388,0,0.0,1.0,0.0,0.0,0.0,0,0,0.0,0.0,0,0,56.0,0.0,0.0,4545.128205128206,3913.333333333334,4474.358974358975,4426.153846153847,4108.205128205129,4411.282051282052,4427.179487179487,4235.8974358974365,3431.794871794872,3829.2307692307695,3867.1794871794878,4218.974358974359,3471.2820512820517,4469.2307692307695
4660.6616,1.0,1.0,0.33333334,0.5522388,0,0.0,0.0,0.0,0.0,0.0,0,0,0.0,0.0,0,0,72.0,0.0,2816.0,4567.6923076923085,3929.7435897435903,4487.6923076923085,4427.6923076923085,4151.794871794872,4471.282051282052,4442.564102564103,4266.666666666667,3694.358974358975,4061.538461538462,3910.7692307692314,4242.564102564103,3640.512820512821,4481.025641025642
4661.0366,1.0,1.0,0.33333334,0.5522388,0,0.0,0.0,0.0,0.0,0.0,0,0,0.0,0.0,0,0,120.0,0.0,577.0,4578.461538461539,3932.307692307693,4493.333333333334,4439.48717948718,4168.205128205129,4476.410256410257,4467.6923076923085,4274.871794871796,3881.538461538462,4228.717948717949,3943.589743589744,4245.128205128206,3749.7435897435903,4510.769230769231
4661.287,1.0,1.0,0.33333334,0.5522388,0,0.0,0.0,0.0,0.0,0.12654239,0,0,0.0,0.0,0,0,23.0,0.0,0.0,4595.384615384616,3938.461538461539,4491.794871794872,4429.743589743591,4170.769230769231,4474.871794871796,4463.076923076924,4286.666666666667,4011.2820512820517,4342.564102564103,3982.564102564103,4254.358974358975,3846.666666666667,4499.48717948718
4661.537,1.0,1.0,0.33333334,0.5522388,0,0.0,1.0,0.0,0.0,0.0,0,0,0.0,0.0,0,0,55.0,0.0,0.0,4592.820512820514,3942.564102564103,4503.589743589744,4442.051282051282,4172.307692307693,4471.794871794872,4451.794871794872,4292.820512820514,4063.076923076924,4400.512820512821,4004.615384615385,4260.000000000001,3885.6410256410263,4516.410256410257
4661.7876,1.0,1.0,0.33333334,0.5522388,0,0.0,0.0,0.0,0.0,0.0,0,0,0.0,0.0,0,0,87.0,0.0,483.0,4552.307692307693,3927.1794871794878,4501.538461538462,4429.2307692307695,4138.461538461539,4412.307692307693,4453.846153846154,4274.358974358975,4018.461538461539,4358.974358974359,4005.1282051282055,4246.666666666667,3887.692307692308,4488.205128205129
4662.0376,0.9180161,1.0,0.33333334,0.5522388,0,0.0,0.0,0.0,0.0,0.0,0,0,0.0,0.0,0,0,119.0,0.0,483.0,4569.743589743591,3929.2307692307695,4506.153846153847,4440.000000000001,4153.846153846154,4425.641025641026,4446.153846153847,4297.435897435898,4191.282051282052,4518.461538461539,4067.1794871794878,4249.74358974359,4009.7435897435903,4481.025641025642
4662.288,0.9180161,1.0,0.33333334,0.5522388,0,0.0,0.0,0.0,0.0,0.105937034,0,0,0.0,0.0,0,0,22.0,0.0,0.0,4564.615384615385,3936.410256410257,4505.641025641026,4441.025641025642,4167.179487179487,4429.2307692307695,4446.666666666667,4294.871794871796,4187.179487179487,4522.564102564103,4073.8461538461543,4244.615384615385,4007.692307692308,4480.000000000001
4662.538,0.8405793,1.0,0.33333334,0.5522388,0,0.0,0.0,0.0,0.0,0.104805276,0,0,0.0,0.0,0,0,54.0,0.0,0.0,4573.846153846154,3942.564102564103,4507.6923076923085,4442.564102564103,4154.871794871796,4426.666666666667,4443.589743589744,4295.384615384616,4206.666666666667,4544.102564102564,4084.1025641025644,4242.051282051282,4015.8974358974365,4500.000000000001
4662.7886,0.8405793,1.0,0.33333334,0.5522388,0,0.0,0.0,0.0,0.0,0.04376919,0,0,0.0,0.0,0,0,86.0,0.0,1385.0,4589.2307692307695,3943.589743589744,4518.461538461539,4442.051282051282,4170.769230769231,4442.564102564103,4453.846153846154,4306.666666666667,4276.923076923077,4612.307692307693,4113.846153846154,4252.820512820514,4052.820512820513,4518.974358974359
4663.0386,0.8462861,1.0,0.33333334,0.5522388,0,0.0,0.0,0.0,0.0,0.0756705,0,0,0.0,0.0,0,0,118.0,0.0,1385.0,4629.2307692307695,3944.1025641025644,4516.410256410257,4444.615384615385,4173.333333333334,4452.820512820514,4475.8974358974365,4325.128205128206,4363.076923076924,4693.846153846154,4148.205128205129,4266.153846153847,4098.974358974359,4565.128205128206
4663.2886,0.8462861,1.0,0.33333334,0.5522388,0,0.0,0.0,0.0,0.0,0.0,0,0,0.0,0.0,0,0,21.0,0.0,0.0,4643.076923076924,3945.1282051282055,4516.410256410257,4444.102564102564,4185.641025641026,4460.512820512821,4479.48717948718,4340.512820512821,4436.410256410257,4766.153846153847,4185.128205128206,4275.8974358974365,4154.871794871796,4576.923076923077
4663.539,0.8786212,1.0,0.33333334,0.5522388,0,0.0,0.0,0.0,0.0,0.0,0,0,0.0,0.0,0,0,53.0,0.0,0.0,4640.000000000001,3942.0512820512827,4504.102564102564,4437.435897435898,4173.333333333334,4459.48717948718,4452.307692307693,4311.282051282052,4258.461538461539,4611.282051282052,4136.923076923077,4258.974358974359,4034.358974358975,4585.641025641026
4663.5703,0.8786212,1.0,0.33333334,0.5522388,0,0.0,0.0,0.0,0.0,0.0,0,0,0.0,0.0,0,0,57.0,0.0,0.0,4655.8974358974365,3944.1025641025644,4507.6923076923085,4441.538461538462,4180.000000000001,4462.051282051282,4454.358974358975,4316.923076923077,4295.8974358974365,4643.076923076924,4145.128205128206,4260.512820512821,4056.9230769230776,4597.435897435898
4664.0396,0.8454022,1.0,0.33333334,0.5522388,0,0.0,1.0,0.0,0.0,0.0,0,0,0.0,0.0,0,0,117.0,0.0,270.0,4612.820512820514,3941.538461538462,4505.128205128206,4441.538461538462,4194.358974358975,4477.948717948719,4458.461538461539,4292.820512820514,4159.48717948718,4526.666666666667,4115.8974358974365,4251.282051282052,3969.2307692307695,4530.256410256411
4664.1646,0.8454022,1.0,0.33333334,0.5522388,0,0.0,0.0,0.0,0.0,0.0,0,0,0.0,0.0,0,0,4.0,0.0,585.0,4626.666666666667,3941.538461538462,4509.743589743591,4444.615384615385,4198.461538461539,4490.769230769231,4462.051282051282,4307.6923076923085,4250.769230769231,4596.923076923077,4137.435897435898,4261.538461538462,4026.1538461538466,4560.000000000001
4664.54,0.83359057,1.0,0.33333334,0.5522388,0,0.0,0.0,0.0,0.0,0.0,0,0,0.0,0.0,0,0,52.0,0.0,0.0,4631.794871794872,3940.5128205128212,4507.179487179488,4442.564102564103,4204.102564102564,4502.051282051282,4459.48717948718,4296.923076923077,4209.2307692307695,4565.641025641026,4130.769230769231,4253.846153846154,3992.820512820513,4551.282051282052
4664.5713,0.83359057,1.0,0.33333334,0.5522388,0,0.0,0.0,0.0,0.0,0.0,0,0,0.0,0.0,0,0,56.0,0.0,0.0,4653.333333333334,3946.1538461538466,4510.256410256411,4445.128205128206,4208.717948717949,4511.282051282052,4469.2307692307695,4304.102564102564,4272.307692307693,4618.974358974359,4146.153846153847,4264.102564102564,4027.1794871794878,4568.205128205129
4665.0405,0.79507476,1.0,0.33333334,0.5522388,0,0.0,1.0,0.0,0.0,0.0,0,0,0.0,0.0,0,0,116.0,0.0,555.0,4635.384615384616,3940.5128205128212,4505.641025641026,4443.076923076924,4213.846153846154,4508.717948717949,4466.153846153847,4276.923076923077,4130.256410256411,4498.974358974359,4098.974358974359,4246.666666666667,3926.1538461538466,4574.871794871796
4665.072,0.79507476,1.0,0.33333334,0.5522388,0,0.0,1.0,0.0,0.0,0.0,0,0,0.0,0.0,0,0,120.0,0.0,555.0,4642.564102564103,3944.1025641025644,4507.6923076923085,4450.769230769231,4219.48717948718,4521.538461538462,4458.974358974359,4289.2307692307695,4182.564102564103,4549.2307692307695,4113.846153846154,4247.179487179487,3964.615384615385,4575.384615384616
4665.5405,0.9096658,1.0,0.33333334,0.5522388,0,0.0,0.0,0.0,0.0,0.0,0,0,0.0,0.0,0,0,51.0,0.0,0.0,4698.461538461539,3992.820512820513,4551.794871794872,4489.2307692307695,4262.564102564103,4569.2307692307695,4504.102564102564,4357.435897435898,4558.461538461539,4895.384615384616,4243.076923076924,4282.564102564103,4210.769230769231,4617.948717948719
4665.572,0.9096658,1.0,0.33333334,0.5522388,0,0.0,0.0,0.0,0.0,0.0,0,0,0.0,0.0,0,0,55.0,0.0,0.0,4690.769230769231,3990.2564102564106,4539.48717948718,4477.948717948719,4260.512820512821,4562.564102564103,4493.846153846154,4342.051282051282,4464.102564102564,4810.256410256411,4219.48717948718,4275.384615384616,4152.307692307693,4607.6923076923085
4666.041,0.91919345,1.0,0.33333334,0.5522388,0,0.0,1.0,0.0,0.0,0.0,0,0,0.0,0.0,0,0,115.0,0.0,479.0,4671.794871794872,3944.615384615385,4505.128205128206,4442.564102564103,4219.48717948718,4532.820512820514,4462.564102564103,4293.846153846154,4182.051282051282,4555.384615384616,4151.794871794872,4247.179487179487,4005.1282051282055,4542.564102564103
4666.229,0.91919345,1.0,0.33333334,0.5522388,1,0.0,1.0,0.0,0.0,0.0,0,0,0.0,0.0,0,0,10.0,0.0,1386.0,4701.025641025642,3956.410256410257,4506.666666666667,4443.076923076924,4216.923076923077,4524.615384615385,4467.6923076923085,4295.384615384616,4195.8974358974365,4566.666666666667,4151.282051282052,4252.307692307693,4004.1025641025644,4572.307692307693
4666.5415,0.8753672,1.0,0.33333334,0.5522388,0,0.0,0.70400584,0.0,0.0,0.0,0,0,0.0,0.0,0,0,50.0,0.0,0.0,4698.461538461539,3938.9743589743593,4503.076923076924,4434.871794871796,4203.589743589744,4508.205128205129,4482.051282051282,4290.769230769231,4182.051282051282,4546.666666666667,4148.717948717949,4263.076923076924,3995.8974358974365,4552.820512820514
4666.792,0.8753672,1.0,0.33333334,0.5522388,0,0.0,1.0,0.0,0.0,0.0,0,0,0.0,0.0,0,0,82.0,0.0,1385.0,4701.025641025642,3940.0000000000005,4503.589743589744,4431.794871794872,4207.179487179487,4522.564102564103,4465.128205128206,4275.384615384616,4111.282051282052,4481.025641025642,4125.641025641026,4246.666666666667,3950.2564102564106,4547.6923076923085
4667.042,0.84048676,1.0,0.33333334,0.5522388,0,0.0,1.0,0.0,0.0,0.0,0,0,0.0,0.0,0,0,114.0,0.0,1385.0,4696.923076923077,3943.589743589744,4504.102564102564,4436.923076923077,4214.358974358975,4522.051282051282,4463.589743589744,4273.846153846154,4126.153846153847,4491.794871794872,4124.615384615385,4247.6923076923085,3962.0512820512827,4530.769230769231
4667.167,0.84048676,1.0,0.33333334,0.5522388,0,0.0,0.0,0.0,0.0,0.0,0,0,0.0,0.0,0,0,1.0,0.0,483.0,4675.384615384616,3928.205128205129,4506.666666666667,4438.974358974359,4202.051282051282,4509.2307692307695,4467.179487179487,4265.641025641026,4072.820512820513,4441.025641025642,4112.820512820514,4251.282051282052,3933.8461538461543,4525.641025641026
4667.5425,0.82043505,1.0,0.33333334,0.5522388,0,0.0,0.0,0.0,0.0,0.0,0,0,0.0,0.0,0,0,49.0,0.0,0.0,4668.717948717949,3920.5128205128212,4503.076923076924,4394.358974358975,4200.000000000001,4521.025641025642,4459.48717948718,4258.974358974359,4052.307692307693,4420.512820512821,4099.48717948718,4247.179487179487,3920.5128205128212,4522.051282051282
4667.6675,0.82043505,1.0,0.33333334,0.5522388,0,0.0,1.0,0.0,0.0,0.0,0,0,0.0,0.0,0,0,65.0,0.0,483.0,4652.307692307693,3925.6410256410263,4504.615384615385,4396.410256410257,4210.256410256411,4524.102564102564,4480.000000000001,4258.974358974359,4089.7435897435903,4450.769230769231,4110.769230769231,4247.179487179487,3946.666666666667,4524.102564102564
4668.043,0.832268,1.0,0.33333334,0.5522388,0,0.0,1.0,0.0,0.0,0.0,0,0,0.0,0.0,0,0,113.0,0.0,270.0,4687.6923076923085,3943.076923076924,4506.153846153847,4425.641025641026,4227.179487179487,4539.48717948718,4470.769230769231,4286.153846153847,4287.6923076923085,4627.179487179488,4170.769230769231,4259.48717948718,4066.1538461538466,4551.794871794872
4668.074,0.832268,1.0,0.33333334,0.5522388,0,0.0,1.0,0.0,0.0,0.0,0,0,0.0,0.0,0,0,117.0,0.0,270.0,4660.000000000001,3941.0256410256416,4509.743589743591,4420.000000000001,4232.307692307693,4552.820512820514,4466.153846153847,4277.948717948719,4226.153846153847,4570.256410256411,4155.8974358974365,4257.435897435898,4028.205128205129,4540.512820512821
4668.5435,0.76332736,1.0,0.33333334,0.5522388,0,0.0,0.0,0.0,0.0,0.19902761,0,0,0.0,0.0,0,0,48.0,0.0,0.0,4673.333333333334,3942.564102564103,4502.051282051282,4397.948717948719,4232.820512820514,4554.358974358975,4466.153846153847,4272.307692307693,4185.641025641026,4541.025641025642,4143.076923076924,4256.410256410257,3998.461538461539,4537.435897435898
4668.6685,0.76332736,1.0,0.33333334,0.5522388,0,0.0,1.0,0.0,0.0,0.0,0,0,0.0,0.0,0,0,64.0,0.0,355.0,4671.794871794872,3956.9230769230776,4505.128205128206,4403.589743589744,4249.74358974359,4569.743589743591,4478.461538461539,4282.051282051282,4266.666666666667,4609.743589743591,4168.717948717949,4263.076923076924,4047.1794871794878,4546.153846153847
4669.044,0.6646596,1.0,0.33333334,0.5522388,0,0.0,0.0,0.0,0.0,0.099196464,0,0,0.0,0.0,0,0,112.0,0.0,550.0,4667.179487179488,3970.7692307692314,4506.153846153847,4378.974358974359,4256.410256410257,4570.769230769231,4431.794871794872,4275.384615384616,4208.717948717949,4562.564102564103,4164.615384615385,4242.051282051282,4022.0512820512827,4524.102564102564
4669.294,0.6646596,1.0,0.33333334,0.5522388,0,0.0,1.0,0.0,0.0,0.0,0,0,0.0,0.0,0,0,15.0,0.0,479.0,4609.2307692307695,3952.307692307693,4511.794871794872,4373.846153846154,4261.538461538462,4572.307692307693,4414.871794871796,4275.8974358974365,4215.8974358974365,4565.641025641026,4185.641025641026,4231.282051282052,4062.0512820512827,4473.333333333334
4669.544,0.6532428,1.0,0.33333334,0.5522388,0,0.0,0.6595593,0.0,0.0,0.0,0,0,0.0,0.0,0,0,47.0,0.0,0.0,4538.974358974359,3939.48717948718,4518.461538461539,4367.6923076923085,4264.615384615385,4583.076923076924,4397.948717948719,4290.256410256411,4305.128205128206,4645.641025641026,4232.307692307693,4218.974358974359,4152.820512820514,4456.923076923077
4669.7944,0.6532428,1.0,0.33333334,0.5522388,0,0.0,0.0,0.0,0.0,0.19711313,0,0,0.0,0.0,0,0,79.0,0.0,483.0,4553.333333333334,3929.2307692307695,4522.051282051282,4390.769230769231,4264.615384615385,4584.615384615385,4380.512820512821,4328.205128205129,4496.410256410257,4818.974358974359,4308.717948717949,4230.769230769231,4295.8974358974365,4467.6923076923085
4670.0444,0.6892688,1.0,0.33333334,0.5522388,0,0.0,0.0,0.0,0.0,0.044999655,0,0,0.0,0.0,0,0,111.0,0.0,483.0,4583.589743589744,3944.615384615385,4522.564102564103,4412.307692307693,4264.102564102564,4584.102564102564,4396.410256410257,4357.948717948719,4651.794871794872,4964.615384615386,4377.948717948719,4237.435897435898,4397.435897435898,4489.2307692307695
4670.295,0.6892688,1.0,0.33333334,0.5522388,0,0.0,0.0,0.0,0.0,0.0,0,0,0.0,0.0,0,0,14.0,0.0,1380.0,4600.512820512821,3953.333333333334,4537.948717948719,4473.846153846154,4275.384615384616,4594.358974358975,4395.8974358974365,4372.820512820514,4665.128205128206,4985.128205128206,4395.8974358974365,4234.358974358975,4390.769230769231,4493.333333333334
4670.545,0.74257225,1.0,0.33333334,0.5522388,1,0.0,1.0,0.0,0.0,0.0,0,0,0.0,0.0,0,0,46.0,0.0,0.0,4602.051282051282,3958.461538461539,4536.410256410257,4504.615384615385,4280.000000000001,4601.538461538462,4398.461538461539,4355.8974358974365,4495.384615384616,4836.410256410257,4348.205128205129,4230.769230769231,4249.2307692307695,4500.512820512821
4670.7954,0.74257225,1.0,0.33333334,0.5522388,0,0.0,0.0,0.0,0.0,0.054321542,0,0,0.0,0.0,0,0,78.0,0.0,1381.0,4573.846153846154,3969.2307692307695,4535.8974358974365,4493.333333333334,4280.512820512821,4605.641025641026,4385.641025641026,4333.333333333334,4307.179487179487,4669.2307692307695,4305.641025641026,4207.6923076923085,4136.410256410257,4420.512820512821
4671.0454,0.72315204,1.0,0.33333334,0.5522388,0,0.0,1.0,0.0,0.0,0.0,0,0,0.0,0.0,0,0,110.0,0.0,1381.0,4569.743589743591,3960.0000000000005,4537.948717948719,4481.025641025642,4281.538461538462,4601.538461538462,4396.410256410257,4333.846153846154,4308.205128205129,4665.641025641026,4302.051282051282,4203.589743589744,4130.769230769231,4432.820512820514
4671.0767,0.72315204,1.0,0.33333334,0.5522388,0,0.0,1.0,0.0,0.0,0.0,0,0,0.0,0.0,0,0,114.0,0.0,1381.0,4593.333333333334,3973.8461538461543,4540.000000000001,4490.256410256411,4284.102564102564,4611.282051282052,4395.384615384616,4341.025641025642,4336.923076923077,4692.820512820514,4309.743589743591,4206.666666666667,4143.589743589744,4440.512820512821
4671.546,0.730366,1.0,0.33333334,0.5522388,0,0.0,1.0,0.0,0.0,0.0,0,0,0.0,0.0,0,0,45.0,0.0,0.0,4633.846153846154,3959.48717948718,4539.48717948718,4459.48717948718,4277.435897435898,4596.410256410257,4435.384615384616,4372.820512820514,4467.6923076923085,4817.435897435898,4362.564102564103,4237.435897435898,4234.871794871796,4527.6923076923085
4671.671,0.730366,1.0,0.33333334,0.5522388,0,0.0,0.0,0.0,0.0,0.0,0,0,0.0,0.0,0,0,61.0,0.0,0.0,4636.923076923077,3959.48717948718,4539.48717948718,4455.384615384616,4279.48717948718,4597.948717948719,4443.076923076924,4368.717948717949,4425.128205128206,4780.512820512821,4348.205128205129,4237.948717948719,4198.461538461539,4528.717948717949
4672.0464,0.67090374,1.0,0.33333334,0.5522388,0,0.0,1.0,0.0,0.0,0.0,0,0,0.0,0.0,0,0,109.0,0.0,272.0,4656.410256410257,3967.692307692308,4537.435897435898,4441.538461538462,4276.410256410257,4593.846153846154,4458.461538461539,4356.410256410257,4342.564102564103,4700.512820512821,4315.384615384616,4244.615384615385,4134.358974358975,4535.384615384616
4672.0776,0.67090374,1.0,0.33333334,0.5522388,0,0.0,1.0,0.0,0.0,0.0,0,0,0.0,0.0,0,0,113.0,0.0,272.0,4657.948717948719,3965.6410256410263,4538.974358974359,4443.076923076924,4278.461538461539,4598.461538461539,4443.076923076924,4357.435897435898,4317.948717948719,4682.051282051282,4312.820512820514,4237.435897435898,4118.974358974359,4536.410256410257
4672.547,0.60296714,1.0,0.33333334,0.5522388,0,0.0,1.0,0.0,0.0,0.0,0,0,0.0,0.0,0,0,44.0,0.0,0.0,4664.102564102564,3962.0512820512827,4538.974358974359,4442.564102564103,4283.589743589744,4604.615384615385,4445.128205128206,4344.615384615385,4260.512820512821,4623.589743589744,4280.512820512821,4233.846153846154,4072.307692307693,4537.435897435898
4672.578,0.60296714,1.0,0.33333334,0.5522388,0,0.0,1.0,0.0,0.0,0.0,0,0,0.0,0.0,0,0,48.0,0.0,0.0,4671.282051282052,3960.5128205128212,4540.000000000001,4445.128205128206,4283.589743589744,4603.076923076924,4450.769230769231,4351.794871794872,4293.333333333334,4652.820512820514,4291.794871794872,4242.051282051282,4097.435897435898,4530.256410256411
4673.0474,0.51484716,1.0,0.33333334,0.5522388,0,0.0,0.0,0.0,0.0,0.40607235,0,0,0.0,0.0,0,0,101.0,0.0,272.0,4712.820512820514,3971.7948717948725,4536.923076923077,4443.589743589744,4276.410256410257,4599.48717948718,4461.025641025642,4335.8974358974365,4207.179487179487,4574.871794871796,4239.48717948718,4246.153846153847,4001.538461538462,4589.743589743591
4673.2974,0.51484716,1.0,0.33333334,0.5522388,0,0.0,1.0,0.0,0.0,0.0,0,0,0.0,0.0,0,0,11.0,0.0,483.0,4667.179487179488,3969.2307692307695,4539.48717948718,4449.743589743591,4280.000000000001,4604.102564102564,4442.564102564103,4315.8974358974365,4134.358974358975,4500.512820512821,4212.820512820514,4228.717948717949,3978.461538461539,4530.256410256411
4673.5474,0.5106131,1.0,0.33333334,0.5522388,0,0.0,1.0,0.0,0.0,0.0,0,0,0.0,0.0,0,0,43.0,0.0,0.0,4645.128205128206,3958.461538461539,4532.307692307693,4441.538461538462,4274.871794871796,4599.48717948718,4426.666666666667,4306.666666666667,4092.307692307693,4458.974358974359,4191.794871794872,4217.435897435898,3957.9487179487182,4536.410256410257
4673.579,0.5106131,1.0,0.33333334,0.5522388,0,0.0,1.0,0.0,0.0,0.0,0,0,0.0,0.0,0,0,47.0,0.0,0.0,4668.205128205129,3963.076923076924,4536.923076923077,4442.051282051282,4273.846153846154,4599.48717948718,4426.153846153847,4336.410256410257,4284.102564102564,4628.205128205129,4255.384615384616,4232.307692307693,4100.512820512821,4546.666666666667
4674.048,0.46133897,1.0,0.33333334,0.5522388,0,0.0,0.8298341,0.0,0.0,0.0,0,0,0.0,0.0,0,0,101.0,0.0,272.0,4652.307692307693,3959.48717948718,4536.923076923077,4443.589743589744,4278.974358974359,4602.051282051282,4412.820512820514,4359.48717948718,4431.282051282052,4763.076923076924,4316.410256410257,4230.256410256411,4236.923076923077,4552.307692307693
4674.2983,0.46133897,1.0,0.33333334,0.5522388,0,0.0,0.0,0.0,0.0,0.1844352,0,0,0.0,0.0,0,0,10.0,0.0,1382.0,4573.846153846154,3944.1025641025644,4537.948717948719,4428.205128205129,4270.769230769231,4598.974358974359,4360.000000000001,4377.435897435898,4515.384615384616,4840.512820512821,4379.48717948718,4217.948717948719,4350.256410256411,4499.48717948718
4674.5483,0.42976493,1.0,0.33333334,0.5522388,0,0.0,0.0,0.0,0.0,0.26653937,0,0,0.0,0.0,0,0,42.0,0.0,0.0,4472.307692307693,3926.1538461538466,4531.794871794872,4413.333333333334,4279.48717948718,4600.512820512821,4312.307692307693,4387.6923076923085,4505.128205128206,4837.948717948719,4418.461538461539,4194.358974358975,4397.435897435898,4405.128205128206
4674.799,0.42976493,1.0,0.33333334,0.5522388,0,0.0,0.0,0.0,0.0,0.504888,0,0,0.0,0.0,0,0,74.0,0.0,1377.0,4481.538461538462,3939.48717948718,4538.461538461539,4411.794871794872,4286.153846153847,4611.282051282052,4305.641025641026,4422.051282051282,4679.48717948718,4994.871794871796,4490.256410256411,4202.564102564103,4513.846153846154,4390.256410256411
4675.049,0.4358642,1.0,0.33333334,0.5522388,0,0.0,0.0,0.0,0.0,0.20181917,0,0,0.0,0.0,0,0,106.0,0.0,1377.0,4488.717948717949,3941.0256410256416,4536.923076923077,4412.307692307693,4293.333333333334,4612.307692307693,4313.333333333334,4421.538461538462,4626.666666666667,4959.48717948718,4480.512820512821,4210.256410256411,4448.717948717949,4427.179487179487
4675.174,0.4358642,1.0,0.33333334,0.5522388,0,0.0,1.0,0.0,0.0,0.0,0,0,0.0,0.0,0,0,122.0,0.0,1377.0,4487.179487179488,3928.717948717949,4526.153846153847,4406.666666666667,4290.256410256411,4602.564102564103,4302.564102564103,4404.102564102564,4501.538461538462,4853.333333333334,4445.641025641026,4197.435897435898,4362.564102564103,4406.666666666667
4675.5493,0.47091186,1.0,0.33333334,0.5522388,0,0.0,0.9029937,0.0,0.0,0.0,0,0,0.0,0.0,0,0,41.0,0.0,0.0,4489.743589743591,3929.2307692307695,4530.256410256411,4402.051282051282,4291.282051282052,4602.051282051282,4339.48717948718,4400.000000000001,4452.307692307693,4798.974358974359,4430.769230769231,4190.769230769231,4301.025641025642,4381.025641025642
4675.6743,0.47091186,1.0,0.33333334,0.5522388,0,0.0,0.0,0.0,0.0,0.0,0,0,0.0,0.0,0,0,57.0,0.0,0.0,4495.384615384616,3944.615384615385,4517.948717948719,4387.6923076923085,4293.846153846154,4604.102564102564,4358.461538461539,4399.48717948718,4443.076923076924,4795.8974358974365,4423.589743589744,4195.384615384616,4274.871794871796,4390.256410256411
4676.05,0.50055146,1.0,0.33333334,0.5522388,0,0.0,1.0,0.0,0.0,0.0,0,0,0.0,0.0,0,0,105.0,0.0,273.0,4513.846153846154,3975.8974358974365,4522.051282051282,4381.538461538462,4318.461538461539,4631.794871794872,4371.794871794872,4393.846153846154,4359.48717948718,4716.923076923077,4381.538461538462,4196.923076923077,4172.820512820514,4450.256410256411
4676.081,0.50055146,1.0,0.33333334,0.5522388,0,0.0,1.0,0.0,0.0,0.0,0,0,0.0,0.0,0,0,109.0,0.0,273.0,4543.076923076924,3974.8717948717954,4520.000000000001,4382.051282051282,4319.48717948718,4631.282051282052,4380.000000000001,4393.846153846154,4375.384615384616,4730.256410256411,4385.128205128206,4200.000000000001,4178.461538461539,4451.794871794872
4676.5503,0.42427444,1.0,0.33333334,0.5522388,0,0.0,0.0,0.0,0.0,0.0,0,0,0.0,0.0,0,0,40.0,0.0,0.0,4533.846153846154,3987.1794871794878,4523.076923076924,4394.871794871796,4317.435897435898,4637.948717948719,4412.820512820514,4349.2307692307695,4108.717948717949,4487.6923076923085,4262.564102564103,4205.641025641026,3949.2307692307695,4489.2307692307695
4676.5815,0.42427444,1.0,0.33333334,0.5522388,0,0.0,0.0,0.0,0.0,0.0,0,0,0.0,0.0,0,0,44.0,0.0,0.0,4537.948717948719,3982.0512820512827,4521.025641025642,4389.2307692307695,4310.769230769231,4632.307692307693,4419.48717948718,4344.615384615385,4073.333333333334,4457.948717948719,4249.2307692307695,4200.512820512821,3921.538461538462,4486.153846153847
4677.051,0.4839889,1.0,0.33333334,0.5522388,0,0.0,1.0,0.0,0.0,0.0,0,0,0.0,0.0,0,0,104.0,0.0,540.0,4548.717948717949,3983.076923076924,4538.461538461539,4398.974358974359,4310.769230769231,4634.871794871796,4428.205128205129,4368.717948717949,4291.794871794872,4646.666666666667,4283.076923076924,4223.589743589744,4076.410256410257,4529.743589743591
4677.082,0.4839889,1.0,0.33333334,0.5522388,0,0.0,1.0,0.0,0.0,0.0,0,0,0.0,0.0,0,0,108.0,0.0,540.0,4547.6923076923085,3980.0000000000005,4524.615384615385,4397.435897435898,4309.2307692307695,4631.282051282052,4424.102564102564,4360.512820512821,4254.871794871796,4610.256410256411,4269.74358974359,4218.461538461539,4050.7692307692314,4533.846153846154
4677.5513,0.46851578,1.0,0.33333334,0.5522388,0,0.0,1.0,0.0,0.0,0.0,0,0,0.0,0.0,0,0,12.0,0.0,540.0,4623.076923076924,3973.8461538461543,4536.410256410257,4404.102564102564,4309.743589743591,4631.794871794872,4465.641025641026,4382.051282051282,4406.153846153847,4747.179487179488,4307.179487179487,4241.025641025642,4146.153846153847,4580.512820512821
4677.5825,0.46851578,1.0,0.33333334,0.5522388,0,0.0,1.0,0.0,0.0,0.0,0,0,0.0,0.0,0,0,43.0,0.0,0.0,4584.615384615385,3984.615384615385,4536.923076923077,4428.205128205129,4325.641025641026,4646.666666666667,4455.8974358974365,4384.615384615385,4408.717948717949,4751.794871794872,4305.641025641026,4234.358974358975,4145.641025641026,4579.48717948718
4678.0513,0.4450792,1.0,0.33333334,0.5522388,0,0.0,1.0,0.0,0.0,0.0,0,0,0.0,0.0,0,0,91.0,0.0,482.0,4634.358974358975,3998.9743589743593,4533.846153846154,4429.743589743591,4330.769230769231,4656.923076923077,4484.102564102564,4354.871794871796,4205.641025641026,4574.871794871796,4213.846153846154,4248.205128205129,3945.6410256410263,4603.076923076924
4678.0825,0.4450792,1.0,0.33333334,0.5522388,0,0.0,1.0,0.0,0.0,0.0,0,0,0.0,0.0,0,0,107.0,0.0,482.0,4641.538461538462,4005.6410256410263,4536.923076923077,4428.717948717949,4344.102564102564,4666.666666666667,4490.769230769231,4370.769230769231,4310.769230769231,4661.025641025642,4251.282051282052,4253.333333333334,4041.538461538462,4612.307692307693
4678.552,0.46493647,1.0,0.33333334,0.5522388,0,0.0,1.0,0.0,0.0,0.0,0,0,0.0,0.0,0,0,16.0,0.0,0.0,4649.743589743591,4020.5128205128212,4540.512820512821,4418.461538461539,4356.923076923077,4679.48717948718,4499.48717948718,4382.564102564103,4381.538461538462,4725.641025641026,4273.846153846154,4260.512820512821,4108.717948717949,4617.948717948719
4678.6772,0.46493647,1.0,0.33333334,0.5522388,0,0.0,0.0,0.0,0.0,0.0,0,0,0.0,0.0,0,0,54.0,0.0,0.0,4677.435897435898,4019.48717948718,4538.461538461539,4414.871794871796,4349.2307692307695,4675.384615384616,4520.512820512821,4416.923076923077,4602.051282051282,4923.589743589744,4351.282051282052,4276.923076923077,4285.128205128206,4655.384615384616
4679.0522,0.47548446,1.0,0.33333334,0.5522388,0,0.0,0.0,0.0,0.0,0.0,0,0,0.0,0.0,0,0,82.0,0.0,1393.0,4660.512820512821,4022.564102564103,4541.025641025642,4419.48717948718,4360.000000000001,4687.6923076923085,4509.2307692307695,4411.794871794872,4528.717948717949,4855.384615384616,4337.435897435898,4278.974358974359,4235.384615384616,4653.846153846154
4679.3027,0.47548446,1.0,0.33333334,0.5522388,0,0.0,0.0,0.0,0.0,0.3553676,0,0,0.0,0.0,0,0,5.0,0.0,573.0,4667.179487179488,4009.7435897435903,4536.923076923077,4422.564102564103,4364.615384615385,4691.282051282052,4495.8974358974365,4354.871794871796,4128.205128205129,4508.717948717949,4209.74358974359,4263.076923076924,3933.333333333334,4661.025641025642
4679.5527,0.43075016,1.0,0.33333334,0.5522388,0,0.0,1.0,0.0,0.0,0.0,0,0,0.0,0.0,0,0,37.0,0.0,0.0,4714.871794871796,4021.538461538462,4549.743589743591,4430.769230769231,4370.256410256411,4700.512820512821,4518.461538461539,4388.717948717949,4387.179487179487,4731.794871794872,4274.358974358975,4287.179487179487,4109.2307692307695,4720.000000000001
4679.584,0.43075016,1.0,0.33333334,0.5522388,0,0.0,1.0,0.0,0.0,0.0,0,0,0.0,0.0,0,0,41.0,0.0,0.0,4716.410256410257,4019.48717948718,4538.461538461539,4428.717948717949,4368.205128205129,4696.410256410257,4508.717948717949,4377.435897435898,4316.923076923077,4672.307692307693,4255.8974358974365,4280.000000000001,4064.615384615385,4704.102564102564
4680.053,0.55804694,1.0,0.33333334,0.5522388,0,0.0,1.0,0.0,0.0,0.0,0,0,0.0,0.0,0,1,101.0,0.0,273.0,4807.6923076923085,4041.538461538462,4555.8974358974365,4441.538461538462,4396.923076923077,4722.051282051282,4537.435897435898,4474.871794871796,4854.871794871796,5153.846153846154,4455.384615384616,4316.923076923077,4481.025641025642,4737.435897435898
4680.0845,0.55804694,1.0,0.33333334,0.5522388,0,0.0,1.0,0.0,0.0,0.0,0,0,0.0,0.0,0,1,105.0,0.0,273.0,4828.205128205129,4042.0512820512827,4557.948717948719,4444.102564102564,4397.948717948719,4727.6923076923085,4550.769230769231,4483.076923076924,4897.435897435898,5196.410256410257,4470.256410256411,4323.076923076924,4505.641025641026,4756.923076923077
4680.5537,0.6749791,1.0,0.33333334,0.5522388,0,0.0,1.0,0.0,0.0,0.0,0,0,0.0,0.0,0,0,36.0,0.0,0.0,4832.820512820514,4039.48717948718,4554.871794871796,4439.48717948718,4392.820512820514,4719.48717948718,4542.564102564103,4466.666666666667,4666.153846153847,5001.538461538462,4443.589743589744,4323.076923076924,4368.717948717949,4729.2307692307695
4680.585,0.6749791,1.0,0.33333334,0.5522388,0,0.0,1.0,0.0,0.0,0.0,0,0,0.0,0.0,0,0,40.0,0.0,0.0,4834.358974358975,4035.8974358974365,4549.743589743591,4433.333333333334,4387.179487179487,4716.410256410257,4538.974358974359,4453.333333333334,4584.102564102564,4932.820512820514,4420.000000000001,4314.358974358975,4314.871794871796,4718.461538461539
4681.054,0.72564363,1.0,0.33333334,0.5522388,0,0.0,1.0,0.0,0.0,0.0,0,0,0.0,0.0,0,0,70.0,0.0,419.0,4814.358974358975,4038.461538461539,4548.205128205129,4435.384615384616,4390.256410256411,4713.333333333334,4538.974358974359,4444.102564102564,4482.051282051282,4841.025641025642,4393.333333333334,4309.2307692307695,4252.820512820514,4713.333333333334
4681.304,0.72564363,1.0,0.33333334,0.5522388,0,0.0,1.0,0.0,0.0,0.0,0,0,0.0,0.0,0,0,0.0,0.0,355.0,4800.000000000001,4051.2820512820517,4554.358974358975,4447.6923076923085,4397.948717948719,4727.6923076923085,4550.256410256411,4466.153846153847,4597.435897435898,4937.435897435898,4437.948717948719,4324.102564102564,4343.589743589744,4709.743589743591
4681.304,0.72564363,1.0,0.33333334,0.5522388,0,0.0,1.0,0.0,0.0,0.0,0,0,0.0,0.0,0,0,3.0,0.0,558.0,4801.025641025642,4050.2564102564106,4555.384615384616,4451.282051282052,4398.461538461539,4727.6923076923085,4553.846153846154,4478.461538461539,4680.512820512821,5009.743589743591,4462.564102564103,4329.2307692307695,4401.025641025642,4713.846153846154
4681.586,0.67481756,1.0,0.33333334,0.5522388,0,0.0,0.0,0.0,0.0,0.0,0,0,0.0,0.0,0,0,39.0,0.0,0.0,4808.205128205129,4037.9487179487182,4546.666666666667,4435.8974358974365,4370.256410256411,4702.051282051282,4556.923076923077,4484.102564102564,4660.000000000001,5004.615384615386,4481.538461538462,4343.589743589744,4412.307692307693,4721.025641025642
4681.586,0.67481756,1.0,0.33333334,0.5522388,0,0.0,0.0,0.0,0.0,0.0,0,0,0.0,0.0,0,0,39.0,0.0,0.0,4808.205128205129,4037.9487179487182,4546.666666666667,4435.8974358974365,4370.256410256411,4702.051282051282,4556.923076923077,4484.102564102564,4660.000000000001,5004.615384615386,4481.538461538462,4343.589743589744,4412.307692307693,4721.025641025642
4682.305,0.66494375,1.0,0.33333334,0.5522388,0,0.0,1.0,0.0,0.0,0.0,0,0,0.0,0.0,0,1,126.0,0.0,1379.0,4876.923076923077,4059.48717948718,4551.282051282052,4444.102564102564,4409.743589743591,4640.512820512821,4595.8974358974365,4497.435897435898,4642.051282051282,4992.820512820514,4480.512820512821,4378.461538461539,4374.871794871796,4772.307692307693
4682.305,0.66494375,1.0,0.33333334,0.5522388,0,0.0,1.0,0.0,0.0,0.0,0,0,0.0,0.0,0,1,2.0,0.0,476.0,4875.384615384616,4076.410256410257,4560.000000000001,4456.410256410257,4422.051282051282,4653.333333333334,4616.410256410257,4522.564102564103,4792.307692307693,5126.666666666667,4524.615384615385,4388.717948717949,4473.333333333334,4791.282051282052
4682.6494,0.76101834,1.0,0.33333334,0.5522388,0,0.0,1.0,0.0,0.0,0.0,0,0,0.0,0.0,0,0,46.0,0.0,0.0,4843.076923076924,4063.589743589744,4549.2307692307695,4442.564102564103,4396.410256410257,4671.794871794872,4600.512820512821,4490.769230769231,4527.6923076923085,4894.871794871796,4475.8974358974365,4375.8974358974365,4315.8974358974365,4750.769230769231
4683.0557,0.79200697,1.0,0.33333334,0.5522388,0,0.0,1.0,0.0,0.0,0.0,0,0,0.0,0.0,0,0,54.0,0.0,0.0,4822.564102564103,4063.589743589744,4549.743589743591,4447.6923076923085,4392.307692307693,4675.384615384616,4593.846153846154,4491.794871794872,4510.256410256411,4876.923076923077,4472.820512820514,4366.153846153847,4326.666666666667,4741.538461538462
4683.306,0.79200697,1.0,0.33333334,0.5522388,0,0.0,0.0,0.0,0.0,0.0,0,0,0.0,0.0,0,0,125.0,0.0,269.0,4814.871794871796,4061.0256410256416,4538.974358974359,4443.076923076924,4364.615384615385,4657.948717948719,4620.000000000001,4492.307692307693,4471.282051282052,4846.153846153847,4468.205128205129,4376.923076923077,4287.6923076923085,4753.846153846154
4683.556,0.77682847,1.0,0.33333334,0.5522388,0,0.0,0.0,0.0,0.0,0.0,0,0,0.0,0.0,0,0,15.0,0.0,471.0,4813.846153846154,4044.1025641025644,4537.948717948719,4443.076923076924,4352.307692307693,4675.384615384616,4589.743589743591,4455.384615384616,4240.512820512821,4634.871794871796,4389.743589743591,4359.48717948718,4120.512820512821,4722.051282051282
4683.5874,0.77682847,1.0,0.33333334,0.5522388,0,0.0,0.0,0.0,0.0,0.0,0,0,0.0,0.0,0,0,37.0,0.0,0.0,4848.717948717949,4091.7948717948725,4553.333333333334,4472.307692307693,4394.871794871796,4694.871794871796,4611.282051282052,4504.615384615385,4584.102564102564,4931.794871794872,4477.435897435898,4385.128205128206,4336.923076923077,4746.153846153847
4683.5874,0.77682847,1.0,0.33333334,0.5522388,0,0.0,0.0,0.0,0.0,0.0,0,0,0.0,0.0,0,0,37.0,0.0,0.0,4848.717948717949,4091.7948717948725,4553.333333333334,4472.307692307693,4394.871794871796,4694.871794871796,4611.282051282052,4504.615384615385,4584.102564102564,4931.794871794872,4477.435897435898,4385.128205128206,4336.923076923077,4746.153846153847
4684.088,0.8118851,1.0,0.33333334,0.5522388,0,0.0,1.0,0.0,0.0,0.0,0,0,0.0,0.0,0,0,101.0,0.0,268.0,4872.307692307693,4105.641025641026,4548.205128205129,4483.076923076924,4409.2307692307695,4707.179487179488,4649.743589743591,4537.948717948719,4690.769230769231,5035.384615384616,4520.512820512821,4407.6923076923085,4410.256410256411,4786.666666666667
4684.432,0.8118851,1.0,0.33333334,0.5522388,0,0.0,0.0,0.0,0.0,0.0,0,0,0.0,0.0,0,0,16.0,0.0,0.0,4862.564102564103,4090.2564102564106,4536.410256410257,4465.641025641026,4373.333333333334,4694.358974358975,4637.435897435898,4513.846153846154,4512.307692307693,4874.358974358975,4479.48717948718,4403.076923076924,4307.179487179487,4782.051282051282
4684.5884,0.8129951,1.0,0.33333334,0.5522388,0,0.0,0.0,0.0,0.0,0.0,0,0,0.0,0.0,0,0,36.0,0.0,0.0,4861.025641025642,4094.8717948717954,4536.410256410257,4474.358974358975,4378.461538461539,4711.794871794872,4635.384615384616,4517.435897435898,4548.205128205129,4910.256410256411,4485.641025641026,4405.641025641026,4326.666666666667,4789.743589743591
4684.5884,0.8129951,1.0,0.33333334,0.5522388,0,0.0,0.0,0.0,0.0,0.0,0,0,0.0,0.0,0,0,36.0,0.0,0.0,4861.025641025642,4094.8717948717954,4536.410256410257,4474.358974358975,4378.461538461539,4711.794871794872,4635.384615384616,4517.435897435898,4548.205128205129,4910.256410256411,4485.641025641026,4405.641025641026,4326.666666666667,4789.743589743591
4685.3076,0.8001109,1.0,0.33333334,0.5522388,0,0.0,1.0,0.0,0.0,0.0,0,0,0.0,0.0,0,0,119.0,0.0,471.0,4764.615384615386,4006.1538461538466,4513.846153846154,4421.025641025642,4270.769230769231,4607.179487179488,4571.282051282052,4400.512820512821,3881.538461538462,4303.076923076924,4272.307692307693,4345.128205128206,3917.9487179487182,4690.256410256411
4685.3076,0.8001109,1.0,0.33333334,0.5522388,0,0.0,1.0,0.0,0.0,0.0,0,0,0.0,0.0,0,0,128.0,0.0,522.0,4776.410256410257,3992.820512820513,4506.153846153847,4413.333333333334,4265.128205128206,4601.025641025642,4558.974358974359,4398.461538461539,3911.2820512820517,4325.641025641026,4278.461538461539,4348.205128205129,3941.538461538462,4697.948717948719
4685.5894,0.91409755,1.0,0.33333334,0.5522388,0,0.0,1.0,0.0,0.0,0.0,0,0,0.0,0.0,0,0,35.0,0.0,0.0,4765.641025641026,3959.48717948718,4504.615384615385,4404.102564102564,4247.6923076923085,4588.717948717949,4544.615384615385,4386.666666666667,3928.717948717949,4328.717948717949,4256.923076923077,4343.589743589744,3947.692307692308,4696.410256410257
4685.5894,0.91409755,1.0,0.33333334,0.5522388,0,0.0,1.0,0.0,0.0,0.0,0,0,0.0,0.0,0,0,35.0,0.0,0.0,4765.641025641026,3959.48717948718,4504.615384615385,4404.102564102564,4247.6923076923085,4588.717948717949,4544.615384615385,4386.666666666667,3928.717948717949,4328.717948717949,4256.923076923077,4343.589743589744,3947.692307692308,4696.410256410257
4686.3086,1.0,1.0,0.33333334,0.5522388,0,0.0,0.0,0.0,0.0,0.04010587,0,0,0.0,0.0,0,0,127.0,0.0,470.0,4781.025641025642,3922.0512820512827,4500.512820512821,4380.000000000001,4197.948717948719,4532.820512820514,4502.564102564103,4357.948717948719,3993.333333333334,4361.025641025642,4220.512820512821,4320.512820512821,3975.3846153846157,4673.846153846154
4686.5586,0.93166226,1.0,0.33333334,0.5522388,0,0.0,0.0,0.0,0.0,0.22394086,0,0,0.0,0.0,0,0,22.0,0.0,0.0,4764.615384615386,3912.820512820513,4503.589743589744,4381.025641025642,4191.794871794872,4528.717948717949,4506.153846153847,4365.641025641026,4036.9230769230776,4395.384615384616,4223.589743589744,4321.538461538462,4004.615384615385,4652.307692307693
4686.809,0.93166226,1.0,0.33333334,0.5522388,0,0.0,1.0,0.0,0.0,0.0,0,0,0.0,0.0,0,0,62.0,0.0,0.0,4735.384615384616,3894.358974358975,4486.153846153847,4358.974358974359,4169.2307692307695,4507.6923076923085,4487.179487179488,4328.205128205129,3909.7435897435903,4283.589743589744,4172.820512820514,4304.102564102564,3913.333333333334,4619.48717948718
4686.809,0.93166226,1.0,0.33333334,0.5522388,0,0.0,1.0,0.0,0.0,0.0,0,0,0.0,0.0,0,0,62.0,0.0,0.0,4735.384615384616,3894.358974358975,4486.153846153847,4358.974358974359,4169.2307692307695,4507.6923076923085,4487.179487179488,4328.205128205129,3909.7435897435903,4283.589743589744,4172.820512820514,4304.102564102564,3913.333333333334,4619.48717948718
4687.0903,1.0,1.0,0.33333334,0.5522388,0,0.0,1.0,0.0,0.0,0.0,0,0,0.0,0.0,0,0,98.0,0.0,1385.0,4708.205128205129,3877.435897435898,4474.871794871796,4343.076923076924,4155.384615384616,4506.153846153847,4463.076923076924,4295.384615384616,3812.307692307693,4192.820512820514,4123.589743589744,4288.717948717949,3842.0512820512827,4568.717948717949
4687.5596,1.0,1.0,0.33333334,0.5522388,0,0.0,1.0,0.0,0.0,0.0,0,0,0.0,0.0,0,0,18.0,0.0,0.0,4680.000000000001,3855.8974358974365,4478.461538461539,4350.256410256411,4151.282051282052,4487.179487179488,4458.974358974359,4287.6923076923085,3880.0000000000005,4235.8974358974365,4116.410256410257,4280.512820512821,3876.9230769230776,4540.000000000001
4687.591,1.0,1.0,0.33333334,0.5522388,0,0.0,1.0,0.0,0.0,0.0,0,0,0.0,0.0,0,0,33.0,0.0,0.0,4667.6923076923085,3859.48717948718,4476.410256410257,4356.923076923077,4153.333333333334,4491.794871794872,4455.8974358974365,4286.666666666667,3915.8974358974365,4270.256410256411,4120.000000000001,4276.923076923077,3893.333333333334,4550.769230769231
4688.06,1.0,1.0,0.33333334,0.5522388,0,0.0,1.0,0.0,0.0,0.0,0,0,0.0,0.0,0,0,72.0,0.0,2860.0,4667.179487179488,3847.692307692308,4489.743589743591,4358.461538461539,4157.435897435898,4492.307692307693,4446.666666666667,4308.717948717949,4118.461538461539,4444.615384615385,4167.179487179487,4284.102564102564,4018.9743589743593,4581.025641025642
4688.0913,1.0,1.0,0.33333334,0.5522388,0,0.0,1.0,0.0,0.0,0.0,0,0,0.0,0.0,0,0,97.0,0.0,265.0,4665.128205128206,3850.7692307692314,4491.282051282052,4365.641025641026,4156.410256410257,4507.6923076923085,4472.307692307693,4322.564102564103,4235.8974358974365,4554.358974358975,4198.974358974359,4287.179487179487,4089.7435897435903,4581.025641025642
4688.5605,1.0,1.0,0.33333334,0.5522388,0,0.0,0.0,0.0,0.0,0.09434003,0,0,0.0,0.0,0,0,28.0,0.0,0.0,4647.179487179488,3847.1794871794878,4482.051282051282,4365.128205128206,4166.153846153847,4491.282051282052,4452.307692307693,4306.153846153847,4154.871794871796,4496.923076923077,4182.564102564103,4269.74358974359,4038.9743589743593,4554.871794871796
4688.8105,1.0,1.0,0.33333334,0.5522388,0,0.0,1.0,0.0,0.0,0.0,0,0,0.0,0.0,0,0,60.0,0.0,0.0,4662.051282051282,3851.7948717948725,4486.153846153847,4372.820512820514,4185.641025641026,4462.051282051282,4444.615384615385,4326.153846153847,4280.512820512821,4607.179487179488,4220.512820512821,4277.948717948719,4121.538461538462,4559.48717948718
4689.061,0.99710184,1.0,0.33333334,0.5522388,0,0.0,1.0,0.0,0.0,0.0,0,0,0.0,0.0,0,0,92.0,0.0,526.0,4646.666666666667,3863.076923076924,4490.256410256411,4384.615384615385,4183.589743589744,4491.282051282052,4428.205128205129,4317.948717948719,4237.435897435898,4576.410256410257,4207.179487179487,4265.128205128206,4085.1282051282055,4547.6923076923085
4689.311,0.99710184,1.0,0.33333334,0.5522388,0,0.0,0.0,0.0,0.0,0.16036744,0,0,0.0,0.0,0,0,124.0,0.0,526.0,4651.282051282052,3863.589743589744,4489.2307692307695,4355.8974358974365,4173.333333333334,4518.974358974359,4423.589743589744,4317.435897435898,4243.076923076924,4581.025641025642,4215.8974358974365,4264.615384615385,4088.717948717949,4543.589743589744
4689.5615,1.0,1.0,0.33333334,0.5522388,0,0.0,0.0,0.0,0.0,0.19768134,0,0,0.0,0.0,0,0,27.0,0.0,0.0,4649.2307692307695,3864.1025641025644,4488.717948717949,4360.000000000001,4171.282051282052,4505.641025641026,4434.358974358975,4329.743589743591,4304.615384615385,4642.051282051282,4235.384615384616,4269.74358974359,4128.205128205129,4575.384615384616
4689.8115,1.0,1.0,0.33333334,0.5522388,0,0.0,0.0,0.0,0.0,0.035672586,0,0,0.0,0.0,0,1,59.0,0.0,0.0,4655.384615384616,3864.615384615385,4488.717948717949,4366.666666666667,4181.025641025642,4509.743589743591,4446.153846153847,4347.6923076923085,4391.282051282052,4719.48717948718,4272.307692307693,4280.000000000001,4187.6923076923085,4590.769230769231
4690.062,0.98061997,1.0,0.33333334,0.5522388,0,0.0,1.0,0.0,0.0,0.0,0,0,0.0,0.0,0,0,91.0,0.0,471.0,4666.666666666667,3877.9487179487182,4490.256410256411,4385.128205128206,4181.538461538462,4508.717948717949,4454.871794871796,4362.051282051282,4490.769230769231,4811.794871794872,4308.717948717949,4284.615384615385,4252.820512820514,4599.48717948718
4690.0933,0.98061997,1.0,0.33333334,0.5522388,0,0.0,1.0,0.0,0.0,0.0,0,0,0.0,0.0,0,0,95.0,0.0,471.0,4681.538461538462,3876.410256410257,4491.282051282052,4383.589743589744,4167.6923076923085,4506.153846153847,4434.871794871796,4357.435897435898,4434.358974358975,4761.025641025642,4295.384615384616,4276.410256410257,4214.871794871796,4608.205128205129
4690.562,0.9687793,1.0,0.33333334,0.5522388,0,0.0,1.0,0.0,0.0,0.0,0,0,0.0,0.0,0,0,112.0,0.0,526.0,4660.512820512821,3876.9230769230776,4491.282051282052,4391.282051282052,4173.333333333334,4490.769230769231,4431.794871794872,4346.153846153847,4334.871794871796,4670.769230769231,4272.307692307693,4271.282051282052,4150.256410256411,4578.974358974359
4690.6875,0.9687793,1.0,0.33333334,0.5522388,0,0.0,0.0,0.0,0.0,0.0,0,0,0.0,0.0,0,0,42.0,0.0,0.0,4680.000000000001,3886.1538461538466,4506.153846153847,4420.000000000001,4183.076923076924,4524.615384615385,4429.2307692307695,4382.564102564103,4573.333333333334,4883.076923076924,4344.615384615385,4272.307692307693,4310.769230769231,4590.256410256411
4691.0625,0.97365165,1.0,0.33333334,0.5522388,0,0.0,0.0,0.0,0.0,0.0,0,0,0.0,0.0,0,0,60.0,0.0,0.0,4663.589743589744,3884.1025641025644,4494.358974358975,4413.333333333334,4183.076923076924,4528.717948717949,4417.435897435898,4383.589743589744,4562.564102564103,4884.615384615386,4356.410256410257,4264.615384615385,4320.000000000001,4575.8974358974365
4691.0938,0.97365165,1.0,0.33333334,0.5522388,0,0.0,0.0,0.0,0.0,0.0,0,0,0.0,0.0,0,0,94.0,0.0,1383.0,4611.794871794872,3843.076923076924,4489.2307692307695,4402.051282051282,4181.538461538462,4504.102564102564,4383.076923076924,4395.384615384616,4543.589743589744,4875.8974358974365,4391.794871794872,4241.025641025642,4367.6923076923085,4528.717948717949
4691.0938,0.97365165,1.0,0.33333334,0.5522388,0,0.0,0.0,0.0,0.0,0.0,0,0,0.0,0.0,0,0,94.0,0.0,1383.0,4611.794871794872,3843.076923076924,4489.2307692307695,4402.051282051282,4181.538461538462,4504.102564102564,4383.076923076924,4395.384615384616,4543.589743589744,4875.8974358974365,4391.794871794872,4241.025641025642,4367.6923076923085,4528.717948717949
4691.594,0.93320614,1.0,0.33333334,0.5522388,0,0.0,0.0,0.0,0.0,0.0,0,0,0.0,0.0,0,0,29.0,0.0,0.0,4583.589743589744,3863.076923076924,4502.564102564103,4418.974358974359,4216.923076923077,4538.974358974359,4363.589743589744,4451.282051282052,4781.025641025642,5091.794871794872,4512.307692307693,4245.641025641026,4538.461538461539,4536.923076923077
4692.0635,0.9229456,1.0,0.33333334,0.5522388,0,0.0,0.0,0.0,0.0,0.0,0,0,0.0,0.0,0,0,43.0,0.0,0.0,4580.000000000001,3865.6410256410263,4504.615384615385,4413.846153846154,4222.564102564103,4534.358974358975,4366.153846153847,4456.923076923077,4773.846153846154,5086.153846153847,4520.000000000001,4248.205128205129,4535.384615384616,4533.846153846154
4692.1885,0.9229456,1.0,0.33333334,0.5522388,0,0.0,1.0,0.0,0.0,0.0,0,0,0.0,0.0,0,0,105.0,0.0,268.0,4653.333333333334,3880.512820512821,4506.666666666667,4403.076923076924,4234.358974358975,4567.6923076923085,4387.179487179487,4483.076923076924,4818.461538461539,5138.974358974359,4549.743589743591,4260.000000000001,4531.282051282052,4552.820512820514
4692.564,0.9485631,1.0,0.33333334,0.5522388,0,0.0,1.0,0.0,0.0,0.0,0,0,0.0,0.0,0,0,124.0,0.0,517.0,4651.282051282052,3888.205128205129,4507.6923076923085,4400.000000000001,4234.871794871796,4568.205128205129,4384.102564102564,4465.128205128206,4668.717948717949,5013.846153846154,4512.820512820514,4253.333333333334,4432.820512820514,4532.820512820514
4692.814,0.9485631,1.0,0.33333334,0.5522388,0,0.0,0.0,0.0,0.0,0.0,0,0,0.0,0.0,0,0,56.0,0.0,0.0,4662.564102564103,3911.2820512820517,4505.641025641026,4403.589743589744,4256.410256410257,4597.948717948719,4400.512820512821,4456.923076923077,4591.282051282052,4944.615384615386,4482.564102564103,4249.74358974359,4347.179487179487,4524.615384615385
4693.0645,0.97355694,1.0,0.33333334,0.5522388,0,0.0,0.0,0.0,0.0,0.0,0,0,0.0,0.0,0,0,75.0,0.0,471.0,4669.743589743591,3901.0256410256416,4503.589743589744,4396.923076923077,4241.025641025642,4590.256410256411,4396.410256410257,4449.743589743591,4492.820512820514,4857.948717948719,4454.358974358975,4243.589743589744,4277.948717948719,4504.615384615385
4693.3145,0.97355694,1.0,0.33333334,0.5522388,0,0.0,1.0,0.0,0.0,0.0,0,0,0.0,0.0,0,0,120.0,0.0,515.0,4691.794871794872,3910.7692307692314,4514.358974358975,4413.333333333334,4240.000000000001,4602.051282051282,4413.333333333334,4464.615384615385,4562.051282051282,4914.358974358975,4472.307692307693,4251.282051282052,4319.48717948718,4533.333333333334
4693.565,0.90984297,1.0,0.33333334,0.5522388,0,0.0,1.0,0.0,0.0,0.0,0,0,0.0,0.0,0,0,6.0,0.0,418.0,4650.256410256411,3901.0256410256416,4506.153846153847,4413.333333333334,4228.717948717949,4600.512820512821,4393.333333333334,4442.051282051282,4424.615384615385,4825.641025641026,4443.589743589744,4244.102564102564,4255.384615384616,4519.48717948718
4693.596,0.90984297,1.0,0.33333334,0.5522388,0,0.0,1.0,0.0,0.0,0.0,0,0,0.0,0.0,0,0,27.0,0.0,0.0,4668.717948717949,3894.8717948717954,4511.282051282052,4409.743589743591,4228.205128205129,4605.641025641026,4398.461538461539,4450.769230769231,4458.461538461539,4823.076923076924,4441.538461538462,4241.025641025642,4260.512820512821,4534.358974358975
4693.596,0.90984297,1.0,0.33333334,0.5522388,0,0.0,1.0,0.0,0.0,0.0,0,0,0.0,0.0,0,0,27.0,0.0,0.0,4668.717948717949,3894.8717948717954,4511.282051282052,4409.743589743591,4228.205128205129,4605.641025641026,4398.461538461539,4450.769230769231,4458.461538461539,4823.076923076924,4441.538461538462,4241.025641025642,4260.512820512821,4534.358974358975
4694.0967,0.876913,1.0,0.33333334,0.5522388,0,0.0,0.0,0.0,0.0,0.0,0,0,1.0,0.0,0,0,91.0,0.0,471.0,4654.358974358975,3893.333333333334,4506.153846153847,4390.256410256411,4229.2307692307695,4553.846153846154,4414.871794871796,4417.435897435898,4288.717948717949,4662.564102564103,4373.846153846154,4236.410256410257,4136.923076923077,4529.2307692307695
4694.4404,0.876913,1.0,0.33333334,0.5522388,0,0.0,0.0,0.0,0.0,0.0,0,0,0.0,0.0,0,0,6.0,0.0,418.0,4656.410256410257,3885.6410256410263,4496.410256410257,4388.205128205129,4208.205128205129,4561.538461538462,4401.025641025642,4410.769230769231,4251.282051282052,4628.205128205129,4351.282051282052,4232.307692307693,4102.564102564103,4562.564102564103
4694.597,0.85338306,1.0,0.33333334,0.5522388,0,0.0,0.0,0.0,0.0,0.0,0,0,0.0,0.0,0,0,26.0,0.0,0.0,4664.615384615386,3891.2820512820517,4508.717948717949,4378.974358974359,4219.48717948718,4570.256410256411,4413.846153846154,4415.384615384616,4288.205128205129,4653.846153846154,4356.923076923077,4244.102564102564,4124.102564102564,4564.102564102564
4694.941,0.85338306,1.0,0.33333334,0.5522388,0,0.0,1.0,0.0,0.0,0.0,0,0,0.0,0.0,0,0,70.0,0.0,418.0,4642.051282051282,3898.461538461539,4503.589743589744,4381.025641025642,4221.025641025642,4570.769230769231,4406.153846153847,4405.641025641026,4255.8974358974365,4625.641025641026,4332.820512820514,4231.794871794872,4097.435897435898,4557.435897435898
4695.097,0.7828646,1.0,0.33333334,0.5522388,0,0.0,1.0,0.0,0.0,0.0,0,0,0.0,0.0,0,0,90.0,0.0,1387.0,4639.48717948718,3908.205128205129,4507.6923076923085,4383.076923076924,4218.974358974359,4569.2307692307695,4405.641025641026,4411.794871794872,4277.948717948719,4637.948717948719,4338.461538461539,4230.256410256411,4118.974358974359,4554.871794871796
4695.5664,0.7537235,1.0,0.33333334,0.5522388,0,0.0,1.0,0.0,0.0,0.0,0,0,0.0,0.0,0,0,100.0,0.0,519.0,4643.076923076924,3909.7435897435903,4512.307692307693,4390.769230769231,4228.717948717949,4572.307692307693,4412.820512820514,4415.8974358974365,4317.435897435898,4674.358974358975,4344.615384615385,4234.358974358975,4146.153846153847,4551.794871794872
4695.817,0.7537235,1.0,0.33333334,0.5522388,1,0.0,1.0,0.0,0.0,0.0,0,0,0.0,0.0,0,0,53.0,0.0,0.0,4660.000000000001,3910.2564102564106,4507.6923076923085,4392.820512820514,4207.6923076923085,4567.6923076923085,4406.153846153847,4399.48717948718,4264.615384615385,4621.025641025642,4312.820512820514,4232.307692307693,4103.589743589744,4574.358974358975
4695.981,0.7537235,1.0,0.33333334,0.5522388,0,0.0,1.0,0.0,0.0,0.0,0,0,0.0,0.0,0,0,73.0,0.0,2484.0,4652.820512820514,3900.0000000000005,4509.2307692307695,4506.666666666667,4217.435897435898,4555.8974358974365,4418.974358974359,4422.564102564103,4419.48717948718,4758.974358974359,4347.6923076923085,4241.538461538462,4193.846153846154,4568.717948717949
4696.106,0.678898,1.0,0.33333334,0.5522388,0,0.0,1.0,0.0,0.0,0.0,0,0,0.0,0.0,0,0,89.0,0.0,268.0,4657.948717948719,3910.2564102564106,4521.538461538462,4520.512820512821,4219.48717948718,4563.589743589744,4425.128205128206,4440.000000000001,4485.128205128206,4815.8974358974365,4369.2307692307695,4241.025641025642,4240.512820512821,4564.102564102564
4696.45,0.678898,1.0,0.33333334,0.5522388,0,0.0,0.0,0.0,0.0,0.0,0,0,0.0,0.0,0,0,4.0,0.0,580.0,4587.179487179488,3896.9230769230776,4495.8974358974365,4470.256410256411,4199.48717948718,4557.435897435898,4394.358974358975,4367.6923076923085,4126.666666666667,4496.923076923077,4266.666666666667,4198.974358974359,4015.3846153846157,4502.564102564103
4696.6064,0.69145554,1.0,0.33333334,0.5522388,0,0.0,0.0,0.0,0.0,0.0,0,0,0.0,0.0,0,0,24.0,0.0,0.0,4568.205128205129,3874.358974358975,4491.794871794872,4443.076923076924,4185.641025641026,4538.974358974359,4377.435897435898,4345.641025641026,4003.589743589744,4381.538461538462,4227.6923076923085,4190.256410256411,3941.0256410256416,4508.717948717949
4696.6064,0.69145554,1.0,0.33333334,0.5522388,0,0.0,0.0,0.0,0.0,0.0,0,0,0.0,0.0,0,0,24.0,0.0,0.0,4568.205128205129,3874.358974358975,4491.794871794872,4443.076923076924,4185.641025641026,4538.974358974359,4377.435897435898,4345.641025641026,4003.589743589744,4381.538461538462,4227.6923076923085,4190.256410256411,3941.0256410256416,4508.717948717949
4697.2007,0.65894634,1.0,0.33333334,0.5522388,0,0.0,0.0,0.0,0.0,0.12962903,0,0,0.0,0.0,0,0,100.0,0.0,522.0,4568.205128205129,3889.7435897435903,4493.846153846154,4410.256410256411,4199.48717948718,4551.282051282052,4376.923076923077,4344.615384615385,4101.538461538462,4457.435897435898,4221.025641025642,4188.717948717949,3991.7948717948725,4490.769230769231
4697.451,0.65894634,1.0,0.33333334,0.5522388,0,0.0,0.0,0.0,0.0,0.12486317,0,0,0.0,0.0,0,0,3.0,0.0,556.0,4590.256410256411,3896.410256410257,4497.948717948719,4399.48717948718,4200.512820512821,4541.025641025642,4387.179487179487,4354.871794871796,4195.384615384616,4538.461538461539,4238.461538461539,4198.461538461539,4046.1538461538466,4518.974358974359
4697.701,0.6969331,1.0,0.33333334,0.5522388,0,0.0,0.0,0.0,0.0,0.04508046,0,0,0.0,0.0,0,0,35.0,0.0,0.0,4614.358974358975,3896.410256410257,4502.051282051282,4394.358974358975,4200.000000000001,4542.051282051282,4396.410256410257,4370.256410256411,4319.48717948718,4644.615384615385,4268.717948717949,4211.282051282052,4126.666666666667,4546.666666666667
4697.951,0.6969331,1.0,0.33333334,0.5522388,0,0.0,0.0,0.0,0.0,0.07285125,0,0,0.0,0.0,0,0,67.0,0.0,556.0,4612.820512820514,3894.8717948717954,4493.846153846154,4384.615384615385,4200.512820512821,4547.179487179488,4394.358974358975,4371.794871794872,4313.846153846154,4647.179487179488,4270.769230769231,4197.435897435898,4131.794871794872,4538.974358974359
4698.2017,0.6909384,1.0,0.33333334,0.5522388,0,0.0,0.0,0.0,0.0,0.0,0,0,0.0,0.0,0,0,99.0,0.0,471.0,4625.641025641026,3896.9230769230776,4500.000000000001,4382.051282051282,4200.512820512821,4553.333333333334,4402.564102564103,4384.615384615385,4397.948717948719,4721.538461538462,4297.435897435898,4211.794871794872,4194.358974358975,4533.846153846154
4698.2017,0.6909384,1.0,0.33333334,0.5522388,0,0.0,0.0,0.0,0.0,0.0,0,0,0.0,0.0,0,0,99.0,0.0,471.0,4625.641025641026,3896.9230769230776,4500.000000000001,4382.051282051282,4200.512820512821,4553.333333333334,4402.564102564103,4384.615384615385,4397.948717948719,4721.538461538462,4297.435897435898,4211.794871794872,4194.358974358975,4533.846153846154
4698.6084,0.60815024,1.0,0.33333334,0.5522388,0,0.0,1.0,0.0,0.0,0.0,0,0,0.0,0.0,0,0,22.0,0.0,0.0,4602.564102564103,3894.358974358975,4491.794871794872,4368.205128205129,4200.000000000001,4557.435897435898,4397.948717948719,4375.384615384616,4334.871794871796,4669.2307692307695,4290.256410256411,4196.410256410257,4157.435897435898,4520.512820512821
4698.952,0.60815024,1.0,0.33333334,0.5522388,0,0.0,0.0,0.0,0.0,0.0,0,0,0.0,0.0,0,0,66.0,0.0,474.0,4647.179487179488,3911.2820512820517,4504.615384615385,4373.846153846154,4209.74358974359,4563.076923076924,4422.051282051282,4421.025641025642,4571.794871794872,4887.6923076923085,4365.128205128206,4222.564102564103,4305.641025641026,4580.512820512821
4699.1084,0.6198976,1.0,0.33333334,0.5522388,0,0.0,0.0,0.0,0.0,0.0,0,0,0.0,0.0,0,0,86.0,0.0,1384.0,4650.769230769231,3911.2820512820517,4504.102564102564,4371.282051282052,4217.948717948719,4574.358974358975,4422.564102564103,4423.589743589744,4554.871794871796,4875.384615384616,4365.641025641026,4227.179487179487,4294.358974358975,4577.948717948719
4699.3276,0.6198976,1.0,0.33333334,0.5522388,0,0.0,0.0,0.0,0.0,0.0,0,0,1.0,0.0,0,0,114.0,0.0,1384.0,4622.051282051282,3907.1794871794878,4505.128205128206,4346.153846153847,4216.923076923077,4570.256410256411,4420.512820512821,4413.846153846154,4477.948717948719,4811.794871794872,4355.384615384616,4220.512820512821,4253.846153846154,4586.666666666667
4699.703,0.5798858,1.0,0.33333334,0.5522388,0,0.0,0.0,0.0,0.0,0.38025874,0,0,0.0,0.0,0,0,33.0,0.0,0.0,4642.051282051282,3923.076923076924,4506.153846153847,4350.256410256411,4222.564102564103,4585.641025641026,4418.974358974359,4428.717948717949,4512.820512820514,4846.666666666667,4376.923076923077,4222.564102564103,4280.000000000001,4573.846153846154
4699.828,0.5798858,1.0,0.33333334,0.5522388,0,0.0,0.0,0.0,0.0,0.0,0,0,1.0,0.0,0,0,49.0,0.0,0.0,4648.717948717949,3924.1025641025644,4505.128205128206,4348.717948717949,4225.641025641026,4584.102564102564,4414.358974358975,4425.128205128206,4493.846153846154,4833.333333333334,4376.923076923077,4225.641025641026,4261.538461538462,4600.000000000001
4700.1094,0.48691007,1.0,0.33333334,0.5522388,0,0.0,0.0,0.0,0.0,0.0,0,0,0.0,0.0,0,0,85.0,0.0,268.0,4632.820512820514,3924.1025641025644,4505.128205128206,4355.8974358974365,4233.333333333334,4597.948717948719,4416.923076923077,4426.666666666667,4463.589743589744,4809.743589743591,4376.410256410257,4224.615384615385,4245.641025641026,4580.512820512821
4700.1094,0.48691007,1.0,0.33333334,0.5522388,0,0.0,0.0,0.0,0.0,0.0,0,0,0.0,0.0,0,0,85.0,0.0,268.0,4632.820512820514,3924.1025641025644,4505.128205128206,4355.8974358974365,4233.333333333334,4597.948717948719,4416.923076923077,4426.666666666667,4463.589743589744,4809.743589743591,4376.410256410257,4224.615384615385,4245.641025641026,4580.512820512821
4700.61,0.49413082,1.0,0.33333334,0.5522388,0,0.0,0.0,0.0,0.0,0.0,0,0,0.0,0.0,0,0,20.0,0.0,0.0,4631.282051282052,3927.692307692308,4505.641025641026,4381.025641025642,4231.282051282052,4583.076923076924,4419.48717948718,4413.846153846154,4387.6923076923085,4741.538461538462,4355.384615384616,4222.564102564103,4189.2307692307695,4561.538461538462
4700.61,0.49413082,1.0,0.33333334,0.5522388,0,0.0,0.0,0.0,0.0,0.0,0,0,0.0,0.0,0,0,20.0,0.0,0.0,4631.282051282052,3927.692307692308,4505.641025641026,4381.025641025642,4231.282051282052,4583.076923076924,4419.48717948718,4413.846153846154,4387.6923076923085,4741.538461538462,4355.384615384616,4222.564102564103,4189.2307692307695,4561.538461538462
4701.1104,0.43862367,1.0,0.33333334,0.5522388,0,0.0,0.0,0.0,0.0,0.0,0,0,0.0,0.0,0,0,84.0,0.0,515.0,4673.846153846154,3938.9743589743593,4507.179487179488,4393.333333333334,4248.717948717949,4617.948717948719,4430.769230769231,4407.6923076923085,4354.358974358975,4707.179487179488,4327.6923076923085,4235.384615384616,4130.256410256411,4576.923076923077
4701.1104,0.43862367,1.0,0.33333334,0.5522388,0,0.0,0.0,0.0,0.0,0.0,0,0,0.0,0.0,0,0,84.0,0.0,515.0,4673.846153846154,3938.9743589743593,4507.179487179488,4393.333333333334,4248.717948717949,4617.948717948719,4430.769230769231,4407.6923076923085,4354.358974358975,4707.179487179488,4327.6923076923085,4235.384615384616,4130.256410256411,4576.923076923077
4701.611,0.4352652,1.0,0.33333334,0.5522388,0,0.0,0.0,0.0,0.0,0.0,0,0,0.0,0.0,0,0,19.0,0.0,0.0,4638.461538461539,3926.666666666667,4503.589743589744,4394.871794871796,4248.717948717949,4624.102564102564,4415.384615384616,4400.512820512821,4364.102564102564,4713.846153846154,4326.666666666667,4223.076923076924,4165.641025641026,4543.076923076924
4701.9546,0.4352652,1.0,0.33333334,0.5522388,0,0.0,0.0,0.0,0.0,0.16965725,0,0,0.0,0.0,0,0,63.0,0.0,0.0,4647.6923076923085,3929.7435897435903,4517.435897435898,4410.256410256411,4257.435897435898,4630.256410256411,4430.769230769231,4422.564102564103,4452.307692307693,4785.641025641026,4348.205128205129,4237.948717948719,4221.025641025642,4566.666666666667
4702.205,0.38668922,1.0,0.33333334,0.5522388,0,0.0,1.0,0.0,0.0,0.0,0,0,0.0,0.0,0,0,95.0,0.0,471.0,4631.794871794872,3927.692307692308,4521.025641025642,4410.256410256411,4263.076923076924,4640.000000000001,4424.102564102564,4437.948717948719,4543.076923076924,4864.102564102564,4384.102564102564,4238.974358974359,4296.410256410257,4579.48717948718
4702.205,0.38668922,1.0,0.33333334,0.5522388,0,0.0,1.0,0.0,0.0,0.0,0,0,0.0,0.0,0,0,95.0,0.0,471.0,4631.794871794872,3927.692307692308,4521.025641025642,4410.256410256411,4263.076923076924,4640.000000000001,4424.102564102564,4437.948717948719,4543.076923076924,4864.102564102564,4384.102564102564,4238.974358974359,4296.410256410257,4579.48717948718
4702.612,0.3666882,1.0,0.33333334,0.5522388,0,0.0,1.0,0.0,0.0,0.0,0,0,0.0,0.0,0,0,18.0,0.0,0.0,4631.794871794872,3927.692307692308,4513.333333333334,4412.820512820514,4257.948717948719,4637.435897435898,4422.051282051282,4438.461538461539,4540.512820512821,4868.205128205129,4390.769230769231,4238.461538461539,4297.948717948719,4594.871794871796
4702.8306,0.3666882,1.0,0.33333334,0.5522388,0,0.0,0.0,0.0,0.0,0.0,0,0,0.0,0.0,0,0,46.0,0.0,0.0,4585.128205128206,3921.538461538462,4519.48717948718,4410.769230769231,4263.076923076924,4643.076923076924,4409.743589743591,4461.538461538462,4657.948717948719,4974.871794871796,4446.153846153847,4230.769230769231,4412.820512820514,4587.179487179488
4703.1123,0.3143112,1.0,0.33333334,0.5522388,0,0.0,0.0,0.0,0.0,0.0,0,0,0.0,0.0,0,0,82.0,0.0,1377.0,4553.333333333334,3925.1282051282055,4524.102564102564,4411.282051282052,4261.538461538462,4643.076923076924,4364.102564102564,4520.000000000001,4895.8974358974365,5189.743589743591,4556.923076923077,4228.717948717949,4635.384615384616,4577.435897435898
4703.1123,0.3143112,1.0,0.33333334,0.5522388,0,0.0,0.0,0.0,0.0,0.0,0,0,0.0,0.0,0,0,82.0,0.0,1377.0,4553.333333333334,3925.1282051282055,4524.102564102564,4411.282051282052,4261.538461538462,4643.076923076924,4364.102564102564,4520.000000000001,4895.8974358974365,5189.743589743591,4556.923076923077,4228.717948717949,4635.384615384616,4577.435897435898
4703.6123,0.2545656,1.0,0.33333334,0.5522388,0,0.0,0.0,0.0,0.0,0.0,0,0,0.0,0.0,0,0,17.0,0.0,0.0,4438.974358974359,3907.1794871794878,4535.8974358974365,4413.333333333334,4294.871794871796,4678.974358974359,4294.871794871796,4583.589743589744,5117.435897435898,5405.128205128206,4725.641025641026,4200.512820512821,4878.461538461539,4481.025641025642
4703.9565,0.2545656,1.0,0.33333334,0.5522388,0,0.0,0.0,0.0,0.0,0.0,0,0,0.0,0.0,0,0,61.0,0.0,0.0,4440.000000000001,3893.8461538461543,4528.717948717949,4420.512820512821,4296.410256410257,4687.179487179488,4294.871794871796,4605.128205128206,5071.282051282052,5374.358974358975,4765.128205128206,4199.48717948718,4852.307692307693,4434.358974358975
4704.113,0.27290648,1.0,0.33333334,0.5522388,0,0.0,0.0,0.0,0.0,0.0,0,0,0.0,0.0,0,0,81.0,0.0,272.0,4481.025641025642,3885.1282051282055,4521.025641025642,4424.102564102564,4291.282051282052,4677.948717948719,4310.256410256411,4614.358974358975,5054.358974358975,5371.282051282052,4771.794871794872,4212.820512820514,4826.153846153847,4438.974358974359
4704.113,0.27290648,1.0,0.33333334,0.5522388,0,0.0,0.0,0.0,0.0,0.0,0,0,0.0,0.0,0,0,81.0,0.0,272.0,4481.025641025642,3885.1282051282055,4521.025641025642,4424.102564102564,4291.282051282052,4677.948717948719,4310.256410256411,4614.358974358975,5054.358974358975,5371.282051282052,4771.794871794872,4212.820512820514,4826.153846153847,4438.974358974359
4704.707,0.26363277,1.0,0.33333334,0.5522388,0,0.0,1.0,0.0,0.0,0.0,0,0,0.0,0.0,0,1,28.0,0.0,0.0,4587.179487179488,3912.307692307693,4518.974358974359,4427.179487179487,4276.923076923077,4670.769230769231,4332.307692307693,4591.794871794872,4776.410256410257,5133.333333333334,4692.820512820514,4212.307692307693,4564.615384615385,4461.538461538462
4705.02,0.26363277,1.0,0.33333334,0.5522388,0,0.0,0.9432206,0.0,0.0,0.0,0,0,0.0,0.0,0,0,68.0,0.0,580.0,4587.6923076923085,3910.2564102564106,4506.153846153847,4429.2307692307695,4267.179487179487,4656.923076923077,4348.717948717949,4555.8974358974365,4531.282051282052,4921.025641025642,4608.717948717949,4204.615384615385,4358.974358974359,4456.923076923077
4705.114,0.2700154,1.0,0.33333334,0.5522388,0,0.0,1.0,0.0,0.0,0.0,0,0,0.0,0.0,0,0,80.0,0.0,503.0,4616.923076923077,3914.8717948717954,4507.179487179488,4432.820512820514,4268.205128205129,4655.384615384616,4360.512820512821,4555.8974358974365,4513.846153846154,4902.051282051283,4592.307692307693,4205.641025641026,4336.923076923077,4459.48717948718
4705.458,0.2700154,1.0,0.33333334,0.5522388,0,0.0,0.69523567,0.0,0.0,0.0,0,0,0.0,0.0,0,0,124.0,0.0,503.0,4653.333333333334,3928.205128205129,4514.871794871796,4445.641025641026,4263.076923076924,4646.666666666667,4393.333333333334,4553.846153846154,4510.256410256411,4881.025641025642,4567.6923076923085,4213.846153846154,4304.102564102564,4495.384615384616
4705.6143,0.2253843,1.0,0.33333334,0.5522388,0,0.0,1.0,0.0,0.0,0.0,0,0,0.0,0.0,0,0,15.0,0.0,474.0,4628.205128205129,3922.0512820512827,4506.666666666667,4442.564102564103,4263.589743589744,4646.666666666667,4392.820512820514,4533.846153846154,4375.8974358974365,4767.179487179488,4523.076923076924,4214.358974358975,4212.820512820514,4491.794871794872
4705.9585,0.2253843,1.0,0.33333334,0.5522388,0,0.0,0.94239223,0.0,0.0,0.0,0,0,0.0,0.0,0,0,59.0,0.0,0.0,4647.6923076923085,3927.692307692308,4506.666666666667,4438.461538461539,4262.564102564103,4634.358974358975,4413.846153846154,4511.282051282052,4286.666666666667,4680.000000000001,4463.076923076924,4217.948717948719,4128.717948717949,4500.512820512821
4706.2085,0.21568482,1.0,0.33333334,0.5522388,0,0.0,0.0,0.0,0.0,0.0,0,0,0.0,0.0,0,0,91.0,0.0,474.0,4685.128205128206,3926.666666666667,4504.615384615385,4435.8974358974365,4261.538461538462,4630.256410256411,4427.6923076923085,4499.48717948718,4244.615384615385,4633.333333333334,4426.153846153847,4225.128205128206,4084.1025641025644,4503.076923076924
4706.2085,0.21568482,1.0,0.33333334,0.5522388,0,0.0,0.0,0.0,0.0,0.0,0,0,0.0,0.0,0,0,91.0,0.0,474.0,4685.128205128206,3926.666666666667,4504.615384615385,4435.8974358974365,4261.538461538462,4630.256410256411,4427.6923076923085,4499.48717948718,4244.615384615385,4633.333333333334,4426.153846153847,4225.128205128206,4084.1025641025644,4503.076923076924
4706.615,0.21025535,1.0,0.33333334,0.5522388,0,0.0,0.0,0.0,0.0,0.0,0,0,0.0,0.0,0,0,14.0,0.0,1397.0,4682.564102564103,3938.9743589743593,4508.205128205129,4444.615384615385,4268.205128205129,4642.564102564103,4443.076923076924,4485.641025641026,4209.2307692307695,4589.743589743591,4372.307692307693,4232.307692307693,4038.461538461539,4522.051282051282
4706.959,0.21025535,1.0,0.33333334,0.5522388,0,0.0,1.0,0.0,0.0,0.0,0,0,0.0,0.0,0,0,58.0,0.0,0.0,4683.589743589744,3926.666666666667,4505.128205128206,4442.564102564103,4261.538461538462,4633.846153846154,4441.025641025642,4460.512820512821,4141.025641025642,4525.128205128206,4329.743589743591,4227.6923076923085,3990.2564102564106,4529.743589743591
4707.1157,0.30187804,1.0,0.33333334,0.5522388,0,0.0,1.0,0.0,0.0,0.0,0,0,0.0,0.0,0,0,78.0,0.0,1398.0,4668.205128205129,3928.205128205129,4509.2307692307695,4441.025641025642,4262.564102564103,4634.871794871796,4444.615384615385,4465.641025641026,4184.615384615385,4555.384615384616,4331.794871794872,4240.000000000001,4025.6410256410263,4549.2307692307695
4707.4595,0.30187804,1.0,0.33333334,0.5522388,0,0.0,0.9683645,0.0,0.0,0.0,0,0,0.0,0.0,0,0,122.0,0.0,1398.0,4678.974358974359,3944.615384615385,4508.205128205129,4445.641025641026,4249.74358974359,4632.820512820514,4457.435897435898,4448.205128205129,4178.974358974359,4550.256410256411,4295.8974358974365,4235.384615384616,4007.692307692308,4563.076923076924
4707.6157,0.3771184,1.0,0.33333334,0.5522388,0,0.0,1.0,0.0,0.0,0.0,0,0,0.0,0.0,0,0,13.0,0.0,272.0,4662.564102564103,3929.2307692307695,4508.717948717949,4441.025641025642,4249.2307692307695,4627.6923076923085,4452.307692307693,4428.205128205129,4065.6410256410263,4448.717948717949,4255.8974358974365,4233.846153846154,3933.8461538461543,4544.615384615385
4707.6157,0.3771184,1.0,0.33333334,0.5522388,0,0.0,1.0,0.0,0.0,0.0,0,0,0.0,0.0,0,0,13.0,0.0,272.0,4662.564102564103,3929.2307692307695,4508.717948717949,4441.025641025642,4249.2307692307695,4627.6923076923085,4452.307692307693,4428.205128205129,4065.6410256410263,4448.717948717949,4255.8974358974365,4233.846153846154,3933.8461538461543,4544.615384615385
4708.116,0.5089218,1.0,0.33333334,0.5522388,0,0.0,1.0,0.0,0.0,0.0,0,0,0.0,0.0,0,0,77.0,0.0,272.0,4688.717948717949,3942.0512820512827,4508.717948717949,4423.589743589744,4234.871794871796,4616.410256410257,4458.461538461539,4422.564102564103,4165.641025641026,4521.538461538462,4238.461538461539,4244.615384615385,3994.358974358975,4577.948717948719
4708.116,0.5089218,1.0,0.33333334,0.5522388,0,0.0,1.0,0.0,0.0,0.0,0,0,0.0,0.0,0,0,77.0,0.0,272.0,4688.717948717949,3942.0512820512827,4508.717948717949,4423.589743589744,4234.871794871796,4616.410256410257,4458.461538461539,4422.564102564103,4165.641025641026,4521.538461538462,4238.461538461539,4244.615384615385,3994.358974358975,4577.948717948719
4708.6167,0.5595943,1.0,0.33333334,0.5522388,0,0.0,1.0,0.0,0.0,0.0,0,0,0.0,0.0,0,0,12.0,0.0,517.0,4672.820512820514,3928.717948717949,4510.769230769231,4412.820512820514,4234.871794871796,4607.179487179488,4459.48717948718,4442.051282051282,4389.2307692307695,4709.2307692307695,4297.948717948719,4248.717948717949,4176.410256410257,4617.435897435898
4708.6167,0.5595943,1.0,0.33333334,0.5522388,0,0.0,1.0,0.0,0.0,0.0,0,0,0.0,0.0,0,0,12.0,0.0,517.0,4672.820512820514,3928.717948717949,4510.769230769231,4412.820512820514,4234.871794871796,4607.179487179488,4459.48717948718,4442.051282051282,4389.2307692307695,4709.2307692307695,4297.948717948719,4248.717948717949,4176.410256410257,4617.435897435898
4709.211,0.46256012,1.0,0.33333334,0.5522388,0,0.0,0.8192517,0.0,0.0,0.0,0,0,0.0,0.0,0,0,88.0,0.0,512.0,4579.48717948718,3913.333333333334,4518.461538461539,4406.666666666667,4237.435897435898,4604.102564102564,4389.743589743591,4511.794871794872,4770.256410256411,5055.384615384616,4480.000000000001,4244.102564102564,4538.461538461539,4562.564102564103
4709.4614,0.46256012,1.0,0.33333334,0.5522388,0,0.0,0.0,0.0,0.0,0.27056658,0,0,0.0,0.0,0,0,120.0,0.0,512.0,4573.333333333334,3910.2564102564106,4523.589743589744,4399.48717948718,4244.102564102564,4602.051282051282,4379.48717948718,4552.820512820514,4950.256410256411,5227.179487179488,4569.2307692307695,4244.102564102564,4696.410256410257,4541.025641025642
4709.7114,0.37810937,1.0,0.33333334,0.5522388,0,0.0,0.0,0.0,0.0,0.0,0,0,0.0,0.0,0,0,23.0,0.0,0.0,4551.794871794872,3911.7948717948725,4524.615384615385,4412.820512820514,4240.000000000001,4597.948717948719,4368.717948717949,4576.923076923077,5018.974358974359,5298.461538461539,4632.820512820514,4246.153846153847,4764.102564102564,4513.333333333334
4709.7114,0.37810937,1.0,0.33333334,0.5522388,0,0.0,0.0,0.0,0.0,0.0,0,0,0.0,0.0,0,0,23.0,0.0,0.0,4551.794871794872,3911.7948717948725,4524.615384615385,4412.820512820514,4240.000000000001,4597.948717948719,4368.717948717949,4576.923076923077,5018.974358974359,5298.461538461539,4632.820512820514,4246.153846153847,4764.102564102564,4513.333333333334
4710.118,0.506935,1.0,0.33333334,0.5522388,0,0.0,0.0,0.0,0.0,0.0,0,0,0.0,0.0,0,0,75.0,0.0,474.0,4539.48717948718,3911.7948717948725,4513.846153846154,4411.282051282052,4237.435897435898,4587.179487179488,4363.076923076924,4550.256410256411,4724.615384615386,5052.820512820514,4583.589743589744,4220.512820512821,4543.589743589744,4496.410256410257
4710.462,0.506935,1.0,0.33333334,0.5522388,0,0.0,0.0,0.0,0.0,0.23141669,0,0,0.0,0.0,0,0,119.0,0.0,474.0,4573.333333333334,3914.358974358975,4504.102564102564,4406.666666666667,4231.282051282052,4579.48717948718,4362.564102564103,4531.282051282052,4581.538461538462,4935.8974358974365,4540.512820512821,4222.051282051282,4407.179487179487,4514.871794871796
4710.7124,0.5026587,1.0,0.33333334,0.5522388,0,0.0,0.0,0.0,0.0,0.18565264,0,0,0.0,0.0,0,0,22.0,0.0,0.0,4597.948717948719,3915.3846153846157,4504.615384615385,4409.743589743591,4230.769230769231,4573.846153846154,4373.333333333334,4521.025641025642,4483.589743589744,4853.333333333334,4510.256410256411,4222.564102564103,4324.615384615385,4486.153846153847
4710.9624,0.5026587,1.0,0.33333334,0.5522388,0,0.0,1.0,0.0,0.0,0.0,0,0,0.0,0.0,0,0,54.0,0.0,0.0,4621.025641025642,3916.9230769230776,4504.615384615385,4410.769230769231,4232.307692307693,4572.820512820514,4376.923076923077,4516.410256410257,4445.128205128206,4811.794871794872,4482.051282051282,4231.794871794872,4281.538461538462,4468.205128205129
4711.119,0.5353318,1.0,0.33333334,0.5522388,0,0.0,1.0,0.0,0.0,0.0,0,0,0.0,0.0,0,0,74.0,0.0,1400.0,4583.076923076924,3915.3846153846157,4503.589743589744,4412.307692307693,4225.128205128206,4571.794871794872,4375.384615384616,4478.461538461539,4234.871794871796,4623.589743589744,4413.846153846154,4211.282051282052,4131.794871794872,4434.871794871796
